Data from 1966.PennyLincolnUp.Lamp.En5.5.200Scan.071719.P1.Scan2.head_HRD10591_14-16-48-057.txt Node
Date: Thu Jul 18 14:16:48 EDT 2019
User: cochatt
Spectrometer: HR+D1059
Trigger mode: 1
Integration Time (sec): 1.000000E-1
Scans to average: 1
Electric dark correction enabled: true
Nonlinearity correction enabled: false
Boxcar width: 0
XAxis mode: Wavelengths
Number of Pixels in Spectrum: 2048
>>>>>Begin Spectral Data<<<<<
223.165	-19.56
223.4	-19.56
223.635	-19.56
223.869	-11.56
224.104	-11.56
224.338	-10.56
224.573	-11.56
224.808	-2.56
225.042	-14.56
225.277	-10.56
225.511	-10.56
225.746	6.44
225.98	5.44
226.215	-8.56
226.449	20.44
226.683	22.44
226.918	31.44
227.152	25.44
227.387	32.44
227.621	51.44
227.856	45.44
228.09	62.44
228.324	54.44
228.559	58.44
228.793	82.44
229.027	101.44
229.262	115.44
229.496	104.44
229.73	116.44
229.964	157.44
230.199	116.44
230.433	105.44
230.667	118.44
230.901	103.44
231.136	112.44
231.37	105.44
231.604	110.44
231.838	120.44
232.072	106.44
232.306	111.44
232.541	117.44
232.775	108.44
233.009	116.44
233.243	103.44
233.477	102.44
233.711	107.44
233.945	106.44
234.179	97.44
234.413	124.44
234.647	109.44
234.881	124.44
235.115	109.44
235.349	125.44
235.583	112.44
235.817	139.44
236.051	109.44
236.285	121.44
236.519	126.44
236.753	124.44
236.987	140.44
237.221	163.44
237.455	198.44
237.689	174.44
237.922	155.44
238.156	127.44
238.39	121.44
238.624	105.44
238.858	115.44
239.091	135.44
239.325	124.44
239.559	115.44
239.793	121.44
240.027	143.44
240.26	120.44
240.494	143.44
240.728	164.44
240.961	134.44
241.195	143.44
241.429	141.44
241.662	132.44
241.896	133.44
242.13	133.44
242.363	137.44
242.597	133.44
242.83	136.44
243.064	137.44
243.298	144.44
243.531	125.44
243.765	137.44
243.998	129.44
244.232	131.44
244.465	131.44
244.699	141.44
244.932	165.44
245.166	131.44
245.399	124.44
245.633	127.44
245.866	143.44
246.099	137.44
246.333	133.44
246.566	150.44
246.8	159.44
247.033	158.44
247.266	146.44
247.5	139.44
247.733	176.44
247.966	174.44
248.2	161.44
248.433	168.44
248.666	157.44
248.899	161.44
249.133	181.44
249.366	192.44
249.599	172.44
249.832	200.44
250.066	160.44
250.299	167.44
250.532	165.44
250.765	197.44
250.998	220.44
251.231	211.44
251.465	192.44
251.698	194.44
251.931	191.44
252.164	198.44
252.397	192.44
252.63	204.44
252.863	211.44
253.096	217.44
253.329	225.44
253.562	205.44
253.795	217.44
254.028	211.44
254.261	207.44
254.494	209.44
254.727	232.44
254.96	251.44
255.193	236.44
255.426	243.44
255.659	225.44
255.892	219.44
256.124	210.44
256.357	231.44
256.59	210.44
256.823	191.44
257.056	200.44
257.289	201.44
257.521	187.44
257.754	193.44
257.987	194.44
258.22	197.44
258.452	196.44
258.685	200.44
258.918	199.44
259.151	211.44
259.383	196.44
259.616	202.44
259.849	225.44
260.081	221.44
260.314	236.44
260.547	229.44
260.779	217.44
261.012	227.44
261.244	209.44
261.477	209.44
261.71	211.44
261.942	211.44
262.175	227.44
262.407	222.44
262.64	223.44
262.872	212.44
263.105	197.44
263.337	197.44
263.57	206.44
263.802	203.44
264.035	207.44
264.267	215.44
264.499	212.44
264.732	197.44
264.964	205.44
265.197	211.44
265.429	209.44
265.661	215.44
265.894	200.44
266.126	205.44
266.358	207.44
266.591	215.44
266.823	207.44
267.055	221.44
267.287	227.44
267.52	210.44
267.752	222.44
267.984	208.44
268.216	231.44
268.448	215.44
268.681	227.44
268.913	233.44
269.145	253.44
269.377	256.44
269.609	249.44
269.841	243.44
270.073	256.44
270.306	257.44
270.538	281.44
270.77	293.44
271.002	271.44
271.234	265.44
271.466	283.44
271.698	272.44
271.93	287.44
272.162	295.44
272.394	294.44
272.626	280.44
272.858	267.44
273.09	250.44
273.322	261.44
273.553	237.44
273.785	250.44
274.017	261.44
274.249	245.44
274.481	235.44
274.713	247.44
274.945	257.44
275.176	244.44
275.408	252.44
275.64	239.44
275.872	259.44
276.104	251.44
276.335	263.44
276.567	255.44
276.799	278.44
277.031	281.44
277.262	313.44
277.494	287.44
277.726	263.44
277.957	265.44
278.189	260.44
278.421	252.44
278.652	268.44
278.884	250.44
279.115	279.44
279.347	261.44
279.579	258.44
279.81	254.44
280.042	244.44
280.273	251.44
280.505	248.44
280.736	259.44
280.968	271.44
281.199	267.44
281.431	259.44
281.662	254.44
281.894	249.44
282.125	262.44
282.356	272.44
282.588	294.44
282.819	299.44
283.051	263.44
283.282	271.44
283.513	266.44
283.745	260.44
283.976	282.44
284.207	263.44
284.439	268.44
284.67	259.44
284.901	267.44
285.132	255.44
285.364	289.44
285.595	264.44
285.826	246.44
286.057	276.44
286.288	266.44
286.52	265.44
286.751	265.44
286.982	273.44
287.213	292.44
287.444	265.44
287.675	281.44
287.906	272.44
288.138	267.44
288.369	273.44
288.6	301.44
288.831	308.44
289.062	267.44
289.293	272.44
289.524	271.44
289.755	284.44
289.986	274.44
290.217	280.44
290.448	269.44
290.679	288.44
290.91	279.44
291.141	273.44
291.371	271.44
291.602	292.44
291.833	299.44
292.064	287.44
292.295	282.44
292.526	282.44
292.757	257.44
292.987	278.44
293.218	263.44
293.449	298.44
293.68	313.44
293.91	289.44
294.141	283.44
294.372	287.44
294.603	273.44
294.833	294.44
295.064	294.44
295.295	272.44
295.525	281.44
295.756	317.44
295.987	301.44
296.217	285.44
296.448	317.44
296.679	287.44
296.909	288.44
297.14	290.44
297.37	285.44
297.601	277.44
297.831	287.44
298.062	272.44
298.292	292.44
298.523	318.44
298.753	318.44
298.984	277.44
299.214	300.44
299.445	296.44
299.675	289.44
299.905	288.44
300.136	301.44
300.366	300.44
300.597	307.44
300.827	295.44
301.057	313.44
301.288	316.44
301.518	316.44
301.748	310.44
301.979	288.44
302.209	312.44
302.439	297.44
302.669	307.44
302.9	309.44
303.13	318.44
303.36	315.44
303.59	299.44
303.82	326.44
304.051	321.44
304.281	309.44
304.511	312.44
304.741	309.44
304.971	318.44
305.201	307.44
305.431	304.44
305.661	302.44
305.891	320.44
306.121	327.44
306.352	317.44
306.582	321.44
306.812	320.44
307.042	312.44
307.272	316.44
307.502	321.44
307.731	340.44
307.961	327.44
308.191	331.44
308.421	331.44
308.651	328.44
308.881	341.44
309.111	341.44
309.341	327.44
309.571	331.44
309.8	333.44
310.03	355.44
310.26	352.44
310.49	341.44
310.72	364.44
310.949	361.44
311.179	358.44
311.409	361.44
311.639	371.44
311.868	357.44
312.098	351.44
312.328	354.44
312.557	363.44
312.787	369.44
313.017	362.44
313.246	377.44
313.476	365.44
313.706	349.44
313.935	364.44
314.165	355.44
314.394	371.44
314.624	375.44
314.853	348.44
315.083	358.44
315.312	353.44
315.542	369.44
315.771	349.44
316.001	344.44
316.23	363.44
316.46	347.44
316.689	347.44
316.919	363.44
317.148	348.44
317.377	360.44
317.607	360.44
317.836	364.44
318.065	344.44
318.295	346.44
318.524	360.44
318.753	367.44
318.983	364.44
319.212	379.44
319.441	377.44
319.67	381.44
319.9	359.44
320.129	367.44
320.358	348.44
320.587	368.44
320.816	359.44
321.046	359.44
321.275	376.44
321.504	385.44
321.733	394.44
321.962	391.44
322.191	399.44
322.42	412.44
322.649	410.44
322.878	405.44
323.108	422.44
323.337	431.44
323.566	402.44
323.795	463.44
324.024	491.44
324.253	583.44
324.482	796.44
324.71	1233.44
324.939	1861.44
325.168	1591.44
325.397	783.44
325.626	558.44
325.855	492.44
326.084	451.44
326.313	447.44
326.542	429.44
326.77	487.44
326.999	553.44
327.228	747.44
327.457	1125.44
327.686	1403.44
327.914	885.44
328.143	598.44
328.372	545.44
328.6	523.44
328.829	474.44
329.058	489.44
329.287	501.44
329.515	483.44
329.744	452.44
329.972	459.44
330.201	459.44
330.43	494.44
330.658	517.44
330.887	526.44
331.115	507.44
331.344	470.44
331.572	439.44
331.801	463.44
332.03	443.44
332.258	452.44
332.486	403.44
332.715	412.44
332.943	438.44
333.172	466.44
333.4	428.44
333.629	426.44
333.857	468.44
334.085	458.44
334.314	441.44
334.542	494.44
334.771	503.44
334.999	464.44
335.227	467.44
335.455	441.44
335.684	455.44
335.912	456.44
336.14	449.44
336.369	429.44
336.597	443.44
336.825	447.44
337.053	405.44
337.281	424.44
337.51	444.44
337.738	437.44
337.966	430.44
338.194	420.44
338.422	437.44
338.65	427.44
338.878	407.44
339.106	425.44
339.334	406.44
339.562	415.44
339.79	432.44
340.018	420.44
340.246	440.44
340.474	400.44
340.702	423.44
340.93	409.44
341.158	398.44
341.386	421.44
341.614	413.44
341.842	411.44
342.07	408.44
342.298	412.44
342.526	428.44
342.754	393.44
342.981	395.44
343.209	416.44
343.437	433.44
343.665	436.44
343.893	437.44
344.12	425.44
344.348	443.44
344.576	452.44
344.804	423.44
345.031	437.44
345.259	432.44
345.487	439.44
345.714	416.44
345.942	400.44
346.17	405.44
346.397	407.44
346.625	395.44
346.853	401.44
347.08	392.44
347.308	399.44
347.535	421.44
347.763	419.44
347.99	395.44
348.218	402.44
348.445	398.44
348.673	419.44
348.9	401.44
349.128	420.44
349.355	387.44
349.583	405.44
349.81	399.44
350.037	380.44
350.265	393.44
350.492	405.44
350.72	399.44
350.947	393.44
351.174	417.44
351.402	430.44
351.629	425.44
351.856	401.44
352.083	409.44
352.311	427.44
352.538	431.44
352.765	426.44
352.992	407.44
353.22	397.44
353.447	379.44
353.674	414.44
353.901	406.44
354.128	402.44
354.355	404.44
354.583	411.44
354.81	411.44
355.037	392.44
355.264	365.44
355.491	384.44
355.718	381.44
355.945	399.44
356.172	382.44
356.399	395.44
356.626	380.44
356.853	393.44
357.08	381.44
357.307	389.44
357.534	405.44
357.761	379.44
357.988	376.44
358.215	375.44
358.441	396.44
358.668	391.44
358.895	411.44
359.122	406.44
359.349	407.44
359.576	391.44
359.802	443.44
360.029	450.44
360.256	458.44
360.483	447.44
360.709	427.44
360.936	431.44
361.163	400.44
361.39	407.44
361.616	408.44
361.843	393.44
362.07	409.44
362.296	398.44
362.523	393.44
362.749	412.44
362.976	403.44
363.203	409.44
363.429	400.44
363.656	389.44
363.882	389.44
364.109	385.44
364.335	396.44
364.562	389.44
364.788	388.44
365.015	394.44
365.241	379.44
365.468	398.44
365.694	419.44
365.92	408.44
366.147	407.44
366.373	413.44
366.599	392.44
366.826	396.44
367.052	387.44
367.278	401.44
367.505	404.44
367.731	401.44
367.957	415.44
368.184	411.44
368.41	398.44
368.636	416.44
368.862	413.44
369.089	420.44
369.315	410.44
369.541	427.44
369.767	397.44
369.993	414.44
370.219	411.44
370.445	388.44
370.672	393.44
370.898	420.44
371.124	406.44
371.35	392.44
371.576	412.44
371.802	439.44
372.028	417.44
372.254	408.44
372.48	398.44
372.706	429.44
372.932	408.44
373.158	430.44
373.384	416.44
373.61	405.44
373.835	419.44
374.061	409.44
374.287	409.44
374.513	410.44
374.739	416.44
374.965	418.44
375.191	427.44
375.416	414.44
375.642	418.44
375.868	429.44
376.094	412.44
376.319	398.44
376.545	399.44
376.771	409.44
376.997	433.44
377.222	418.44
377.448	395.44
377.674	403.44
377.899	402.44
378.125	401.44
378.35	407.44
378.576	396.44
378.802	422.44
379.027	410.44
379.253	397.44
379.478	412.44
379.704	430.44
379.929	425.44
380.155	412.44
380.38	426.44
380.606	430.44
380.831	438.44
381.057	424.44
381.282	426.44
381.507	400.44
381.733	419.44
381.958	415.44
382.184	419.44
382.409	448.44
382.634	427.44
382.86	423.44
383.085	427.44
383.31	438.44
383.535	422.44
383.761	444.44
383.986	435.44
384.211	438.44
384.436	441.44
384.662	459.44
384.887	459.44
385.112	441.44
385.337	452.44
385.562	443.44
385.787	456.44
386.013	461.44
386.238	458.44
386.463	447.44
386.688	460.44
386.913	439.44
387.138	455.44
387.363	472.44
387.588	445.44
387.813	459.44
388.038	457.44
388.263	465.44
388.488	473.44
388.713	459.44
388.938	469.44
389.163	476.44
389.387	458.44
389.612	468.44
389.837	463.44
390.062	466.44
390.287	477.44
390.512	462.44
390.736	449.44
390.961	496.44
391.186	456.44
391.411	478.44
391.636	477.44
391.86	488.44
392.085	493.44
392.31	465.44
392.534	486.44
392.759	460.44
392.984	477.44
393.208	488.44
393.433	503.44
393.658	494.44
393.882	472.44
394.107	478.44
394.331	473.44
394.556	475.44
394.78	462.44
395.005	462.44
395.229	480.44
395.454	462.44
395.678	497.44
395.903	495.44
396.127	497.44
396.352	547.44
396.576	498.44
396.801	492.44
397.025	505.44
397.249	521.44
397.474	501.44
397.698	500.44
397.922	504.44
398.147	546.44
398.371	545.44
398.595	524.44
398.82	539.44
399.044	527.44
399.268	540.44
399.492	580.44
399.717	647.44
399.941	650.44
400.165	650.44
400.389	708.44
400.613	630.44
400.837	571.44
401.062	550.44
401.286	547.44
401.51	539.44
401.734	528.44
401.958	549.44
402.182	563.44
402.406	563.44
402.63	560.44
402.854	538.44
403.078	555.44
403.302	526.44
403.526	556.44
403.75	566.44
403.974	549.44
404.198	541.44
404.422	567.44
404.645	579.44
404.869	576.44
405.093	599.44
405.317	641.44
405.541	652.44
405.765	623.44
405.988	557.44
406.212	592.44
406.436	612.44
406.66	606.44
406.883	590.44
407.107	622.44
407.331	660.44
407.555	727.44
407.778	723.44
408.002	662.44
408.226	627.44
408.449	593.44
408.673	601.44
408.896	637.44
409.12	661.44
409.344	639.44
409.567	567.44
409.791	556.44
410.014	565.44
410.238	559.44
410.461	566.44
410.685	559.44
410.908	605.44
411.132	620.44
411.355	648.44
411.578	599.44
411.802	572.44
412.025	577.44
412.249	565.44
412.472	602.44
412.695	635.44
412.919	625.44
413.142	560.44
413.365	564.44
413.589	539.44
413.812	551.44
414.035	556.44
414.258	520.44
414.482	530.44
414.705	551.44
414.928	524.44
415.151	538.44
415.374	539.44
415.597	517.44
415.821	531.44
416.044	538.44
416.267	530.44
416.49	523.44
416.713	519.44
416.936	518.44
417.159	513.44
417.382	518.44
417.605	523.44
417.828	520.44
418.051	543.44
418.274	537.44
418.497	526.44
418.72	546.44
418.943	529.44
419.166	569.44
419.389	589.44
419.611	573.44
419.834	560.44
420.057	571.44
420.28	551.44
420.503	523.44
420.726	536.44
420.948	563.44
421.171	603.44
421.394	592.44
421.617	573.44
421.839	569.44
422.062	534.44
422.285	547.44
422.507	615.44
422.73	696.44
422.953	670.44
423.175	603.44
423.398	592.44
423.621	568.44
423.843	595.44
424.066	613.44
424.288	597.44
424.511	595.44
424.733	666.44
424.956	745.44
425.178	693.44
425.401	680.44
425.623	730.44
425.846	640.44
426.068	596.44
426.291	571.44
426.513	567.44
426.735	575.44
426.958	625.44
427.18	708.44
427.402	855.44
427.625	917.44
427.847	789.44
428.069	706.44
428.292	606.44
428.514	565.44
428.736	535.44
428.958	564.44
429.181	539.44
429.403	538.44
429.625	535.44
429.847	582.44
430.069	637.44
430.292	633.44
430.514	574.44
430.736	551.44
430.958	552.44
431.18	523.44
431.402	513.44
431.624	521.44
431.846	519.44
432.068	519.44
432.29	517.44
432.512	509.44
432.734	522.44
432.956	515.44
433.178	529.44
433.4	537.44
433.622	523.44
433.844	515.44
434.066	520.44
434.287	506.44
434.509	532.44
434.731	542.44
434.953	528.44
435.175	545.44
435.397	592.44
435.618	597.44
435.84	638.44
436.062	719.44
436.284	775.44
436.505	679.44
436.727	611.44
436.949	579.44
437.17	517.44
437.392	541.44
437.614	548.44
437.835	588.44
438.057	682.44
438.278	786.44
438.5	776.44
438.721	865.44
438.943	805.44
439.165	619.44
439.386	586.44
439.608	580.44
439.829	586.44
440.05	616.44
440.272	671.44
440.493	632.44
440.715	573.44
440.936	553.44
441.158	547.44
441.379	551.44
441.6	552.44
441.822	551.44
442.043	622.44
442.264	685.44
442.486	741.44
442.707	622.44
442.928	593.44
443.149	622.44
443.371	634.44
443.592	641.44
443.813	744.44
444.034	840.44
444.255	688.44
444.476	633.44
444.698	594.44
444.919	585.44
445.14	683.44
445.361	683.44
445.582	617.44
445.803	691.44
446.024	779.44
446.245	793.44
446.466	727.44
446.687	602.44
446.908	593.44
447.129	541.44
447.35	531.44
447.571	547.44
447.792	552.44
448.013	545.44
448.234	564.44
448.455	613.44
448.675	718.44
448.896	842.44
449.117	709.44
449.338	645.44
449.559	777.44
449.779	879.44
450	709.44
450.221	579.44
450.442	537.44
450.662	515.44
450.883	535.44
451.104	549.44
451.324	521.44
451.545	501.44
451.766	503.44
451.986	476.44
452.207	472.44
452.428	465.44
452.648	488.44
452.869	486.44
453.089	492.44
453.31	502.44
453.53	484.44
453.751	473.44
453.971	470.44
454.192	519.44
454.412	483.44
454.633	491.44
454.853	456.44
455.073	464.44
455.294	505.44
455.514	561.44
455.734	554.44
455.955	476.44
456.175	462.44
456.395	461.44
456.616	457.44
456.836	450.44
457.056	472.44
457.276	446.44
457.497	475.44
457.717	473.44
457.937	469.44
458.157	465.44
458.377	460.44
458.598	477.44
458.818	537.44
459.038	632.44
459.258	624.44
459.478	571.44
459.698	529.44
459.918	521.44
460.138	514.44
460.358	529.44
460.578	528.44
460.798	555.44
461.018	569.44
461.238	519.44
461.458	541.44
461.678	511.44
461.898	543.44
462.118	533.44
462.338	587.44
462.558	545.44
462.777	560.44
462.997	594.44
463.217	592.44
463.437	610.44
463.657	593.44
463.876	589.44
464.096	587.44
464.316	582.44
464.536	590.44
464.755	605.44
464.975	578.44
465.195	589.44
465.414	624.44
465.634	609.44
465.854	553.44
466.073	557.44
466.293	532.44
466.512	518.44
466.732	508.44
466.951	505.44
467.171	519.44
467.391	508.44
467.61	509.44
467.829	526.44
468.049	524.44
468.268	512.44
468.488	521.44
468.707	493.44
468.927	494.44
469.146	473.44
469.365	488.44
469.585	504.44
469.804	509.44
470.023	517.44
470.243	508.44
470.462	494.44
470.681	513.44
470.901	513.44
471.12	515.44
471.339	508.44
471.558	500.44
471.777	510.44
471.997	507.44
472.216	516.44
472.435	504.44
472.654	526.44
472.873	515.44
473.092	488.44
473.311	513.44
473.53	504.44
473.749	521.44
473.968	537.44
474.187	637.44
474.406	647.44
474.625	566.44
474.844	519.44
475.063	503.44
475.282	516.44
475.501	529.44
475.72	530.44
475.939	544.44
476.158	530.44
476.377	536.44
476.596	507.44
476.814	535.44
477.033	535.44
477.252	553.44
477.471	530.44
477.69	547.44
477.908	553.44
478.127	566.44
478.346	579.44
478.564	566.44
478.783	559.44
479.002	580.44
479.22	579.44
479.439	601.44
479.658	605.44
479.876	600.44
480.095	623.44
480.313	630.44
480.532	639.44
480.751	617.44
480.969	650.44
481.188	664.44
481.406	666.44
481.624	640.44
481.843	621.44
482.061	601.44
482.28	579.44
482.498	601.44
482.717	614.44
482.935	616.44
483.153	615.44
483.372	605.44
483.59	627.44
483.808	617.44
484.027	600.44
484.245	602.44
484.463	591.44
484.681	609.44
484.9	626.44
485.118	617.44
485.336	617.44
485.554	615.44
485.772	610.44
485.99	639.44
486.209	623.44
486.427	628.44
486.645	660.44
486.863	630.44
487.081	648.44
487.299	643.44
487.517	649.44
487.735	633.44
487.953	643.44
488.171	644.44
488.389	650.44
488.607	646.44
488.825	632.44
489.043	650.44
489.261	645.44
489.479	639.44
489.696	643.44
489.914	655.44
490.132	657.44
490.35	658.44
490.568	669.44
490.786	673.44
491.003	683.44
491.221	677.44
491.439	696.44
491.657	729.44
491.874	725.44
492.092	734.44
492.31	736.44
492.527	715.44
492.745	729.44
492.963	705.44
493.18	740.44
493.398	716.44
493.615	759.44
493.833	751.44
494.05	756.44
494.268	720.44
494.485	747.44
494.703	741.44
494.92	780.44
495.138	753.44
495.355	797.44
495.573	746.44
495.79	757.44
496.008	755.44
496.225	747.44
496.442	752.44
496.66	758.44
496.877	761.44
497.094	783.44
497.312	764.44
497.529	779.44
497.746	805.44
497.963	792.44
498.181	807.44
498.398	813.44
498.615	868.44
498.832	875.44
499.049	892.44
499.267	912.44
499.484	954.44
499.701	1008.44
499.918	1029.44
500.135	1063.44
500.352	1129.44
500.569	1151.44
500.786	1135.44
501.003	1112.44
501.22	1069.44
501.437	1022.44
501.654	1015.44
