Data from 1966.PennyLincolnUp.Lamp.En5.5.200Scan.071719.P1.Scan2.head_HRD10591_14-18-35-200.txt Node
Date: Thu Jul 18 14:18:35 EDT 2019
User: cochatt
Spectrometer: HR+D1059
Trigger mode: 1
Integration Time (sec): 1.000000E-1
Scans to average: 1
Electric dark correction enabled: true
Nonlinearity correction enabled: false
Boxcar width: 0
XAxis mode: Wavelengths
Number of Pixels in Spectrum: 2048
>>>>>Begin Spectral Data<<<<<
223.165	-13.88
223.4	-13.88
223.635	-13.88
223.869	-22.88
224.104	-10.88
224.338	-7.88
224.573	-5.88
224.808	-0.88
225.042	-11.88
225.277	1.12
225.511	9.12
225.746	-10.88
225.98	-7.88
226.215	12.12
226.449	21.12
226.683	9.12
226.918	17.12
227.152	23.12
227.387	23.12
227.621	45.12
227.856	40.12
228.09	37.12
228.324	50.12
228.559	54.12
228.793	63.12
229.027	97.12
229.262	103.12
229.496	114.12
229.73	128.12
229.964	157.12
230.199	134.12
230.433	107.12
230.667	112.12
230.901	120.12
231.136	104.12
231.37	109.12
231.604	113.12
231.838	109.12
232.072	114.12
232.306	116.12
232.541	114.12
232.775	102.12
233.009	119.12
233.243	107.12
233.477	117.12
233.711	130.12
233.945	105.12
234.179	112.12
234.413	118.12
234.647	112.12
234.881	126.12
235.115	135.12
235.349	117.12
235.583	132.12
235.817	117.12
236.051	118.12
236.285	136.12
236.519	111.12
236.753	144.12
236.987	168.12
237.221	192.12
237.455	251.12
237.689	201.12
237.922	145.12
238.156	139.12
238.39	142.12
238.624	142.12
238.858	133.12
239.091	112.12
239.325	128.12
239.559	127.12
239.793	124.12
240.027	148.12
240.26	159.12
240.494	145.12
240.728	146.12
240.961	159.12
241.195	148.12
241.429	139.12
241.662	141.12
241.896	122.12
242.13	141.12
242.363	138.12
242.597	142.12
242.83	152.12
243.064	138.12
243.298	140.12
243.531	158.12
243.765	133.12
243.998	140.12
244.232	127.12
244.465	152.12
244.699	150.12
244.932	152.12
245.166	157.12
245.399	153.12
245.633	156.12
245.866	171.12
246.099	142.12
246.333	145.12
246.566	161.12
246.8	148.12
247.033	171.12
247.266	160.12
247.5	152.12
247.733	188.12
247.966	177.12
248.2	189.12
248.433	169.12
248.666	178.12
248.899	176.12
249.133	205.12
249.366	206.12
249.599	201.12
249.832	200.12
250.066	192.12
250.299	198.12
250.532	196.12
250.765	212.12
250.998	225.12
251.231	223.12
251.465	237.12
251.698	220.12
251.931	205.12
252.164	194.12
252.397	206.12
252.63	201.12
252.863	210.12
253.096	215.12
253.329	243.12
253.562	233.12
253.795	220.12
254.028	218.12
254.261	229.12
254.494	245.12
254.727	253.12
254.96	303.12
255.193	274.12
255.426	253.12
255.659	239.12
255.892	229.12
256.124	229.12
256.357	225.12
256.59	231.12
256.823	220.12
257.056	220.12
257.289	227.12
257.521	227.12
257.754	200.12
257.987	225.12
258.22	228.12
258.452	200.12
258.685	204.12
258.918	207.12
259.151	211.12
259.383	221.12
259.616	226.12
259.849	216.12
260.081	238.12
260.314	250.12
260.547	263.12
260.779	242.12
261.012	246.12
261.244	222.12
261.477	259.12
261.71	229.12
261.942	228.12
262.175	255.12
262.407	241.12
262.64	234.12
262.872	212.12
263.105	224.12
263.337	210.12
263.57	216.12
263.802	229.12
264.035	204.12
264.267	216.12
264.499	224.12
264.732	221.12
264.964	223.12
265.197	209.12
265.429	216.12
265.661	217.12
265.894	225.12
266.126	226.12
266.358	215.12
266.591	238.12
266.823	209.12
267.055	233.12
267.287	234.12
267.52	230.12
267.752	225.12
267.984	228.12
268.216	237.12
268.448	243.12
268.681	239.12
268.913	255.12
269.145	269.12
269.377	286.12
269.609	283.12
269.841	275.12
270.073	283.12
270.306	305.12
270.538	306.12
270.77	323.12
271.002	311.12
271.234	289.12
271.466	292.12
271.698	327.12
271.93	317.12
272.162	306.12
272.394	313.12
272.626	327.12
272.858	276.12
273.09	294.12
273.322	280.12
273.553	269.12
273.785	265.12
274.017	264.12
274.249	252.12
274.481	270.12
274.713	279.12
274.945	284.12
275.176	271.12
275.408	260.12
275.64	273.12
275.872	272.12
276.104	274.12
276.335	287.12
276.567	265.12
276.799	296.12
277.031	299.12
277.262	326.12
277.494	324.12
277.726	308.12
277.957	285.12
278.189	304.12
278.421	275.12
278.652	277.12
278.884	266.12
279.115	274.12
279.347	277.12
279.579	279.12
279.81	288.12
280.042	285.12
280.273	278.12
280.505	285.12
280.736	255.12
280.968	291.12
281.199	272.12
281.431	285.12
281.662	280.12
281.894	261.12
282.125	268.12
282.356	293.12
282.588	295.12
282.819	315.12
283.051	299.12
283.282	282.12
283.513	282.12
283.745	302.12
283.976	286.12
284.207	274.12
284.439	278.12
284.67	284.12
284.901	286.12
285.132	280.12
285.364	280.12
285.595	293.12
285.826	289.12
286.057	290.12
286.288	296.12
286.52	298.12
286.751	286.12
286.982	289.12
287.213	292.12
287.444	313.12
287.675	298.12
287.906	301.12
288.138	312.12
288.369	312.12
288.6	311.12
288.831	301.12
289.062	311.12
289.293	292.12
289.524	288.12
289.755	326.12
289.986	298.12
290.217	297.12
290.448	289.12
290.679	286.12
290.91	300.12
291.141	288.12
291.371	297.12
291.602	291.12
291.833	289.12
292.064	300.12
292.295	308.12
292.526	297.12
292.757	268.12
292.987	289.12
293.218	277.12
293.449	290.12
293.68	293.12
293.91	313.12
294.141	314.12
294.372	297.12
294.603	326.12
294.833	308.12
295.064	310.12
295.295	306.12
295.525	295.12
295.756	316.12
295.987	314.12
296.217	322.12
296.448	351.12
296.679	313.12
296.909	311.12
297.14	321.12
297.37	317.12
297.601	320.12
297.831	303.12
298.062	311.12
298.292	306.12
298.523	303.12
298.753	318.12
298.984	316.12
299.214	334.12
299.445	331.12
299.675	320.12
299.905	321.12
300.136	317.12
300.366	302.12
300.597	303.12
300.827	315.12
301.057	334.12
301.288	343.12
301.518	329.12
301.748	332.12
301.979	320.12
302.209	341.12
302.439	340.12
302.669	336.12
302.9	345.12
303.13	323.12
303.36	332.12
303.59	328.12
303.82	344.12
304.051	338.12
304.281	341.12
304.511	338.12
304.741	345.12
304.971	332.12
305.201	339.12
305.431	331.12
305.661	329.12
305.891	346.12
306.121	335.12
306.352	341.12
306.582	348.12
306.812	355.12
307.042	345.12
307.272	332.12
307.502	353.12
307.731	360.12
307.961	344.12
308.191	337.12
308.421	339.12
308.651	356.12
308.881	354.12
309.111	349.12
309.341	345.12
309.571	353.12
309.8	381.12
310.03	377.12
310.26	382.12
310.49	388.12
310.72	384.12
310.949	392.12
311.179	420.12
311.409	385.12
311.639	360.12
311.868	376.12
312.098	386.12
312.328	385.12
312.557	397.12
312.787	406.12
313.017	413.12
313.246	401.12
313.476	376.12
313.706	375.12
313.935	400.12
314.165	402.12
314.394	403.12
314.624	408.12
314.853	404.12
315.083	391.12
315.312	392.12
315.542	385.12
315.771	410.12
316.001	372.12
316.23	366.12
316.46	386.12
316.689	374.12
316.919	388.12
317.148	414.12
317.377	406.12
317.607	413.12
317.836	373.12
318.065	400.12
318.295	398.12
318.524	402.12
318.753	403.12
318.983	387.12
319.212	390.12
319.441	373.12
319.67	398.12
319.9	389.12
320.129	396.12
320.358	384.12
320.587	385.12
320.816	401.12
321.046	401.12
321.275	416.12
321.504	411.12
321.733	420.12
321.962	404.12
322.191	440.12
322.42	440.12
322.649	453.12
322.878	479.12
323.108	460.12
323.337	464.12
323.566	503.12
323.795	515.12
324.024	567.12
324.253	700.12
324.482	978.12
324.71	1524.12
324.939	2285.12
325.168	1951.12
325.397	958.12
325.626	660.12
325.855	540.12
326.084	492.12
326.313	516.12
326.542	511.12
326.77	570.12
326.999	639.12
327.228	884.12
327.457	1400.12
327.686	1753.12
327.914	1093.12
328.143	696.12
328.372	620.12
328.6	606.12
328.829	557.12
329.058	580.12
329.287	588.12
329.515	551.12
329.744	540.12
329.972	497.12
330.201	542.12
330.43	604.12
330.658	610.12
330.887	653.12
331.115	596.12
331.344	544.12
331.572	492.12
331.801	517.12
332.03	502.12
332.258	487.12
332.486	483.12
332.715	472.12
332.943	474.12
333.172	488.12
333.4	474.12
333.629	468.12
333.857	496.12
334.085	520.12
334.314	544.12
334.542	564.12
334.771	568.12
334.999	538.12
335.227	499.12
335.455	492.12
335.684	473.12
335.912	480.12
336.14	465.12
336.369	469.12
336.597	462.12
336.825	486.12
337.053	475.12
337.281	470.12
337.51	461.12
337.738	471.12
337.966	480.12
338.194	470.12
338.422	488.12
338.65	474.12
338.878	455.12
339.106	444.12
339.334	454.12
339.562	441.12
339.79	440.12
340.018	446.12
340.246	465.12
340.474	463.12
340.702	445.12
340.93	445.12
341.158	436.12
341.386	446.12
341.614	456.12
341.842	457.12
342.07	433.12
342.298	459.12
342.526	455.12
342.754	430.12
342.981	430.12
343.209	429.12
343.437	470.12
343.665	434.12
343.893	466.12
344.12	457.12
344.348	447.12
344.576	442.12
344.804	464.12
345.031	472.12
345.259	461.12
345.487	485.12
345.714	434.12
345.942	472.12
346.17	442.12
346.397	439.12
346.625	427.12
346.853	448.12
347.08	434.12
347.308	445.12
347.535	444.12
347.763	446.12
347.99	447.12
348.218	464.12
348.445	449.12
348.673	446.12
348.9	448.12
349.128	434.12
349.355	436.12
349.583	420.12
349.81	434.12
350.037	424.12
350.265	416.12
350.492	432.12
350.72	421.12
350.947	429.12
351.174	458.12
351.402	462.12
351.629	464.12
351.856	451.12
352.083	458.12
352.311	464.12
352.538	447.12
352.765	457.12
352.992	425.12
353.22	430.12
353.447	436.12
353.674	412.12
353.901	417.12
354.128	405.12
354.355	429.12
354.583	425.12
354.81	430.12
355.037	413.12
355.264	413.12
355.491	421.12
355.718	408.12
355.945	428.12
356.172	416.12
356.399	407.12
356.626	420.12
356.853	416.12
357.08	418.12
357.307	419.12
357.534	414.12
357.761	430.12
357.988	433.12
358.215	447.12
358.441	406.12
358.668	451.12
358.895	436.12
359.122	442.12
359.349	446.12
359.576	442.12
359.802	476.12
360.029	481.12
360.256	500.12
360.483	490.12
360.709	456.12
360.936	439.12
361.163	453.12
361.39	462.12
361.616	441.12
361.843	441.12
362.07	446.12
362.296	441.12
362.523	440.12
362.749	443.12
362.976	411.12
363.203	419.12
363.429	429.12
363.656	446.12
363.882	436.12
364.109	432.12
364.335	443.12
364.562	445.12
364.788	434.12
365.015	463.12
365.241	447.12
365.468	435.12
365.694	437.12
365.92	444.12
366.147	430.12
366.373	427.12
366.599	422.12
366.826	436.12
367.052	416.12
367.278	421.12
367.505	420.12
367.731	443.12
367.957	438.12
368.184	437.12
368.41	454.12
368.636	428.12
368.862	453.12
369.089	457.12
369.315	456.12
369.541	424.12
369.767	429.12
369.993	434.12
370.219	438.12
370.445	435.12
370.672	438.12
370.898	426.12
371.124	433.12
371.35	420.12
371.576	441.12
371.802	442.12
372.028	442.12
372.254	444.12
372.48	431.12
372.706	438.12
372.932	418.12
373.158	430.12
373.384	444.12
373.61	444.12
373.835	447.12
374.061	447.12
374.287	454.12
374.513	438.12
374.739	448.12
374.965	427.12
375.191	453.12
375.416	437.12
375.642	462.12
375.868	440.12
376.094	444.12
376.319	453.12
376.545	440.12
376.771	429.12
376.997	430.12
377.222	430.12
377.448	449.12
377.674	416.12
377.899	431.12
378.125	427.12
378.35	431.12
378.576	423.12
378.802	439.12
379.027	432.12
379.253	432.12
379.478	432.12
379.704	431.12
379.929	447.12
380.155	435.12
380.38	436.12
380.606	436.12
380.831	433.12
381.057	452.12
381.282	436.12
381.507	431.12
381.733	442.12
381.958	456.12
382.184	433.12
382.409	458.12
382.634	436.12
382.86	448.12
383.085	441.12
383.31	463.12
383.535	456.12
383.761	456.12
383.986	431.12
384.211	465.12
384.436	475.12
384.662	460.12
384.887	477.12
385.112	470.12
385.337	462.12
385.562	492.12
385.787	480.12
386.013	491.12
386.238	488.12
386.463	505.12
386.688	473.12
386.913	469.12
387.138	481.12
387.363	489.12
387.588	493.12
387.813	485.12
388.038	478.12
388.263	475.12
388.488	484.12
388.713	470.12
388.938	481.12
389.163	489.12
389.387	500.12
389.612	496.12
389.837	482.12
390.062	505.12
390.287	492.12
390.512	478.12
390.736	469.12
390.961	488.12
391.186	479.12
391.411	503.12
391.636	501.12
391.86	488.12
392.085	483.12
392.31	533.12
392.534	506.12
392.759	491.12
392.984	497.12
393.208	477.12
393.433	523.12
393.658	506.12
393.882	486.12
394.107	497.12
394.331	487.12
394.556	486.12
394.78	488.12
395.005	497.12
395.229	474.12
395.454	515.12
395.678	501.12
395.903	513.12
396.127	535.12
396.352	550.12
396.576	485.12
396.801	525.12
397.025	502.12
397.249	493.12
397.474	518.12
397.698	541.12
397.922	544.12
398.147	554.12
398.371	567.12
398.595	569.12
398.82	558.12
399.044	590.12
399.268	591.12
399.492	629.12
399.717	652.12
399.941	690.12
400.165	712.12
400.389	728.12
400.613	643.12
400.837	597.12
401.062	599.12
401.286	573.12
401.51	544.12
401.734	554.12
401.958	561.12
402.182	594.12
402.406	591.12
402.63	577.12
402.854	582.12
403.078	604.12
403.302	580.12
403.526	598.12
403.75	602.12
403.974	568.12
404.198	592.12
404.422	606.12
404.645	606.12
404.869	599.12
405.093	622.12
405.317	672.12
405.541	705.12
405.765	654.12
405.988	650.12
406.212	617.12
406.436	614.12
406.66	651.12
406.883	627.12
407.107	668.12
407.331	719.12
407.555	788.12
407.778	798.12
408.002	729.12
408.226	676.12
408.449	653.12
408.673	642.12
408.896	680.12
409.12	689.12
409.344	686.12
409.567	637.12
409.791	621.12
410.014	597.12
410.238	590.12
410.461	582.12
410.685	621.12
410.908	593.12
411.132	646.12
411.355	680.12
411.578	673.12
411.802	595.12
412.025	594.12
412.249	595.12
412.472	647.12
412.695	658.12
412.919	692.12
413.142	605.12
413.365	583.12
413.589	604.12
413.812	556.12
414.035	586.12
414.258	561.12
414.482	568.12
414.705	563.12
414.928	573.12
415.151	540.12
415.374	562.12
415.597	561.12
415.821	557.12
416.044	558.12
416.267	568.12
416.49	549.12
416.713	561.12
416.936	572.12
417.159	554.12
417.382	583.12
417.605	542.12
417.828	582.12
418.051	585.12
418.274	588.12
418.497	557.12
418.72	564.12
418.943	547.12
419.166	586.12
419.389	615.12
419.611	598.12
419.834	594.12
420.057	607.12
420.28	594.12
420.503	578.12
420.726	598.12
420.948	601.12
421.171	652.12
421.394	674.12
421.617	592.12
421.839	584.12
422.062	576.12
422.285	612.12
422.507	653.12
422.73	722.12
422.953	703.12
423.175	636.12
423.398	628.12
423.621	623.12
423.843	626.12
424.066	612.12
424.288	622.12
424.511	666.12
424.733	718.12
424.956	797.12
425.178	740.12
425.401	782.12
425.623	778.12
425.846	680.12
426.068	637.12
426.291	622.12
426.513	615.12
426.735	632.12
426.958	670.12
427.18	775.12
427.402	900.12
427.625	1022.12
427.847	870.12
428.069	755.12
428.292	678.12
428.514	626.12
428.736	609.12
428.958	610.12
429.181	578.12
429.403	588.12
429.625	587.12
429.847	598.12
430.069	694.12
430.292	682.12
430.514	601.12
430.736	572.12
430.958	562.12
431.18	557.12
431.402	559.12
431.624	544.12
431.846	541.12
432.068	536.12
432.29	535.12
432.512	545.12
432.734	544.12
432.956	585.12
433.178	591.12
433.4	571.12
433.622	562.12
433.844	559.12
434.066	556.12
434.287	554.12
434.509	541.12
434.731	569.12
434.953	568.12
435.175	565.12
435.397	631.12
435.618	628.12
435.84	678.12
436.062	778.12
436.284	848.12
436.505	708.12
436.727	633.12
436.949	597.12
437.17	599.12
437.392	580.12
437.614	577.12
437.835	624.12
438.057	720.12
438.278	844.12
438.5	847.12
438.721	950.12
438.943	884.12
439.165	722.12
439.386	637.12
439.608	634.12
439.829	646.12
440.05	670.12
440.272	725.12
440.493	686.12
440.715	634.12
440.936	604.12
441.158	586.12
441.379	586.12
441.6	603.12
441.822	602.12
442.043	670.12
442.264	783.12
442.486	800.12
442.707	701.12
442.928	632.12
443.149	641.12
443.371	677.12
443.592	705.12
443.813	850.12
444.034	880.12
444.255	719.12
444.476	659.12
444.698	626.12
444.919	633.12
445.14	738.12
445.361	697.12
445.582	661.12
445.803	758.12
446.024	888.12
446.245	861.12
446.466	809.12
446.687	704.12
446.908	633.12
447.129	601.12
447.35	606.12
447.571	580.12
447.792	568.12
448.013	569.12
448.234	584.12
448.455	653.12
448.675	782.12
448.896	903.12
449.117	783.12
449.338	718.12
449.559	826.12
449.779	989.12
450	762.12
450.221	625.12
450.442	594.12
450.662	554.12
450.883	567.12
451.104	592.12
451.324	570.12
451.545	560.12
451.766	524.12
451.986	527.12
452.207	525.12
452.428	529.12
452.648	502.12
452.869	516.12
453.089	537.12
453.31	544.12
453.53	528.12
453.751	521.12
453.971	511.12
454.192	540.12
454.412	521.12
454.633	532.12
454.853	511.12
455.073	530.12
455.294	555.12
455.514	635.12
455.734	618.12
455.955	528.12
456.175	506.12
456.395	495.12
456.616	497.12
456.836	473.12
457.056	478.12
457.276	475.12
457.497	497.12
457.717	502.12
457.937	504.12
458.157	520.12
458.377	519.12
458.598	544.12
458.818	600.12
459.038	679.12
459.258	708.12
459.478	610.12
459.698	583.12
459.918	537.12
460.138	551.12
460.358	562.12
460.578	556.12
460.798	577.12
461.018	568.12
461.238	568.12
461.458	574.12
461.678	562.12
461.898	586.12
462.118	575.12
462.338	586.12
462.558	592.12
462.777	591.12
462.997	614.12
463.217	616.12
463.437	642.12
463.657	632.12
463.876	591.12
464.096	601.12
464.316	603.12
464.536	610.12
464.755	604.12
464.975	601.12
465.195	638.12
465.414	718.12
465.634	647.12
465.854	588.12
466.073	557.12
466.293	538.12
466.512	538.12
466.732	533.12
466.951	541.12
467.171	528.12
467.391	528.12
467.61	531.12
467.829	554.12
468.049	541.12
468.268	539.12
468.488	517.12
468.707	534.12
468.927	525.12
469.146	526.12
469.365	515.12
469.585	498.12
469.804	533.12
470.023	542.12
470.243	541.12
470.462	562.12
470.681	577.12
470.901	561.12
471.12	536.12
471.339	555.12
471.558	561.12
471.777	540.12
471.997	536.12
472.216	529.12
472.435	592.12
472.654	564.12
472.873	530.12
473.092	520.12
473.311	518.12
473.53	535.12
473.749	552.12
473.968	599.12
474.187	716.12
474.406	728.12
474.625	599.12
474.844	548.12
475.063	553.12
475.282	548.12
475.501	551.12
475.72	585.12
475.939	551.12
476.158	571.12
476.377	568.12
476.596	554.12
476.814	576.12
477.033	587.12
477.252	584.12
477.471	584.12
477.69	601.12
477.908	569.12
478.127	604.12
478.346	605.12
478.564	592.12
478.783	625.12
479.002	603.12
479.22	630.12
479.439	641.12
479.658	629.12
479.876	651.12
480.095	631.12
480.313	706.12
480.532	653.12
480.751	666.12
480.969	650.12
481.188	741.12
481.406	785.12
481.624	704.12
481.843	658.12
482.061	658.12
482.28	641.12
482.498	669.12
482.717	649.12
482.935	647.12
483.153	651.12
483.372	643.12
483.59	647.12
483.808	636.12
484.027	646.12
484.245	653.12
484.463	648.12
484.681	655.12
484.9	662.12
485.118	656.12
485.336	662.12
485.554	656.12
485.772	650.12
485.99	660.12
486.209	648.12
486.427	672.12
486.645	655.12
486.863	701.12
487.081	680.12
487.299	688.12
487.517	688.12
487.735	687.12
487.953	655.12
488.171	667.12
488.389	681.12
488.607	707.12
488.825	695.12
489.043	687.12
489.261	708.12
489.479	687.12
489.696	683.12
489.914	685.12
490.132	704.12
490.35	696.12
490.568	725.12
490.786	737.12
491.003	733.12
491.221	760.12
491.439	768.12
491.657	762.12
491.874	799.12
492.092	782.12
492.31	803.12
492.527	784.12
492.745	784.12
492.963	785.12
493.18	815.12
493.398	828.12
493.615	823.12
493.833	828.12
494.05	801.12
494.268	848.12
494.485	800.12
494.703	796.12
494.92	789.12
495.138	826.12
495.355	824.12
495.573	816.12
495.79	820.12
496.008	837.12
496.225	820.12
496.442	826.12
496.66	843.12
496.877	830.12
497.094	817.12
497.312	844.12
497.529	849.12
497.746	824.12
497.963	851.12
498.181	917.12
498.398	914.12
498.615	901.12
498.832	949.12
499.049	928.12
499.267	967.12
499.484	998.12
499.701	1066.12
499.918	1064.12
500.135	1135.12
500.352	1163.12
500.569	1169.12
500.786	1160.12
501.003	1165.12
501.22	1154.12
501.437	1093.12
501.654	1078.12
