Data from 1966.PennyLincolnUp.Lamp.En5.5.200Scan.071719.P1.Scan2.head_HRD10591_14-19-31-274.txt Node
Date: Thu Jul 18 14:19:31 EDT 2019
User: cochatt
Spectrometer: HR+D1059
Trigger mode: 1
Integration Time (sec): 1.000000E-1
Scans to average: 1
Electric dark correction enabled: true
Nonlinearity correction enabled: false
Boxcar width: 0
XAxis mode: Wavelengths
Number of Pixels in Spectrum: 2048
>>>>>Begin Spectral Data<<<<<
223.165	-5.88
223.4	-5.88
223.635	-5.88
223.869	-20.88
224.104	-2.88
224.338	-12.88
224.573	-18.88
224.808	-5.88
225.042	-3.88
225.277	0.12
225.511	4.12
225.746	-0.88
225.98	1.12
226.215	16.12
226.449	21.12
226.683	12.12
226.918	-1.88
227.152	19.12
227.387	39.12
227.621	43.12
227.856	39.12
228.09	29.12
228.324	49.12
228.559	38.12
228.793	69.12
229.027	93.12
229.262	101.12
229.496	101.12
229.73	129.12
229.964	162.12
230.199	126.12
230.433	123.12
230.667	109.12
230.901	118.12
231.136	121.12
231.37	125.12
231.604	99.12
231.838	117.12
232.072	116.12
232.306	117.12
232.541	117.12
232.775	116.12
233.009	109.12
233.243	113.12
233.477	113.12
233.711	118.12
233.945	109.12
234.179	121.12
234.413	125.12
234.647	124.12
234.881	130.12
235.115	121.12
235.349	126.12
235.583	121.12
235.817	135.12
236.051	129.12
236.285	133.12
236.519	127.12
236.753	124.12
236.987	155.12
237.221	187.12
237.455	264.12
237.689	205.12
237.922	158.12
238.156	149.12
238.39	125.12
238.624	145.12
238.858	129.12
239.091	125.12
239.325	137.12
239.559	131.12
239.793	134.12
240.027	141.12
240.26	165.12
240.494	165.12
240.728	160.12
240.961	157.12
241.195	158.12
241.429	138.12
241.662	136.12
241.896	137.12
242.13	146.12
242.363	143.12
242.597	123.12
242.83	151.12
243.064	135.12
243.298	139.12
243.531	132.12
243.765	134.12
243.998	150.12
244.232	139.12
244.465	140.12
244.699	157.12
244.932	154.12
245.166	141.12
245.399	157.12
245.633	148.12
245.866	148.12
246.099	143.12
246.333	151.12
246.566	162.12
246.8	166.12
247.033	150.12
247.266	172.12
247.5	161.12
247.733	165.12
247.966	179.12
248.2	167.12
248.433	190.12
248.666	187.12
248.899	201.12
249.133	209.12
249.366	217.12
249.599	207.12
249.832	191.12
250.066	188.12
250.299	159.12
250.532	195.12
250.765	228.12
250.998	227.12
251.231	232.12
251.465	205.12
251.698	211.12
251.931	221.12
252.164	205.12
252.397	192.12
252.63	204.12
252.863	218.12
253.096	221.12
253.329	226.12
253.562	230.12
253.795	226.12
254.028	223.12
254.261	226.12
254.494	269.12
254.727	248.12
254.96	283.12
255.193	271.12
255.426	275.12
255.659	230.12
255.892	261.12
256.124	237.12
256.357	226.12
256.59	238.12
256.823	230.12
257.056	223.12
257.289	214.12
257.521	206.12
257.754	210.12
257.987	220.12
258.22	214.12
258.452	210.12
258.685	221.12
258.918	215.12
259.151	223.12
259.383	229.12
259.616	234.12
259.849	222.12
260.081	236.12
260.314	267.12
260.547	269.12
260.779	265.12
261.012	261.12
261.244	245.12
261.477	221.12
261.71	217.12
261.942	227.12
262.175	239.12
262.407	229.12
262.64	216.12
262.872	228.12
263.105	235.12
263.337	213.12
263.57	231.12
263.802	228.12
264.035	224.12
264.267	193.12
264.499	236.12
264.732	219.12
264.964	221.12
265.197	229.12
265.429	225.12
265.661	226.12
265.894	214.12
266.126	233.12
266.358	230.12
266.591	223.12
266.823	229.12
267.055	233.12
267.287	242.12
267.52	220.12
267.752	217.12
267.984	238.12
268.216	234.12
268.448	228.12
268.681	249.12
268.913	266.12
269.145	271.12
269.377	291.12
269.609	285.12
269.841	292.12
270.073	279.12
270.306	321.12
270.538	313.12
270.77	321.12
271.002	316.12
271.234	289.12
271.466	305.12
271.698	320.12
271.93	332.12
272.162	326.12
272.394	319.12
272.626	299.12
272.858	300.12
273.09	290.12
273.322	296.12
273.553	288.12
273.785	277.12
274.017	280.12
274.249	265.12
274.481	293.12
274.713	268.12
274.945	272.12
275.176	271.12
275.408	277.12
275.64	269.12
275.872	274.12
276.104	275.12
276.335	262.12
276.567	266.12
276.799	288.12
277.031	317.12
277.262	308.12
277.494	342.12
277.726	314.12
277.957	319.12
278.189	302.12
278.421	295.12
278.652	286.12
278.884	300.12
279.115	276.12
279.347	262.12
279.579	282.12
279.81	280.12
280.042	287.12
280.273	272.12
280.505	277.12
280.736	284.12
280.968	276.12
281.199	273.12
281.431	299.12
281.662	310.12
281.894	275.12
282.125	295.12
282.356	301.12
282.588	320.12
282.819	324.12
283.051	280.12
283.282	277.12
283.513	282.12
283.745	275.12
283.976	272.12
284.207	295.12
284.439	291.12
284.67	280.12
284.901	295.12
285.132	275.12
285.364	292.12
285.595	289.12
285.826	292.12
286.057	307.12
286.288	292.12
286.52	288.12
286.751	281.12
286.982	284.12
287.213	278.12
287.444	309.12
287.675	315.12
287.906	322.12
288.138	319.12
288.369	301.12
288.6	314.12
288.831	321.12
289.062	317.12
289.293	311.12
289.524	294.12
289.755	305.12
289.986	320.12
290.217	303.12
290.448	301.12
290.679	314.12
290.91	285.12
291.141	290.12
291.371	311.12
291.602	297.12
291.833	294.12
292.064	320.12
292.295	299.12
292.526	275.12
292.757	320.12
292.987	306.12
293.218	309.12
293.449	299.12
293.68	312.12
293.91	294.12
294.141	300.12
294.372	312.12
294.603	328.12
294.833	312.12
295.064	287.12
295.295	305.12
295.525	302.12
295.756	311.12
295.987	302.12
296.217	335.12
296.448	339.12
296.679	311.12
296.909	305.12
297.14	312.12
297.37	334.12
297.601	301.12
297.831	313.12
298.062	318.12
298.292	328.12
298.523	335.12
298.753	313.12
298.984	327.12
299.214	335.12
299.445	329.12
299.675	357.12
299.905	301.12
300.136	330.12
300.366	322.12
300.597	334.12
300.827	335.12
301.057	340.12
301.288	345.12
301.518	335.12
301.748	333.12
301.979	326.12
302.209	326.12
302.439	348.12
302.669	340.12
302.9	334.12
303.13	340.12
303.36	335.12
303.59	357.12
303.82	366.12
304.051	354.12
304.281	330.12
304.511	343.12
304.741	332.12
304.971	326.12
305.201	340.12
305.431	347.12
305.661	347.12
305.891	335.12
306.121	347.12
306.352	351.12
306.582	360.12
306.812	334.12
307.042	361.12
307.272	345.12
307.502	352.12
307.731	362.12
307.961	355.12
308.191	357.12
308.421	339.12
308.651	355.12
308.881	349.12
309.111	381.12
309.341	349.12
309.571	358.12
309.8	389.12
310.03	389.12
310.26	390.12
310.49	382.12
310.72	388.12
310.949	401.12
311.179	422.12
311.409	389.12
311.639	405.12
311.868	398.12
312.098	399.12
312.328	394.12
312.557	406.12
312.787	422.12
313.017	426.12
313.246	407.12
313.476	399.12
313.706	389.12
313.935	392.12
314.165	418.12
314.394	420.12
314.624	405.12
314.853	407.12
315.083	427.12
315.312	409.12
315.542	391.12
315.771	383.12
316.001	393.12
316.23	377.12
316.46	382.12
316.689	378.12
316.919	396.12
317.148	406.12
317.377	406.12
317.607	382.12
317.836	403.12
318.065	405.12
318.295	400.12
318.524	388.12
318.753	358.12
318.983	373.12
319.212	396.12
319.441	391.12
319.67	419.12
319.9	421.12
320.129	393.12
320.358	413.12
320.587	412.12
320.816	415.12
321.046	412.12
321.275	427.12
321.504	405.12
321.733	417.12
321.962	422.12
322.191	445.12
322.42	457.12
322.649	470.12
322.878	461.12
323.108	481.12
323.337	503.12
323.566	494.12
323.795	547.12
324.024	554.12
324.253	707.12
324.482	1015.12
324.71	1610.12
324.939	2317.12
325.168	2029.12
325.397	990.12
325.626	670.12
325.855	583.12
326.084	537.12
326.313	527.12
326.542	541.12
326.77	585.12
326.999	652.12
327.228	912.12
327.457	1394.12
327.686	1775.12
327.914	1162.12
328.143	750.12
328.372	634.12
328.6	598.12
328.829	590.12
329.058	607.12
329.287	612.12
329.515	565.12
329.744	543.12
329.972	529.12
330.201	571.12
330.43	593.12
330.658	624.12
330.887	645.12
331.115	623.12
331.344	557.12
331.572	503.12
331.801	502.12
332.03	527.12
332.258	518.12
332.486	501.12
332.715	468.12
332.943	457.12
333.172	492.12
333.4	483.12
333.629	518.12
333.857	522.12
334.085	529.12
334.314	555.12
334.542	562.12
334.771	589.12
334.999	549.12
335.227	525.12
335.455	499.12
335.684	493.12
335.912	501.12
336.14	485.12
336.369	475.12
336.597	489.12
336.825	487.12
337.053	477.12
337.281	481.12
337.51	474.12
337.738	477.12
337.966	483.12
338.194	459.12
338.422	461.12
338.65	479.12
338.878	471.12
339.106	464.12
339.334	458.12
339.562	460.12
339.79	441.12
340.018	468.12
340.246	447.12
340.474	461.12
340.702	475.12
340.93	453.12
341.158	462.12
341.386	466.12
341.614	470.12
341.842	462.12
342.07	451.12
342.298	462.12
342.526	452.12
342.754	451.12
342.981	444.12
343.209	439.12
343.437	449.12
343.665	457.12
343.893	470.12
344.12	478.12
344.348	490.12
344.576	477.12
344.804	487.12
345.031	462.12
345.259	485.12
345.487	469.12
345.714	457.12
345.942	473.12
346.17	467.12
346.397	452.12
346.625	423.12
346.853	445.12
347.08	435.12
347.308	447.12
347.535	466.12
347.763	453.12
347.99	463.12
348.218	461.12
348.445	460.12
348.673	461.12
348.9	454.12
349.128	445.12
349.355	437.12
349.583	425.12
349.81	433.12
350.037	427.12
350.265	424.12
350.492	437.12
350.72	412.12
350.947	440.12
351.174	466.12
351.402	465.12
351.629	450.12
351.856	437.12
352.083	465.12
352.311	459.12
352.538	468.12
352.765	449.12
352.992	454.12
353.22	449.12
353.447	467.12
353.674	450.12
353.901	436.12
354.128	412.12
354.355	427.12
354.583	439.12
354.81	412.12
355.037	439.12
355.264	404.12
355.491	429.12
355.718	434.12
355.945	429.12
356.172	409.12
356.399	419.12
356.626	424.12
356.853	417.12
357.08	413.12
357.307	397.12
357.534	413.12
357.761	429.12
357.988	449.12
358.215	410.12
358.441	423.12
358.668	422.12
358.895	425.12
359.122	437.12
359.349	425.12
359.576	452.12
359.802	484.12
360.029	483.12
360.256	527.12
360.483	476.12
360.709	464.12
360.936	466.12
361.163	453.12
361.39	459.12
361.616	462.12
361.843	451.12
362.07	447.12
362.296	452.12
362.523	446.12
362.749	451.12
362.976	438.12
363.203	439.12
363.429	443.12
363.656	457.12
363.882	439.12
364.109	430.12
364.335	445.12
364.562	430.12
364.788	448.12
365.015	449.12
365.241	435.12
365.468	447.12
365.694	447.12
365.92	439.12
366.147	458.12
366.373	441.12
366.599	428.12
366.826	437.12
367.052	424.12
367.278	409.12
367.505	429.12
367.731	440.12
367.957	441.12
368.184	425.12
368.41	474.12
368.636	454.12
368.862	463.12
369.089	438.12
369.315	444.12
369.541	447.12
369.767	423.12
369.993	449.12
370.219	440.12
370.445	422.12
370.672	429.12
370.898	447.12
371.124	446.12
371.35	460.12
371.576	439.12
371.802	457.12
372.028	455.12
372.254	454.12
372.48	449.12
372.706	437.12
372.932	446.12
373.158	466.12
373.384	463.12
373.61	461.12
373.835	442.12
374.061	439.12
374.287	435.12
374.513	427.12
374.739	445.12
374.965	452.12
375.191	435.12
375.416	456.12
375.642	484.12
375.868	465.12
376.094	439.12
376.319	447.12
376.545	441.12
376.771	450.12
376.997	437.12
377.222	440.12
377.448	438.12
377.674	435.12
377.899	429.12
378.125	439.12
378.35	439.12
378.576	432.12
378.802	449.12
379.027	455.12
379.253	428.12
379.478	466.12
379.704	433.12
379.929	427.12
380.155	437.12
380.38	445.12
380.606	450.12
380.831	450.12
381.057	460.12
381.282	437.12
381.507	440.12
381.733	447.12
381.958	437.12
382.184	446.12
382.409	469.12
382.634	466.12
382.86	459.12
383.085	462.12
383.31	452.12
383.535	467.12
383.761	471.12
383.986	470.12
384.211	482.12
384.436	468.12
384.662	460.12
384.887	477.12
385.112	474.12
385.337	459.12
385.562	491.12
385.787	497.12
386.013	494.12
386.238	499.12
386.463	502.12
386.688	491.12
386.913	486.12
387.138	489.12
387.363	483.12
387.588	517.12
387.813	476.12
388.038	494.12
388.263	489.12
388.488	509.12
388.713	499.12
388.938	519.12
389.163	490.12
389.387	507.12
389.612	490.12
389.837	492.12
390.062	482.12
390.287	498.12
390.512	489.12
390.736	484.12
390.961	491.12
391.186	512.12
391.411	486.12
391.636	517.12
391.86	497.12
392.085	512.12
392.31	498.12
392.534	513.12
392.759	514.12
392.984	500.12
393.208	502.12
393.433	499.12
393.658	493.12
393.882	507.12
394.107	513.12
394.331	502.12
394.556	493.12
394.78	491.12
395.005	500.12
395.229	523.12
395.454	537.12
395.678	498.12
395.903	519.12
396.127	560.12
396.352	571.12
396.576	517.12
396.801	521.12
397.025	520.12
397.249	518.12
397.474	521.12
397.698	532.12
397.922	574.12
398.147	570.12
398.371	550.12
398.595	584.12
398.82	567.12
399.044	578.12
399.268	606.12
399.492	618.12
399.717	684.12
399.941	697.12
400.165	733.12
400.389	724.12
400.613	648.12
400.837	602.12
401.062	596.12
401.286	597.12
401.51	580.12
401.734	570.12
401.958	582.12
402.182	581.12
402.406	580.12
402.63	582.12
402.854	591.12
403.078	597.12
403.302	582.12
403.526	616.12
403.75	596.12
403.974	631.12
404.198	634.12
404.422	608.12
404.645	617.12
404.869	645.12
405.093	642.12
405.317	667.12
405.541	730.12
405.765	648.12
405.988	641.12
406.212	642.12
406.436	654.12
406.66	685.12
406.883	661.12
407.107	680.12
407.331	725.12
407.555	845.12
407.778	798.12
408.002	724.12
408.226	684.12
408.449	653.12
408.673	663.12
408.896	707.12
409.12	737.12
409.344	697.12
409.567	618.12
409.791	637.12
410.014	607.12
410.238	597.12
410.461	589.12
410.685	620.12
410.908	637.12
411.132	679.12
411.355	717.12
411.578	695.12
411.802	639.12
412.025	590.12
412.249	605.12
412.472	639.12
412.695	707.12
412.919	686.12
413.142	635.12
413.365	603.12
413.589	592.12
413.812	581.12
414.035	587.12
414.258	594.12
414.482	578.12
414.705	570.12
414.928	579.12
415.151	572.12
415.374	561.12
415.597	578.12
415.821	568.12
416.044	587.12
416.267	585.12
416.49	558.12
416.713	548.12
416.936	555.12
417.159	571.12
417.382	553.12
417.605	571.12
417.828	603.12
418.051	585.12
418.274	577.12
418.497	573.12
418.72	585.12
418.943	560.12
419.166	604.12
419.389	599.12
419.611	633.12
419.834	627.12
420.057	607.12
420.28	586.12
420.503	607.12
420.726	614.12
420.948	604.12
421.171	652.12
421.394	693.12
421.617	607.12
421.839	577.12
422.062	596.12
422.285	620.12
422.507	683.12
422.73	764.12
422.953	737.12
423.175	648.12
423.398	630.12
423.621	627.12
423.843	641.12
424.066	641.12
424.288	639.12
424.511	641.12
424.733	710.12
424.956	815.12
425.178	801.12
425.401	780.12
425.623	784.12
425.846	694.12
426.068	653.12
426.291	638.12
426.513	652.12
426.735	641.12
426.958	691.12
427.18	778.12
427.402	967.12
427.625	1054.12
427.847	881.12
428.069	774.12
428.292	701.12
428.514	645.12
428.736	633.12
428.958	602.12
429.181	582.12
429.403	582.12
429.625	606.12
429.847	634.12
430.069	707.12
430.292	708.12
430.514	605.12
430.736	597.12
430.958	591.12
431.18	570.12
431.402	593.12
431.624	581.12
431.846	578.12
432.068	555.12
432.29	577.12
432.512	573.12
432.734	568.12
432.956	581.12
433.178	590.12
433.4	594.12
433.622	567.12
433.844	569.12
434.066	579.12
434.287	576.12
434.509	565.12
434.731	572.12
434.953	583.12
435.175	601.12
435.397	628.12
435.618	632.12
435.84	703.12
436.062	812.12
436.284	873.12
436.505	731.12
436.727	661.12
436.949	612.12
437.17	600.12
437.392	613.12
437.614	609.12
437.835	650.12
438.057	746.12
438.278	876.12
438.5	879.12
438.721	986.12
438.943	906.12
439.165	701.12
439.386	669.12
439.608	652.12
439.829	652.12
440.05	666.12
440.272	731.12
440.493	700.12
440.715	668.12
440.936	610.12
441.158	601.12
441.379	582.12
441.6	606.12
441.822	643.12
442.043	701.12
442.264	791.12
442.486	851.12
442.707	673.12
442.928	659.12
443.149	695.12
443.371	713.12
443.592	715.12
443.813	850.12
444.034	926.12
444.255	750.12
444.476	706.12
444.698	671.12
444.919	659.12
445.14	726.12
445.361	718.12
445.582	677.12
445.803	768.12
446.024	891.12
446.245	911.12
446.466	807.12
446.687	676.12
446.908	660.12
447.129	604.12
447.35	622.12
447.571	603.12
447.792	577.12
448.013	592.12
448.234	600.12
448.455	653.12
448.675	806.12
448.896	915.12
449.117	767.12
449.338	738.12
449.559	862.12
449.779	1009.12
450	757.12
450.221	644.12
450.442	602.12
450.662	575.12
450.883	596.12
451.104	601.12
451.324	547.12
451.545	582.12
451.766	528.12
451.986	521.12
452.207	510.12
452.428	499.12
452.648	530.12
452.869	515.12
453.089	555.12
453.31	559.12
453.53	547.12
453.751	527.12
453.971	545.12
454.192	553.12
454.412	509.12
454.633	516.12
454.853	529.12
455.073	547.12
455.294	556.12
455.514	656.12
455.734	627.12
455.955	524.12
456.175	503.12
456.395	511.12
456.616	509.12
456.836	494.12
457.056	491.12
457.276	494.12
457.497	495.12
457.717	514.12
457.937	519.12
458.157	517.12
458.377	523.12
458.598	536.12
458.818	598.12
459.038	689.12
459.258	712.12
459.478	616.12
459.698	598.12
459.918	563.12
460.138	567.12
460.358	597.12
460.578	585.12
460.798	582.12
461.018	582.12
461.238	559.12
461.458	581.12
461.678	577.12
461.898	551.12
462.118	570.12
462.338	591.12
462.558	604.12
462.777	614.12
462.997	633.12
463.217	651.12
463.437	652.12
463.657	633.12
463.876	623.12
464.096	646.12
464.316	609.12
464.536	631.12
464.755	614.12
464.975	619.12
465.195	631.12
465.414	741.12
465.634	659.12
465.854	620.12
466.073	585.12
466.293	566.12
466.512	551.12
466.732	547.12
466.951	551.12
467.171	533.12
467.391	560.12
467.61	549.12
467.829	573.12
468.049	567.12
468.268	574.12
468.488	533.12
468.707	545.12
468.927	540.12
469.146	517.12
469.365	551.12
469.585	536.12
469.804	563.12
470.023	552.12
470.243	548.12
470.462	535.12
470.681	574.12
470.901	572.12
471.12	556.12
471.339	554.12
471.558	538.12
471.777	568.12
471.997	525.12
472.216	552.12
472.435	611.12
472.654	598.12
472.873	561.12
473.092	560.12
473.311	535.12
473.53	522.12
473.749	539.12
473.968	608.12
474.187	722.12
474.406	732.12
474.625	625.12
474.844	567.12
475.063	561.12
475.282	554.12
475.501	548.12
475.72	577.12
475.939	568.12
476.158	564.12
476.377	573.12
476.596	577.12
476.814	573.12
477.033	598.12
477.252	597.12
477.471	600.12
477.69	587.12
477.908	588.12
478.127	628.12
478.346	607.12
478.564	629.12
478.783	641.12
479.002	605.12
479.22	629.12
479.439	645.12
479.658	660.12
479.876	654.12
480.095	682.12
480.313	698.12
480.532	685.12
480.751	659.12
480.969	691.12
481.188	783.12
481.406	825.12
481.624	740.12
481.843	676.12
482.061	689.12
482.28	654.12
482.498	674.12
482.717	665.12
482.935	641.12
483.153	668.12
483.372	643.12
483.59	651.12
483.808	643.12
484.027	644.12
484.245	641.12
484.463	653.12
484.681	674.12
484.9	661.12
485.118	667.12
485.336	650.12
485.554	649.12
485.772	678.12
485.99	661.12
486.209	671.12
486.427	683.12
486.645	701.12
486.863	721.12
487.081	704.12
487.299	714.12
487.517	698.12
487.735	692.12
487.953	715.12
488.171	707.12
488.389	686.12
488.607	702.12
488.825	713.12
489.043	695.12
489.261	717.12
489.479	702.12
489.696	679.12
489.914	713.12
490.132	720.12
490.35	733.12
490.568	760.12
490.786	758.12
491.003	751.12
491.221	775.12
491.439	767.12
491.657	772.12
491.874	795.12
492.092	780.12
492.31	804.12
492.527	830.12
492.745	805.12
492.963	835.12
493.18	842.12
493.398	845.12
493.615	846.12
493.833	829.12
494.05	844.12
494.268	840.12
494.485	818.12
494.703	808.12
494.92	830.12
495.138	833.12
495.355	843.12
495.573	855.12
495.79	830.12
496.008	825.12
496.225	825.12
496.442	844.12
496.66	851.12
496.877	839.12
497.094	858.12
497.312	861.12
497.529	875.12
497.746	855.12
497.963	900.12
498.181	919.12
498.398	906.12
498.615	933.12
498.832	943.12
499.049	959.12
499.267	972.12
499.484	1009.12
499.701	1073.12
499.918	1121.12
500.135	1132.12
500.352	1181.12
500.569	1207.12
500.786	1237.12
501.003	1192.12
501.22	1179.12
501.437	1139.12
501.654	1107.12
