Data from 1966.PennyLincolnUp.Lamp.En5.5.200Scan.071719.P1.Scan2.head_HRD10591_14-17-33-117.txt Node
Date: Thu Jul 18 14:17:33 EDT 2019
User: cochatt
Spectrometer: HR+D1059
Trigger mode: 1
Integration Time (sec): 1.000000E-1
Scans to average: 1
Electric dark correction enabled: true
Nonlinearity correction enabled: false
Boxcar width: 0
XAxis mode: Wavelengths
Number of Pixels in Spectrum: 2048
>>>>>Begin Spectral Data<<<<<
223.165	-15.75
223.4	-15.75
223.635	-15.75
223.869	-6.75
224.104	-20.75
224.338	-8.75
224.573	2.25
224.808	-6.75
225.042	-21.75
225.277	-3.75
225.511	-3.75
225.746	7.25
225.98	8.25
226.215	7.25
226.449	10.25
226.683	11.25
226.918	15.25
227.152	26.25
227.387	39.25
227.621	33.25
227.856	32.25
228.09	36.25
228.324	42.25
228.559	47.25
228.793	84.25
229.027	92.25
229.262	103.25
229.496	119.25
229.73	133.25
229.964	146.25
230.199	127.25
230.433	127.25
230.667	133.25
230.901	119.25
231.136	118.25
231.37	99.25
231.604	104.25
231.838	108.25
232.072	126.25
232.306	114.25
232.541	124.25
232.775	112.25
233.009	109.25
233.243	114.25
233.477	127.25
233.711	111.25
233.945	123.25
234.179	115.25
234.413	119.25
234.647	125.25
234.881	122.25
235.115	128.25
235.349	116.25
235.583	108.25
235.817	119.25
236.051	117.25
236.285	124.25
236.519	128.25
236.753	124.25
236.987	144.25
237.221	176.25
237.455	241.25
237.689	183.25
237.922	139.25
238.156	125.25
238.39	123.25
238.624	129.25
238.858	138.25
239.091	122.25
239.325	117.25
239.559	131.25
239.793	131.25
240.027	152.25
240.26	129.25
240.494	160.25
240.728	159.25
240.961	158.25
241.195	145.25
241.429	144.25
241.662	138.25
241.896	127.25
242.13	131.25
242.363	121.25
242.597	146.25
242.83	131.25
243.064	136.25
243.298	148.25
243.531	132.25
243.765	128.25
243.998	132.25
244.232	130.25
244.465	142.25
244.699	145.25
244.932	154.25
245.166	140.25
245.399	133.25
245.633	136.25
245.866	163.25
246.099	147.25
246.333	149.25
246.566	156.25
246.8	157.25
247.033	139.25
247.266	148.25
247.5	160.25
247.733	158.25
247.966	155.25
248.2	176.25
248.433	171.25
248.666	181.25
248.899	189.25
249.133	186.25
249.366	197.25
249.599	205.25
249.832	184.25
250.066	182.25
250.299	179.25
250.532	190.25
250.765	196.25
250.998	204.25
251.231	235.25
251.465	204.25
251.698	202.25
251.931	184.25
252.164	189.25
252.397	198.25
252.63	207.25
252.863	202.25
253.096	216.25
253.329	220.25
253.562	215.25
253.795	206.25
254.028	207.25
254.261	204.25
254.494	230.25
254.727	244.25
254.96	261.25
255.193	278.25
255.426	239.25
255.659	229.25
255.892	207.25
256.124	220.25
256.357	224.25
256.59	211.25
256.823	201.25
257.056	196.25
257.289	212.25
257.521	211.25
257.754	203.25
257.987	212.25
258.22	218.25
258.452	210.25
258.685	206.25
258.918	206.25
259.151	192.25
259.383	212.25
259.616	204.25
259.849	192.25
260.081	212.25
260.314	244.25
260.547	257.25
260.779	220.25
261.012	214.25
261.244	215.25
261.477	222.25
261.71	229.25
261.942	227.25
262.175	231.25
262.407	222.25
262.64	209.25
262.872	234.25
263.105	221.25
263.337	218.25
263.57	212.25
263.802	199.25
264.035	214.25
264.267	205.25
264.499	201.25
264.732	213.25
264.964	236.25
265.197	214.25
265.429	204.25
265.661	198.25
265.894	211.25
266.126	218.25
266.358	221.25
266.591	223.25
266.823	208.25
267.055	213.25
267.287	225.25
267.52	211.25
267.752	219.25
267.984	220.25
268.216	225.25
268.448	199.25
268.681	236.25
268.913	237.25
269.145	279.25
269.377	263.25
269.609	259.25
269.841	244.25
270.073	267.25
270.306	280.25
270.538	284.25
270.77	297.25
271.002	280.25
271.234	271.25
271.466	281.25
271.698	287.25
271.93	265.25
272.162	300.25
272.394	311.25
272.626	287.25
272.858	287.25
273.09	275.25
273.322	252.25
273.553	276.25
273.785	263.25
274.017	252.25
274.249	263.25
274.481	249.25
274.713	250.25
274.945	259.25
275.176	262.25
275.408	244.25
275.64	251.25
275.872	253.25
276.104	246.25
276.335	270.25
276.567	261.25
276.799	283.25
277.031	300.25
277.262	292.25
277.494	289.25
277.726	292.25
277.957	270.25
278.189	257.25
278.421	259.25
278.652	266.25
278.884	270.25
279.115	265.25
279.347	264.25
279.579	247.25
279.81	259.25
280.042	256.25
280.273	255.25
280.505	247.25
280.736	261.25
280.968	279.25
281.199	271.25
281.431	254.25
281.662	263.25
281.894	281.25
282.125	272.25
282.356	277.25
282.588	300.25
282.819	304.25
283.051	276.25
283.282	282.25
283.513	264.25
283.745	273.25
283.976	275.25
284.207	279.25
284.439	272.25
284.67	285.25
284.901	271.25
285.132	267.25
285.364	279.25
285.595	275.25
285.826	263.25
286.057	283.25
286.288	289.25
286.52	273.25
286.751	273.25
286.982	285.25
287.213	299.25
287.444	273.25
287.675	304.25
287.906	290.25
288.138	301.25
288.369	295.25
288.6	286.25
288.831	297.25
289.062	293.25
289.293	290.25
289.524	299.25
289.755	292.25
289.986	285.25
290.217	287.25
290.448	286.25
290.679	277.25
290.91	292.25
291.141	285.25
291.371	293.25
291.602	296.25
291.833	297.25
292.064	293.25
292.295	301.25
292.526	300.25
292.757	288.25
292.987	313.25
293.218	291.25
293.449	283.25
293.68	285.25
293.91	298.25
294.141	285.25
294.372	309.25
294.603	294.25
294.833	302.25
295.064	303.25
295.295	292.25
295.525	283.25
295.756	285.25
295.987	304.25
296.217	303.25
296.448	304.25
296.679	291.25
296.909	304.25
297.14	297.25
297.37	302.25
297.601	295.25
297.831	300.25
298.062	279.25
298.292	303.25
298.523	307.25
298.753	303.25
298.984	291.25
299.214	288.25
299.445	314.25
299.675	312.25
299.905	304.25
300.136	311.25
300.366	295.25
300.597	307.25
300.827	320.25
301.057	339.25
301.288	317.25
301.518	325.25
301.748	324.25
301.979	320.25
302.209	325.25
302.439	304.25
302.669	319.25
302.9	309.25
303.13	329.25
303.36	324.25
303.59	321.25
303.82	337.25
304.051	339.25
304.281	311.25
304.511	321.25
304.741	330.25
304.971	316.25
305.201	321.25
305.431	319.25
305.661	330.25
305.891	332.25
306.121	331.25
306.352	351.25
306.582	315.25
306.812	323.25
307.042	337.25
307.272	329.25
307.502	339.25
307.731	324.25
307.961	317.25
308.191	341.25
308.421	339.25
308.651	329.25
308.881	328.25
309.111	325.25
309.341	345.25
309.571	341.25
309.8	360.25
310.03	355.25
310.26	339.25
310.49	356.25
310.72	364.25
310.949	367.25
311.179	375.25
311.409	372.25
311.639	356.25
311.868	382.25
312.098	355.25
312.328	373.25
312.557	383.25
312.787	394.25
313.017	388.25
313.246	372.25
313.476	373.25
313.706	361.25
313.935	401.25
314.165	364.25
314.394	382.25
314.624	403.25
314.853	387.25
315.083	375.25
315.312	364.25
315.542	370.25
315.771	366.25
316.001	368.25
316.23	361.25
316.46	390.25
316.689	372.25
316.919	352.25
317.148	375.25
317.377	365.25
317.607	369.25
317.836	377.25
318.065	382.25
318.295	370.25
318.524	346.25
318.753	372.25
318.983	360.25
319.212	357.25
319.441	383.25
319.67	375.25
319.9	371.25
320.129	379.25
320.358	388.25
320.587	382.25
320.816	385.25
321.046	382.25
321.275	400.25
321.504	405.25
321.733	384.25
321.962	385.25
322.191	399.25
322.42	418.25
322.649	425.25
322.878	412.25
323.108	424.25
323.337	464.25
323.566	466.25
323.795	495.25
324.024	518.25
324.253	622.25
324.482	868.25
324.71	1341.25
324.939	2016.25
325.168	1749.25
325.397	897.25
325.626	616.25
325.855	514.25
326.084	485.25
326.313	460.25
326.542	484.25
326.77	517.25
326.999	608.25
327.228	808.25
327.457	1223.25
327.686	1505.25
327.914	1006.25
328.143	645.25
328.372	581.25
328.6	556.25
328.829	545.25
329.058	527.25
329.287	552.25
329.515	507.25
329.744	525.25
329.972	490.25
330.201	503.25
330.43	543.25
330.658	549.25
330.887	572.25
331.115	552.25
331.344	512.25
331.572	475.25
331.801	461.25
332.03	467.25
332.258	464.25
332.486	452.25
332.715	435.25
332.943	454.25
333.172	476.25
333.4	476.25
333.629	463.25
333.857	476.25
334.085	474.25
334.314	499.25
334.542	504.25
334.771	538.25
334.999	507.25
335.227	461.25
335.455	447.25
335.684	449.25
335.912	451.25
336.14	445.25
336.369	445.25
336.597	442.25
336.825	459.25
337.053	429.25
337.281	428.25
337.51	455.25
337.738	426.25
337.966	425.25
338.194	440.25
338.422	437.25
338.65	426.25
338.878	428.25
339.106	411.25
339.334	420.25
339.562	441.25
339.79	425.25
340.018	445.25
340.246	448.25
340.474	437.25
340.702	428.25
340.93	431.25
341.158	416.25
341.386	407.25
341.614	424.25
341.842	437.25
342.07	431.25
342.298	415.25
342.526	431.25
342.754	437.25
342.981	412.25
343.209	415.25
343.437	439.25
343.665	434.25
343.893	437.25
344.12	449.25
344.348	433.25
344.576	424.25
344.804	455.25
345.031	451.25
345.259	460.25
345.487	463.25
345.714	439.25
345.942	462.25
346.17	433.25
346.397	412.25
346.625	418.25
346.853	425.25
347.08	415.25
347.308	425.25
347.535	415.25
347.763	419.25
347.99	441.25
348.218	425.25
348.445	439.25
348.673	444.25
348.9	408.25
349.128	419.25
349.355	399.25
349.583	425.25
349.81	425.25
350.037	398.25
350.265	404.25
350.492	419.25
350.72	417.25
350.947	420.25
351.174	408.25
351.402	424.25
351.629	415.25
351.856	445.25
352.083	422.25
352.311	416.25
352.538	423.25
352.765	425.25
352.992	435.25
353.22	402.25
353.447	429.25
353.674	406.25
353.901	383.25
354.128	391.25
354.355	401.25
354.583	420.25
354.81	399.25
355.037	395.25
355.264	413.25
355.491	397.25
355.718	402.25
355.945	391.25
356.172	402.25
356.399	416.25
356.626	396.25
356.853	405.25
357.08	394.25
357.307	387.25
357.534	401.25
357.761	399.25
357.988	374.25
358.215	409.25
358.441	387.25
358.668	404.25
358.895	388.25
359.122	419.25
359.349	415.25
359.576	395.25
359.802	457.25
360.029	459.25
360.256	456.25
360.483	443.25
360.709	417.25
360.936	450.25
361.163	413.25
361.39	417.25
361.616	426.25
361.843	405.25
362.07	443.25
362.296	438.25
362.523	417.25
362.749	442.25
362.976	412.25
363.203	408.25
363.429	421.25
363.656	396.25
363.882	405.25
364.109	397.25
364.335	420.25
364.562	417.25
364.788	407.25
365.015	430.25
365.241	408.25
365.468	426.25
365.694	413.25
365.92	440.25
366.147	395.25
366.373	415.25
366.599	412.25
366.826	411.25
367.052	417.25
367.278	412.25
367.505	419.25
367.731	421.25
367.957	422.25
368.184	416.25
368.41	421.25
368.636	422.25
368.862	435.25
369.089	427.25
369.315	423.25
369.541	395.25
369.767	402.25
369.993	417.25
370.219	391.25
370.445	424.25
370.672	437.25
370.898	430.25
371.124	425.25
371.35	424.25
371.576	415.25
371.802	429.25
372.028	401.25
372.254	423.25
372.48	427.25
372.706	409.25
372.932	439.25
373.158	431.25
373.384	416.25
373.61	408.25
373.835	399.25
374.061	415.25
374.287	419.25
374.513	411.25
374.739	438.25
374.965	416.25
375.191	433.25
375.416	435.25
375.642	409.25
375.868	408.25
376.094	426.25
376.319	423.25
376.545	425.25
376.771	437.25
376.997	420.25
377.222	412.25
377.448	423.25
377.674	403.25
377.899	425.25
378.125	420.25
378.35	420.25
378.576	423.25
378.802	415.25
379.027	404.25
379.253	424.25
379.478	397.25
379.704	405.25
379.929	438.25
380.155	423.25
380.38	428.25
380.606	423.25
380.831	408.25
381.057	415.25
381.282	435.25
381.507	451.25
381.733	437.25
381.958	424.25
382.184	415.25
382.409	425.25
382.634	443.25
382.86	447.25
383.085	421.25
383.31	453.25
383.535	428.25
383.761	435.25
383.986	434.25
384.211	435.25
384.436	460.25
384.662	455.25
384.887	474.25
385.112	472.25
385.337	463.25
385.562	453.25
385.787	479.25
386.013	471.25
386.238	470.25
386.463	472.25
386.688	471.25
386.913	451.25
387.138	464.25
387.363	480.25
387.588	451.25
387.813	475.25
388.038	473.25
388.263	470.25
388.488	483.25
388.713	499.25
388.938	481.25
389.163	478.25
389.387	480.25
389.612	451.25
389.837	469.25
390.062	477.25
390.287	470.25
390.512	474.25
390.736	466.25
390.961	460.25
391.186	479.25
391.411	478.25
391.636	478.25
391.86	488.25
392.085	468.25
392.31	489.25
392.534	487.25
392.759	472.25
392.984	471.25
393.208	501.25
393.433	491.25
393.658	503.25
393.882	487.25
394.107	474.25
394.331	481.25
394.556	493.25
394.78	496.25
395.005	490.25
395.229	486.25
395.454	503.25
395.678	495.25
395.903	499.25
396.127	545.25
396.352	515.25
396.576	504.25
396.801	505.25
397.025	492.25
397.249	491.25
397.474	521.25
397.698	519.25
397.922	540.25
398.147	529.25
398.371	563.25
398.595	523.25
398.82	540.25
399.044	544.25
399.268	583.25
399.492	603.25
399.717	632.25
399.941	655.25
400.165	671.25
400.389	681.25
400.613	645.25
400.837	582.25
401.062	560.25
401.286	541.25
401.51	543.25
401.734	535.25
401.958	543.25
402.182	563.25
402.406	576.25
402.63	549.25
402.854	572.25
403.078	569.25
403.302	580.25
403.526	561.25
403.75	603.25
403.974	584.25
404.198	566.25
404.422	565.25
404.645	563.25
404.869	579.25
405.093	635.25
405.317	655.25
405.541	676.25
405.765	622.25
405.988	605.25
406.212	605.25
406.436	598.25
406.66	653.25
406.883	609.25
407.107	643.25
407.331	681.25
407.555	752.25
407.778	755.25
408.002	709.25
408.226	629.25
408.449	618.25
408.673	612.25
408.896	670.25
409.12	676.25
409.344	649.25
409.567	588.25
409.791	575.25
410.014	586.25
410.238	568.25
410.461	552.25
410.685	600.25
410.908	604.25
411.132	642.25
411.355	673.25
411.578	637.25
411.802	596.25
412.025	573.25
412.249	579.25
412.472	585.25
412.695	643.25
412.919	622.25
413.142	605.25
413.365	561.25
413.589	565.25
413.812	549.25
414.035	535.25
414.258	536.25
414.482	528.25
414.705	540.25
414.928	525.25
415.151	540.25
415.374	550.25
415.597	542.25
415.821	528.25
416.044	537.25
416.267	564.25
416.49	541.25
416.713	541.25
416.936	544.25
417.159	551.25
417.382	547.25
417.605	542.25
417.828	555.25
418.051	582.25
418.274	551.25
418.497	526.25
418.72	551.25
418.943	528.25
419.166	569.25
419.389	606.25
419.611	592.25
419.834	556.25
420.057	568.25
420.28	567.25
420.503	526.25
420.726	542.25
420.948	555.25
421.171	617.25
421.394	645.25
421.617	573.25
421.839	563.25
422.062	544.25
422.285	573.25
422.507	648.25
422.73	703.25
422.953	701.25
423.175	600.25
423.398	587.25
423.621	569.25
423.843	623.25
424.066	582.25
424.288	601.25
424.511	615.25
424.733	679.25
424.956	754.25
425.178	711.25
425.401	708.25
425.623	745.25
425.846	637.25
426.068	608.25
426.291	584.25
426.513	624.25
426.735	611.25
426.958	632.25
427.18	728.25
427.402	870.25
427.625	942.25
427.847	803.25
428.069	703.25
428.292	622.25
428.514	595.25
428.736	581.25
428.958	589.25
429.181	552.25
429.403	531.25
429.625	558.25
429.847	577.25
430.069	661.25
430.292	661.25
430.514	563.25
430.736	564.25
430.958	518.25
431.18	543.25
431.402	520.25
431.624	527.25
431.846	512.25
432.068	527.25
432.29	536.25
432.512	528.25
432.734	549.25
432.956	557.25
433.178	552.25
433.4	556.25
433.622	539.25
433.844	542.25
434.066	528.25
434.287	520.25
434.509	539.25
434.731	555.25
434.953	542.25
435.175	575.25
435.397	594.25
435.618	593.25
435.84	621.25
436.062	744.25
436.284	813.25
436.505	673.25
436.727	597.25
436.949	577.25
437.17	573.25
437.392	561.25
437.614	550.25
437.835	597.25
438.057	686.25
438.278	799.25
438.5	820.25
438.721	873.25
438.943	854.25
439.165	672.25
439.386	630.25
439.608	591.25
439.829	607.25
440.05	625.25
440.272	664.25
440.493	639.25
440.715	603.25
440.936	573.25
441.158	554.25
441.379	571.25
441.6	571.25
441.822	599.25
442.043	636.25
442.264	728.25
442.486	741.25
442.707	651.25
442.928	613.25
443.149	615.25
443.371	643.25
443.592	680.25
443.813	742.25
444.034	851.25
444.255	703.25
444.476	637.25
444.698	607.25
444.919	592.25
445.14	689.25
445.361	645.25
445.582	659.25
445.803	707.25
446.024	823.25
446.245	820.25
446.466	771.25
446.687	638.25
446.908	592.25
447.129	563.25
447.35	549.25
447.571	544.25
447.792	530.25
448.013	567.25
448.234	571.25
448.455	627.25
448.675	746.25
448.896	873.25
449.117	744.25
449.338	663.25
449.559	795.25
449.779	904.25
450	691.25
450.221	600.25
450.442	571.25
450.662	536.25
450.883	554.25
451.104	541.25
451.324	553.25
451.545	528.25
451.766	499.25
451.986	512.25
452.207	469.25
452.428	496.25
452.648	503.25
452.869	519.25
453.089	512.25
453.31	498.25
453.53	504.25
453.751	512.25
453.971	489.25
454.192	511.25
454.412	506.25
454.633	509.25
454.853	504.25
455.073	477.25
455.294	521.25
455.514	578.25
455.734	561.25
455.955	496.25
456.175	475.25
456.395	479.25
456.616	464.25
456.836	483.25
457.056	457.25
457.276	472.25
457.497	504.25
457.717	493.25
457.937	477.25
458.157	480.25
458.377	483.25
458.598	511.25
458.818	553.25
459.038	641.25
459.258	641.25
459.478	561.25
459.698	540.25
459.918	528.25
460.138	518.25
460.358	532.25
460.578	521.25
460.798	538.25
461.018	558.25
461.238	555.25
461.458	558.25
461.678	580.25
461.898	551.25
462.118	552.25
462.338	539.25
462.558	564.25
462.777	572.25
462.997	593.25
463.217	612.25
463.437	610.25
463.657	589.25
463.876	586.25
464.096	605.25
464.316	583.25
464.536	587.25
464.755	567.25
464.975	600.25
465.195	599.25
465.414	669.25
465.634	619.25
465.854	564.25
466.073	549.25
466.293	502.25
466.512	524.25
466.732	502.25
466.951	529.25
467.171	487.25
467.391	516.25
467.61	518.25
467.829	517.25
468.049	528.25
468.268	509.25
468.488	493.25
468.707	519.25
468.927	531.25
469.146	491.25
469.365	479.25
469.585	491.25
469.804	507.25
470.023	517.25
470.243	521.25
470.462	537.25
470.681	543.25
470.901	565.25
471.12	537.25
471.339	513.25
471.558	535.25
471.777	519.25
471.997	500.25
472.216	523.25
472.435	576.25
472.654	548.25
472.873	529.25
473.092	524.25
473.311	504.25
473.53	520.25
473.749	538.25
473.968	543.25
474.187	674.25
474.406	707.25
474.625	567.25
474.844	543.25
475.063	512.25
475.282	515.25
475.501	520.25
475.72	533.25
475.939	517.25
476.158	528.25
476.377	555.25
476.596	519.25
476.814	534.25
477.033	556.25
477.252	533.25
477.471	574.25
477.69	545.25
477.908	551.25
478.127	555.25
478.346	559.25
478.564	594.25
478.783	577.25
479.002	574.25
479.22	601.25
479.439	615.25
479.658	633.25
479.876	617.25
480.095	641.25
480.313	693.25
480.532	655.25
480.751	622.25
480.969	665.25
481.188	696.25
481.406	719.25
481.624	681.25
481.843	639.25
482.061	639.25
482.28	632.25
482.498	638.25
482.717	603.25
482.935	589.25
483.153	623.25
483.372	616.25
483.59	593.25
483.808	610.25
484.027	613.25
484.245	629.25
484.463	599.25
484.681	613.25
484.9	620.25
485.118	630.25
485.336	621.25
485.554	651.25
485.772	641.25
485.99	632.25
486.209	661.25
486.427	631.25
486.645	649.25
486.863	680.25
487.081	678.25
487.299	655.25
487.517	669.25
487.735	655.25
487.953	659.25
488.171	643.25
488.389	664.25
488.607	646.25
488.825	644.25
489.043	657.25
489.261	658.25
489.479	668.25
489.696	674.25
489.914	680.25
490.132	675.25
490.35	663.25
490.568	678.25
490.786	701.25
491.003	686.25
491.221	686.25
491.439	769.25
491.657	721.25
491.874	749.25
492.092	750.25
492.31	755.25
492.527	743.25
492.745	754.25
492.963	771.25
493.18	768.25
493.398	758.25
493.615	751.25
493.833	753.25
494.05	799.25
494.268	757.25
494.485	791.25
494.703	775.25
494.92	779.25
495.138	780.25
495.355	762.25
495.573	797.25
495.79	796.25
496.008	797.25
496.225	784.25
496.442	798.25
496.66	783.25
496.877	797.25
497.094	797.25
497.312	803.25
497.529	784.25
497.746	822.25
497.963	830.25
498.181	843.25
498.398	836.25
498.615	878.25
498.832	878.25
499.049	916.25
499.267	932.25
499.484	988.25
499.701	997.25
499.918	1034.25
500.135	1078.25
500.352	1128.25
500.569	1149.25
500.786	1143.25
501.003	1140.25
501.22	1100.25
501.437	1061.25
501.654	1036.25
