Data from 1966.PennyLincolnUp.Lamp.En5.5.200Scan.071719.P1.Scan2.head_HRD10591_14-18-47-215.txt Node
Date: Thu Jul 18 14:18:47 EDT 2019
User: cochatt
Spectrometer: HR+D1059
Trigger mode: 1
Integration Time (sec): 1.000000E-1
Scans to average: 1
Electric dark correction enabled: true
Nonlinearity correction enabled: false
Boxcar width: 0
XAxis mode: Wavelengths
Number of Pixels in Spectrum: 2048
>>>>>Begin Spectral Data<<<<<
223.165	-14.94
223.4	-14.94
223.635	-14.94
223.869	-22.94
224.104	-8.94
224.338	-16.94
224.573	-15.94
224.808	-8.94
225.042	-11.94
225.277	-3.94
225.511	-10.94
225.746	-6.94
225.98	13.06
226.215	8.06
226.449	18.06
226.683	22.06
226.918	25.06
227.152	36.06
227.387	46.06
227.621	31.06
227.856	32.06
228.09	47.06
228.324	51.06
228.559	57.06
228.793	86.06
229.027	110.06
229.262	119.06
229.496	104.06
229.73	139.06
229.964	165.06
230.199	145.06
230.433	117.06
230.667	108.06
230.901	123.06
231.136	110.06
231.37	118.06
231.604	115.06
231.838	113.06
232.072	120.06
232.306	116.06
232.541	95.06
232.775	117.06
233.009	121.06
233.243	117.06
233.477	127.06
233.711	122.06
233.945	128.06
234.179	116.06
234.413	116.06
234.647	114.06
234.881	112.06
235.115	136.06
235.349	113.06
235.583	132.06
235.817	129.06
236.051	140.06
236.285	129.06
236.519	128.06
236.753	138.06
236.987	150.06
237.221	197.06
237.455	246.06
237.689	208.06
237.922	144.06
238.156	134.06
238.39	143.06
238.624	136.06
238.858	137.06
239.091	135.06
239.325	125.06
239.559	132.06
239.793	130.06
240.027	136.06
240.26	153.06
240.494	165.06
240.728	149.06
240.961	154.06
241.195	148.06
241.429	158.06
241.662	142.06
241.896	146.06
242.13	138.06
242.363	154.06
242.597	146.06
242.83	151.06
243.064	171.06
243.298	156.06
243.531	152.06
243.765	143.06
243.998	142.06
244.232	144.06
244.465	152.06
244.699	163.06
244.932	159.06
245.166	165.06
245.399	159.06
245.633	165.06
245.866	150.06
246.099	147.06
246.333	164.06
246.566	164.06
246.8	155.06
247.033	168.06
247.266	162.06
247.5	169.06
247.733	200.06
247.966	189.06
248.2	178.06
248.433	174.06
248.666	173.06
248.899	183.06
249.133	202.06
249.366	212.06
249.599	218.06
249.832	187.06
250.066	208.06
250.299	188.06
250.532	194.06
250.765	205.06
250.998	239.06
251.231	250.06
251.465	220.06
251.698	212.06
251.931	234.06
252.164	216.06
252.397	212.06
252.63	200.06
252.863	206.06
253.096	230.06
253.329	225.06
253.562	241.06
253.795	236.06
254.028	228.06
254.261	235.06
254.494	248.06
254.727	258.06
254.96	281.06
255.193	293.06
255.426	248.06
255.659	238.06
255.892	246.06
256.124	234.06
256.357	244.06
256.59	239.06
256.823	225.06
257.056	219.06
257.289	220.06
257.521	214.06
257.754	220.06
257.987	216.06
258.22	206.06
258.452	202.06
258.685	223.06
258.918	214.06
259.151	225.06
259.383	233.06
259.616	225.06
259.849	233.06
260.081	243.06
260.314	264.06
260.547	264.06
260.779	260.06
261.012	259.06
261.244	241.06
261.477	249.06
261.71	243.06
261.942	234.06
262.175	240.06
262.407	238.06
262.64	211.06
262.872	228.06
263.105	230.06
263.337	237.06
263.57	213.06
263.802	231.06
264.035	219.06
264.267	209.06
264.499	214.06
264.732	224.06
264.964	216.06
265.197	231.06
265.429	223.06
265.661	222.06
265.894	222.06
266.126	230.06
266.358	234.06
266.591	235.06
266.823	240.06
267.055	227.06
267.287	253.06
267.52	238.06
267.752	232.06
267.984	253.06
268.216	250.06
268.448	248.06
268.681	251.06
268.913	259.06
269.145	268.06
269.377	297.06
269.609	300.06
269.841	268.06
270.073	289.06
270.306	305.06
270.538	332.06
270.77	337.06
271.002	320.06
271.234	319.06
271.466	308.06
271.698	335.06
271.93	320.06
272.162	318.06
272.394	329.06
272.626	312.06
272.858	315.06
273.09	289.06
273.322	276.06
273.553	265.06
273.785	270.06
274.017	271.06
274.249	288.06
274.481	254.06
274.713	274.06
274.945	276.06
275.176	273.06
275.408	288.06
275.64	264.06
275.872	277.06
276.104	272.06
276.335	250.06
276.567	289.06
276.799	304.06
277.031	313.06
277.262	342.06
277.494	346.06
277.726	325.06
277.957	308.06
278.189	304.06
278.421	312.06
278.652	291.06
278.884	306.06
279.115	277.06
279.347	280.06
279.579	285.06
279.81	290.06
280.042	276.06
280.273	293.06
280.505	273.06
280.736	282.06
280.968	293.06
281.199	296.06
281.431	281.06
281.662	274.06
281.894	270.06
282.125	280.06
282.356	299.06
282.588	306.06
282.819	318.06
283.051	301.06
283.282	284.06
283.513	285.06
283.745	291.06
283.976	278.06
284.207	291.06
284.439	296.06
284.67	302.06
284.901	297.06
285.132	300.06
285.364	287.06
285.595	299.06
285.826	301.06
286.057	286.06
286.288	292.06
286.52	295.06
286.751	292.06
286.982	306.06
287.213	303.06
287.444	314.06
287.675	307.06
287.906	313.06
288.138	323.06
288.369	327.06
288.6	326.06
288.831	313.06
289.062	306.06
289.293	330.06
289.524	308.06
289.755	317.06
289.986	311.06
290.217	302.06
290.448	318.06
290.679	298.06
290.91	323.06
291.141	301.06
291.371	328.06
291.602	320.06
291.833	303.06
292.064	312.06
292.295	326.06
292.526	308.06
292.757	315.06
292.987	301.06
293.218	333.06
293.449	309.06
293.68	331.06
293.91	314.06
294.141	304.06
294.372	301.06
294.603	304.06
294.833	302.06
295.064	306.06
295.295	325.06
295.525	325.06
295.756	308.06
295.987	305.06
296.217	330.06
296.448	343.06
296.679	330.06
296.909	313.06
297.14	297.06
297.37	315.06
297.601	327.06
297.831	324.06
298.062	330.06
298.292	320.06
298.523	326.06
298.753	319.06
298.984	325.06
299.214	321.06
299.445	306.06
299.675	333.06
299.905	328.06
300.136	321.06
300.366	329.06
300.597	342.06
300.827	342.06
301.057	347.06
301.288	342.06
301.518	336.06
301.748	338.06
301.979	337.06
302.209	352.06
302.439	345.06
302.669	347.06
302.9	360.06
303.13	336.06
303.36	348.06
303.59	362.06
303.82	352.06
304.051	368.06
304.281	357.06
304.511	358.06
304.741	359.06
304.971	333.06
305.201	358.06
305.431	336.06
305.661	369.06
305.891	350.06
306.121	352.06
306.352	357.06
306.582	345.06
306.812	353.06
307.042	365.06
307.272	360.06
307.502	356.06
307.731	350.06
307.961	349.06
308.191	352.06
308.421	359.06
308.651	338.06
308.881	357.06
309.111	358.06
309.341	359.06
309.571	357.06
309.8	369.06
310.03	403.06
310.26	388.06
310.49	388.06
310.72	393.06
310.949	398.06
311.179	408.06
311.409	397.06
311.639	381.06
311.868	400.06
312.098	394.06
312.328	391.06
312.557	408.06
312.787	427.06
313.017	432.06
313.246	423.06
313.476	399.06
313.706	397.06
313.935	417.06
314.165	424.06
314.394	427.06
314.624	408.06
314.853	398.06
315.083	400.06
315.312	400.06
315.542	404.06
315.771	392.06
316.001	403.06
316.23	393.06
316.46	397.06
316.689	392.06
316.919	398.06
317.148	424.06
317.377	430.06
317.607	400.06
317.836	412.06
318.065	404.06
318.295	378.06
318.524	392.06
318.753	389.06
318.983	408.06
319.212	398.06
319.441	416.06
319.67	393.06
319.9	399.06
320.129	398.06
320.358	409.06
320.587	398.06
320.816	407.06
321.046	416.06
321.275	416.06
321.504	434.06
321.733	424.06
321.962	458.06
322.191	446.06
322.42	452.06
322.649	483.06
322.878	462.06
323.108	472.06
323.337	497.06
323.566	536.06
323.795	538.06
324.024	582.06
324.253	721.06
324.482	1016.06
324.71	1579.06
324.939	2350.06
325.168	2032.06
325.397	1018.06
325.626	699.06
325.855	572.06
326.084	544.06
326.313	515.06
326.542	524.06
326.77	557.06
326.999	660.06
327.228	934.06
327.457	1435.06
327.686	1771.06
327.914	1147.06
328.143	750.06
328.372	655.06
328.6	610.06
328.829	582.06
329.058	601.06
329.287	616.06
329.515	577.06
329.744	525.06
329.972	550.06
330.201	559.06
330.43	614.06
330.658	626.06
330.887	649.06
331.115	635.06
331.344	551.06
331.572	538.06
331.801	532.06
332.03	524.06
332.258	469.06
332.486	498.06
332.715	492.06
332.943	483.06
333.172	493.06
333.4	506.06
333.629	494.06
333.857	527.06
334.085	530.06
334.314	536.06
334.542	595.06
334.771	599.06
334.999	542.06
335.227	522.06
335.455	469.06
335.684	505.06
335.912	480.06
336.14	480.06
336.369	484.06
336.597	504.06
336.825	500.06
337.053	493.06
337.281	478.06
337.51	465.06
337.738	490.06
337.966	479.06
338.194	491.06
338.422	486.06
338.65	480.06
338.878	466.06
339.106	459.06
339.334	467.06
339.562	476.06
339.79	470.06
340.018	479.06
340.246	465.06
340.474	471.06
340.702	458.06
340.93	463.06
341.158	480.06
341.386	470.06
341.614	461.06
341.842	470.06
342.07	454.06
342.298	449.06
342.526	452.06
342.754	436.06
342.981	435.06
343.209	430.06
343.437	468.06
343.665	485.06
343.893	475.06
344.12	485.06
344.348	482.06
344.576	453.06
344.804	480.06
345.031	491.06
345.259	480.06
345.487	489.06
345.714	499.06
345.942	438.06
346.17	452.06
346.397	454.06
346.625	445.06
346.853	444.06
347.08	457.06
347.308	452.06
347.535	459.06
347.763	477.06
347.99	457.06
348.218	475.06
348.445	482.06
348.673	464.06
348.9	461.06
349.128	458.06
349.355	440.06
349.583	469.06
349.81	455.06
350.037	417.06
350.265	440.06
350.492	449.06
350.72	439.06
350.947	479.06
351.174	462.06
351.402	450.06
351.629	476.06
351.856	459.06
352.083	482.06
352.311	474.06
352.538	470.06
352.765	457.06
352.992	459.06
353.22	466.06
353.447	448.06
353.674	456.06
353.901	438.06
354.128	427.06
354.355	399.06
354.583	457.06
354.81	442.06
355.037	415.06
355.264	428.06
355.491	423.06
355.718	437.06
355.945	433.06
356.172	423.06
356.399	416.06
356.626	433.06
356.853	420.06
357.08	421.06
357.307	439.06
357.534	407.06
357.761	427.06
357.988	429.06
358.215	421.06
358.441	429.06
358.668	443.06
358.895	456.06
359.122	429.06
359.349	440.06
359.576	474.06
359.802	477.06
360.029	494.06
360.256	513.06
360.483	498.06
360.709	457.06
360.936	476.06
361.163	464.06
361.39	472.06
361.616	475.06
361.843	472.06
362.07	437.06
362.296	450.06
362.523	472.06
362.749	440.06
362.976	458.06
363.203	448.06
363.429	436.06
363.656	444.06
363.882	442.06
364.109	425.06
364.335	412.06
364.562	422.06
364.788	449.06
365.015	450.06
365.241	455.06
365.468	438.06
365.694	455.06
365.92	452.06
366.147	452.06
366.373	453.06
366.599	446.06
366.826	433.06
367.052	440.06
367.278	438.06
367.505	437.06
367.731	432.06
367.957	431.06
368.184	458.06
368.41	444.06
368.636	460.06
368.862	445.06
369.089	446.06
369.315	464.06
369.541	455.06
369.767	453.06
369.993	445.06
370.219	454.06
370.445	450.06
370.672	439.06
370.898	448.06
371.124	443.06
371.35	464.06
371.576	443.06
371.802	428.06
372.028	444.06
372.254	454.06
372.48	462.06
372.706	473.06
372.932	461.06
373.158	447.06
373.384	445.06
373.61	472.06
373.835	454.06
374.061	460.06
374.287	455.06
374.513	466.06
374.739	476.06
374.965	446.06
375.191	465.06
375.416	484.06
375.642	462.06
375.868	484.06
376.094	445.06
376.319	452.06
376.545	450.06
376.771	454.06
376.997	452.06
377.222	447.06
377.448	444.06
377.674	426.06
377.899	456.06
378.125	436.06
378.35	444.06
378.576	439.06
378.802	436.06
379.027	451.06
379.253	459.06
379.478	440.06
379.704	432.06
379.929	448.06
380.155	462.06
380.38	445.06
380.606	452.06
380.831	462.06
381.057	455.06
381.282	459.06
381.507	465.06
381.733	476.06
381.958	447.06
382.184	452.06
382.409	446.06
382.634	467.06
382.86	458.06
383.085	468.06
383.31	470.06
383.535	437.06
383.761	465.06
383.986	476.06
384.211	481.06
384.436	486.06
384.662	495.06
384.887	468.06
385.112	503.06
385.337	479.06
385.562	470.06
385.787	510.06
386.013	512.06
386.238	524.06
386.463	529.06
386.688	486.06
386.913	494.06
387.138	514.06
387.363	495.06
387.588	506.06
387.813	509.06
388.038	489.06
388.263	497.06
388.488	499.06
388.713	491.06
388.938	507.06
389.163	513.06
389.387	497.06
389.612	485.06
389.837	507.06
390.062	507.06
390.287	513.06
390.512	483.06
390.736	514.06
390.961	492.06
391.186	508.06
391.411	483.06
391.636	510.06
391.86	527.06
392.085	514.06
392.31	508.06
392.534	514.06
392.759	509.06
392.984	514.06
393.208	525.06
393.433	531.06
393.658	531.06
393.882	489.06
394.107	514.06
394.331	531.06
394.556	518.06
394.78	520.06
395.005	508.06
395.229	506.06
395.454	524.06
395.678	534.06
395.903	534.06
396.127	558.06
396.352	575.06
396.576	522.06
396.801	550.06
397.025	540.06
397.249	525.06
397.474	555.06
397.698	551.06
397.922	562.06
398.147	574.06
398.371	589.06
398.595	586.06
398.82	582.06
399.044	594.06
399.268	607.06
399.492	640.06
399.717	672.06
399.941	690.06
400.165	710.06
400.389	733.06
400.613	675.06
400.837	646.06
401.062	603.06
401.286	595.06
401.51	574.06
401.734	574.06
401.958	582.06
402.182	588.06
402.406	601.06
402.63	602.06
402.854	598.06
403.078	615.06
403.302	617.06
403.526	597.06
403.75	594.06
403.974	628.06
404.198	598.06
404.422	604.06
404.645	616.06
404.869	621.06
405.093	642.06
405.317	696.06
405.541	723.06
405.765	660.06
405.988	630.06
406.212	666.06
406.436	678.06
406.66	703.06
406.883	659.06
407.107	670.06
407.331	726.06
407.555	814.06
407.778	815.06
408.002	758.06
408.226	694.06
408.449	671.06
408.673	679.06
408.896	714.06
409.12	736.06
409.344	693.06
409.567	621.06
409.791	623.06
410.014	618.06
410.238	632.06
410.461	630.06
410.685	641.06
410.908	642.06
411.132	694.06
411.355	716.06
411.578	686.06
411.802	606.06
412.025	598.06
412.249	613.06
412.472	653.06
412.695	721.06
412.919	700.06
413.142	635.06
413.365	608.06
413.589	617.06
413.812	588.06
414.035	561.06
414.258	587.06
414.482	583.06
414.705	608.06
414.928	581.06
415.151	588.06
415.374	553.06
415.597	583.06
415.821	574.06
416.044	603.06
416.267	564.06
416.49	562.06
416.713	560.06
416.936	587.06
417.159	578.06
417.382	577.06
417.605	599.06
417.828	601.06
418.051	621.06
418.274	598.06
418.497	580.06
418.72	580.06
418.943	560.06
419.166	589.06
419.389	632.06
419.611	633.06
419.834	626.06
420.057	618.06
420.28	616.06
420.503	608.06
420.726	605.06
420.948	617.06
421.171	696.06
421.394	706.06
421.617	640.06
421.839	581.06
422.062	570.06
422.285	630.06
422.507	680.06
422.73	787.06
422.953	756.06
423.175	650.06
423.398	618.06
423.621	635.06
423.843	660.06
424.066	637.06
424.288	655.06
424.511	654.06
424.733	732.06
424.956	800.06
425.178	782.06
425.401	776.06
425.623	810.06
425.846	715.06
426.068	636.06
426.291	633.06
426.513	659.06
426.735	644.06
426.958	711.06
427.18	790.06
427.402	961.06
427.625	1047.06
427.847	873.06
428.069	806.06
428.292	716.06
428.514	642.06
428.736	614.06
428.958	616.06
429.181	573.06
429.403	586.06
429.625	612.06
429.847	664.06
430.069	741.06
430.292	702.06
430.514	634.06
430.736	597.06
430.958	580.06
431.18	568.06
431.402	561.06
431.624	583.06
431.846	578.06
432.068	563.06
432.29	552.06
432.512	577.06
432.734	603.06
432.956	564.06
433.178	593.06
433.4	583.06
433.622	566.06
433.844	561.06
434.066	564.06
434.287	559.06
434.509	572.06
434.731	589.06
434.953	590.06
435.175	629.06
435.397	642.06
435.618	639.06
435.84	679.06
436.062	804.06
436.284	878.06
436.505	721.06
436.727	668.06
436.949	602.06
437.17	580.06
437.392	593.06
437.614	598.06
437.835	661.06
438.057	769.06
438.278	884.06
438.5	871.06
438.721	972.06
438.943	924.06
439.165	716.06
439.386	692.06
439.608	651.06
439.829	650.06
440.05	688.06
440.272	750.06
440.493	698.06
440.715	602.06
440.936	609.06
441.158	605.06
441.379	579.06
441.6	612.06
441.822	628.06
442.043	674.06
442.264	788.06
442.486	831.06
442.707	735.06
442.928	673.06
443.149	663.06
443.371	719.06
443.592	747.06
443.813	844.06
444.034	917.06
444.255	762.06
444.476	690.06
444.698	668.06
444.919	658.06
445.14	769.06
445.361	727.06
445.582	720.06
445.803	826.06
446.024	899.06
446.245	894.06
446.466	840.06
446.687	703.06
446.908	669.06
447.129	612.06
447.35	617.06
447.571	580.06
447.792	580.06
448.013	598.06
448.234	604.06
448.455	675.06
448.675	810.06
448.896	924.06
449.117	796.06
449.338	751.06
449.559	888.06
449.779	994.06
450	779.06
450.221	646.06
450.442	612.06
450.662	600.06
450.883	603.06
451.104	606.06
451.324	583.06
451.545	568.06
451.766	555.06
451.986	548.06
452.207	524.06
452.428	528.06
452.648	522.06
452.869	541.06
453.089	549.06
453.31	543.06
453.53	534.06
453.751	551.06
453.971	533.06
454.192	550.06
454.412	562.06
454.633	533.06
454.853	549.06
455.073	544.06
455.294	571.06
455.514	635.06
455.734	603.06
455.955	553.06
456.175	516.06
456.395	506.06
456.616	503.06
456.836	512.06
457.056	492.06
457.276	510.06
457.497	520.06
457.717	503.06
457.937	495.06
458.157	509.06
458.377	527.06
458.598	562.06
458.818	634.06
459.038	704.06
459.258	708.06
459.478	632.06
459.698	574.06
459.918	570.06
460.138	559.06
460.358	598.06
460.578	574.06
460.798	593.06
461.018	597.06
461.238	579.06
461.458	600.06
461.678	597.06
461.898	586.06
462.118	582.06
462.338	617.06
462.558	585.06
462.777	628.06
462.997	627.06
463.217	652.06
463.437	653.06
463.657	645.06
463.876	628.06
464.096	638.06
464.316	595.06
464.536	637.06
464.755	616.06
464.975	612.06
465.195	672.06
465.414	725.06
465.634	647.06
465.854	630.06
466.073	598.06
466.293	553.06
466.512	545.06
466.732	530.06
466.951	523.06
467.171	539.06
467.391	545.06
467.61	564.06
467.829	581.06
468.049	585.06
468.268	545.06
468.488	550.06
468.707	540.06
468.927	529.06
469.146	546.06
469.365	535.06
469.585	540.06
469.804	549.06
470.023	584.06
470.243	548.06
470.462	585.06
470.681	584.06
470.901	571.06
471.12	560.06
471.339	548.06
471.558	557.06
471.777	570.06
471.997	545.06
472.216	569.06
472.435	596.06
472.654	602.06
472.873	564.06
473.092	544.06
473.311	564.06
473.53	561.06
473.749	588.06
473.968	614.06
474.187	743.06
474.406	738.06
474.625	619.06
474.844	583.06
475.063	556.06
475.282	558.06
475.501	554.06
475.72	600.06
475.939	592.06
476.158	582.06
476.377	590.06
476.596	563.06
476.814	564.06
477.033	615.06
477.252	606.06
477.471	576.06
477.69	592.06
477.908	616.06
478.127	625.06
478.346	614.06
478.564	618.06
478.783	646.06
479.002	648.06
479.22	659.06
479.439	649.06
479.658	667.06
479.876	679.06
480.095	687.06
480.313	720.06
480.532	704.06
480.751	695.06
480.969	713.06
481.188	781.06
481.406	814.06
481.624	727.06
481.843	700.06
482.061	672.06
482.28	686.06
482.498	680.06
482.717	650.06
482.935	660.06
483.153	659.06
483.372	669.06
483.59	657.06
483.808	661.06
484.027	665.06
484.245	665.06
484.463	658.06
484.681	695.06
484.9	662.06
485.118	681.06
485.336	684.06
485.554	670.06
485.772	683.06
485.99	692.06
486.209	689.06
486.427	685.06
486.645	681.06
486.863	705.06
487.081	705.06
487.299	734.06
487.517	690.06
487.735	696.06
487.953	712.06
488.171	706.06
488.389	672.06
488.607	701.06
488.825	724.06
489.043	702.06
489.261	702.06
489.479	740.06
489.696	746.06
489.914	760.06
490.132	727.06
490.35	717.06
490.568	775.06
490.786	749.06
491.003	767.06
491.221	763.06
491.439	806.06
491.657	803.06
491.874	824.06
492.092	833.06
492.31	832.06
492.527	813.06
492.745	822.06
492.963	849.06
493.18	841.06
493.398	828.06
493.615	855.06
493.833	845.06
494.05	841.06
494.268	818.06
494.485	835.06
494.703	873.06
494.92	845.06
495.138	861.06
495.355	842.06
495.573	848.06
495.79	841.06
496.008	856.06
496.225	819.06
496.442	860.06
496.66	856.06
496.877	864.06
497.094	872.06
497.312	886.06
497.529	871.06
497.746	906.06
497.963	920.06
498.181	936.06
498.398	928.06
498.615	946.06
498.832	983.06
499.049	1010.06
499.267	1002.06
499.484	1045.06
499.701	1109.06
499.918	1098.06
500.135	1167.06
500.352	1215.06
500.569	1227.06
500.786	1217.06
501.003	1210.06
501.22	1191.06
501.437	1142.06
501.654	1115.06
