Data from 1966.PennyLincolnUp.Lamp.En5.5.200Scan.071719.P1._HRD10591_14-14-21-914.txt Node
Date: Thu Jul 18 14:14:21 EDT 2019
User: cochatt
Spectrometer: HR+D1059
Trigger mode: 1
Integration Time (sec): 1.000000E-1
Scans to average: 1
Electric dark correction enabled: true
Nonlinearity correction enabled: false
Boxcar width: 0
XAxis mode: Wavelengths
Number of Pixels in Spectrum: 2048
>>>>>Begin Spectral Data<<<<<
223.165	-13.69
223.4	-13.69
223.635	-13.69
223.869	-20.69
224.104	-27.69
224.338	-8.69
224.573	5.31
224.808	-10.69
225.042	-12.69
225.277	-6.69
225.511	-0.69
225.746	4.31
225.98	4.31
226.215	16.31
226.449	11.31
226.683	29.31
226.918	27.31
227.152	3.31
227.387	24.31
227.621	27.31
227.856	41.31
228.09	36.31
228.324	55.31
228.559	50.31
228.793	67.31
229.027	73.31
229.262	92.31
229.496	97.31
229.73	89.31
229.964	128.31
230.199	102.31
230.433	89.31
230.667	90.31
230.901	82.31
231.136	86.31
231.37	81.31
231.604	74.31
231.838	83.31
232.072	90.31
232.306	99.31
232.541	89.31
232.775	82.31
233.009	99.31
233.243	84.31
233.477	88.31
233.711	86.31
233.945	102.31
234.179	97.31
234.413	90.31
234.647	99.31
234.881	86.31
235.115	101.31
235.349	115.31
235.583	83.31
235.817	91.31
236.051	97.31
236.285	92.31
236.519	90.31
236.753	107.31
236.987	119.31
237.221	126.31
237.455	154.31
237.689	124.31
237.922	104.31
238.156	87.31
238.39	103.31
238.624	99.31
238.858	90.31
239.091	91.31
239.325	86.31
239.559	87.31
239.793	86.31
240.027	110.31
240.26	95.31
240.494	105.31
240.728	102.31
240.961	116.31
241.195	124.31
241.429	101.31
241.662	111.31
241.896	91.31
242.13	84.31
242.363	86.31
242.597	105.31
242.83	107.31
243.064	109.31
243.298	97.31
243.531	99.31
243.765	111.31
243.998	103.31
244.232	97.31
244.465	112.31
244.699	112.31
244.932	92.31
245.166	89.31
245.399	112.31
245.633	98.31
245.866	103.31
246.099	113.31
246.333	106.31
246.566	115.31
246.8	101.31
247.033	96.31
247.266	95.31
247.5	108.31
247.733	119.31
247.966	114.31
248.2	117.31
248.433	120.31
248.666	97.31
248.899	123.31
249.133	145.31
249.366	140.31
249.599	120.31
249.832	129.31
250.066	131.31
250.299	135.31
250.532	128.31
250.765	143.31
250.998	134.31
251.231	144.31
251.465	121.31
251.698	127.31
251.931	135.31
252.164	137.31
252.397	122.31
252.63	126.31
252.863	134.31
253.096	145.31
253.329	128.31
253.562	131.31
253.795	143.31
254.028	120.31
254.261	129.31
254.494	140.31
254.727	155.31
254.96	180.31
255.193	160.31
255.426	145.31
255.659	154.31
255.892	166.31
256.124	149.31
256.357	131.31
256.59	147.31
256.823	127.31
257.056	128.31
257.289	129.31
257.521	131.31
257.754	122.31
257.987	134.31
258.22	133.31
258.452	123.31
258.685	127.31
258.918	134.31
259.151	139.31
259.383	134.31
259.616	130.31
259.849	132.31
260.081	143.31
260.314	148.31
260.547	150.31
260.779	147.31
261.012	126.31
261.244	140.31
261.477	137.31
261.71	137.31
261.942	140.31
262.175	151.31
262.407	139.31
262.64	135.31
262.872	124.31
263.105	131.31
263.337	131.31
263.57	132.31
263.802	133.31
264.035	132.31
264.267	134.31
264.499	145.31
264.732	134.31
264.964	140.31
265.197	123.31
265.429	136.31
265.661	126.31
265.894	136.31
266.126	140.31
266.358	131.31
266.591	135.31
266.823	143.31
267.055	115.31
267.287	125.31
267.52	120.31
267.752	139.31
267.984	138.31
268.216	143.31
268.448	149.31
268.681	149.31
268.913	159.31
269.145	168.31
269.377	153.31
269.609	159.31
269.841	162.31
270.073	140.31
270.306	169.31
270.538	186.31
270.77	165.31
271.002	159.31
271.234	156.31
271.466	182.31
271.698	202.31
271.93	189.31
272.162	168.31
272.394	178.31
272.626	170.31
272.858	163.31
273.09	146.31
273.322	152.31
273.553	141.31
273.785	161.31
274.017	163.31
274.249	149.31
274.481	133.31
274.713	155.31
274.945	167.31
275.176	162.31
275.408	153.31
275.64	143.31
275.872	155.31
276.104	139.31
276.335	157.31
276.567	149.31
276.799	174.31
277.031	179.31
277.262	183.31
277.494	182.31
277.726	172.31
277.957	174.31
278.189	156.31
278.421	162.31
278.652	149.31
278.884	162.31
279.115	145.31
279.347	173.31
279.579	164.31
279.81	166.31
280.042	160.31
280.273	157.31
280.505	162.31
280.736	168.31
280.968	158.31
281.199	156.31
281.431	151.31
281.662	161.31
281.894	163.31
282.125	159.31
282.356	180.31
282.588	190.31
282.819	172.31
283.051	177.31
283.282	172.31
283.513	162.31
283.745	155.31
283.976	168.31
284.207	183.31
284.439	159.31
284.67	149.31
284.901	171.31
285.132	169.31
285.364	166.31
285.595	167.31
285.826	149.31
286.057	161.31
286.288	155.31
286.52	150.31
286.751	180.31
286.982	158.31
287.213	167.31
287.444	170.31
287.675	168.31
287.906	181.31
288.138	157.31
288.369	181.31
288.6	171.31
288.831	171.31
289.062	160.31
289.293	167.31
289.524	161.31
289.755	173.31
289.986	160.31
290.217	163.31
290.448	166.31
290.679	172.31
290.91	168.31
291.141	161.31
291.371	160.31
291.602	177.31
291.833	162.31
292.064	167.31
292.295	175.31
292.526	164.31
292.757	170.31
292.987	162.31
293.218	145.31
293.449	175.31
293.68	160.31
293.91	159.31
294.141	168.31
294.372	159.31
294.603	177.31
294.833	156.31
295.064	164.31
295.295	181.31
295.525	168.31
295.756	171.31
295.987	197.31
296.217	194.31
296.448	195.31
296.679	188.31
296.909	172.31
297.14	181.31
297.37	183.31
297.601	163.31
297.831	173.31
298.062	166.31
298.292	168.31
298.523	183.31
298.753	180.31
298.984	177.31
299.214	185.31
299.445	188.31
299.675	165.31
299.905	183.31
300.136	162.31
300.366	156.31
300.597	175.31
300.827	184.31
301.057	173.31
301.288	192.31
301.518	185.31
301.748	183.31
301.979	172.31
302.209	179.31
302.439	191.31
302.669	180.31
302.9	186.31
303.13	191.31
303.36	181.31
303.59	178.31
303.82	181.31
304.051	194.31
304.281	178.31
304.511	187.31
304.741	184.31
304.971	186.31
305.201	173.31
305.431	175.31
305.661	167.31
305.891	183.31
306.121	194.31
306.352	191.31
306.582	201.31
306.812	176.31
307.042	158.31
307.272	191.31
307.502	188.31
307.731	183.31
307.961	189.31
308.191	186.31
308.421	193.31
308.651	195.31
308.881	195.31
309.111	194.31
309.341	195.31
309.571	212.31
309.8	188.31
310.03	220.31
310.26	207.31
310.49	195.31
310.72	227.31
310.949	213.31
311.179	218.31
311.409	213.31
311.639	219.31
311.868	202.31
312.098	222.31
312.328	211.31
312.557	217.31
312.787	218.31
313.017	231.31
313.246	220.31
313.476	200.31
313.706	208.31
313.935	201.31
314.165	205.31
314.394	213.31
314.624	216.31
314.853	196.31
315.083	236.31
315.312	209.31
315.542	233.31
315.771	195.31
316.001	187.31
316.23	188.31
316.46	203.31
316.689	200.31
316.919	200.31
317.148	206.31
317.377	221.31
317.607	217.31
317.836	218.31
318.065	212.31
318.295	210.31
318.524	205.31
318.753	193.31
318.983	215.31
319.212	216.31
319.441	213.31
319.67	205.31
319.9	205.31
320.129	184.31
320.358	196.31
320.587	213.31
320.816	203.31
321.046	219.31
321.275	215.31
321.504	210.31
321.733	209.31
321.962	224.31
322.191	234.31
322.42	220.31
322.649	248.31
322.878	239.31
323.108	231.31
323.337	268.31
323.566	247.31
323.795	267.31
324.024	308.31
324.253	372.31
324.482	535.31
324.71	797.31
324.939	1059.31
325.168	860.31
325.397	439.31
325.626	331.31
325.855	277.31
326.084	248.31
326.313	272.31
326.542	269.31
326.77	279.31
326.999	344.31
327.228	472.31
327.457	687.31
327.686	825.31
327.914	526.31
328.143	365.31
328.372	345.31
328.6	309.31
328.829	288.31
329.058	303.31
329.287	305.31
329.515	283.31
329.744	269.31
329.972	276.31
330.201	289.31
330.43	312.31
330.658	338.31
330.887	338.31
331.115	336.31
331.344	282.31
331.572	259.31
331.801	240.31
332.03	273.31
332.258	259.31
332.486	242.31
332.715	235.31
332.943	220.31
333.172	228.31
333.4	237.31
333.629	253.31
333.857	263.31
334.085	260.31
334.314	282.31
334.542	300.31
334.771	307.31
334.999	295.31
335.227	265.31
335.455	243.31
335.684	242.31
335.912	229.31
336.14	234.31
336.369	236.31
336.597	252.31
336.825	224.31
337.053	236.31
337.281	217.31
337.51	227.31
337.738	246.31
337.966	239.31
338.194	232.31
338.422	214.31
338.65	215.31
338.878	227.31
339.106	223.31
339.334	225.31
339.562	212.31
339.79	228.31
340.018	227.31
340.246	218.31
340.474	226.31
340.702	220.31
340.93	225.31
341.158	214.31
341.386	242.31
341.614	242.31
341.842	232.31
342.07	215.31
342.298	218.31
342.526	236.31
342.754	209.31
342.981	217.31
343.209	210.31
343.437	216.31
343.665	243.31
343.893	221.31
344.12	219.31
344.348	225.31
344.576	227.31
344.804	219.31
345.031	234.31
345.259	231.31
345.487	246.31
345.714	223.31
345.942	227.31
346.17	229.31
346.397	207.31
346.625	232.31
346.853	227.31
347.08	223.31
347.308	216.31
347.535	221.31
347.763	219.31
347.99	224.31
348.218	220.31
348.445	242.31
348.673	239.31
348.9	219.31
349.128	216.31
349.355	224.31
349.583	218.31
349.81	208.31
350.037	209.31
350.265	218.31
350.492	222.31
350.72	224.31
350.947	215.31
351.174	221.31
351.402	225.31
351.629	239.31
351.856	224.31
352.083	228.31
352.311	231.31
352.538	224.31
352.765	234.31
352.992	241.31
353.22	224.31
353.447	218.31
353.674	219.31
353.901	208.31
354.128	199.31
354.355	220.31
354.583	199.31
354.81	212.31
355.037	198.31
355.264	204.31
355.491	200.31
355.718	187.31
355.945	188.31
356.172	181.31
356.399	185.31
356.626	194.31
356.853	198.31
357.08	193.31
357.307	212.31
357.534	187.31
357.761	187.31
357.988	199.31
358.215	202.31
358.441	217.31
358.668	193.31
358.895	208.31
359.122	203.31
359.349	209.31
359.576	215.31
359.802	235.31
360.029	260.31
360.256	266.31
360.483	249.31
360.709	209.31
360.936	220.31
361.163	214.31
361.39	223.31
361.616	216.31
361.843	207.31
362.07	215.31
362.296	214.31
362.523	208.31
362.749	207.31
362.976	216.31
363.203	228.31
363.429	209.31
363.656	228.31
363.882	205.31
364.109	203.31
364.335	193.31
364.562	181.31
364.788	212.31
365.015	215.31
365.241	212.31
365.468	209.31
365.694	209.31
365.92	211.31
366.147	211.31
366.373	204.31
366.599	211.31
366.826	211.31
367.052	198.31
367.278	184.31
367.505	211.31
367.731	206.31
367.957	213.31
368.184	205.31
368.41	204.31
368.636	227.31
368.862	215.31
369.089	199.31
369.315	191.31
369.541	199.31
369.767	224.31
369.993	202.31
370.219	213.31
370.445	194.31
370.672	224.31
370.898	195.31
371.124	202.31
371.35	204.31
371.576	197.31
371.802	215.31
372.028	203.31
372.254	202.31
372.48	211.31
372.706	199.31
372.932	200.31
373.158	207.31
373.384	194.31
373.61	219.31
373.835	204.31
374.061	212.31
374.287	195.31
374.513	217.31
374.739	197.31
374.965	184.31
375.191	200.31
375.416	225.31
375.642	211.31
375.868	209.31
376.094	207.31
376.319	208.31
376.545	222.31
376.771	200.31
376.997	200.31
377.222	202.31
377.448	206.31
377.674	211.31
377.899	179.31
378.125	204.31
378.35	211.31
378.576	201.31
378.802	191.31
379.027	190.31
379.253	204.31
379.478	204.31
379.704	200.31
379.929	191.31
380.155	204.31
380.38	204.31
380.606	210.31
380.831	205.31
381.057	212.31
381.282	200.31
381.507	202.31
381.733	200.31
381.958	197.31
382.184	193.31
382.409	227.31
382.634	209.31
382.86	217.31
383.085	216.31
383.31	213.31
383.535	229.31
383.761	224.31
383.986	204.31
384.211	218.31
384.436	223.31
384.662	199.31
384.887	211.31
385.112	216.31
385.337	221.31
385.562	220.31
385.787	218.31
386.013	217.31
386.238	228.31
386.463	239.31
386.688	230.31
386.913	219.31
387.138	216.31
387.363	229.31
387.588	218.31
387.813	204.31
388.038	230.31
388.263	211.31
388.488	198.31
388.713	222.31
388.938	232.31
389.163	223.31
389.387	216.31
389.612	219.31
389.837	195.31
390.062	220.31
390.287	228.31
390.512	216.31
390.736	233.31
390.961	205.31
391.186	214.31
391.411	199.31
391.636	198.31
391.86	233.31
392.085	228.31
392.31	220.31
392.534	224.31
392.759	224.31
392.984	223.31
393.208	225.31
393.433	228.31
393.658	234.31
393.882	224.31
394.107	219.31
394.331	198.31
394.556	210.31
394.78	232.31
395.005	226.31
395.229	221.31
395.454	215.31
395.678	222.31
395.903	223.31
396.127	244.31
396.352	225.31
396.576	218.31
396.801	215.31
397.025	210.31
397.249	236.31
397.474	226.31
397.698	226.31
397.922	233.31
398.147	253.31
398.371	262.31
398.595	230.31
398.82	234.31
399.044	243.31
399.268	254.31
399.492	275.31
399.717	279.31
399.941	276.31
400.165	309.31
400.389	283.31
400.613	278.31
400.837	240.31
401.062	259.31
401.286	235.31
401.51	244.31
401.734	247.31
401.958	240.31
402.182	253.31
402.406	254.31
402.63	256.31
402.854	243.31
403.078	247.31
403.302	242.31
403.526	250.31
403.75	271.31
403.974	245.31
404.198	259.31
404.422	255.31
404.645	266.31
404.869	252.31
405.093	291.31
405.317	289.31
405.541	314.31
405.765	281.31
405.988	276.31
406.212	287.31
406.436	269.31
406.66	306.31
406.883	287.31
407.107	277.31
407.331	304.31
407.555	323.31
407.778	328.31
408.002	298.31
408.226	280.31
408.449	271.31
408.673	273.31
408.896	299.31
409.12	281.31
409.344	288.31
409.567	263.31
409.791	253.31
410.014	272.31
410.238	247.31
410.461	254.31
410.685	264.31
410.908	268.31
411.132	288.31
411.355	279.31
411.578	277.31
411.802	264.31
412.025	266.31
412.249	250.31
412.472	283.31
412.695	285.31
412.919	271.31
413.142	269.31
413.365	255.31
413.589	241.31
413.812	244.31
414.035	239.31
414.258	257.31
414.482	227.31
414.705	230.31
414.928	232.31
415.151	257.31
415.374	255.31
415.597	251.31
415.821	252.31
416.044	243.31
416.267	263.31
416.49	248.31
416.713	228.31
416.936	249.31
417.159	231.31
417.382	236.31
417.605	245.31
417.828	257.31
418.051	265.31
418.274	258.31
418.497	269.31
418.72	262.31
418.943	255.31
419.166	231.31
419.389	259.31
419.611	263.31
419.834	269.31
420.057	287.31
420.28	263.31
420.503	253.31
420.726	277.31
420.948	272.31
421.171	288.31
421.394	288.31
421.617	252.31
421.839	254.31
422.062	261.31
422.285	259.31
422.507	273.31
422.73	311.31
422.953	292.31
423.175	261.31
423.398	268.31
423.621	264.31
423.843	292.31
424.066	272.31
424.288	279.31
424.511	291.31
424.733	311.31
424.956	343.31
425.178	311.31
425.401	332.31
425.623	339.31
425.846	296.31
426.068	268.31
426.291	285.31
426.513	272.31
426.735	293.31
426.958	289.31
427.18	314.31
427.402	388.31
427.625	429.31
427.847	385.31
428.069	319.31
428.292	311.31
428.514	285.31
428.736	288.31
428.958	261.31
429.181	265.31
429.403	250.31
429.625	267.31
429.847	273.31
430.069	297.31
430.292	292.31
430.514	239.31
430.736	245.31
430.958	267.31
431.18	235.31
431.402	231.31
431.624	254.31
431.846	232.31
432.068	242.31
432.29	257.31
432.512	236.31
432.734	244.31
432.956	239.31
433.178	247.31
433.4	245.31
433.622	255.31
433.844	255.31
434.066	251.31
434.287	230.31
434.509	239.31
434.731	255.31
434.953	247.31
435.175	271.31
435.397	267.31
435.618	284.31
435.84	294.31
436.062	330.31
436.284	313.31
436.505	308.31
436.727	279.31
436.949	255.31
437.17	266.31
437.392	245.31
437.614	243.31
437.835	285.31
438.057	305.31
438.278	365.31
438.5	339.31
438.721	398.31
438.943	361.31
439.165	298.31
439.386	297.31
439.608	276.31
439.829	285.31
440.05	308.31
440.272	331.31
440.493	305.31
440.715	278.31
440.936	257.31
441.158	250.31
441.379	269.31
441.6	268.31
441.822	283.31
442.043	309.31
442.264	334.31
442.486	341.31
442.707	316.31
442.928	265.31
443.149	283.31
443.371	295.31
443.592	324.31
443.813	366.31
444.034	365.31
444.255	335.31
444.476	289.31
444.698	259.31
444.919	283.31
445.14	374.31
445.361	311.31
445.582	307.31
445.803	331.31
446.024	374.31
446.245	374.31
446.466	328.31
446.687	277.31
446.908	273.31
447.129	262.31
447.35	246.31
447.571	258.31
447.792	258.31
448.013	259.31
448.234	244.31
448.455	279.31
448.675	333.31
448.896	384.31
449.117	322.31
449.338	311.31
449.559	359.31
449.779	400.31
450	327.31
450.221	259.31
450.442	245.31
450.662	243.31
450.883	250.31
451.104	268.31
451.324	275.31
451.545	262.31
451.766	227.31
451.986	241.31
452.207	240.31
452.428	201.31
452.648	250.31
452.869	233.31
453.089	246.31
453.31	248.31
453.53	227.31
453.751	215.31
453.971	236.31
454.192	257.31
454.412	239.31
454.633	236.31
454.853	241.31
455.073	227.31
455.294	243.31
455.514	264.31
455.734	270.31
455.955	233.31
456.175	216.31
456.395	224.31
456.616	209.31
456.836	223.31
457.056	200.31
457.276	217.31
457.497	204.31
457.717	221.31
457.937	203.31
458.157	218.31
458.377	224.31
458.598	257.31
458.818	274.31
459.038	318.31
459.258	328.31
459.478	248.31
459.698	232.31
459.918	245.31
460.138	236.31
460.358	253.31
460.578	245.31
460.798	250.31
461.018	246.31
461.238	247.31
461.458	241.31
461.678	229.31
461.898	228.31
462.118	246.31
462.338	248.31
462.558	244.31
462.777	255.31
462.997	263.31
463.217	263.31
463.437	279.31
463.657	272.31
463.876	250.31
464.096	253.31
464.316	246.31
464.536	274.31
464.755	271.31
464.975	266.31
465.195	305.31
465.414	351.31
465.634	303.31
465.854	256.31
466.073	247.31
466.293	249.31
466.512	232.31
466.732	227.31
466.951	233.31
467.171	238.31
467.391	220.31
467.61	245.31
467.829	244.31
468.049	243.31
468.268	239.31
468.488	233.31
468.707	220.31
468.927	233.31
469.146	243.31
469.365	223.31
469.585	236.31
469.804	252.31
470.023	243.31
470.243	255.31
470.462	253.31
470.681	267.31
470.901	254.31
471.12	240.31
471.339	236.31
471.558	236.31
471.777	244.31
471.997	229.31
472.216	263.31
472.435	283.31
472.654	277.31
472.873	241.31
473.092	236.31
473.311	231.31
473.53	233.31
473.749	248.31
473.968	247.31
474.187	329.31
474.406	300.31
474.625	260.31
474.844	231.31
475.063	226.31
475.282	247.31
475.501	232.31
475.72	233.31
475.939	240.31
476.158	227.31
476.377	241.31
476.596	245.31
476.814	246.31
477.033	239.31
477.252	264.31
477.471	257.31
477.69	251.31
477.908	245.31
478.127	247.31
478.346	252.31
478.564	263.31
478.783	263.31
479.002	260.31
479.22	269.31
479.439	284.31
479.658	303.31
479.876	283.31
480.095	284.31
480.313	299.31
480.532	303.31
480.751	287.31
480.969	310.31
481.188	361.31
481.406	406.31
481.624	331.31
481.843	286.31
482.061	270.31
482.28	266.31
482.498	275.31
482.717	281.31
482.935	263.31
483.153	283.31
483.372	277.31
483.59	275.31
483.808	276.31
484.027	263.31
484.245	288.31
484.463	283.31
484.681	284.31
484.9	267.31
485.118	266.31
485.336	296.31
485.554	300.31
485.772	279.31
485.99	282.31
486.209	279.31
486.427	281.31
486.645	294.31
486.863	315.31
487.081	299.31
487.299	296.31
487.517	297.31
487.735	300.31
487.953	303.31
488.171	327.31
488.389	297.31
488.607	297.31
488.825	312.31
489.043	290.31
489.261	311.31
489.479	296.31
489.696	288.31
489.914	321.31
490.132	300.31
490.35	315.31
490.568	321.31
490.786	336.31
491.003	320.31
491.221	350.31
491.439	345.31
491.657	323.31
491.874	347.31
492.092	367.31
492.31	365.31
492.527	348.31
492.745	348.31
492.963	367.31
493.18	351.31
493.398	356.31
493.615	376.31
493.833	360.31
494.05	360.31
494.268	356.31
494.485	344.31
494.703	319.31
494.92	343.31
495.138	342.31
495.355	365.31
495.573	330.31
495.79	335.31
496.008	351.31
496.225	346.31
496.442	337.31
496.66	351.31
496.877	347.31
497.094	342.31
497.312	329.31
497.529	352.31
497.746	359.31
497.963	370.31
498.181	376.31
498.398	363.31
498.615	347.31
498.832	363.31
499.049	388.31
499.267	384.31
499.484	394.31
499.701	388.31
499.918	429.31
500.135	435.31
500.352	428.31
500.569	462.31
500.786	445.31
501.003	457.31
501.22	444.31
501.437	439.31
501.654	432.31
501.871	437.31
502.088	400.31
502.305	407.31
502.522	371.31
502.739	377.31
