Data from 1966.PennyLincolnUp.Lamp.En5.5.200Scan.071719.P1._HRD10591_14-13-19-914.txt Node
Date: Thu Jul 18 14:13:19 EDT 2019
User: cochatt
Spectrometer: HR+D1059
Trigger mode: 1
Integration Time (sec): 1.000000E-1
Scans to average: 1
Electric dark correction enabled: true
Nonlinearity correction enabled: false
Boxcar width: 0
XAxis mode: Wavelengths
Number of Pixels in Spectrum: 2048
>>>>>Begin Spectral Data<<<<<
223.165	-16.25
223.4	-16.25
223.635	-16.25
223.869	-34.25
224.104	-9.25
224.338	-23.25
224.573	-20.25
224.808	-7.25
225.042	-7.25
225.277	-15.25
225.511	-1.25
225.746	17.75
225.98	13.75
226.215	18.75
226.449	6.75
226.683	17.75
226.918	24.75
227.152	34.75
227.387	36.75
227.621	45.75
227.856	37.75
228.09	57.75
228.324	60.75
228.559	46.75
228.793	63.75
229.027	81.75
229.262	56.75
229.496	90.75
229.73	79.75
229.964	108.75
230.199	98.75
230.433	99.75
230.667	76.75
230.901	83.75
231.136	75.75
231.37	106.75
231.604	97.75
231.838	75.75
232.072	100.75
232.306	86.75
232.541	89.75
232.775	90.75
233.009	90.75
233.243	99.75
233.477	90.75
233.711	93.75
233.945	101.75
234.179	94.75
234.413	93.75
234.647	105.75
234.881	87.75
235.115	88.75
235.349	110.75
235.583	92.75
235.817	82.75
236.051	91.75
236.285	88.75
236.519	85.75
236.753	93.75
236.987	104.75
237.221	119.75
237.455	148.75
237.689	106.75
237.922	95.75
238.156	101.75
238.39	104.75
238.624	85.75
238.858	94.75
239.091	93.75
239.325	98.75
239.559	86.75
239.793	79.75
240.027	96.75
240.26	104.75
240.494	92.75
240.728	101.75
240.961	106.75
241.195	101.75
241.429	105.75
241.662	106.75
241.896	114.75
242.13	114.75
242.363	100.75
242.597	104.75
242.83	90.75
243.064	82.75
243.298	95.75
243.531	108.75
243.765	87.75
243.998	94.75
244.232	100.75
244.465	99.75
244.699	94.75
244.932	123.75
245.166	108.75
245.399	99.75
245.633	98.75
245.866	94.75
246.099	101.75
246.333	100.75
246.566	88.75
246.8	109.75
247.033	114.75
247.266	109.75
247.5	105.75
247.733	109.75
247.966	116.75
248.2	123.75
248.433	115.75
248.666	114.75
248.899	117.75
249.133	122.75
249.366	121.75
249.599	138.75
249.832	130.75
250.066	119.75
250.299	122.75
250.532	111.75
250.765	126.75
250.998	131.75
251.231	135.75
251.465	128.75
251.698	112.75
251.931	119.75
252.164	124.75
252.397	118.75
252.63	136.75
252.863	127.75
253.096	124.75
253.329	139.75
253.562	127.75
253.795	130.75
254.028	142.75
254.261	128.75
254.494	123.75
254.727	157.75
254.96	156.75
255.193	151.75
255.426	156.75
255.659	135.75
255.892	138.75
256.124	137.75
256.357	139.75
256.59	118.75
256.823	125.75
257.056	137.75
257.289	127.75
257.521	138.75
257.754	157.75
257.987	124.75
258.22	136.75
258.452	126.75
258.685	129.75
258.918	128.75
259.151	122.75
259.383	119.75
259.616	135.75
259.849	134.75
260.081	140.75
260.314	145.75
260.547	134.75
260.779	157.75
261.012	136.75
261.244	128.75
261.477	134.75
261.71	138.75
261.942	131.75
262.175	149.75
262.407	144.75
262.64	132.75
262.872	132.75
263.105	136.75
263.337	114.75
263.57	117.75
263.802	132.75
264.035	127.75
264.267	127.75
264.499	123.75
264.732	136.75
264.964	134.75
265.197	135.75
265.429	133.75
265.661	133.75
265.894	124.75
266.126	136.75
266.358	130.75
266.591	136.75
266.823	139.75
267.055	130.75
267.287	130.75
267.52	143.75
267.752	135.75
267.984	149.75
268.216	156.75
268.448	145.75
268.681	148.75
268.913	146.75
269.145	152.75
269.377	154.75
269.609	145.75
269.841	139.75
270.073	159.75
270.306	183.75
270.538	192.75
270.77	170.75
271.002	175.75
271.234	152.75
271.466	168.75
271.698	150.75
271.93	157.75
272.162	159.75
272.394	182.75
272.626	190.75
272.858	171.75
273.09	157.75
273.322	163.75
273.553	151.75
273.785	152.75
274.017	163.75
274.249	159.75
274.481	151.75
274.713	160.75
274.945	157.75
275.176	150.75
275.408	143.75
275.64	160.75
275.872	149.75
276.104	160.75
276.335	157.75
276.567	157.75
276.799	175.75
277.031	156.75
277.262	168.75
277.494	198.75
277.726	162.75
277.957	140.75
278.189	158.75
278.421	169.75
278.652	138.75
278.884	150.75
279.115	150.75
279.347	146.75
279.579	152.75
279.81	152.75
280.042	147.75
280.273	162.75
280.505	155.75
280.736	154.75
280.968	156.75
281.199	168.75
281.431	154.75
281.662	158.75
281.894	144.75
282.125	155.75
282.356	164.75
282.588	170.75
282.819	177.75
283.051	148.75
283.282	152.75
283.513	155.75
283.745	171.75
283.976	156.75
284.207	157.75
284.439	161.75
284.67	152.75
284.901	153.75
285.132	152.75
285.364	157.75
285.595	159.75
285.826	137.75
286.057	158.75
286.288	152.75
286.52	165.75
286.751	155.75
286.982	171.75
287.213	158.75
287.444	166.75
287.675	162.75
287.906	155.75
288.138	174.75
288.369	166.75
288.6	160.75
288.831	165.75
289.062	185.75
289.293	159.75
289.524	186.75
289.755	164.75
289.986	169.75
290.217	167.75
290.448	167.75
290.679	185.75
290.91	162.75
291.141	168.75
291.371	167.75
291.602	160.75
291.833	156.75
292.064	180.75
292.295	159.75
292.526	163.75
292.757	155.75
292.987	157.75
293.218	153.75
293.449	171.75
293.68	159.75
293.91	158.75
294.141	169.75
294.372	167.75
294.603	165.75
294.833	157.75
295.064	170.75
295.295	152.75
295.525	162.75
295.756	186.75
295.987	178.75
296.217	178.75
296.448	173.75
296.679	169.75
296.909	166.75
297.14	163.75
297.37	176.75
297.601	167.75
297.831	157.75
298.062	197.75
298.292	182.75
298.523	171.75
298.753	158.75
298.984	196.75
299.214	170.75
299.445	165.75
299.675	173.75
299.905	167.75
300.136	180.75
300.366	170.75
300.597	160.75
300.827	182.75
301.057	194.75
301.288	185.75
301.518	184.75
301.748	175.75
301.979	168.75
302.209	170.75
302.439	187.75
302.669	182.75
302.9	200.75
303.13	156.75
303.36	176.75
303.59	183.75
303.82	170.75
304.051	193.75
304.281	180.75
304.511	152.75
304.741	170.75
304.971	198.75
305.201	178.75
305.431	202.75
305.661	172.75
305.891	187.75
306.121	198.75
306.352	169.75
306.582	180.75
306.812	167.75
307.042	198.75
307.272	178.75
307.502	188.75
307.731	179.75
307.961	186.75
308.191	191.75
308.421	173.75
308.651	183.75
308.881	189.75
309.111	196.75
309.341	186.75
309.571	196.75
309.8	206.75
310.03	222.75
310.26	201.75
310.49	212.75
310.72	205.75
310.949	214.75
311.179	198.75
311.409	212.75
311.639	198.75
311.868	193.75
312.098	196.75
312.328	203.75
312.557	219.75
312.787	208.75
313.017	215.75
313.246	201.75
313.476	184.75
313.706	209.75
313.935	201.75
314.165	206.75
314.394	213.75
314.624	220.75
314.853	216.75
315.083	210.75
315.312	199.75
315.542	188.75
315.771	193.75
316.001	199.75
316.23	182.75
316.46	183.75
316.689	201.75
316.919	207.75
317.148	199.75
317.377	214.75
317.607	195.75
317.836	208.75
318.065	194.75
318.295	195.75
318.524	208.75
318.753	200.75
318.983	219.75
319.212	214.75
319.441	201.75
319.67	203.75
319.9	196.75
320.129	205.75
320.358	207.75
320.587	179.75
320.816	209.75
321.046	214.75
321.275	208.75
321.504	211.75
321.733	182.75
321.962	196.75
322.191	218.75
322.42	211.75
322.649	231.75
322.878	224.75
323.108	229.75
323.337	239.75
323.566	257.75
323.795	261.75
324.024	266.75
324.253	322.75
324.482	455.75
324.71	710.75
324.939	937.75
325.168	758.75
325.397	407.75
325.626	279.75
325.855	241.75
326.084	245.75
326.313	235.75
326.542	252.75
326.77	259.75
326.999	313.75
327.228	444.75
327.457	614.75
327.686	696.75
327.914	464.75
328.143	330.75
328.372	281.75
328.6	268.75
328.829	281.75
329.058	280.75
329.287	292.75
329.515	265.75
329.744	262.75
329.972	250.75
330.201	276.75
330.43	290.75
330.658	303.75
330.887	326.75
331.115	292.75
331.344	244.75
331.572	259.75
331.801	250.75
332.03	248.75
332.258	242.75
332.486	224.75
332.715	237.75
332.943	220.75
333.172	222.75
333.4	231.75
333.629	250.75
333.857	244.75
334.085	253.75
334.314	278.75
334.542	289.75
334.771	290.75
334.999	244.75
335.227	247.75
335.455	222.75
335.684	228.75
335.912	221.75
336.14	221.75
336.369	232.75
336.597	226.75
336.825	249.75
337.053	220.75
337.281	221.75
337.51	227.75
337.738	229.75
337.966	220.75
338.194	220.75
338.422	239.75
338.65	221.75
338.878	246.75
339.106	209.75
339.334	223.75
339.562	215.75
339.79	211.75
340.018	202.75
340.246	219.75
340.474	222.75
340.702	230.75
340.93	214.75
341.158	209.75
341.386	206.75
341.614	215.75
341.842	212.75
342.07	214.75
342.298	201.75
342.526	192.75
342.754	223.75
342.981	219.75
343.209	209.75
343.437	213.75
343.665	207.75
343.893	217.75
344.12	235.75
344.348	225.75
344.576	228.75
344.804	209.75
345.031	240.75
345.259	229.75
345.487	234.75
345.714	233.75
345.942	223.75
346.17	213.75
346.397	200.75
346.625	213.75
346.853	212.75
347.08	211.75
347.308	219.75
347.535	224.75
347.763	206.75
347.99	209.75
348.218	215.75
348.445	212.75
348.673	226.75
348.9	217.75
349.128	222.75
349.355	211.75
349.583	213.75
349.81	208.75
350.037	192.75
350.265	204.75
350.492	206.75
350.72	204.75
350.947	202.75
351.174	213.75
351.402	204.75
351.629	206.75
351.856	220.75
352.083	215.75
352.311	233.75
352.538	241.75
352.765	201.75
352.992	197.75
353.22	219.75
353.447	212.75
353.674	196.75
353.901	202.75
354.128	197.75
354.355	186.75
354.583	199.75
354.81	212.75
355.037	202.75
355.264	206.75
355.491	211.75
355.718	188.75
355.945	211.75
356.172	207.75
356.399	205.75
356.626	197.75
356.853	186.75
357.08	191.75
357.307	206.75
357.534	205.75
357.761	194.75
357.988	191.75
358.215	202.75
358.441	204.75
358.668	191.75
358.895	199.75
359.122	202.75
359.349	192.75
359.576	224.75
359.802	240.75
360.029	233.75
360.256	222.75
360.483	223.75
360.709	221.75
360.936	212.75
361.163	207.75
361.39	223.75
361.616	221.75
361.843	218.75
362.07	210.75
362.296	225.75
362.523	199.75
362.749	201.75
362.976	206.75
363.203	184.75
363.429	198.75
363.656	204.75
363.882	187.75
364.109	206.75
364.335	205.75
364.562	209.75
364.788	218.75
365.015	205.75
365.241	209.75
365.468	204.75
365.694	208.75
365.92	213.75
366.147	198.75
366.373	196.75
366.599	184.75
366.826	200.75
367.052	186.75
367.278	200.75
367.505	200.75
367.731	212.75
367.957	205.75
368.184	204.75
368.41	201.75
368.636	218.75
368.862	217.75
369.089	215.75
369.315	216.75
369.541	218.75
369.767	204.75
369.993	212.75
370.219	205.75
370.445	204.75
370.672	205.75
370.898	212.75
371.124	208.75
371.35	212.75
371.576	228.75
371.802	203.75
372.028	198.75
372.254	207.75
372.48	204.75
372.706	197.75
372.932	186.75
373.158	201.75
373.384	203.75
373.61	206.75
373.835	214.75
374.061	205.75
374.287	194.75
374.513	195.75
374.739	203.75
374.965	194.75
375.191	196.75
375.416	197.75
375.642	196.75
375.868	201.75
376.094	203.75
376.319	194.75
376.545	186.75
376.771	192.75
376.997	204.75
377.222	200.75
377.448	192.75
377.674	184.75
377.899	193.75
378.125	186.75
378.35	212.75
378.576	195.75
378.802	204.75
379.027	198.75
379.253	195.75
379.478	200.75
379.704	202.75
379.929	205.75
380.155	201.75
380.38	194.75
380.606	198.75
380.831	201.75
381.057	203.75
381.282	208.75
381.507	192.75
381.733	206.75
381.958	212.75
382.184	217.75
382.409	201.75
382.634	202.75
382.86	199.75
383.085	189.75
383.31	203.75
383.535	211.75
383.761	190.75
383.986	214.75
384.211	196.75
384.436	200.75
384.662	230.75
384.887	205.75
385.112	214.75
385.337	203.75
385.562	219.75
385.787	221.75
386.013	231.75
386.238	222.75
386.463	220.75
386.688	229.75
386.913	210.75
387.138	213.75
387.363	218.75
387.588	211.75
387.813	213.75
388.038	197.75
388.263	214.75
388.488	217.75
388.713	223.75
388.938	222.75
389.163	219.75
389.387	215.75
389.612	205.75
389.837	207.75
390.062	213.75
390.287	210.75
390.512	202.75
390.736	194.75
390.961	219.75
391.186	212.75
391.411	199.75
391.636	224.75
391.86	203.75
392.085	222.75
392.31	207.75
392.534	206.75
392.759	222.75
392.984	216.75
393.208	235.75
393.433	212.75
393.658	215.75
393.882	210.75
394.107	232.75
394.331	219.75
394.556	208.75
394.78	209.75
395.005	219.75
395.229	229.75
395.454	230.75
395.678	223.75
395.903	223.75
396.127	231.75
396.352	221.75
396.576	226.75
396.801	230.75
397.025	226.75
397.249	229.75
397.474	223.75
397.698	220.75
397.922	231.75
398.147	220.75
398.371	228.75
398.595	241.75
398.82	231.75
399.044	248.75
399.268	264.75
399.492	279.75
399.717	279.75
399.941	290.75
400.165	289.75
400.389	284.75
400.613	262.75
400.837	267.75
401.062	250.75
401.286	232.75
401.51	238.75
401.734	229.75
401.958	243.75
402.182	241.75
402.406	236.75
402.63	265.75
402.854	246.75
403.078	252.75
403.302	227.75
403.526	243.75
403.75	263.75
403.974	260.75
404.198	279.75
404.422	242.75
404.645	256.75
404.869	254.75
405.093	282.75
405.317	273.75
405.541	293.75
405.765	299.75
405.988	279.75
406.212	270.75
406.436	280.75
406.66	291.75
406.883	270.75
407.107	298.75
407.331	278.75
407.555	331.75
407.778	294.75
408.002	303.75
408.226	276.75
408.449	262.75
408.673	269.75
408.896	281.75
409.12	299.75
409.344	270.75
409.567	270.75
409.791	252.75
410.014	252.75
410.238	256.75
410.461	262.75
410.685	254.75
410.908	256.75
411.132	276.75
411.355	278.75
411.578	281.75
411.802	250.75
412.025	247.75
412.249	252.75
412.472	260.75
412.695	276.75
412.919	279.75
413.142	251.75
413.365	246.75
413.589	240.75
413.812	240.75
414.035	254.75
414.258	256.75
414.482	248.75
414.705	238.75
414.928	231.75
415.151	242.75
415.374	233.75
415.597	242.75
415.821	251.75
416.044	242.75
416.267	227.75
416.49	214.75
416.713	235.75
416.936	248.75
417.159	256.75
417.382	236.75
417.605	235.75
417.828	250.75
418.051	272.75
418.274	260.75
418.497	240.75
418.72	237.75
418.943	236.75
419.166	246.75
419.389	246.75
419.611	248.75
419.834	254.75
420.057	240.75
420.28	257.75
420.503	245.75
420.726	244.75
420.948	246.75
421.171	261.75
421.394	299.75
421.617	253.75
421.839	251.75
422.062	243.75
422.285	242.75
422.507	278.75
422.73	290.75
422.953	291.75
423.175	254.75
423.398	273.75
423.621	277.75
423.843	277.75
424.066	266.75
424.288	278.75
424.511	287.75
424.733	308.75
424.956	326.75
425.178	302.75
425.401	294.75
425.623	332.75
425.846	272.75
426.068	261.75
426.291	250.75
426.513	253.75
426.735	276.75
426.958	292.75
427.18	325.75
427.402	379.75
427.625	412.75
427.847	354.75
428.069	297.75
428.292	291.75
428.514	256.75
428.736	264.75
428.958	260.75
429.181	246.75
429.403	248.75
429.625	234.75
429.847	267.75
430.069	294.75
430.292	302.75
430.514	250.75
430.736	245.75
430.958	239.75
431.18	226.75
431.402	233.75
431.624	231.75
431.846	229.75
432.068	219.75
432.29	220.75
432.512	230.75
432.734	233.75
432.956	246.75
433.178	250.75
433.4	229.75
433.622	244.75
433.844	242.75
434.066	244.75
434.287	229.75
434.509	231.75
434.731	243.75
434.953	258.75
435.175	263.75
435.397	255.75
435.618	277.75
435.84	286.75
436.062	318.75
436.284	332.75
436.505	271.75
436.727	262.75
436.949	259.75
437.17	247.75
437.392	248.75
437.614	266.75
437.835	256.75
438.057	291.75
438.278	329.75
438.5	323.75
438.721	355.75
438.943	345.75
439.165	278.75
439.386	263.75
439.608	282.75
439.829	268.75
440.05	288.75
440.272	299.75
440.493	273.75
440.715	261.75
440.936	260.75
441.158	260.75
441.379	237.75
441.6	244.75
441.822	267.75
442.043	272.75
442.264	320.75
442.486	319.75
442.707	280.75
442.928	272.75
443.149	266.75
443.371	268.75
443.592	296.75
443.813	331.75
444.034	361.75
444.255	299.75
444.476	269.75
444.698	261.75
444.919	276.75
445.14	369.75
445.361	324.75
445.582	310.75
445.803	315.75
446.024	359.75
446.245	356.75
446.466	339.75
446.687	280.75
446.908	235.75
447.129	242.75
447.35	246.75
447.571	227.75
447.792	230.75
448.013	248.75
448.234	249.75
448.455	288.75
448.675	333.75
448.896	355.75
449.117	312.75
449.338	273.75
449.559	326.75
449.779	353.75
450	286.75
450.221	269.75
450.442	249.75
450.662	242.75
450.883	232.75
451.104	276.75
451.324	248.75
451.545	250.75
451.766	225.75
451.986	228.75
452.207	251.75
452.428	239.75
452.648	232.75
452.869	229.75
453.089	234.75
453.31	237.75
453.53	232.75
453.751	216.75
453.971	244.75
454.192	250.75
454.412	240.75
454.633	210.75
454.853	242.75
455.073	216.75
455.294	232.75
455.514	260.75
455.734	245.75
455.955	231.75
456.175	227.75
456.395	194.75
456.616	215.75
456.836	236.75
457.056	218.75
457.276	208.75
457.497	219.75
457.717	214.75
457.937	215.75
458.157	212.75
458.377	215.75
458.598	249.75
458.818	270.75
459.038	310.75
459.258	291.75
459.478	244.75
459.698	243.75
459.918	223.75
460.138	238.75
460.358	236.75
460.578	257.75
460.798	242.75
461.018	248.75
461.238	236.75
461.458	234.75
461.678	236.75
461.898	242.75
462.118	249.75
462.338	233.75
462.558	244.75
462.777	242.75
462.997	268.75
463.217	250.75
463.437	268.75
463.657	250.75
463.876	250.75
464.096	256.75
464.316	252.75
464.536	264.75
464.755	267.75
464.975	263.75
465.195	285.75
465.414	318.75
465.634	291.75
465.854	238.75
466.073	246.75
466.293	229.75
466.512	242.75
466.732	229.75
466.951	226.75
467.171	238.75
467.391	251.75
467.61	246.75
467.829	242.75
468.049	226.75
468.268	231.75
468.488	227.75
468.707	224.75
468.927	217.75
469.146	215.75
469.365	233.75
469.585	218.75
469.804	239.75
470.023	236.75
470.243	259.75
470.462	221.75
470.681	246.75
470.901	243.75
471.12	234.75
471.339	226.75
471.558	237.75
471.777	231.75
471.997	220.75
472.216	255.75
472.435	285.75
472.654	242.75
472.873	243.75
473.092	243.75
473.311	225.75
473.53	226.75
473.749	250.75
473.968	268.75
474.187	295.75
474.406	289.75
474.625	267.75
474.844	220.75
475.063	227.75
475.282	231.75
475.501	245.75
475.72	239.75
475.939	235.75
476.158	225.75
476.377	239.75
476.596	246.75
476.814	251.75
477.033	264.75
477.252	242.75
477.471	235.75
477.69	246.75
477.908	238.75
478.127	258.75
478.346	246.75
478.564	244.75
478.783	249.75
479.002	266.75
479.22	254.75
479.439	262.75
479.658	290.75
479.876	270.75
480.095	287.75
480.313	282.75
480.532	279.75
480.751	283.75
480.969	284.75
481.188	331.75
481.406	356.75
481.624	291.75
481.843	270.75
482.061	261.75
482.28	277.75
482.498	271.75
482.717	275.75
482.935	281.75
483.153	250.75
483.372	282.75
483.59	272.75
483.808	266.75
484.027	282.75
484.245	262.75
484.463	270.75
484.681	289.75
484.9	286.75
485.118	279.75
485.336	277.75
485.554	275.75
485.772	280.75
485.99	259.75
486.209	276.75
486.427	287.75
486.645	283.75
486.863	295.75
487.081	276.75
487.299	266.75
487.517	286.75
487.735	291.75
487.953	279.75
488.171	296.75
488.389	286.75
488.607	280.75
488.825	279.75
489.043	291.75
489.261	288.75
489.479	279.75
489.696	284.75
489.914	293.75
490.132	294.75
490.35	308.75
490.568	314.75
490.786	290.75
491.003	309.75
491.221	325.75
491.439	322.75
491.657	311.75
491.874	334.75
492.092	318.75
492.31	331.75
492.527	330.75
492.745	341.75
492.963	336.75
493.18	325.75
493.398	329.75
493.615	325.75
493.833	331.75
494.05	343.75
494.268	352.75
494.485	343.75
494.703	337.75
494.92	329.75
495.138	322.75
495.355	347.75
495.573	348.75
495.79	327.75
496.008	340.75
496.225	320.75
496.442	341.75
496.66	345.75
496.877	328.75
497.094	332.75
497.312	327.75
497.529	346.75
497.746	327.75
497.963	356.75
498.181	343.75
498.398	347.75
498.615	361.75
498.832	340.75
499.049	337.75
499.267	373.75
499.484	378.75
499.701	380.75
499.918	418.75
500.135	411.75
500.352	422.75
500.569	454.75
500.786	448.75
501.003	434.75
501.22	425.75
501.437	404.75
501.654	402.75
501.871	415.75
502.088	396.75
502.305	371.75
502.522	375.75
502.739	347.75
