Data from 1966.PennyLincolnUp.Lamp.En5.5.200Scan.071719.P1._HRD10591_14-13-18-914.txt Node
Date: Thu Jul 18 14:13:18 EDT 2019
User: cochatt
Spectrometer: HR+D1059
Trigger mode: 1
Integration Time (sec): 1.000000E-1
Scans to average: 1
Electric dark correction enabled: true
Nonlinearity correction enabled: false
Boxcar width: 0
XAxis mode: Wavelengths
Number of Pixels in Spectrum: 2048
>>>>>Begin Spectral Data<<<<<
223.165	-18.06
223.4	-18.06
223.635	-18.06
223.869	-11.06
224.104	-24.06
224.338	-29.06
224.573	-16.06
224.808	-1.06
225.042	-13.06
225.277	-7.06
225.511	2.94
225.746	15.94
225.98	8.94
226.215	5.94
226.449	13.94
226.683	20.94
226.918	9.94
227.152	40.94
227.387	35.94
227.621	40.94
227.856	41.94
228.09	32.94
228.324	46.94
228.559	53.94
228.793	47.94
229.027	53.94
229.262	83.94
229.496	97.94
229.73	87.94
229.964	105.94
230.199	102.94
230.433	72.94
230.667	96.94
230.901	87.94
231.136	101.94
231.37	93.94
231.604	91.94
231.838	92.94
232.072	89.94
232.306	96.94
232.541	98.94
232.775	91.94
233.009	97.94
233.243	84.94
233.477	80.94
233.711	85.94
233.945	82.94
234.179	87.94
234.413	99.94
234.647	101.94
234.881	98.94
235.115	88.94
235.349	94.94
235.583	93.94
235.817	91.94
236.051	94.94
236.285	87.94
236.519	99.94
236.753	105.94
236.987	95.94
237.221	103.94
237.455	140.94
237.689	123.94
237.922	93.94
238.156	99.94
238.39	75.94
238.624	89.94
238.858	94.94
239.091	100.94
239.325	97.94
239.559	89.94
239.793	80.94
240.027	108.94
240.26	87.94
240.494	103.94
240.728	99.94
240.961	91.94
241.195	106.94
241.429	95.94
241.662	104.94
241.896	112.94
242.13	94.94
242.363	99.94
242.597	95.94
242.83	106.94
243.064	97.94
243.298	106.94
243.531	103.94
243.765	100.94
243.998	100.94
244.232	94.94
244.465	111.94
244.699	101.94
244.932	102.94
245.166	99.94
245.399	102.94
245.633	95.94
245.866	98.94
246.099	108.94
246.333	101.94
246.566	99.94
246.8	102.94
247.033	112.94
247.266	122.94
247.5	115.94
247.733	108.94
247.966	105.94
248.2	107.94
248.433	115.94
248.666	119.94
248.899	116.94
249.133	100.94
249.366	124.94
249.599	126.94
249.832	116.94
250.066	125.94
250.299	108.94
250.532	125.94
250.765	151.94
250.998	137.94
251.231	137.94
251.465	139.94
251.698	124.94
251.931	110.94
252.164	107.94
252.397	123.94
252.63	125.94
252.863	115.94
253.096	143.94
253.329	132.94
253.562	149.94
253.795	131.94
254.028	125.94
254.261	135.94
254.494	118.94
254.727	147.94
254.96	165.94
255.193	153.94
255.426	140.94
255.659	127.94
255.892	129.94
256.124	134.94
256.357	125.94
256.59	129.94
256.823	119.94
257.056	124.94
257.289	125.94
257.521	131.94
257.754	116.94
257.987	133.94
258.22	121.94
258.452	130.94
258.685	109.94
258.918	126.94
259.151	125.94
259.383	146.94
259.616	127.94
259.849	142.94
260.081	152.94
260.314	157.94
260.547	153.94
260.779	147.94
261.012	133.94
261.244	118.94
261.477	121.94
261.71	133.94
261.942	145.94
262.175	134.94
262.407	129.94
262.64	116.94
262.872	124.94
263.105	116.94
263.337	130.94
263.57	123.94
263.802	129.94
264.035	129.94
264.267	129.94
264.499	130.94
264.732	139.94
264.964	133.94
265.197	128.94
265.429	136.94
265.661	122.94
265.894	130.94
266.126	131.94
266.358	132.94
266.591	111.94
266.823	127.94
267.055	125.94
267.287	143.94
267.52	137.94
267.752	139.94
267.984	142.94
268.216	146.94
268.448	135.94
268.681	141.94
268.913	142.94
269.145	137.94
269.377	167.94
269.609	158.94
269.841	159.94
270.073	154.94
270.306	176.94
270.538	170.94
270.77	177.94
271.002	181.94
271.234	158.94
271.466	160.94
271.698	176.94
271.93	172.94
272.162	181.94
272.394	179.94
272.626	177.94
272.858	171.94
273.09	151.94
273.322	164.94
273.553	167.94
273.785	148.94
274.017	146.94
274.249	149.94
274.481	139.94
274.713	145.94
274.945	155.94
275.176	160.94
275.408	145.94
275.64	159.94
275.872	147.94
276.104	149.94
276.335	155.94
276.567	148.94
276.799	145.94
277.031	185.94
277.262	182.94
277.494	167.94
277.726	182.94
277.957	171.94
278.189	169.94
278.421	144.94
278.652	135.94
278.884	154.94
279.115	167.94
279.347	156.94
279.579	147.94
279.81	147.94
280.042	153.94
280.273	153.94
280.505	153.94
280.736	151.94
280.968	165.94
281.199	157.94
281.431	137.94
281.662	148.94
281.894	152.94
282.125	157.94
282.356	162.94
282.588	144.94
282.819	165.94
283.051	170.94
283.282	163.94
283.513	164.94
283.745	165.94
283.976	167.94
284.207	150.94
284.439	165.94
284.67	149.94
284.901	168.94
285.132	170.94
285.364	164.94
285.595	158.94
285.826	172.94
286.057	158.94
286.288	143.94
286.52	155.94
286.751	147.94
286.982	153.94
287.213	154.94
287.444	165.94
287.675	147.94
287.906	166.94
288.138	163.94
288.369	172.94
288.6	168.94
288.831	167.94
289.062	169.94
289.293	170.94
289.524	163.94
289.755	170.94
289.986	175.94
290.217	173.94
290.448	164.94
290.679	165.94
290.91	154.94
291.141	159.94
291.371	158.94
291.602	157.94
291.833	157.94
292.064	157.94
292.295	162.94
292.526	167.94
292.757	152.94
292.987	156.94
293.218	172.94
293.449	177.94
293.68	149.94
293.91	154.94
294.141	163.94
294.372	162.94
294.603	162.94
294.833	162.94
295.064	153.94
295.295	165.94
295.525	167.94
295.756	171.94
295.987	167.94
296.217	182.94
296.448	205.94
296.679	157.94
296.909	168.94
297.14	149.94
297.37	169.94
297.601	167.94
297.831	174.94
298.062	172.94
298.292	175.94
298.523	170.94
298.753	168.94
298.984	183.94
299.214	181.94
299.445	160.94
299.675	167.94
299.905	170.94
300.136	169.94
300.366	155.94
300.597	171.94
300.827	183.94
301.057	181.94
301.288	172.94
301.518	175.94
301.748	182.94
301.979	179.94
302.209	180.94
302.439	158.94
302.669	179.94
302.9	183.94
303.13	181.94
303.36	169.94
303.59	170.94
303.82	187.94
304.051	183.94
304.281	182.94
304.511	174.94
304.741	164.94
304.971	181.94
305.201	174.94
305.431	158.94
305.661	182.94
305.891	177.94
306.121	177.94
306.352	171.94
306.582	175.94
306.812	172.94
307.042	170.94
307.272	165.94
307.502	181.94
307.731	176.94
307.961	178.94
308.191	178.94
308.421	184.94
308.651	189.94
308.881	177.94
309.111	174.94
309.341	182.94
309.571	181.94
309.8	184.94
310.03	188.94
310.26	187.94
310.49	206.94
310.72	214.94
310.949	209.94
311.179	225.94
311.409	190.94
311.639	195.94
311.868	205.94
312.098	186.94
312.328	204.94
312.557	199.94
312.787	217.94
313.017	197.94
313.246	199.94
313.476	189.94
313.706	203.94
313.935	202.94
314.165	212.94
314.394	211.94
314.624	197.94
314.853	207.94
315.083	198.94
315.312	200.94
315.542	189.94
315.771	183.94
316.001	201.94
316.23	177.94
316.46	200.94
316.689	190.94
316.919	210.94
317.148	218.94
317.377	213.94
317.607	211.94
317.836	210.94
318.065	193.94
318.295	193.94
318.524	212.94
318.753	200.94
318.983	187.94
319.212	202.94
319.441	202.94
319.67	215.94
319.9	181.94
320.129	204.94
320.358	194.94
320.587	190.94
320.816	194.94
321.046	209.94
321.275	199.94
321.504	213.94
321.733	195.94
321.962	201.94
322.191	226.94
322.42	232.94
322.649	218.94
322.878	238.94
323.108	236.94
323.337	246.94
323.566	246.94
323.795	265.94
324.024	269.94
324.253	340.94
324.482	470.94
324.71	711.94
324.939	919.94
325.168	734.94
325.397	403.94
325.626	294.94
325.855	247.94
326.084	234.94
326.313	238.94
326.542	247.94
326.77	269.94
326.999	340.94
327.228	439.94
327.457	633.94
327.686	716.94
327.914	471.94
328.143	328.94
328.372	308.94
328.6	281.94
328.829	274.94
329.058	288.94
329.287	300.94
329.515	276.94
329.744	254.94
329.972	267.94
330.201	269.94
330.43	302.94
330.658	299.94
330.887	328.94
331.115	293.94
331.344	253.94
331.572	267.94
331.801	243.94
332.03	258.94
332.258	237.94
332.486	218.94
332.715	208.94
332.943	243.94
333.172	233.94
333.4	234.94
333.629	235.94
333.857	225.94
334.085	250.94
334.314	255.94
334.542	262.94
334.771	297.94
334.999	259.94
335.227	238.94
335.455	235.94
335.684	226.94
335.912	228.94
336.14	216.94
336.369	211.94
336.597	243.94
336.825	212.94
337.053	218.94
337.281	217.94
337.51	224.94
337.738	226.94
337.966	224.94
338.194	234.94
338.422	223.94
338.65	221.94
338.878	219.94
339.106	205.94
339.334	211.94
339.562	206.94
339.79	217.94
340.018	203.94
340.246	205.94
340.474	220.94
340.702	207.94
340.93	234.94
341.158	211.94
341.386	228.94
341.614	236.94
341.842	211.94
342.07	213.94
342.298	207.94
342.526	222.94
342.754	198.94
342.981	219.94
343.209	205.94
343.437	233.94
343.665	226.94
343.893	230.94
344.12	222.94
344.348	216.94
344.576	213.94
344.804	227.94
345.031	230.94
345.259	230.94
345.487	220.94
345.714	210.94
345.942	217.94
346.17	198.94
346.397	211.94
346.625	215.94
346.853	205.94
347.08	209.94
347.308	220.94
347.535	211.94
347.763	220.94
347.99	227.94
348.218	217.94
348.445	220.94
348.673	227.94
348.9	238.94
349.128	219.94
349.355	187.94
349.583	195.94
349.81	202.94
350.037	220.94
350.265	202.94
350.492	198.94
350.72	208.94
350.947	206.94
351.174	205.94
351.402	207.94
351.629	213.94
351.856	227.94
352.083	212.94
352.311	225.94
352.538	214.94
352.765	220.94
352.992	209.94
353.22	215.94
353.447	212.94
353.674	207.94
353.901	206.94
354.128	204.94
354.355	197.94
354.583	206.94
354.81	181.94
355.037	189.94
355.264	197.94
355.491	190.94
355.718	191.94
355.945	195.94
356.172	206.94
356.399	193.94
356.626	192.94
356.853	193.94
357.08	201.94
357.307	200.94
357.534	196.94
357.761	206.94
357.988	185.94
358.215	199.94
358.441	202.94
358.668	202.94
358.895	200.94
359.122	201.94
359.349	202.94
359.576	213.94
359.802	225.94
360.029	222.94
360.256	241.94
360.483	224.94
360.709	216.94
360.936	212.94
361.163	210.94
361.39	225.94
361.616	213.94
361.843	225.94
362.07	223.94
362.296	210.94
362.523	218.94
362.749	202.94
362.976	208.94
363.203	218.94
363.429	197.94
363.656	200.94
363.882	203.94
364.109	206.94
364.335	200.94
364.562	203.94
364.788	190.94
365.015	212.94
365.241	207.94
365.468	198.94
365.694	200.94
365.92	213.94
366.147	194.94
366.373	179.94
366.599	198.94
366.826	202.94
367.052	201.94
367.278	218.94
367.505	213.94
367.731	195.94
367.957	196.94
368.184	186.94
368.41	198.94
368.636	205.94
368.862	202.94
369.089	213.94
369.315	202.94
369.541	186.94
369.767	194.94
369.993	195.94
370.219	195.94
370.445	201.94
370.672	203.94
370.898	195.94
371.124	194.94
371.35	206.94
371.576	195.94
371.802	196.94
372.028	196.94
372.254	205.94
372.48	204.94
372.706	193.94
372.932	193.94
373.158	209.94
373.384	214.94
373.61	210.94
373.835	207.94
374.061	211.94
374.287	197.94
374.513	217.94
374.739	206.94
374.965	196.94
375.191	223.94
375.416	203.94
375.642	194.94
375.868	201.94
376.094	189.94
376.319	195.94
376.545	201.94
376.771	194.94
376.997	193.94
377.222	203.94
377.448	190.94
377.674	199.94
377.899	205.94
378.125	201.94
378.35	183.94
378.576	198.94
378.802	179.94
379.027	188.94
379.253	206.94
379.478	190.94
379.704	188.94
379.929	206.94
380.155	190.94
380.38	206.94
380.606	193.94
380.831	187.94
381.057	208.94
381.282	204.94
381.507	191.94
381.733	210.94
381.958	203.94
382.184	206.94
382.409	215.94
382.634	202.94
382.86	193.94
383.085	209.94
383.31	207.94
383.535	218.94
383.761	213.94
383.986	212.94
384.211	208.94
384.436	203.94
384.662	199.94
384.887	217.94
385.112	202.94
385.337	207.94
385.562	194.94
385.787	190.94
386.013	216.94
386.238	206.94
386.463	235.94
386.688	230.94
386.913	223.94
387.138	219.94
387.363	199.94
387.588	210.94
387.813	224.94
388.038	223.94
388.263	203.94
388.488	214.94
388.713	201.94
388.938	209.94
389.163	219.94
389.387	223.94
389.612	207.94
389.837	202.94
390.062	203.94
390.287	186.94
390.512	212.94
390.736	214.94
390.961	201.94
391.186	211.94
391.411	190.94
391.636	201.94
391.86	198.94
392.085	205.94
392.31	214.94
392.534	203.94
392.759	205.94
392.984	213.94
393.208	221.94
393.433	221.94
393.658	212.94
393.882	198.94
394.107	206.94
394.331	206.94
394.556	214.94
394.78	194.94
395.005	217.94
395.229	209.94
395.454	223.94
395.678	211.94
395.903	231.94
396.127	245.94
396.352	215.94
396.576	216.94
396.801	233.94
397.025	212.94
397.249	220.94
397.474	231.94
397.698	226.94
397.922	227.94
398.147	226.94
398.371	231.94
398.595	250.94
398.82	222.94
399.044	241.94
399.268	237.94
399.492	256.94
399.717	267.94
399.941	303.94
400.165	284.94
400.389	271.94
400.613	271.94
400.837	244.94
401.062	242.94
401.286	253.94
401.51	233.94
401.734	221.94
401.958	235.94
402.182	251.94
402.406	250.94
402.63	250.94
402.854	262.94
403.078	268.94
403.302	259.94
403.526	237.94
403.75	238.94
403.974	257.94
404.198	232.94
404.422	250.94
404.645	245.94
404.869	257.94
405.093	260.94
405.317	267.94
405.541	290.94
405.765	271.94
405.988	246.94
406.212	262.94
406.436	277.94
406.66	280.94
406.883	279.94
407.107	269.94
407.331	290.94
407.555	310.94
407.778	306.94
408.002	286.94
408.226	270.94
408.449	266.94
408.673	259.94
408.896	268.94
409.12	289.94
409.344	277.94
409.567	247.94
409.791	241.94
410.014	255.94
410.238	233.94
410.461	245.94
410.685	241.94
410.908	263.94
411.132	259.94
411.355	279.94
411.578	257.94
411.802	241.94
412.025	249.94
412.249	261.94
412.472	275.94
412.695	277.94
412.919	277.94
413.142	240.94
413.365	253.94
413.589	231.94
413.812	227.94
414.035	245.94
414.258	238.94
414.482	235.94
414.705	254.94
414.928	249.94
415.151	246.94
415.374	237.94
415.597	224.94
415.821	229.94
416.044	241.94
416.267	265.94
416.49	259.94
416.713	238.94
416.936	249.94
417.159	241.94
417.382	238.94
417.605	225.94
417.828	255.94
418.051	268.94
418.274	243.94
418.497	227.94
418.72	242.94
418.943	242.94
419.166	264.94
419.389	236.94
419.611	251.94
419.834	249.94
420.057	273.94
420.28	270.94
420.503	257.94
420.726	252.94
420.948	252.94
421.171	279.94
421.394	275.94
421.617	281.94
421.839	241.94
422.062	253.94
422.285	259.94
422.507	280.94
422.73	315.94
422.953	291.94
423.175	266.94
423.398	271.94
423.621	256.94
423.843	269.94
424.066	274.94
424.288	263.94
424.511	278.94
424.733	313.94
424.956	330.94
425.178	297.94
425.401	298.94
425.623	312.94
425.846	268.94
426.068	275.94
426.291	271.94
426.513	267.94
426.735	278.94
426.958	268.94
427.18	321.94
427.402	372.94
427.625	423.94
427.847	335.94
428.069	284.94
428.292	270.94
428.514	275.94
428.736	240.94
428.958	255.94
429.181	256.94
429.403	235.94
429.625	257.94
429.847	271.94
430.069	293.94
430.292	271.94
430.514	238.94
430.736	260.94
430.958	249.94
431.18	230.94
431.402	229.94
431.624	227.94
431.846	226.94
432.068	231.94
432.29	246.94
432.512	236.94
432.734	230.94
432.956	235.94
433.178	258.94
433.4	231.94
433.622	215.94
433.844	249.94
434.066	243.94
434.287	253.94
434.509	225.94
434.731	239.94
434.953	236.94
435.175	257.94
435.397	269.94
435.618	268.94
435.84	285.94
436.062	310.94
436.284	322.94
436.505	284.94
436.727	263.94
436.949	265.94
437.17	249.94
437.392	244.94
437.614	267.94
437.835	264.94
438.057	306.94
438.278	330.94
438.5	337.94
438.721	352.94
438.943	355.94
439.165	265.94
439.386	273.94
439.608	262.94
439.829	253.94
440.05	287.94
440.272	303.94
440.493	277.94
440.715	249.94
440.936	248.94
441.158	245.94
441.379	235.94
441.6	257.94
441.822	263.94
442.043	276.94
442.264	314.94
442.486	346.94
442.707	280.94
442.928	252.94
443.149	295.94
443.371	302.94
443.592	319.94
443.813	353.94
444.034	363.94
444.255	307.94
444.476	267.94
444.698	277.94
444.919	259.94
445.14	358.94
445.361	318.94
445.582	290.94
445.803	319.94
446.024	357.94
446.245	359.94
446.466	304.94
446.687	263.94
446.908	251.94
447.129	239.94
447.35	245.94
447.571	223.94
447.792	257.94
448.013	241.94
448.234	257.94
448.455	292.94
448.675	314.94
448.896	371.94
449.117	310.94
449.338	281.94
449.559	324.94
449.779	373.94
450	299.94
450.221	269.94
450.442	241.94
450.662	243.94
450.883	257.94
451.104	271.94
451.324	243.94
451.545	232.94
451.766	224.94
451.986	222.94
452.207	221.94
452.428	219.94
452.648	215.94
452.869	221.94
453.089	246.94
453.31	243.94
453.53	233.94
453.751	225.94
453.971	242.94
454.192	232.94
454.412	225.94
454.633	215.94
454.853	225.94
455.073	212.94
455.294	232.94
455.514	281.94
455.734	251.94
455.955	222.94
456.175	225.94
456.395	208.94
456.616	219.94
456.836	212.94
457.056	205.94
457.276	186.94
457.497	215.94
457.717	227.94
457.937	212.94
458.157	205.94
458.377	216.94
458.598	239.94
458.818	255.94
459.038	282.94
459.258	309.94
459.478	249.94
459.698	236.94
459.918	250.94
460.138	219.94
460.358	231.94
460.578	235.94
460.798	207.94
461.018	232.94
461.238	231.94
461.458	243.94
461.678	244.94
461.898	247.94
462.118	228.94
462.338	244.94
462.558	243.94
462.777	242.94
462.997	251.94
463.217	258.94
463.437	265.94
463.657	234.94
463.876	237.94
464.096	257.94
464.316	257.94
464.536	253.94
464.755	254.94
464.975	271.94
465.195	277.94
465.414	321.94
465.634	286.94
465.854	263.94
466.073	236.94
466.293	232.94
466.512	229.94
466.732	229.94
466.951	230.94
467.171	225.94
467.391	245.94
467.61	234.94
467.829	243.94
468.049	235.94
468.268	244.94
468.488	235.94
468.707	215.94
468.927	223.94
469.146	222.94
469.365	237.94
469.585	209.94
469.804	233.94
470.023	233.94
470.243	247.94
470.462	222.94
470.681	245.94
470.901	239.94
471.12	246.94
471.339	225.94
471.558	228.94
471.777	242.94
471.997	232.94
472.216	231.94
472.435	271.94
472.654	261.94
472.873	233.94
473.092	242.94
473.311	226.94
473.53	246.94
473.749	235.94
473.968	261.94
474.187	306.94
474.406	312.94
474.625	258.94
474.844	221.94
475.063	220.94
475.282	223.94
475.501	219.94
475.72	233.94
475.939	202.94
476.158	226.94
476.377	234.94
476.596	239.94
476.814	250.94
477.033	250.94
477.252	229.94
477.471	234.94
477.69	245.94
477.908	242.94
478.127	245.94
478.346	241.94
478.564	246.94
478.783	247.94
479.002	258.94
479.22	262.94
479.439	266.94
479.658	258.94
479.876	282.94
480.095	270.94
480.313	279.94
480.532	274.94
480.751	253.94
480.969	277.94
481.188	335.94
481.406	350.94
481.624	298.94
481.843	279.94
482.061	263.94
482.28	256.94
482.498	263.94
482.717	253.94
482.935	274.94
483.153	249.94
483.372	252.94
483.59	272.94
483.808	267.94
484.027	269.94
484.245	259.94
484.463	285.94
484.681	284.94
484.9	292.94
485.118	291.94
485.336	261.94
485.554	271.94
485.772	282.94
485.99	260.94
486.209	271.94
486.427	267.94
486.645	265.94
486.863	299.94
487.081	272.94
487.299	279.94
487.517	288.94
487.735	283.94
487.953	289.94
488.171	281.94
488.389	271.94
488.607	298.94
488.825	276.94
489.043	272.94
489.261	276.94
489.479	281.94
489.696	295.94
489.914	293.94
490.132	305.94
490.35	281.94
490.568	299.94
490.786	290.94
491.003	315.94
491.221	307.94
491.439	318.94
491.657	322.94
491.874	309.94
492.092	335.94
492.31	342.94
492.527	335.94
492.745	329.94
492.963	344.94
493.18	332.94
493.398	321.94
493.615	340.94
493.833	326.94
494.05	323.94
494.268	340.94
494.485	329.94
494.703	330.94
494.92	327.94
495.138	328.94
495.355	323.94
495.573	313.94
495.79	317.94
496.008	325.94
496.225	334.94
496.442	327.94
496.66	317.94
496.877	343.94
497.094	353.94
497.312	327.94
497.529	345.94
497.746	325.94
497.963	347.94
498.181	333.94
498.398	351.94
498.615	355.94
498.832	346.94
499.049	371.94
499.267	371.94
499.484	385.94
499.701	403.94
499.918	391.94
500.135	409.94
500.352	440.94
500.569	437.94
500.786	429.94
501.003	427.94
501.22	414.94
501.437	385.94
501.654	403.94
501.871	385.94
502.088	383.94
502.305	361.94
502.522	347.94
502.739	347.94
