Data from 1966.PennyLincolnUp.Lamp.En5.5.200Scan.071719.P1._HRD10591_14-12-26-912.txt Node
Date: Thu Jul 18 14:12:26 EDT 2019
User: cochatt
Spectrometer: HR+D1059
Trigger mode: 1
Integration Time (sec): 1.000000E-1
Scans to average: 1
Electric dark correction enabled: true
Nonlinearity correction enabled: false
Boxcar width: 0
XAxis mode: Wavelengths
Number of Pixels in Spectrum: 2048
>>>>>Begin Spectral Data<<<<<
223.165	-8.25
223.4	-8.25
223.635	-8.25
223.869	-23.25
224.104	-26.25
224.338	-18.25
224.573	-20.25
224.808	-4.25
225.042	-11.25
225.277	6.75
225.511	-4.25
225.746	-2.25
225.98	-0.25
226.215	6.75
226.449	28.75
226.683	24.75
226.918	30.75
227.152	20.75
227.387	30.75
227.621	34.75
227.856	48.75
228.09	38.75
228.324	45.75
228.559	56.75
228.793	59.75
229.027	78.75
229.262	88.75
229.496	81.75
229.73	80.75
229.964	87.75
230.199	84.75
230.433	94.75
230.667	88.75
230.901	91.75
231.136	97.75
231.37	94.75
231.604	87.75
231.838	97.75
232.072	77.75
232.306	88.75
232.541	99.75
232.775	95.75
233.009	88.75
233.243	100.75
233.477	96.75
233.711	101.75
233.945	87.75
234.179	89.75
234.413	85.75
234.647	103.75
234.881	85.75
235.115	85.75
235.349	94.75
235.583	91.75
235.817	87.75
236.051	88.75
236.285	88.75
236.519	97.75
236.753	92.75
236.987	109.75
237.221	107.75
237.455	127.75
237.689	107.75
237.922	115.75
238.156	87.75
238.39	92.75
238.624	85.75
238.858	106.75
239.091	95.75
239.325	89.75
239.559	88.75
239.793	102.75
240.027	100.75
240.26	117.75
240.494	109.75
240.728	99.75
240.961	103.75
241.195	107.75
241.429	104.75
241.662	121.75
241.896	94.75
242.13	101.75
242.363	108.75
242.597	93.75
242.83	93.75
243.064	98.75
243.298	101.75
243.531	96.75
243.765	121.75
243.998	93.75
244.232	104.75
244.465	109.75
244.699	97.75
244.932	98.75
245.166	87.75
245.399	108.75
245.633	104.75
245.866	110.75
246.099	110.75
246.333	121.75
246.566	100.75
246.8	101.75
247.033	110.75
247.266	103.75
247.5	104.75
247.733	102.75
247.966	124.75
248.2	116.75
248.433	106.75
248.666	119.75
248.899	112.75
249.133	125.75
249.366	120.75
249.599	119.75
249.832	116.75
250.066	102.75
250.299	111.75
250.532	120.75
250.765	137.75
250.998	127.75
251.231	130.75
251.465	134.75
251.698	122.75
251.931	118.75
252.164	130.75
252.397	121.75
252.63	112.75
252.863	120.75
253.096	128.75
253.329	133.75
253.562	126.75
253.795	132.75
254.028	123.75
254.261	109.75
254.494	136.75
254.727	164.75
254.96	151.75
255.193	151.75
255.426	133.75
255.659	132.75
255.892	129.75
256.124	127.75
256.357	128.75
256.59	120.75
256.823	127.75
257.056	123.75
257.289	123.75
257.521	115.75
257.754	132.75
257.987	131.75
258.22	125.75
258.452	100.75
258.685	116.75
258.918	126.75
259.151	135.75
259.383	113.75
259.616	129.75
259.849	141.75
260.081	142.75
260.314	153.75
260.547	135.75
260.779	123.75
261.012	124.75
261.244	125.75
261.477	137.75
261.71	131.75
261.942	137.75
262.175	130.75
262.407	139.75
262.64	132.75
262.872	126.75
263.105	133.75
263.337	129.75
263.57	122.75
263.802	129.75
264.035	141.75
264.267	122.75
264.499	131.75
264.732	116.75
264.964	134.75
265.197	121.75
265.429	119.75
265.661	123.75
265.894	129.75
266.126	131.75
266.358	128.75
266.591	128.75
266.823	143.75
267.055	124.75
267.287	131.75
267.52	151.75
267.752	132.75
267.984	138.75
268.216	126.75
268.448	138.75
268.681	132.75
268.913	135.75
269.145	150.75
269.377	150.75
269.609	149.75
269.841	155.75
270.073	149.75
270.306	152.75
270.538	156.75
270.77	153.75
271.002	149.75
271.234	164.75
271.466	153.75
271.698	158.75
271.93	151.75
272.162	171.75
272.394	165.75
272.626	148.75
272.858	152.75
273.09	143.75
273.322	149.75
273.553	140.75
273.785	152.75
274.017	143.75
274.249	144.75
274.481	149.75
274.713	145.75
274.945	126.75
275.176	131.75
275.408	139.75
275.64	142.75
275.872	133.75
276.104	140.75
276.335	149.75
276.567	146.75
276.799	160.75
277.031	161.75
277.262	170.75
277.494	175.75
277.726	155.75
277.957	154.75
278.189	143.75
278.421	139.75
278.652	154.75
278.884	150.75
279.115	139.75
279.347	153.75
279.579	147.75
279.81	149.75
280.042	152.75
280.273	140.75
280.505	143.75
280.736	126.75
280.968	141.75
281.199	146.75
281.431	143.75
281.662	152.75
281.894	153.75
282.125	151.75
282.356	164.75
282.588	168.75
282.819	148.75
283.051	155.75
283.282	143.75
283.513	156.75
283.745	170.75
283.976	148.75
284.207	149.75
284.439	157.75
284.67	137.75
284.901	156.75
285.132	156.75
285.364	148.75
285.595	142.75
285.826	158.75
286.057	140.75
286.288	159.75
286.52	145.75
286.751	150.75
286.982	142.75
287.213	165.75
287.444	163.75
287.675	150.75
287.906	164.75
288.138	151.75
288.369	150.75
288.6	148.75
288.831	149.75
289.062	165.75
289.293	166.75
289.524	143.75
289.755	169.75
289.986	161.75
290.217	162.75
290.448	166.75
290.679	154.75
290.91	142.75
291.141	152.75
291.371	168.75
291.602	167.75
291.833	154.75
292.064	151.75
292.295	166.75
292.526	165.75
292.757	154.75
292.987	155.75
293.218	144.75
293.449	161.75
293.68	165.75
293.91	158.75
294.141	133.75
294.372	172.75
294.603	146.75
294.833	157.75
295.064	151.75
295.295	173.75
295.525	165.75
295.756	165.75
295.987	168.75
296.217	172.75
296.448	189.75
296.679	151.75
296.909	166.75
297.14	152.75
297.37	155.75
297.601	172.75
297.831	157.75
298.062	155.75
298.292	162.75
298.523	162.75
298.753	169.75
298.984	171.75
299.214	167.75
299.445	149.75
299.675	158.75
299.905	150.75
300.136	157.75
300.366	172.75
300.597	156.75
300.827	173.75
301.057	169.75
301.288	176.75
301.518	172.75
301.748	167.75
301.979	165.75
302.209	152.75
302.439	179.75
302.669	185.75
302.9	164.75
303.13	165.75
303.36	171.75
303.59	160.75
303.82	174.75
304.051	169.75
304.281	176.75
304.511	175.75
304.741	193.75
304.971	173.75
305.201	147.75
305.431	165.75
305.661	164.75
305.891	164.75
306.121	161.75
306.352	172.75
306.582	171.75
306.812	182.75
307.042	171.75
307.272	169.75
307.502	157.75
307.731	162.75
307.961	171.75
308.191	179.75
308.421	162.75
308.651	166.75
308.881	179.75
309.111	169.75
309.341	183.75
309.571	172.75
309.8	179.75
310.03	183.75
310.26	186.75
310.49	171.75
310.72	174.75
310.949	190.75
311.179	187.75
311.409	189.75
311.639	189.75
311.868	202.75
312.098	191.75
312.328	183.75
312.557	200.75
312.787	197.75
313.017	197.75
313.246	196.75
313.476	179.75
313.706	176.75
313.935	184.75
314.165	214.75
314.394	169.75
314.624	189.75
314.853	197.75
315.083	180.75
315.312	194.75
315.542	187.75
315.771	188.75
316.001	176.75
316.23	184.75
316.46	186.75
316.689	187.75
316.919	176.75
317.148	185.75
317.377	194.75
317.607	195.75
317.836	196.75
318.065	173.75
318.295	172.75
318.524	186.75
318.753	165.75
318.983	187.75
319.212	195.75
319.441	183.75
319.67	193.75
319.9	172.75
320.129	172.75
320.358	167.75
320.587	189.75
320.816	187.75
321.046	205.75
321.275	184.75
321.504	186.75
321.733	179.75
321.962	190.75
322.191	199.75
322.42	206.75
322.649	206.75
322.878	218.75
323.108	209.75
323.337	216.75
323.566	226.75
323.795	245.75
324.024	249.75
324.253	310.75
324.482	413.75
324.71	631.75
324.939	835.75
325.168	688.75
325.397	350.75
325.626	253.75
325.855	216.75
326.084	225.75
326.313	212.75
326.542	228.75
326.77	235.75
326.999	284.75
327.228	384.75
327.457	565.75
327.686	634.75
327.914	427.75
328.143	281.75
328.372	273.75
328.6	250.75
328.829	246.75
329.058	259.75
329.287	282.75
329.515	238.75
329.744	214.75
329.972	230.75
330.201	246.75
330.43	279.75
330.658	276.75
330.887	279.75
331.115	280.75
331.344	228.75
331.572	223.75
331.801	231.75
332.03	211.75
332.258	204.75
332.486	217.75
332.715	206.75
332.943	212.75
333.172	210.75
333.4	200.75
333.629	228.75
333.857	222.75
334.085	228.75
334.314	249.75
334.542	257.75
334.771	267.75
334.999	245.75
335.227	227.75
335.455	210.75
335.684	206.75
335.912	213.75
336.14	221.75
336.369	207.75
336.597	202.75
336.825	225.75
337.053	206.75
337.281	201.75
337.51	200.75
337.738	206.75
337.966	187.75
338.194	232.75
338.422	212.75
338.65	201.75
338.878	205.75
339.106	198.75
339.334	204.75
339.562	187.75
339.79	195.75
340.018	203.75
340.246	204.75
340.474	200.75
340.702	209.75
340.93	185.75
341.158	212.75
341.386	198.75
341.614	204.75
341.842	201.75
342.07	204.75
342.298	193.75
342.526	191.75
342.754	202.75
342.981	196.75
343.209	184.75
343.437	203.75
343.665	199.75
343.893	216.75
344.12	215.75
344.348	200.75
344.576	214.75
344.804	208.75
345.031	202.75
345.259	210.75
345.487	198.75
345.714	190.75
345.942	193.75
346.17	200.75
346.397	200.75
346.625	204.75
346.853	192.75
347.08	199.75
347.308	193.75
347.535	191.75
347.763	207.75
347.99	209.75
348.218	186.75
348.445	215.75
348.673	203.75
348.9	195.75
349.128	226.75
349.355	167.75
349.583	197.75
349.81	183.75
350.037	203.75
350.265	184.75
350.492	201.75
350.72	198.75
350.947	191.75
351.174	203.75
351.402	195.75
351.629	190.75
351.856	198.75
352.083	204.75
352.311	206.75
352.538	221.75
352.765	219.75
352.992	212.75
353.22	203.75
353.447	187.75
353.674	200.75
353.901	190.75
354.128	199.75
354.355	199.75
354.583	175.75
354.81	183.75
355.037	185.75
355.264	188.75
355.491	194.75
355.718	181.75
355.945	168.75
356.172	190.75
356.399	204.75
356.626	180.75
356.853	169.75
357.08	181.75
357.307	176.75
357.534	181.75
357.761	184.75
357.988	186.75
358.215	180.75
358.441	185.75
358.668	191.75
358.895	193.75
359.122	199.75
359.349	202.75
359.576	192.75
359.802	213.75
360.029	224.75
360.256	228.75
360.483	205.75
360.709	199.75
360.936	179.75
361.163	212.75
361.39	204.75
361.616	190.75
361.843	182.75
362.07	193.75
362.296	209.75
362.523	174.75
362.749	188.75
362.976	203.75
363.203	188.75
363.429	192.75
363.656	190.75
363.882	186.75
364.109	182.75
364.335	192.75
364.562	200.75
364.788	182.75
365.015	187.75
365.241	193.75
365.468	193.75
365.694	191.75
365.92	192.75
366.147	180.75
366.373	194.75
366.599	200.75
366.826	185.75
367.052	181.75
367.278	176.75
367.505	203.75
367.731	196.75
367.957	176.75
368.184	200.75
368.41	198.75
368.636	199.75
368.862	196.75
369.089	197.75
369.315	189.75
369.541	180.75
369.767	185.75
369.993	196.75
370.219	194.75
370.445	180.75
370.672	184.75
370.898	198.75
371.124	177.75
371.35	185.75
371.576	183.75
371.802	191.75
372.028	182.75
372.254	196.75
372.48	204.75
372.706	183.75
372.932	187.75
373.158	177.75
373.384	187.75
373.61	204.75
373.835	199.75
374.061	182.75
374.287	199.75
374.513	192.75
374.739	192.75
374.965	189.75
375.191	181.75
375.416	183.75
375.642	196.75
375.868	182.75
376.094	188.75
376.319	188.75
376.545	195.75
376.771	185.75
376.997	196.75
377.222	191.75
377.448	179.75
377.674	199.75
377.899	182.75
378.125	182.75
378.35	191.75
378.576	190.75
378.802	196.75
379.027	179.75
379.253	172.75
379.478	181.75
379.704	196.75
379.929	196.75
380.155	192.75
380.38	184.75
380.606	193.75
380.831	179.75
381.057	189.75
381.282	196.75
381.507	177.75
381.733	191.75
381.958	205.75
382.184	202.75
382.409	179.75
382.634	194.75
382.86	185.75
383.085	185.75
383.31	195.75
383.535	190.75
383.761	207.75
383.986	192.75
384.211	207.75
384.436	205.75
384.662	198.75
384.887	185.75
385.112	202.75
385.337	206.75
385.562	200.75
385.787	202.75
386.013	220.75
386.238	215.75
386.463	212.75
386.688	184.75
386.913	200.75
387.138	193.75
387.363	199.75
387.588	206.75
387.813	190.75
388.038	198.75
388.263	185.75
388.488	194.75
388.713	203.75
388.938	215.75
389.163	185.75
389.387	205.75
389.612	198.75
389.837	186.75
390.062	207.75
390.287	200.75
390.512	198.75
390.736	187.75
390.961	195.75
391.186	202.75
391.411	187.75
391.636	196.75
391.86	202.75
392.085	196.75
392.31	209.75
392.534	217.75
392.759	199.75
392.984	205.75
393.208	200.75
393.433	220.75
393.658	221.75
393.882	217.75
394.107	199.75
394.331	189.75
394.556	181.75
394.78	201.75
395.005	192.75
395.229	195.75
395.454	202.75
395.678	213.75
395.903	219.75
396.127	219.75
396.352	233.75
396.576	215.75
396.801	219.75
397.025	213.75
397.249	209.75
397.474	213.75
397.698	207.75
397.922	211.75
398.147	223.75
398.371	224.75
398.595	220.75
398.82	217.75
399.044	225.75
399.268	236.75
399.492	245.75
399.717	252.75
399.941	260.75
400.165	262.75
400.389	276.75
400.613	243.75
400.837	230.75
401.062	235.75
401.286	235.75
401.51	215.75
401.734	207.75
401.958	232.75
402.182	227.75
402.406	226.75
402.63	224.75
402.854	250.75
403.078	241.75
403.302	213.75
403.526	236.75
403.75	219.75
403.974	235.75
404.198	237.75
404.422	239.75
404.645	254.75
404.869	246.75
405.093	252.75
405.317	248.75
405.541	283.75
405.765	241.75
405.988	248.75
406.212	252.75
406.436	239.75
406.66	265.75
406.883	251.75
407.107	256.75
407.331	268.75
407.555	294.75
407.778	300.75
408.002	284.75
408.226	255.75
408.449	246.75
408.673	264.75
408.896	243.75
409.12	279.75
409.344	270.75
409.567	231.75
409.791	246.75
410.014	235.75
410.238	225.75
410.461	228.75
410.685	233.75
410.908	245.75
411.132	263.75
411.355	267.75
411.578	245.75
411.802	228.75
412.025	218.75
412.249	233.75
412.472	250.75
412.695	272.75
412.919	261.75
413.142	232.75
413.365	231.75
413.589	238.75
413.812	221.75
414.035	232.75
414.258	222.75
414.482	213.75
414.705	224.75
414.928	225.75
415.151	232.75
415.374	227.75
415.597	228.75
415.821	234.75
416.044	248.75
416.267	228.75
416.49	228.75
416.713	229.75
416.936	229.75
417.159	216.75
417.382	226.75
417.605	226.75
417.828	236.75
418.051	245.75
418.274	228.75
418.497	231.75
418.72	233.75
418.943	228.75
419.166	223.75
419.389	238.75
419.611	243.75
419.834	244.75
420.057	231.75
420.28	244.75
420.503	215.75
420.726	229.75
420.948	229.75
421.171	264.75
421.394	255.75
421.617	227.75
421.839	217.75
422.062	222.75
422.285	233.75
422.507	244.75
422.73	306.75
422.953	292.75
423.175	240.75
423.398	246.75
423.621	261.75
423.843	260.75
424.066	253.75
424.288	261.75
424.511	271.75
424.733	293.75
424.956	303.75
425.178	291.75
425.401	281.75
425.623	294.75
425.846	252.75
426.068	261.75
426.291	255.75
426.513	237.75
426.735	246.75
426.958	261.75
427.18	296.75
427.402	329.75
427.625	355.75
427.847	342.75
428.069	272.75
428.292	255.75
428.514	230.75
428.736	227.75
428.958	227.75
429.181	220.75
429.403	229.75
429.625	224.75
429.847	253.75
430.069	275.75
430.292	275.75
430.514	238.75
430.736	230.75
430.958	227.75
431.18	231.75
431.402	209.75
431.624	216.75
431.846	221.75
432.068	226.75
432.29	217.75
432.512	228.75
432.734	224.75
432.956	216.75
433.178	207.75
433.4	230.75
433.622	228.75
433.844	220.75
434.066	202.75
434.287	231.75
434.509	228.75
434.731	225.75
434.953	249.75
435.175	242.75
435.397	243.75
435.618	255.75
435.84	267.75
436.062	297.75
436.284	306.75
436.505	291.75
436.727	248.75
436.949	239.75
437.17	235.75
437.392	231.75
437.614	222.75
437.835	260.75
438.057	305.75
438.278	325.75
438.5	324.75
438.721	352.75
438.943	322.75
439.165	265.75
439.386	248.75
439.608	260.75
439.829	247.75
440.05	270.75
440.272	276.75
440.493	253.75
440.715	245.75
440.936	240.75
441.158	241.75
441.379	217.75
441.6	239.75
441.822	257.75
442.043	279.75
442.264	301.75
442.486	318.75
442.707	271.75
442.928	274.75
443.149	279.75
443.371	273.75
443.592	296.75
443.813	302.75
444.034	317.75
444.255	271.75
444.476	237.75
444.698	250.75
444.919	250.75
445.14	341.75
445.361	311.75
445.582	273.75
445.803	292.75
446.024	333.75
446.245	333.75
446.466	291.75
446.687	258.75
446.908	238.75
447.129	233.75
447.35	244.75
447.571	245.75
447.792	215.75
448.013	232.75
448.234	238.75
448.455	243.75
448.675	290.75
448.896	318.75
449.117	286.75
449.338	269.75
449.559	300.75
449.779	349.75
450	290.75
450.221	240.75
450.442	226.75
450.662	239.75
450.883	238.75
451.104	248.75
451.324	227.75
451.545	220.75
451.766	208.75
451.986	215.75
452.207	209.75
452.428	195.75
452.648	213.75
452.869	227.75
453.089	224.75
453.31	202.75
453.53	223.75
453.751	216.75
453.971	231.75
454.192	218.75
454.412	223.75
454.633	207.75
454.853	199.75
455.073	203.75
455.294	233.75
455.514	249.75
455.734	246.75
455.955	199.75
456.175	199.75
456.395	196.75
456.616	205.75
456.836	199.75
457.056	211.75
457.276	191.75
457.497	192.75
457.717	210.75
457.937	183.75
458.157	204.75
458.377	215.75
458.598	229.75
458.818	240.75
459.038	290.75
459.258	277.75
459.478	236.75
459.698	222.75
459.918	224.75
460.138	221.75
460.358	204.75
460.578	229.75
460.798	231.75
461.018	212.75
461.238	211.75
461.458	223.75
461.678	241.75
461.898	220.75
462.118	226.75
462.338	239.75
462.558	237.75
462.777	253.75
462.997	240.75
463.217	238.75
463.437	239.75
463.657	222.75
463.876	245.75
464.096	237.75
464.316	247.75
464.536	229.75
464.755	221.75
464.975	233.75
465.195	273.75
465.414	303.75
465.634	249.75
465.854	225.75
466.073	233.75
466.293	216.75
466.512	207.75
466.732	209.75
466.951	211.75
467.171	213.75
467.391	223.75
467.61	226.75
467.829	220.75
468.049	224.75
468.268	229.75
468.488	206.75
468.707	198.75
468.927	212.75
469.146	209.75
469.365	218.75
469.585	225.75
469.804	223.75
470.023	209.75
470.243	234.75
470.462	213.75
470.681	214.75
470.901	232.75
471.12	215.75
471.339	236.75
471.558	226.75
471.777	234.75
471.997	223.75
472.216	219.75
472.435	233.75
472.654	239.75
472.873	205.75
473.092	201.75
473.311	203.75
473.53	227.75
473.749	213.75
473.968	245.75
474.187	285.75
474.406	264.75
474.625	238.75
474.844	219.75
475.063	210.75
475.282	233.75
475.501	215.75
475.72	219.75
475.939	204.75
476.158	215.75
476.377	217.75
476.596	219.75
476.814	216.75
477.033	206.75
477.252	238.75
477.471	236.75
477.69	234.75
477.908	246.75
478.127	243.75
478.346	245.75
478.564	231.75
478.783	240.75
479.002	231.75
479.22	246.75
479.439	238.75
479.658	254.75
479.876	249.75
480.095	240.75
480.313	277.75
480.532	261.75
480.751	274.75
480.969	270.75
481.188	308.75
481.406	315.75
481.624	282.75
481.843	265.75
482.061	256.75
482.28	235.75
482.498	259.75
482.717	262.75
482.935	250.75
483.153	244.75
483.372	256.75
483.59	262.75
483.808	245.75
484.027	259.75
484.245	264.75
484.463	256.75
484.681	253.75
484.9	261.75
485.118	251.75
485.336	263.75
485.554	243.75
485.772	245.75
485.99	249.75
486.209	276.75
486.427	256.75
486.645	249.75
486.863	283.75
487.081	263.75
487.299	293.75
487.517	270.75
487.735	273.75
487.953	272.75
488.171	246.75
488.389	268.75
488.607	278.75
488.825	255.75
489.043	279.75
489.261	279.75
489.479	270.75
489.696	279.75
489.914	276.75
490.132	265.75
490.35	281.75
490.568	278.75
490.786	273.75
491.003	285.75
491.221	306.75
491.439	305.75
491.657	309.75
491.874	303.75
492.092	307.75
492.31	299.75
492.527	311.75
492.745	294.75
492.963	305.75
493.18	318.75
493.398	317.75
493.615	317.75
493.833	317.75
494.05	308.75
494.268	315.75
494.485	297.75
494.703	304.75
494.92	308.75
495.138	307.75
495.355	319.75
495.573	315.75
495.79	299.75
496.008	303.75
496.225	311.75
496.442	293.75
496.66	307.75
496.877	305.75
497.094	296.75
497.312	301.75
497.529	318.75
497.746	318.75
497.963	317.75
498.181	323.75
498.398	319.75
498.615	324.75
498.832	334.75
499.049	322.75
499.267	352.75
499.484	341.75
499.701	363.75
499.918	357.75
500.135	372.75
500.352	402.75
500.569	405.75
500.786	413.75
501.003	407.75
501.22	409.75
501.437	376.75
501.654	374.75
501.871	379.75
502.088	350.75
502.305	353.75
502.522	321.75
502.739	313.75
