Data from 1966.PennyLincolnUp.Lamp.En5.5.200Scan.071719.P1._HRD10591_14-15-03-919.txt Node
Date: Thu Jul 18 14:15:03 EDT 2019
User: cochatt
Spectrometer: HR+D1059
Trigger mode: 1
Integration Time (sec): 1.000000E-1
Scans to average: 1
Electric dark correction enabled: true
Nonlinearity correction enabled: false
Boxcar width: 0
XAxis mode: Wavelengths
Number of Pixels in Spectrum: 2048
>>>>>Begin Spectral Data<<<<<
223.165	-3.06
223.4	-3.06
223.635	-3.06
223.869	-12.06
224.104	-19.06
224.338	-20.06
224.573	-17.06
224.808	-12.06
225.042	-8.06
225.277	-9.06
225.511	-7.06
225.746	7.94
225.98	8.94
226.215	25.94
226.449	4.94
226.683	10.94
226.918	30.94
227.152	17.94
227.387	35.94
227.621	27.94
227.856	45.94
228.09	41.94
228.324	41.94
228.559	52.94
228.793	62.94
229.027	69.94
229.262	77.94
229.496	95.94
229.73	82.94
229.964	118.94
230.199	102.94
230.433	98.94
230.667	83.94
230.901	100.94
231.136	95.94
231.37	85.94
231.604	103.94
231.838	103.94
232.072	95.94
232.306	88.94
232.541	83.94
232.775	96.94
233.009	105.94
233.243	87.94
233.477	95.94
233.711	99.94
233.945	105.94
234.179	88.94
234.413	104.94
234.647	92.94
234.881	78.94
235.115	83.94
235.349	89.94
235.583	98.94
235.817	103.94
236.051	96.94
236.285	104.94
236.519	107.94
236.753	94.94
236.987	111.94
237.221	116.94
237.455	143.94
237.689	124.94
237.922	117.94
238.156	94.94
238.39	95.94
238.624	102.94
238.858	87.94
239.091	104.94
239.325	91.94
239.559	100.94
239.793	107.94
240.027	112.94
240.26	102.94
240.494	100.94
240.728	107.94
240.961	117.94
241.195	104.94
241.429	111.94
241.662	102.94
241.896	94.94
242.13	95.94
242.363	102.94
242.597	107.94
242.83	117.94
243.064	112.94
243.298	83.94
243.531	103.94
243.765	101.94
243.998	101.94
244.232	100.94
244.465	121.94
244.699	107.94
244.932	106.94
245.166	99.94
245.399	115.94
245.633	112.94
245.866	112.94
246.099	104.94
246.333	99.94
246.566	120.94
246.8	117.94
247.033	123.94
247.266	121.94
247.5	101.94
247.733	127.94
247.966	119.94
248.2	114.94
248.433	108.94
248.666	126.94
248.899	116.94
249.133	125.94
249.366	123.94
249.599	133.94
249.832	123.94
250.066	123.94
250.299	117.94
250.532	115.94
250.765	150.94
250.998	134.94
251.231	137.94
251.465	132.94
251.698	133.94
251.931	122.94
252.164	125.94
252.397	122.94
252.63	139.94
252.863	125.94
253.096	132.94
253.329	144.94
253.562	146.94
253.795	150.94
254.028	152.94
254.261	151.94
254.494	134.94
254.727	159.94
254.96	187.94
255.193	165.94
255.426	156.94
255.659	143.94
255.892	138.94
256.124	149.94
256.357	148.94
256.59	140.94
256.823	137.94
257.056	126.94
257.289	136.94
257.521	133.94
257.754	139.94
257.987	129.94
258.22	137.94
258.452	135.94
258.685	143.94
258.918	140.94
259.151	133.94
259.383	141.94
259.616	133.94
259.849	149.94
260.081	150.94
260.314	155.94
260.547	155.94
260.779	137.94
261.012	146.94
261.244	137.94
261.477	136.94
261.71	132.94
261.942	142.94
262.175	158.94
262.407	142.94
262.64	121.94
262.872	155.94
263.105	141.94
263.337	146.94
263.57	142.94
263.802	129.94
264.035	138.94
264.267	134.94
264.499	130.94
264.732	142.94
264.964	150.94
265.197	149.94
265.429	119.94
265.661	145.94
265.894	135.94
266.126	140.94
266.358	160.94
266.591	149.94
266.823	139.94
267.055	133.94
267.287	146.94
267.52	137.94
267.752	143.94
267.984	141.94
268.216	141.94
268.448	139.94
268.681	154.94
268.913	156.94
269.145	169.94
269.377	182.94
269.609	151.94
269.841	169.94
270.073	171.94
270.306	197.94
270.538	194.94
270.77	184.94
271.002	177.94
271.234	188.94
271.466	181.94
271.698	187.94
271.93	189.94
272.162	194.94
272.394	184.94
272.626	182.94
272.858	165.94
273.09	173.94
273.322	155.94
273.553	159.94
273.785	164.94
274.017	169.94
274.249	160.94
274.481	174.94
274.713	166.94
274.945	167.94
275.176	157.94
275.408	168.94
275.64	164.94
275.872	141.94
276.104	164.94
276.335	172.94
276.567	161.94
276.799	164.94
277.031	190.94
277.262	195.94
277.494	187.94
277.726	180.94
277.957	173.94
278.189	179.94
278.421	165.94
278.652	182.94
278.884	163.94
279.115	156.94
279.347	189.94
279.579	168.94
279.81	177.94
280.042	154.94
280.273	145.94
280.505	168.94
280.736	166.94
280.968	158.94
281.199	163.94
281.431	157.94
281.662	166.94
281.894	156.94
282.125	161.94
282.356	188.94
282.588	186.94
282.819	197.94
283.051	188.94
283.282	167.94
283.513	181.94
283.745	166.94
283.976	170.94
284.207	163.94
284.439	187.94
284.67	175.94
284.901	168.94
285.132	170.94
285.364	153.94
285.595	159.94
285.826	162.94
286.057	172.94
286.288	161.94
286.52	172.94
286.751	160.94
286.982	176.94
287.213	174.94
287.444	162.94
287.675	163.94
287.906	179.94
288.138	187.94
288.369	185.94
288.6	185.94
288.831	177.94
289.062	183.94
289.293	183.94
289.524	167.94
289.755	183.94
289.986	184.94
290.217	170.94
290.448	174.94
290.679	182.94
290.91	155.94
291.141	173.94
291.371	172.94
291.602	185.94
291.833	179.94
292.064	175.94
292.295	173.94
292.526	160.94
292.757	167.94
292.987	175.94
293.218	155.94
293.449	167.94
293.68	167.94
293.91	190.94
294.141	168.94
294.372	152.94
294.603	193.94
294.833	185.94
295.064	171.94
295.295	167.94
295.525	171.94
295.756	193.94
295.987	192.94
296.217	189.94
296.448	196.94
296.679	180.94
296.909	176.94
297.14	171.94
297.37	206.94
297.601	174.94
297.831	185.94
298.062	187.94
298.292	189.94
298.523	182.94
298.753	190.94
298.984	191.94
299.214	187.94
299.445	181.94
299.675	171.94
299.905	189.94
300.136	187.94
300.366	183.94
300.597	176.94
300.827	186.94
301.057	187.94
301.288	193.94
301.518	191.94
301.748	202.94
301.979	177.94
302.209	189.94
302.439	196.94
302.669	189.94
302.9	195.94
303.13	185.94
303.36	191.94
303.59	205.94
303.82	202.94
304.051	204.94
304.281	171.94
304.511	188.94
304.741	184.94
304.971	179.94
305.201	180.94
305.431	182.94
305.661	191.94
305.891	185.94
306.121	188.94
306.352	183.94
306.582	201.94
306.812	199.94
307.042	197.94
307.272	190.94
307.502	195.94
307.731	193.94
307.961	208.94
308.191	197.94
308.421	201.94
308.651	187.94
308.881	197.94
309.111	195.94
309.341	192.94
309.571	206.94
309.8	219.94
310.03	196.94
310.26	208.94
310.49	233.94
310.72	226.94
310.949	222.94
311.179	233.94
311.409	227.94
311.639	214.94
311.868	223.94
312.098	215.94
312.328	223.94
312.557	230.94
312.787	234.94
313.017	223.94
313.246	223.94
313.476	205.94
313.706	228.94
313.935	208.94
314.165	229.94
314.394	239.94
314.624	225.94
314.853	237.94
315.083	210.94
315.312	205.94
315.542	203.94
315.771	193.94
316.001	207.94
316.23	215.94
316.46	213.94
316.689	218.94
316.919	212.94
317.148	223.94
317.377	196.94
317.607	211.94
317.836	215.94
318.065	214.94
318.295	206.94
318.524	213.94
318.753	193.94
318.983	223.94
319.212	212.94
319.441	214.94
319.67	216.94
319.9	206.94
320.129	207.94
320.358	227.94
320.587	213.94
320.816	227.94
321.046	217.94
321.275	229.94
321.504	221.94
321.733	232.94
321.962	246.94
322.191	244.94
322.42	243.94
322.649	228.94
322.878	254.94
323.108	241.94
323.337	250.94
323.566	285.94
323.795	285.94
324.024	311.94
324.253	372.94
324.482	500.94
324.71	771.94
324.939	1037.94
325.168	836.94
325.397	447.94
325.626	317.94
325.855	279.94
326.084	265.94
326.313	267.94
326.542	246.94
326.77	295.94
326.999	336.94
327.228	454.94
327.457	714.94
327.686	767.94
327.914	508.94
328.143	365.94
328.372	333.94
328.6	323.94
328.829	296.94
329.058	311.94
329.287	324.94
329.515	297.94
329.744	283.94
329.972	289.94
330.201	298.94
330.43	327.94
330.658	327.94
330.887	334.94
331.115	324.94
331.344	282.94
331.572	287.94
331.801	261.94
332.03	274.94
332.258	249.94
332.486	260.94
332.715	268.94
332.943	243.94
333.172	240.94
333.4	261.94
333.629	243.94
333.857	281.94
334.085	269.94
334.314	288.94
334.542	296.94
334.771	321.94
334.999	288.94
335.227	272.94
335.455	249.94
335.684	253.94
335.912	244.94
336.14	240.94
336.369	245.94
336.597	253.94
336.825	247.94
337.053	232.94
337.281	226.94
337.51	235.94
337.738	238.94
337.966	246.94
338.194	243.94
338.422	260.94
338.65	237.94
338.878	230.94
339.106	238.94
339.334	253.94
339.562	224.94
339.79	230.94
340.018	246.94
340.246	219.94
340.474	237.94
340.702	233.94
340.93	250.94
341.158	227.94
341.386	235.94
341.614	231.94
341.842	239.94
342.07	231.94
342.298	224.94
342.526	241.94
342.754	234.94
342.981	209.94
343.209	210.94
343.437	233.94
343.665	228.94
343.893	238.94
344.12	241.94
344.348	226.94
344.576	240.94
344.804	240.94
345.031	236.94
345.259	237.94
345.487	238.94
345.714	226.94
345.942	219.94
346.17	230.94
346.397	234.94
346.625	227.94
346.853	237.94
347.08	226.94
347.308	228.94
347.535	227.94
347.763	229.94
347.99	245.94
348.218	221.94
348.445	249.94
348.673	234.94
348.9	247.94
349.128	227.94
349.355	224.94
349.583	220.94
349.81	228.94
350.037	194.94
350.265	208.94
350.492	219.94
350.72	204.94
350.947	224.94
351.174	230.94
351.402	226.94
351.629	242.94
351.856	223.94
352.083	227.94
352.311	236.94
352.538	243.94
352.765	234.94
352.992	243.94
353.22	221.94
353.447	232.94
353.674	223.94
353.901	205.94
354.128	218.94
354.355	209.94
354.583	213.94
354.81	221.94
355.037	221.94
355.264	201.94
355.491	210.94
355.718	206.94
355.945	203.94
356.172	200.94
356.399	213.94
356.626	203.94
356.853	222.94
357.08	195.94
357.307	211.94
357.534	210.94
357.761	215.94
357.988	213.94
358.215	206.94
358.441	216.94
358.668	212.94
358.895	202.94
359.122	206.94
359.349	219.94
359.576	234.94
359.802	247.94
360.029	238.94
360.256	262.94
360.483	239.94
360.709	204.94
360.936	236.94
361.163	205.94
361.39	233.94
361.616	231.94
361.843	231.94
362.07	229.94
362.296	237.94
362.523	230.94
362.749	239.94
362.976	217.94
363.203	219.94
363.429	217.94
363.656	220.94
363.882	236.94
364.109	207.94
364.335	216.94
364.562	212.94
364.788	215.94
365.015	224.94
365.241	219.94
365.468	209.94
365.694	213.94
365.92	237.94
366.147	222.94
366.373	215.94
366.599	199.94
366.826	213.94
367.052	215.94
367.278	205.94
367.505	200.94
367.731	220.94
367.957	210.94
368.184	221.94
368.41	218.94
368.636	230.94
368.862	235.94
369.089	234.94
369.315	217.94
369.541	213.94
369.767	223.94
369.993	219.94
370.219	200.94
370.445	203.94
370.672	212.94
370.898	223.94
371.124	192.94
371.35	211.94
371.576	201.94
371.802	231.94
372.028	219.94
372.254	203.94
372.48	201.94
372.706	234.94
372.932	220.94
373.158	215.94
373.384	223.94
373.61	197.94
373.835	215.94
374.061	212.94
374.287	225.94
374.513	211.94
374.739	223.94
374.965	219.94
375.191	219.94
375.416	235.94
375.642	210.94
375.868	207.94
376.094	209.94
376.319	200.94
376.545	211.94
376.771	213.94
376.997	201.94
377.222	212.94
377.448	213.94
377.674	209.94
377.899	201.94
378.125	205.94
378.35	209.94
378.576	201.94
378.802	200.94
379.027	203.94
379.253	219.94
379.478	219.94
379.704	213.94
379.929	206.94
380.155	203.94
380.38	204.94
380.606	215.94
380.831	203.94
381.057	213.94
381.282	219.94
381.507	210.94
381.733	227.94
381.958	223.94
382.184	223.94
382.409	219.94
382.634	213.94
382.86	197.94
383.085	219.94
383.31	231.94
383.535	201.94
383.761	218.94
383.986	215.94
384.211	224.94
384.436	209.94
384.662	224.94
384.887	220.94
385.112	232.94
385.337	217.94
385.562	234.94
385.787	229.94
386.013	243.94
386.238	222.94
386.463	216.94
386.688	236.94
386.913	218.94
387.138	204.94
387.363	219.94
387.588	219.94
387.813	219.94
388.038	226.94
388.263	230.94
388.488	219.94
388.713	235.94
388.938	222.94
389.163	225.94
389.387	232.94
389.612	218.94
389.837	226.94
390.062	205.94
390.287	223.94
390.512	224.94
390.736	233.94
390.961	232.94
391.186	218.94
391.411	228.94
391.636	204.94
391.86	221.94
392.085	238.94
392.31	234.94
392.534	228.94
392.759	222.94
392.984	240.94
393.208	224.94
393.433	237.94
393.658	228.94
393.882	231.94
394.107	233.94
394.331	233.94
394.556	245.94
394.78	236.94
395.005	222.94
395.229	221.94
395.454	228.94
395.678	243.94
395.903	237.94
396.127	262.94
396.352	231.94
396.576	237.94
396.801	240.94
397.025	253.94
397.249	238.94
397.474	246.94
397.698	230.94
397.922	236.94
398.147	254.94
398.371	251.94
398.595	255.94
398.82	252.94
399.044	234.94
399.268	257.94
399.492	263.94
399.717	298.94
399.941	302.94
400.165	296.94
400.389	312.94
400.613	294.94
400.837	272.94
401.062	267.94
401.286	250.94
401.51	252.94
401.734	267.94
401.958	275.94
402.182	281.94
402.406	256.94
402.63	283.94
402.854	277.94
403.078	251.94
403.302	255.94
403.526	282.94
403.75	268.94
403.974	264.94
404.198	259.94
404.422	288.94
404.645	274.94
404.869	294.94
405.093	287.94
405.317	302.94
405.541	317.94
405.765	281.94
405.988	276.94
406.212	288.94
406.436	313.94
406.66	303.94
406.883	294.94
407.107	278.94
407.331	293.94
407.555	328.94
407.778	349.94
408.002	299.94
408.226	296.94
408.449	276.94
408.673	302.94
408.896	287.94
409.12	317.94
409.344	297.94
409.567	273.94
409.791	274.94
410.014	280.94
410.238	273.94
410.461	278.94
410.685	257.94
410.908	274.94
411.132	287.94
411.355	283.94
411.578	267.94
411.802	277.94
412.025	244.94
412.249	274.94
412.472	304.94
412.695	285.94
412.919	305.94
413.142	285.94
413.365	271.94
413.589	277.94
413.812	240.94
414.035	248.94
414.258	255.94
414.482	265.94
414.705	250.94
414.928	254.94
415.151	251.94
415.374	264.94
415.597	245.94
415.821	260.94
416.044	265.94
416.267	250.94
416.49	241.94
416.713	249.94
416.936	248.94
417.159	260.94
417.382	249.94
417.605	280.94
417.828	266.94
418.051	272.94
418.274	263.94
418.497	256.94
418.72	247.94
418.943	260.94
419.166	261.94
419.389	280.94
419.611	271.94
419.834	248.94
420.057	265.94
420.28	245.94
420.503	268.94
420.726	280.94
420.948	273.94
421.171	296.94
421.394	281.94
421.617	278.94
421.839	264.94
422.062	263.94
422.285	272.94
422.507	303.94
422.73	334.94
422.953	325.94
423.175	274.94
423.398	275.94
423.621	279.94
423.843	289.94
424.066	284.94
424.288	280.94
424.511	286.94
424.733	316.94
424.956	345.94
425.178	314.94
425.401	317.94
425.623	354.94
425.846	311.94
426.068	298.94
426.291	295.94
426.513	274.94
426.735	277.94
426.958	292.94
427.18	358.94
427.402	399.94
427.625	433.94
427.847	385.94
428.069	347.94
428.292	277.94
428.514	280.94
428.736	274.94
428.958	248.94
429.181	262.94
429.403	264.94
429.625	276.94
429.847	278.94
430.069	316.94
430.292	322.94
430.514	259.94
430.736	272.94
430.958	243.94
431.18	245.94
431.402	244.94
431.624	249.94
431.846	259.94
432.068	261.94
432.29	253.94
432.512	247.94
432.734	245.94
432.956	265.94
433.178	276.94
433.4	236.94
433.622	255.94
433.844	267.94
434.066	243.94
434.287	247.94
434.509	263.94
434.731	237.94
434.953	281.94
435.175	270.94
435.397	290.94
435.618	278.94
435.84	296.94
436.062	345.94
436.284	361.94
436.505	286.94
436.727	270.94
436.949	259.94
437.17	253.94
437.392	241.94
437.614	271.94
437.835	274.94
438.057	349.94
438.278	342.94
438.5	373.94
438.721	377.94
438.943	367.94
439.165	287.94
439.386	283.94
439.608	296.94
439.829	285.94
440.05	297.94
440.272	301.94
440.493	296.94
440.715	284.94
440.936	276.94
441.158	261.94
441.379	281.94
441.6	268.94
441.822	286.94
442.043	316.94
442.264	331.94
442.486	358.94
442.707	302.94
442.928	283.94
443.149	303.94
443.371	292.94
443.592	325.94
443.813	378.94
444.034	372.94
444.255	306.94
444.476	287.94
444.698	274.94
444.919	278.94
445.14	369.94
445.361	325.94
445.582	293.94
445.803	356.94
446.024	382.94
446.245	387.94
446.466	326.94
446.687	305.94
446.908	267.94
447.129	265.94
447.35	258.94
447.571	253.94
447.792	262.94
448.013	265.94
448.234	293.94
448.455	289.94
448.675	319.94
448.896	388.94
449.117	331.94
449.338	328.94
449.559	371.94
449.779	379.94
450	316.94
450.221	283.94
450.442	257.94
450.662	261.94
450.883	272.94
451.104	275.94
451.324	265.94
451.545	265.94
451.766	233.94
451.986	246.94
452.207	223.94
452.428	229.94
452.648	243.94
452.869	250.94
453.089	234.94
453.31	236.94
453.53	237.94
453.751	232.94
453.971	238.94
454.192	265.94
454.412	248.94
454.633	226.94
454.853	231.94
455.073	234.94
455.294	255.94
455.514	283.94
455.734	271.94
455.955	236.94
456.175	225.94
456.395	224.94
456.616	225.94
456.836	236.94
457.056	216.94
457.276	221.94
457.497	216.94
457.717	248.94
457.937	212.94
458.157	241.94
458.377	243.94
458.598	223.94
458.818	289.94
459.038	311.94
459.258	327.94
459.478	281.94
459.698	236.94
459.918	238.94
460.138	243.94
460.358	258.94
460.578	245.94
460.798	247.94
461.018	279.94
461.238	252.94
461.458	254.94
461.678	255.94
461.898	262.94
462.118	259.94
462.338	259.94
462.558	255.94
462.777	271.94
462.997	279.94
463.217	265.94
463.437	268.94
463.657	283.94
463.876	263.94
464.096	271.94
464.316	265.94
464.536	264.94
464.755	263.94
464.975	276.94
465.195	308.94
465.414	364.94
465.634	310.94
465.854	283.94
466.073	259.94
466.293	247.94
466.512	240.94
466.732	245.94
466.951	244.94
467.171	235.94
467.391	259.94
467.61	274.94
467.829	254.94
468.049	262.94
468.268	251.94
468.488	241.94
468.707	236.94
468.927	259.94
469.146	228.94
469.365	230.94
469.585	230.94
469.804	250.94
470.023	265.94
470.243	271.94
470.462	276.94
470.681	246.94
470.901	266.94
471.12	255.94
471.339	245.94
471.558	243.94
471.777	263.94
471.997	237.94
472.216	249.94
472.435	303.94
472.654	269.94
472.873	252.94
473.092	248.94
473.311	247.94
473.53	247.94
473.749	249.94
473.968	275.94
474.187	325.94
474.406	310.94
474.625	261.94
474.844	238.94
475.063	253.94
475.282	232.94
475.501	234.94
475.72	243.94
475.939	258.94
476.158	253.94
476.377	255.94
476.596	245.94
476.814	245.94
477.033	259.94
477.252	266.94
477.471	261.94
477.69	284.94
477.908	261.94
478.127	281.94
478.346	265.94
478.564	255.94
478.783	272.94
479.002	279.94
479.22	269.94
479.439	268.94
479.658	284.94
479.876	293.94
480.095	284.94
480.313	320.94
480.532	314.94
480.751	297.94
480.969	305.94
481.188	357.94
481.406	393.94
481.624	315.94
481.843	297.94
482.061	289.94
482.28	285.94
482.498	288.94
482.717	266.94
482.935	283.94
483.153	291.94
483.372	285.94
483.59	293.94
483.808	281.94
484.027	278.94
484.245	282.94
484.463	266.94
484.681	287.94
484.9	300.94
485.118	285.94
485.336	299.94
485.554	294.94
485.772	292.94
485.99	296.94
486.209	285.94
486.427	308.94
486.645	299.94
486.863	320.94
487.081	326.94
487.299	318.94
487.517	324.94
487.735	304.94
487.953	304.94
488.171	296.94
488.389	291.94
488.607	309.94
488.825	289.94
489.043	292.94
489.261	319.94
489.479	323.94
489.696	311.94
489.914	310.94
490.132	315.94
490.35	313.94
490.568	321.94
490.786	322.94
491.003	345.94
491.221	351.94
491.439	364.94
491.657	354.94
491.874	357.94
492.092	347.94
492.31	349.94
492.527	368.94
492.745	348.94
492.963	350.94
493.18	364.94
493.398	363.94
493.615	365.94
493.833	384.94
494.05	375.94
494.268	358.94
494.485	333.94
494.703	374.94
494.92	350.94
495.138	339.94
495.355	361.94
495.573	368.94
495.79	360.94
496.008	363.94
496.225	343.94
496.442	339.94
496.66	355.94
496.877	335.94
497.094	330.94
497.312	362.94
497.529	362.94
497.746	387.94
497.963	367.94
498.181	377.94
498.398	377.94
498.615	371.94
498.832	395.94
499.049	409.94
499.267	425.94
499.484	413.94
499.701	419.94
499.918	428.94
500.135	440.94
500.352	452.94
500.569	470.94
500.786	472.94
501.003	461.94
501.22	452.94
501.437	453.94
501.654	430.94
501.871	433.94
502.088	428.94
502.305	392.94
502.522	381.94
