Data from 1966.PennyLincolnUp.Lamp.En5.5.200Scan.071719.P1._HRD10591_14-14-08-914.txt Node
Date: Thu Jul 18 14:14:08 EDT 2019
User: cochatt
Spectrometer: HR+D1059
Trigger mode: 1
Integration Time (sec): 1.000000E-1
Scans to average: 1
Electric dark correction enabled: true
Nonlinearity correction enabled: false
Boxcar width: 0
XAxis mode: Wavelengths
Number of Pixels in Spectrum: 2048
>>>>>Begin Spectral Data<<<<<
223.165	-36.38
223.4	-36.38
223.635	-36.38
223.869	-7.38
224.104	-14.38
224.338	-6.38
224.573	-11.38
224.808	-20.38
225.042	-2.38
225.277	-3.38
225.511	-0.38
225.746	9.62
225.98	7.62
226.215	3.62
226.449	18.62
226.683	7.62
226.918	31.62
227.152	23.62
227.387	34.62
227.621	36.62
227.856	42.62
228.09	47.62
228.324	50.62
228.559	61.62
228.793	48.62
229.027	73.62
229.262	92.62
229.496	79.62
229.73	106.62
229.964	112.62
230.199	93.62
230.433	84.62
230.667	89.62
230.901	90.62
231.136	91.62
231.37	92.62
231.604	83.62
231.838	109.62
232.072	85.62
232.306	96.62
232.541	95.62
232.775	89.62
233.009	90.62
233.243	97.62
233.477	87.62
233.711	98.62
233.945	96.62
234.179	92.62
234.413	85.62
234.647	77.62
234.881	77.62
235.115	87.62
235.349	99.62
235.583	94.62
235.817	98.62
236.051	84.62
236.285	105.62
236.519	103.62
236.753	91.62
236.987	117.62
237.221	117.62
237.455	148.62
237.689	122.62
237.922	87.62
238.156	85.62
238.39	86.62
238.624	91.62
238.858	83.62
239.091	106.62
239.325	92.62
239.559	102.62
239.793	79.62
240.027	104.62
240.26	93.62
240.494	116.62
240.728	116.62
240.961	100.62
241.195	91.62
241.429	107.62
241.662	93.62
241.896	96.62
242.13	87.62
242.363	99.62
242.597	84.62
242.83	92.62
243.064	97.62
243.298	102.62
243.531	115.62
243.765	102.62
243.998	100.62
244.232	98.62
244.465	103.62
244.699	105.62
244.932	106.62
245.166	103.62
245.399	112.62
245.633	114.62
245.866	91.62
246.099	95.62
246.333	94.62
246.566	123.62
246.8	107.62
247.033	102.62
247.266	98.62
247.5	103.62
247.733	102.62
247.966	118.62
248.2	109.62
248.433	103.62
248.666	123.62
248.899	123.62
249.133	131.62
249.366	146.62
249.599	124.62
249.832	115.62
250.066	116.62
250.299	116.62
250.532	112.62
250.765	142.62
250.998	143.62
251.231	137.62
251.465	139.62
251.698	128.62
251.931	131.62
252.164	127.62
252.397	119.62
252.63	116.62
252.863	134.62
253.096	155.62
253.329	139.62
253.562	125.62
253.795	151.62
254.028	142.62
254.261	155.62
254.494	141.62
254.727	144.62
254.96	175.62
255.193	142.62
255.426	137.62
255.659	148.62
255.892	159.62
256.124	150.62
256.357	139.62
256.59	133.62
256.823	132.62
257.056	133.62
257.289	117.62
257.521	128.62
257.754	139.62
257.987	129.62
258.22	131.62
258.452	117.62
258.685	126.62
258.918	119.62
259.151	124.62
259.383	140.62
259.616	133.62
259.849	129.62
260.081	148.62
260.314	159.62
260.547	142.62
260.779	150.62
261.012	142.62
261.244	142.62
261.477	147.62
261.71	140.62
261.942	157.62
262.175	149.62
262.407	138.62
262.64	132.62
262.872	138.62
263.105	124.62
263.337	125.62
263.57	136.62
263.802	124.62
264.035	135.62
264.267	138.62
264.499	113.62
264.732	139.62
264.964	138.62
265.197	124.62
265.429	131.62
265.661	123.62
265.894	132.62
266.126	132.62
266.358	132.62
266.591	144.62
266.823	143.62
267.055	147.62
267.287	143.62
267.52	138.62
267.752	129.62
267.984	136.62
268.216	152.62
268.448	147.62
268.681	143.62
268.913	160.62
269.145	163.62
269.377	159.62
269.609	143.62
269.841	161.62
270.073	172.62
270.306	180.62
270.538	191.62
270.77	186.62
271.002	170.62
271.234	185.62
271.466	172.62
271.698	184.62
271.93	192.62
272.162	179.62
272.394	179.62
272.626	181.62
272.858	159.62
273.09	155.62
273.322	167.62
273.553	169.62
273.785	155.62
274.017	143.62
274.249	141.62
274.481	155.62
274.713	139.62
274.945	146.62
275.176	160.62
275.408	164.62
275.64	165.62
275.872	139.62
276.104	171.62
276.335	161.62
276.567	171.62
276.799	156.62
277.031	188.62
277.262	198.62
277.494	185.62
277.726	177.62
277.957	170.62
278.189	171.62
278.421	144.62
278.652	145.62
278.884	163.62
279.115	149.62
279.347	168.62
279.579	164.62
279.81	161.62
280.042	143.62
280.273	141.62
280.505	156.62
280.736	149.62
280.968	157.62
281.199	160.62
281.431	143.62
281.662	152.62
281.894	182.62
282.125	154.62
282.356	168.62
282.588	163.62
282.819	178.62
283.051	156.62
283.282	160.62
283.513	178.62
283.745	169.62
283.976	176.62
284.207	159.62
284.439	166.62
284.67	166.62
284.901	147.62
285.132	161.62
285.364	156.62
285.595	173.62
285.826	160.62
286.057	168.62
286.288	155.62
286.52	164.62
286.751	157.62
286.982	172.62
287.213	162.62
287.444	171.62
287.675	180.62
287.906	166.62
288.138	173.62
288.369	169.62
288.6	172.62
288.831	153.62
289.062	168.62
289.293	173.62
289.524	172.62
289.755	163.62
289.986	151.62
290.217	162.62
290.448	142.62
290.679	170.62
290.91	149.62
291.141	162.62
291.371	179.62
291.602	167.62
291.833	168.62
292.064	168.62
292.295	160.62
292.526	160.62
292.757	176.62
292.987	163.62
293.218	171.62
293.449	168.62
293.68	170.62
293.91	170.62
294.141	164.62
294.372	176.62
294.603	185.62
294.833	166.62
295.064	151.62
295.295	182.62
295.525	165.62
295.756	171.62
295.987	170.62
296.217	172.62
296.448	183.62
296.679	159.62
296.909	174.62
297.14	169.62
297.37	173.62
297.601	167.62
297.831	168.62
298.062	169.62
298.292	181.62
298.523	159.62
298.753	172.62
298.984	170.62
299.214	168.62
299.445	187.62
299.675	166.62
299.905	171.62
300.136	177.62
300.366	183.62
300.597	180.62
300.827	181.62
301.057	181.62
301.288	195.62
301.518	183.62
301.748	176.62
301.979	181.62
302.209	186.62
302.439	183.62
302.669	213.62
302.9	187.62
303.13	196.62
303.36	179.62
303.59	170.62
303.82	184.62
304.051	179.62
304.281	193.62
304.511	159.62
304.741	181.62
304.971	173.62
305.201	193.62
305.431	194.62
305.661	176.62
305.891	178.62
306.121	177.62
306.352	186.62
306.582	192.62
306.812	185.62
307.042	169.62
307.272	169.62
307.502	176.62
307.731	169.62
307.961	198.62
308.191	177.62
308.421	175.62
308.651	187.62
308.881	187.62
309.111	187.62
309.341	200.62
309.571	189.62
309.8	207.62
310.03	194.62
310.26	216.62
310.49	207.62
310.72	207.62
310.949	214.62
311.179	230.62
311.409	194.62
311.639	208.62
311.868	219.62
312.098	192.62
312.328	215.62
312.557	216.62
312.787	197.62
313.017	224.62
313.246	211.62
313.476	213.62
313.706	203.62
313.935	191.62
314.165	203.62
314.394	199.62
314.624	212.62
314.853	227.62
315.083	211.62
315.312	208.62
315.542	201.62
315.771	202.62
316.001	204.62
316.23	195.62
316.46	201.62
316.689	200.62
316.919	205.62
317.148	221.62
317.377	221.62
317.607	202.62
317.836	192.62
318.065	183.62
318.295	198.62
318.524	199.62
318.753	207.62
318.983	204.62
319.212	206.62
319.441	194.62
319.67	223.62
319.9	231.62
320.129	204.62
320.358	202.62
320.587	208.62
320.816	223.62
321.046	199.62
321.275	214.62
321.504	214.62
321.733	219.62
321.962	211.62
322.191	216.62
322.42	246.62
322.649	239.62
322.878	229.62
323.108	227.62
323.337	253.62
323.566	240.62
323.795	283.62
324.024	300.62
324.253	349.62
324.482	496.62
324.71	763.62
324.939	994.62
325.168	819.62
325.397	441.62
325.626	300.62
325.855	258.62
326.084	262.62
326.313	241.62
326.542	239.62
326.77	280.62
326.999	332.62
327.228	467.62
327.457	640.62
327.686	775.62
327.914	490.62
328.143	359.62
328.372	299.62
328.6	314.62
328.829	286.62
329.058	291.62
329.287	328.62
329.515	295.62
329.744	263.62
329.972	274.62
330.201	287.62
330.43	326.62
330.658	311.62
330.887	334.62
331.115	299.62
331.344	277.62
331.572	243.62
331.801	242.62
332.03	247.62
332.258	268.62
332.486	236.62
332.715	234.62
332.943	255.62
333.172	228.62
333.4	235.62
333.629	223.62
333.857	251.62
334.085	259.62
334.314	283.62
334.542	298.62
334.771	315.62
334.999	270.62
335.227	247.62
335.455	243.62
335.684	232.62
335.912	233.62
336.14	245.62
336.369	239.62
336.597	242.62
336.825	243.62
337.053	233.62
337.281	238.62
337.51	238.62
337.738	223.62
337.966	225.62
338.194	241.62
338.422	237.62
338.65	217.62
338.878	229.62
339.106	219.62
339.334	224.62
339.562	217.62
339.79	218.62
340.018	218.62
340.246	218.62
340.474	234.62
340.702	232.62
340.93	208.62
341.158	235.62
341.386	214.62
341.614	247.62
341.842	222.62
342.07	213.62
342.298	227.62
342.526	213.62
342.754	215.62
342.981	221.62
343.209	225.62
343.437	205.62
343.665	233.62
343.893	219.62
344.12	245.62
344.348	234.62
344.576	227.62
344.804	218.62
345.031	213.62
345.259	249.62
345.487	233.62
345.714	219.62
345.942	217.62
346.17	228.62
346.397	210.62
346.625	213.62
346.853	211.62
347.08	214.62
347.308	212.62
347.535	217.62
347.763	243.62
347.99	219.62
348.218	227.62
348.445	243.62
348.673	223.62
348.9	240.62
349.128	208.62
349.355	208.62
349.583	203.62
349.81	208.62
350.037	216.62
350.265	212.62
350.492	209.62
350.72	217.62
350.947	208.62
351.174	241.62
351.402	229.62
351.629	229.62
351.856	235.62
352.083	217.62
352.311	235.62
352.538	226.62
352.765	230.62
352.992	224.62
353.22	225.62
353.447	226.62
353.674	220.62
353.901	200.62
354.128	191.62
354.355	208.62
354.583	201.62
354.81	221.62
355.037	201.62
355.264	194.62
355.491	192.62
355.718	211.62
355.945	221.62
356.172	200.62
356.399	200.62
356.626	194.62
356.853	204.62
357.08	211.62
357.307	192.62
357.534	194.62
357.761	181.62
357.988	210.62
358.215	182.62
358.441	200.62
358.668	205.62
358.895	194.62
359.122	213.62
359.349	212.62
359.576	207.62
359.802	232.62
360.029	252.62
360.256	257.62
360.483	217.62
360.709	218.62
360.936	224.62
361.163	203.62
361.39	217.62
361.616	217.62
361.843	217.62
362.07	210.62
362.296	213.62
362.523	219.62
362.749	210.62
362.976	217.62
363.203	202.62
363.429	201.62
363.656	206.62
363.882	211.62
364.109	214.62
364.335	214.62
364.562	223.62
364.788	203.62
365.015	210.62
365.241	206.62
365.468	220.62
365.694	199.62
365.92	221.62
366.147	199.62
366.373	205.62
366.599	198.62
366.826	204.62
367.052	195.62
367.278	200.62
367.505	199.62
367.731	207.62
367.957	205.62
368.184	208.62
368.41	207.62
368.636	211.62
368.862	216.62
369.089	198.62
369.315	207.62
369.541	215.62
369.767	205.62
369.993	227.62
370.219	210.62
370.445	188.62
370.672	197.62
370.898	210.62
371.124	212.62
371.35	197.62
371.576	218.62
371.802	187.62
372.028	188.62
372.254	209.62
372.48	202.62
372.706	195.62
372.932	216.62
373.158	199.62
373.384	209.62
373.61	195.62
373.835	219.62
374.061	230.62
374.287	216.62
374.513	198.62
374.739	204.62
374.965	216.62
375.191	203.62
375.416	220.62
375.642	203.62
375.868	208.62
376.094	209.62
376.319	203.62
376.545	212.62
376.771	185.62
376.997	211.62
377.222	191.62
377.448	204.62
377.674	211.62
377.899	202.62
378.125	206.62
378.35	201.62
378.576	200.62
378.802	203.62
379.027	193.62
379.253	219.62
379.478	193.62
379.704	213.62
379.929	213.62
380.155	208.62
380.38	201.62
380.606	216.62
380.831	183.62
381.057	214.62
381.282	204.62
381.507	207.62
381.733	205.62
381.958	207.62
382.184	212.62
382.409	187.62
382.634	219.62
382.86	198.62
383.085	218.62
383.31	197.62
383.535	216.62
383.761	222.62
383.986	196.62
384.211	202.62
384.436	221.62
384.662	217.62
384.887	224.62
385.112	200.62
385.337	220.62
385.562	218.62
385.787	200.62
386.013	223.62
386.238	230.62
386.463	222.62
386.688	226.62
386.913	216.62
387.138	215.62
387.363	204.62
387.588	213.62
387.813	220.62
388.038	217.62
388.263	219.62
388.488	207.62
388.713	209.62
388.938	229.62
389.163	215.62
389.387	209.62
389.612	203.62
389.837	208.62
390.062	215.62
390.287	230.62
390.512	209.62
390.736	228.62
390.961	213.62
391.186	224.62
391.411	212.62
391.636	227.62
391.86	215.62
392.085	229.62
392.31	238.62
392.534	212.62
392.759	225.62
392.984	225.62
393.208	245.62
393.433	232.62
393.658	228.62
393.882	214.62
394.107	225.62
394.331	231.62
394.556	221.62
394.78	223.62
395.005	226.62
395.229	240.62
395.454	234.62
395.678	237.62
395.903	217.62
396.127	252.62
396.352	231.62
396.576	236.62
396.801	231.62
397.025	228.62
397.249	223.62
397.474	240.62
397.698	236.62
397.922	243.62
398.147	234.62
398.371	257.62
398.595	231.62
398.82	227.62
399.044	251.62
399.268	252.62
399.492	269.62
399.717	280.62
399.941	284.62
400.165	288.62
400.389	301.62
400.613	263.62
400.837	243.62
401.062	264.62
401.286	240.62
401.51	246.62
401.734	265.62
401.958	235.62
402.182	250.62
402.406	263.62
402.63	249.62
402.854	243.62
403.078	244.62
403.302	240.62
403.526	265.62
403.75	260.62
403.974	249.62
404.198	263.62
404.422	278.62
404.645	268.62
404.869	265.62
405.093	292.62
405.317	296.62
405.541	322.62
405.765	276.62
405.988	277.62
406.212	269.62
406.436	284.62
406.66	297.62
406.883	281.62
407.107	306.62
407.331	309.62
407.555	337.62
407.778	329.62
408.002	306.62
408.226	272.62
408.449	288.62
408.673	289.62
408.896	283.62
409.12	295.62
409.344	298.62
409.567	270.62
409.791	241.62
410.014	269.62
410.238	254.62
410.461	257.62
410.685	261.62
410.908	262.62
411.132	281.62
411.355	298.62
411.578	273.62
411.802	261.62
412.025	264.62
412.249	281.62
412.472	284.62
412.695	293.62
412.919	287.62
413.142	267.62
413.365	240.62
413.589	249.62
413.812	263.62
414.035	254.62
414.258	266.62
414.482	261.62
414.705	247.62
414.928	269.62
415.151	245.62
415.374	256.62
415.597	239.62
415.821	247.62
416.044	246.62
416.267	243.62
416.49	248.62
416.713	242.62
416.936	243.62
417.159	263.62
417.382	252.62
417.605	261.62
417.828	250.62
418.051	246.62
418.274	247.62
418.497	256.62
418.72	231.62
418.943	240.62
419.166	263.62
419.389	268.62
419.611	252.62
419.834	289.62
420.057	267.62
420.28	275.62
420.503	256.62
420.726	242.62
420.948	268.62
421.171	296.62
421.394	299.62
421.617	281.62
421.839	258.62
422.062	261.62
422.285	244.62
422.507	286.62
422.73	323.62
422.953	304.62
423.175	291.62
423.398	235.62
423.621	267.62
423.843	291.62
424.066	283.62
424.288	269.62
424.511	284.62
424.733	294.62
424.956	355.62
425.178	327.62
425.401	328.62
425.623	329.62
425.846	280.62
426.068	274.62
426.291	267.62
426.513	251.62
426.735	283.62
426.958	288.62
427.18	325.62
427.402	394.62
427.625	431.62
427.847	369.62
428.069	319.62
428.292	299.62
428.514	270.62
428.736	253.62
428.958	265.62
429.181	252.62
429.403	242.62
429.625	263.62
429.847	291.62
430.069	296.62
430.292	316.62
430.514	257.62
430.736	264.62
430.958	251.62
431.18	252.62
431.402	239.62
431.624	213.62
431.846	241.62
432.068	233.62
432.29	262.62
432.512	242.62
432.734	246.62
432.956	262.62
433.178	258.62
433.4	256.62
433.622	248.62
433.844	232.62
434.066	248.62
434.287	246.62
434.509	260.62
434.731	264.62
434.953	258.62
435.175	253.62
435.397	279.62
435.618	265.62
435.84	282.62
436.062	321.62
436.284	353.62
436.505	277.62
436.727	270.62
436.949	253.62
437.17	246.62
437.392	240.62
437.614	252.62
437.835	267.62
438.057	315.62
438.278	361.62
438.5	343.62
438.721	360.62
438.943	355.62
439.165	295.62
439.386	268.62
439.608	291.62
439.829	281.62
440.05	294.62
440.272	308.62
440.493	275.62
440.715	270.62
440.936	267.62
441.158	249.62
441.379	260.62
441.6	265.62
441.822	285.62
442.043	300.62
442.264	338.62
442.486	346.62
442.707	303.62
442.928	281.62
443.149	300.62
443.371	308.62
443.592	304.62
443.813	340.62
444.034	369.62
444.255	308.62
444.476	281.62
444.698	284.62
444.919	296.62
445.14	371.62
445.361	301.62
445.582	291.62
445.803	342.62
446.024	359.62
446.245	380.62
446.466	323.62
446.687	284.62
446.908	245.62
447.129	269.62
447.35	247.62
447.571	240.62
447.792	260.62
448.013	249.62
448.234	268.62
448.455	293.62
448.675	331.62
448.896	371.62
449.117	328.62
449.338	295.62
449.559	355.62
449.779	384.62
450	328.62
450.221	273.62
450.442	263.62
450.662	244.62
450.883	249.62
451.104	271.62
451.324	251.62
451.545	249.62
451.766	249.62
451.986	221.62
452.207	220.62
452.428	220.62
452.648	219.62
452.869	249.62
453.089	234.62
453.31	258.62
453.53	235.62
453.751	242.62
453.971	226.62
454.192	245.62
454.412	247.62
454.633	239.62
454.853	229.62
455.073	247.62
455.294	231.62
455.514	278.62
455.734	263.62
455.955	225.62
456.175	225.62
456.395	221.62
456.616	207.62
456.836	231.62
457.056	206.62
457.276	214.62
457.497	227.62
457.717	221.62
457.937	233.62
458.157	219.62
458.377	232.62
458.598	244.62
458.818	268.62
459.038	311.62
459.258	325.62
459.478	268.62
459.698	243.62
459.918	251.62
460.138	227.62
460.358	246.62
460.578	236.62
460.798	262.62
461.018	259.62
461.238	254.62
461.458	253.62
461.678	243.62
461.898	244.62
462.118	241.62
462.338	256.62
462.558	264.62
462.777	265.62
462.997	266.62
463.217	273.62
463.437	249.62
463.657	273.62
463.876	262.62
464.096	265.62
464.316	258.62
464.536	261.62
464.755	280.62
464.975	272.62
465.195	305.62
465.414	345.62
465.634	281.62
465.854	250.62
466.073	284.62
466.293	247.62
466.512	235.62
466.732	233.62
466.951	220.62
467.171	236.62
467.391	252.62
467.61	260.62
467.829	239.62
468.049	269.62
468.268	245.62
468.488	231.62
468.707	239.62
468.927	235.62
469.146	229.62
469.365	257.62
469.585	248.62
469.804	232.62
470.023	249.62
470.243	244.62
470.462	264.62
470.681	273.62
470.901	242.62
471.12	242.62
471.339	243.62
471.558	246.62
471.777	243.62
471.997	241.62
472.216	247.62
472.435	267.62
472.654	246.62
472.873	240.62
473.092	240.62
473.311	244.62
473.53	235.62
473.749	272.62
473.968	282.62
474.187	328.62
474.406	330.62
474.625	278.62
474.844	263.62
475.063	231.62
475.282	228.62
475.501	249.62
475.72	257.62
475.939	265.62
476.158	240.62
476.377	241.62
476.596	235.62
476.814	243.62
477.033	241.62
477.252	256.62
477.471	239.62
477.69	248.62
477.908	259.62
478.127	270.62
478.346	253.62
478.564	261.62
478.783	278.62
479.002	259.62
479.22	267.62
479.439	277.62
479.658	271.62
479.876	283.62
480.095	285.62
480.313	304.62
480.532	297.62
480.751	282.62
480.969	302.62
481.188	372.62
481.406	381.62
481.624	298.62
481.843	270.62
482.061	288.62
482.28	287.62
482.498	264.62
482.717	259.62
482.935	270.62
483.153	275.62
483.372	275.62
483.59	272.62
483.808	259.62
484.027	255.62
484.245	269.62
484.463	276.62
484.681	275.62
484.9	273.62
485.118	275.62
485.336	274.62
485.554	291.62
485.772	293.62
485.99	266.62
486.209	288.62
486.427	283.62
486.645	298.62
486.863	296.62
487.081	304.62
487.299	307.62
487.517	302.62
487.735	282.62
487.953	303.62
488.171	296.62
488.389	291.62
488.607	290.62
488.825	273.62
489.043	280.62
489.261	292.62
489.479	303.62
489.696	295.62
489.914	303.62
490.132	309.62
490.35	311.62
490.568	315.62
490.786	308.62
491.003	336.62
491.221	332.62
491.439	338.62
491.657	331.62
491.874	346.62
492.092	367.62
492.31	349.62
492.527	344.62
492.745	333.62
492.963	332.62
493.18	363.62
493.398	361.62
493.615	349.62
493.833	355.62
494.05	376.62
494.268	349.62
494.485	351.62
494.703	349.62
494.92	359.62
495.138	347.62
495.355	345.62
495.573	376.62
495.79	347.62
496.008	353.62
496.225	355.62
496.442	337.62
496.66	342.62
496.877	335.62
497.094	345.62
497.312	333.62
497.529	347.62
497.746	339.62
497.963	359.62
498.181	357.62
498.398	355.62
498.615	372.62
498.832	363.62
499.049	364.62
499.267	385.62
499.484	403.62
499.701	408.62
499.918	422.62
500.135	450.62
500.352	456.62
500.569	472.62
500.786	469.62
501.003	461.62
501.22	459.62
501.437	437.62
501.654	415.62
501.871	419.62
502.088	420.62
502.305	392.62
502.522	372.62
502.739	375.62
