Data from 1966.PennyLincolnUp.Lamp.En5.5.200Scan.071719.P1._HRD10591_14-15-23-945.txt Node
Date: Thu Jul 18 14:15:23 EDT 2019
User: cochatt
Spectrometer: HR+D1059
Trigger mode: 1
Integration Time (sec): 1.000000E-1
Scans to average: 1
Electric dark correction enabled: true
Nonlinearity correction enabled: false
Boxcar width: 0
XAxis mode: Wavelengths
Number of Pixels in Spectrum: 2048
>>>>>Begin Spectral Data<<<<<
223.165	-17.69
223.4	-17.69
223.635	-17.69
223.869	-13.69
224.104	-19.69
224.338	-18.69
224.573	-23.69
224.808	-10.69
225.042	-11.69
225.277	-8.69
225.511	-5.69
225.746	-2.69
225.98	14.31
226.215	9.31
226.449	20.31
226.683	28.31
226.918	25.31
227.152	35.31
227.387	37.31
227.621	40.31
227.856	43.31
228.09	43.31
228.324	56.31
228.559	51.31
228.793	65.31
229.027	72.31
229.262	96.31
229.496	79.31
229.73	96.31
229.964	134.31
230.199	98.31
230.433	98.31
230.667	86.31
230.901	83.31
231.136	101.31
231.37	108.31
231.604	83.31
231.838	92.31
232.072	96.31
232.306	98.31
232.541	92.31
232.775	90.31
233.009	95.31
233.243	106.31
233.477	107.31
233.711	95.31
233.945	106.31
234.179	105.31
234.413	94.31
234.647	90.31
234.881	88.31
235.115	96.31
235.349	97.31
235.583	97.31
235.817	86.31
236.051	95.31
236.285	98.31
236.519	99.31
236.753	101.31
236.987	91.31
237.221	130.31
237.455	138.31
237.689	126.31
237.922	91.31
238.156	100.31
238.39	99.31
238.624	77.31
238.858	87.31
239.091	90.31
239.325	100.31
239.559	97.31
239.793	94.31
240.027	103.31
240.26	105.31
240.494	110.31
240.728	109.31
240.961	102.31
241.195	109.31
241.429	110.31
241.662	103.31
241.896	109.31
242.13	99.31
242.363	96.31
242.597	98.31
242.83	115.31
243.064	108.31
243.298	101.31
243.531	110.31
243.765	106.31
243.998	115.31
244.232	115.31
244.465	100.31
244.699	106.31
244.932	97.31
245.166	106.31
245.399	122.31
245.633	109.31
245.866	99.31
246.099	112.31
246.333	107.31
246.566	96.31
246.8	112.31
247.033	120.31
247.266	99.31
247.5	104.31
247.733	112.31
247.966	112.31
248.2	130.31
248.433	145.31
248.666	119.31
248.899	122.31
249.133	126.31
249.366	134.31
249.599	126.31
249.832	122.31
250.066	131.31
250.299	110.31
250.532	117.31
250.765	133.31
250.998	138.31
251.231	147.31
251.465	129.31
251.698	132.31
251.931	135.31
252.164	107.31
252.397	125.31
252.63	117.31
252.863	132.31
253.096	139.31
253.329	134.31
253.562	146.31
253.795	146.31
254.028	140.31
254.261	140.31
254.494	143.31
254.727	161.31
254.96	171.31
255.193	173.31
255.426	141.31
255.659	140.31
255.892	142.31
256.124	155.31
256.357	163.31
256.59	157.31
256.823	141.31
257.056	147.31
257.289	146.31
257.521	139.31
257.754	131.31
257.987	133.31
258.22	125.31
258.452	130.31
258.685	125.31
258.918	132.31
259.151	141.31
259.383	148.31
259.616	153.31
259.849	140.31
260.081	160.31
260.314	170.31
260.547	167.31
260.779	138.31
261.012	144.31
261.244	140.31
261.477	141.31
261.71	147.31
261.942	145.31
262.175	149.31
262.407	153.31
262.64	132.31
262.872	144.31
263.105	146.31
263.337	131.31
263.57	138.31
263.802	139.31
264.035	130.31
264.267	135.31
264.499	131.31
264.732	146.31
264.964	154.31
265.197	130.31
265.429	142.31
265.661	139.31
265.894	151.31
266.126	139.31
266.358	155.31
266.591	141.31
266.823	134.31
267.055	141.31
267.287	153.31
267.52	146.31
267.752	152.31
267.984	138.31
268.216	132.31
268.448	131.31
268.681	150.31
268.913	161.31
269.145	157.31
269.377	169.31
269.609	164.31
269.841	161.31
270.073	177.31
270.306	177.31
270.538	190.31
270.77	185.31
271.002	186.31
271.234	169.31
271.466	172.31
271.698	200.31
271.93	181.31
272.162	181.31
272.394	189.31
272.626	177.31
272.858	165.31
273.09	173.31
273.322	173.31
273.553	160.31
273.785	163.31
274.017	163.31
274.249	162.31
274.481	160.31
274.713	161.31
274.945	166.31
275.176	170.31
275.408	158.31
275.64	157.31
275.872	154.31
276.104	147.31
276.335	170.31
276.567	174.31
276.799	173.31
277.031	189.31
277.262	196.31
277.494	190.31
277.726	186.31
277.957	182.31
278.189	164.31
278.421	157.31
278.652	174.31
278.884	174.31
279.115	173.31
279.347	165.31
279.579	155.31
279.81	167.31
280.042	155.31
280.273	157.31
280.505	162.31
280.736	158.31
280.968	169.31
281.199	147.31
281.431	168.31
281.662	153.31
281.894	171.31
282.125	155.31
282.356	176.31
282.588	187.31
282.819	185.31
283.051	175.31
283.282	165.31
283.513	173.31
283.745	159.31
283.976	175.31
284.207	174.31
284.439	173.31
284.67	157.31
284.901	168.31
285.132	170.31
285.364	173.31
285.595	161.31
285.826	154.31
286.057	187.31
286.288	156.31
286.52	170.31
286.751	176.31
286.982	169.31
287.213	176.31
287.444	168.31
287.675	187.31
287.906	185.31
288.138	199.31
288.369	186.31
288.6	176.31
288.831	176.31
289.062	172.31
289.293	157.31
289.524	171.31
289.755	178.31
289.986	167.31
290.217	185.31
290.448	158.31
290.679	169.31
290.91	157.31
291.141	162.31
291.371	166.31
291.602	174.31
291.833	176.31
292.064	171.31
292.295	197.31
292.526	195.31
292.757	179.31
292.987	168.31
293.218	167.31
293.449	169.31
293.68	182.31
293.91	168.31
294.141	178.31
294.372	143.31
294.603	162.31
294.833	173.31
295.064	185.31
295.295	177.31
295.525	194.31
295.756	171.31
295.987	176.31
296.217	181.31
296.448	189.31
296.679	188.31
296.909	177.31
297.14	168.31
297.37	185.31
297.601	185.31
297.831	184.31
298.062	173.31
298.292	184.31
298.523	183.31
298.753	171.31
298.984	186.31
299.214	184.31
299.445	173.31
299.675	189.31
299.905	167.31
300.136	164.31
300.366	184.31
300.597	201.31
300.827	185.31
301.057	207.31
301.288	174.31
301.518	185.31
301.748	167.31
301.979	176.31
302.209	196.31
302.439	199.31
302.669	197.31
302.9	182.31
303.13	172.31
303.36	194.31
303.59	193.31
303.82	180.31
304.051	190.31
304.281	190.31
304.511	173.31
304.741	197.31
304.971	187.31
305.201	200.31
305.431	192.31
305.661	196.31
305.891	185.31
306.121	191.31
306.352	190.31
306.582	196.31
306.812	201.31
307.042	174.31
307.272	194.31
307.502	189.31
307.731	195.31
307.961	189.31
308.191	186.31
308.421	176.31
308.651	185.31
308.881	187.31
309.111	187.31
309.341	206.31
309.571	207.31
309.8	202.31
310.03	218.31
310.26	215.31
310.49	183.31
310.72	220.31
310.949	214.31
311.179	229.31
311.409	209.31
311.639	209.31
311.868	199.31
312.098	220.31
312.328	214.31
312.557	225.31
312.787	249.31
313.017	230.31
313.246	217.31
313.476	219.31
313.706	215.31
313.935	190.31
314.165	232.31
314.394	227.31
314.624	226.31
314.853	206.31
315.083	215.31
315.312	207.31
315.542	208.31
315.771	213.31
316.001	195.31
316.23	212.31
316.46	209.31
316.689	218.31
316.919	211.31
317.148	221.31
317.377	233.31
317.607	222.31
317.836	216.31
318.065	220.31
318.295	190.31
318.524	209.31
318.753	213.31
318.983	218.31
319.212	233.31
319.441	225.31
319.67	202.31
319.9	201.31
320.129	219.31
320.358	190.31
320.587	228.31
320.816	223.31
321.046	229.31
321.275	234.31
321.504	234.31
321.733	222.31
321.962	205.31
322.191	217.31
322.42	227.31
322.649	238.31
322.878	231.31
323.108	263.31
323.337	264.31
323.566	275.31
323.795	294.31
324.024	323.31
324.253	363.31
324.482	550.31
324.71	843.31
324.939	1103.31
325.168	880.31
325.397	455.31
325.626	337.31
325.855	278.31
326.084	260.31
326.313	262.31
326.542	267.31
326.77	302.31
326.999	346.31
327.228	475.31
327.457	716.31
327.686	808.31
327.914	533.31
328.143	373.31
328.372	355.31
328.6	325.31
328.829	314.31
329.058	336.31
329.287	337.31
329.515	296.31
329.744	279.31
329.972	286.31
330.201	296.31
330.43	343.31
330.658	343.31
330.887	353.31
331.115	361.31
331.344	298.31
331.572	269.31
331.801	255.31
332.03	257.31
332.258	270.31
332.486	253.31
332.715	234.31
332.943	245.31
333.172	246.31
333.4	261.31
333.629	266.31
333.857	254.31
334.085	261.31
334.314	297.31
334.542	313.31
334.771	362.31
334.999	293.31
335.227	259.31
335.455	252.31
335.684	258.31
335.912	245.31
336.14	231.31
336.369	247.31
336.597	242.31
336.825	261.31
337.053	228.31
337.281	246.31
337.51	237.31
337.738	249.31
337.966	252.31
338.194	245.31
338.422	239.31
338.65	230.31
338.878	241.31
339.106	237.31
339.334	240.31
339.562	233.31
339.79	226.31
340.018	225.31
340.246	236.31
340.474	245.31
340.702	231.31
340.93	225.31
341.158	218.31
341.386	237.31
341.614	229.31
341.842	227.31
342.07	240.31
342.298	236.31
342.526	225.31
342.754	208.31
342.981	225.31
343.209	210.31
343.437	220.31
343.665	240.31
343.893	248.31
344.12	222.31
344.348	213.31
344.576	233.31
344.804	232.31
345.031	235.31
345.259	247.31
345.487	237.31
345.714	202.31
345.942	219.31
346.17	226.31
346.397	207.31
346.625	221.31
346.853	225.31
347.08	213.31
347.308	224.31
347.535	240.31
347.763	243.31
347.99	231.31
348.218	220.31
348.445	247.31
348.673	245.31
348.9	216.31
349.128	219.31
349.355	218.31
349.583	221.31
349.81	218.31
350.037	209.31
350.265	220.31
350.492	217.31
350.72	222.31
350.947	223.31
351.174	225.31
351.402	229.31
351.629	228.31
351.856	239.31
352.083	237.31
352.311	241.31
352.538	221.31
352.765	236.31
352.992	225.31
353.22	227.31
353.447	219.31
353.674	218.31
353.901	229.31
354.128	222.31
354.355	210.31
354.583	219.31
354.81	234.31
355.037	195.31
355.264	201.31
355.491	211.31
355.718	192.31
355.945	209.31
356.172	209.31
356.399	202.31
356.626	218.31
356.853	220.31
357.08	209.31
357.307	217.31
357.534	215.31
357.761	216.31
357.988	231.31
358.215	208.31
358.441	200.31
358.668	223.31
358.895	193.31
359.122	206.31
359.349	222.31
359.576	218.31
359.802	266.31
360.029	267.31
360.256	266.31
360.483	251.31
360.709	229.31
360.936	215.31
361.163	209.31
361.39	226.31
361.616	232.31
361.843	221.31
362.07	217.31
362.296	217.31
362.523	232.31
362.749	224.31
362.976	217.31
363.203	224.31
363.429	206.31
363.656	224.31
363.882	222.31
364.109	205.31
364.335	209.31
364.562	203.31
364.788	226.31
365.015	223.31
365.241	222.31
365.468	236.31
365.694	225.31
365.92	221.31
366.147	227.31
366.373	188.31
366.599	214.31
366.826	215.31
367.052	215.31
367.278	220.31
367.505	211.31
367.731	204.31
367.957	220.31
368.184	229.31
368.41	219.31
368.636	220.31
368.862	225.31
369.089	201.31
369.315	214.31
369.541	219.31
369.767	204.31
369.993	202.31
370.219	196.31
370.445	216.31
370.672	198.31
370.898	216.31
371.124	224.31
371.35	209.31
371.576	201.31
371.802	200.31
372.028	223.31
372.254	217.31
372.48	221.31
372.706	211.31
372.932	206.31
373.158	214.31
373.384	209.31
373.61	225.31
373.835	208.31
374.061	208.31
374.287	207.31
374.513	203.31
374.739	201.31
374.965	214.31
375.191	202.31
375.416	210.31
375.642	219.31
375.868	211.31
376.094	205.31
376.319	210.31
376.545	224.31
376.771	200.31
376.997	215.31
377.222	219.31
377.448	215.31
377.674	212.31
377.899	204.31
378.125	207.31
378.35	207.31
378.576	199.31
378.802	215.31
379.027	214.31
379.253	219.31
379.478	228.31
379.704	211.31
379.929	221.31
380.155	197.31
380.38	225.31
380.606	209.31
380.831	215.31
381.057	206.31
381.282	210.31
381.507	214.31
381.733	219.31
381.958	215.31
382.184	227.31
382.409	209.31
382.634	208.31
382.86	216.31
383.085	226.31
383.31	215.31
383.535	223.31
383.761	212.31
383.986	217.31
384.211	219.31
384.436	224.31
384.662	214.31
384.887	233.31
385.112	221.31
385.337	218.31
385.562	216.31
385.787	240.31
386.013	249.31
386.238	229.31
386.463	245.31
386.688	224.31
386.913	223.31
387.138	223.31
387.363	217.31
387.588	222.31
387.813	215.31
388.038	207.31
388.263	219.31
388.488	221.31
388.713	230.31
388.938	232.31
389.163	237.31
389.387	234.31
389.612	235.31
389.837	238.31
390.062	217.31
390.287	215.31
390.512	214.31
390.736	231.31
390.961	226.31
391.186	231.31
391.411	234.31
391.636	239.31
391.86	220.31
392.085	229.31
392.31	229.31
392.534	240.31
392.759	243.31
392.984	238.31
393.208	219.31
393.433	220.31
393.658	237.31
393.882	226.31
394.107	219.31
394.331	230.31
394.556	223.31
394.78	213.31
395.005	224.31
395.229	235.31
395.454	234.31
395.678	235.31
395.903	245.31
396.127	248.31
396.352	242.31
396.576	229.31
396.801	246.31
397.025	238.31
397.249	241.31
397.474	236.31
397.698	231.31
397.922	240.31
398.147	247.31
398.371	245.31
398.595	249.31
398.82	237.31
399.044	245.31
399.268	263.31
399.492	286.31
399.717	277.31
399.941	301.31
400.165	298.31
400.389	301.31
400.613	274.31
400.837	260.31
401.062	248.31
401.286	262.31
401.51	236.31
401.734	259.31
401.958	274.31
402.182	266.31
402.406	250.31
402.63	273.31
402.854	251.31
403.078	269.31
403.302	257.31
403.526	280.31
403.75	292.31
403.974	258.31
404.198	243.31
404.422	263.31
404.645	275.31
404.869	276.31
405.093	274.31
405.317	307.31
405.541	312.31
405.765	285.31
405.988	273.31
406.212	278.31
406.436	313.31
406.66	301.31
406.883	295.31
407.107	297.31
407.331	299.31
407.555	324.31
407.778	326.31
408.002	297.31
408.226	301.31
408.449	266.31
408.673	275.31
408.896	299.31
409.12	305.31
409.344	291.31
409.567	302.31
409.791	286.31
410.014	266.31
410.238	276.31
410.461	260.31
410.685	263.31
410.908	294.31
411.132	309.31
411.355	311.31
411.578	275.31
411.802	254.31
412.025	252.31
412.249	265.31
412.472	278.31
412.695	267.31
412.919	290.31
413.142	275.31
413.365	274.31
413.589	260.31
413.812	259.31
414.035	253.31
414.258	237.31
414.482	221.31
414.705	249.31
414.928	252.31
415.151	265.31
415.374	245.31
415.597	249.31
415.821	252.31
416.044	241.31
416.267	252.31
416.49	255.31
416.713	252.31
416.936	266.31
417.159	242.31
417.382	252.31
417.605	256.31
417.828	268.31
418.051	260.31
418.274	255.31
418.497	252.31
418.72	259.31
418.943	247.31
419.166	260.31
419.389	267.31
419.611	259.31
419.834	264.31
420.057	272.31
420.28	240.31
420.503	281.31
420.726	272.31
420.948	274.31
421.171	281.31
421.394	295.31
421.617	269.31
421.839	274.31
422.062	272.31
422.285	265.31
422.507	267.31
422.73	318.31
422.953	307.31
423.175	268.31
423.398	271.31
423.621	288.31
423.843	275.31
424.066	284.31
424.288	273.31
424.511	289.31
424.733	299.31
424.956	343.31
425.178	318.31
425.401	321.31
425.623	346.31
425.846	306.31
426.068	285.31
426.291	287.31
426.513	292.31
426.735	290.31
426.958	311.31
427.18	342.31
427.402	404.31
427.625	427.31
427.847	381.31
428.069	322.31
428.292	299.31
428.514	269.31
428.736	263.31
428.958	261.31
429.181	255.31
429.403	252.31
429.625	275.31
429.847	282.31
430.069	318.31
430.292	309.31
430.514	261.31
430.736	266.31
430.958	249.31
431.18	242.31
431.402	240.31
431.624	238.31
431.846	253.31
432.068	237.31
432.29	242.31
432.512	262.31
432.734	249.31
432.956	238.31
433.178	249.31
433.4	246.31
433.622	254.31
433.844	250.31
434.066	242.31
434.287	240.31
434.509	248.31
434.731	267.31
434.953	261.31
435.175	273.31
435.397	288.31
435.618	288.31
435.84	313.31
436.062	337.31
436.284	351.31
436.505	306.31
436.727	275.31
436.949	275.31
437.17	265.31
437.392	264.31
437.614	255.31
437.835	276.31
438.057	324.31
438.278	385.31
438.5	358.31
438.721	389.31
438.943	364.31
439.165	311.31
439.386	280.31
439.608	283.31
439.829	279.31
440.05	298.31
440.272	338.31
440.493	305.31
440.715	278.31
440.936	273.31
441.158	269.31
441.379	268.31
441.6	275.31
441.822	280.31
442.043	299.31
442.264	342.31
442.486	349.31
442.707	289.31
442.928	286.31
443.149	269.31
443.371	311.31
443.592	315.31
443.813	371.31
444.034	397.31
444.255	318.31
444.476	289.31
444.698	288.31
444.919	289.31
445.14	374.31
445.361	321.31
445.582	309.31
445.803	335.31
446.024	393.31
446.245	368.31
446.466	357.31
446.687	287.31
446.908	297.31
447.129	273.31
447.35	249.31
447.571	255.31
447.792	250.31
448.013	251.31
448.234	252.31
448.455	313.31
448.675	336.31
448.896	381.31
449.117	314.31
449.338	296.31
449.559	349.31
449.779	396.31
450	327.31
450.221	284.31
450.442	273.31
450.662	252.31
450.883	273.31
451.104	305.31
451.324	266.31
451.545	245.31
451.766	239.31
451.986	242.31
452.207	242.31
452.428	236.31
452.648	238.31
452.869	221.31
453.089	251.31
453.31	271.31
453.53	243.31
453.751	245.31
453.971	245.31
454.192	251.31
454.412	255.31
454.633	238.31
454.853	237.31
455.073	226.31
455.294	251.31
455.514	279.31
455.734	275.31
455.955	226.31
456.175	241.31
456.395	216.31
456.616	226.31
456.836	217.31
457.056	226.31
457.276	229.31
457.497	222.31
457.717	219.31
457.937	222.31
458.157	214.31
458.377	240.31
458.598	261.31
458.818	311.31
459.038	343.31
459.258	337.31
459.478	291.31
459.698	237.31
459.918	261.31
460.138	243.31
460.358	253.31
460.578	245.31
460.798	254.31
461.018	254.31
461.238	239.31
461.458	254.31
461.678	235.31
461.898	257.31
462.118	241.31
462.338	279.31
462.558	263.31
462.777	259.31
462.997	269.31
463.217	270.31
463.437	276.31
463.657	256.31
463.876	267.31
464.096	246.31
464.316	270.31
464.536	271.31
464.755	279.31
464.975	283.31
465.195	281.31
465.414	365.31
465.634	298.31
465.854	269.31
466.073	265.31
466.293	259.31
466.512	226.31
466.732	246.31
466.951	238.31
467.171	249.31
467.391	257.31
467.61	264.31
467.829	271.31
468.049	251.31
468.268	246.31
468.488	237.31
468.707	255.31
468.927	227.31
469.146	240.31
469.365	256.31
469.585	230.31
469.804	232.31
470.023	245.31
470.243	256.31
470.462	255.31
470.681	278.31
470.901	243.31
471.12	246.31
471.339	248.31
471.558	254.31
471.777	263.31
471.997	258.31
472.216	256.31
472.435	295.31
472.654	285.31
472.873	258.31
473.092	242.31
473.311	246.31
473.53	240.31
473.749	257.31
473.968	280.31
474.187	349.31
474.406	307.31
474.625	276.31
474.844	240.31
475.063	253.31
475.282	234.31
475.501	241.31
475.72	253.31
475.939	235.31
476.158	255.31
476.377	261.31
476.596	262.31
476.814	237.31
477.033	252.31
477.252	260.31
477.471	256.31
477.69	255.31
477.908	263.31
478.127	260.31
478.346	278.31
478.564	275.31
478.783	254.31
479.002	280.31
479.22	265.31
479.439	290.31
479.658	267.31
479.876	295.31
480.095	299.31
480.313	300.31
480.532	290.31
480.751	313.31
480.969	313.31
481.188	361.31
481.406	400.31
481.624	314.31
481.843	303.31
482.061	295.31
482.28	285.31
482.498	267.31
482.717	267.31
482.935	279.31
483.153	305.31
483.372	282.31
483.59	283.31
483.808	281.31
484.027	298.31
484.245	267.31
484.463	279.31
484.681	291.31
484.9	290.31
485.118	284.31
485.336	297.31
485.554	277.31
485.772	305.31
485.99	293.31
486.209	297.31
486.427	296.31
486.645	309.31
486.863	313.31
487.081	296.31
487.299	302.31
487.517	298.31
487.735	300.31
487.953	311.31
488.171	303.31
488.389	302.31
488.607	311.31
488.825	318.31
489.043	302.31
489.261	312.31
489.479	327.31
489.696	311.31
489.914	313.31
490.132	328.31
490.35	312.31
490.568	333.31
490.786	334.31
491.003	340.31
491.221	352.31
491.439	339.31
491.657	334.31
491.874	347.31
492.092	360.31
492.31	345.31
492.527	348.31
492.745	361.31
492.963	371.31
493.18	351.31
493.398	351.31
493.615	356.31
493.833	339.31
494.05	362.31
494.268	342.31
494.485	359.31
494.703	367.31
494.92	349.31
495.138	332.31
495.355	336.31
495.573	367.31
495.79	358.31
496.008	338.31
496.225	352.31
496.442	379.31
496.66	357.31
496.877	367.31
497.094	354.31
497.312	353.31
497.529	364.31
497.746	357.31
497.963	353.31
498.181	373.31
498.398	386.31
498.615	382.31
498.832	379.31
499.049	398.31
499.267	386.31
499.484	393.31
499.701	397.31
499.918	423.31
500.135	439.31
500.352	449.31
500.569	455.31
500.786	460.31
501.003	457.31
501.22	453.31
501.437	463.31
501.654	422.31
501.871	447.31
502.088	419.31
502.305	387.31
502.522	371.31
