Data from 1966.PennyLincolnUp.Lamp.En5.5.200Scan.071719.P1._HRD10591_14-14-53-914.txt Node
Date: Thu Jul 18 14:14:53 EDT 2019
User: cochatt
Spectrometer: HR+D1059
Trigger mode: 1
Integration Time (sec): 1.000000E-1
Scans to average: 1
Electric dark correction enabled: true
Nonlinearity correction enabled: false
Boxcar width: 0
XAxis mode: Wavelengths
Number of Pixels in Spectrum: 2048
>>>>>Begin Spectral Data<<<<<
223.165	-6.88
223.4	-6.88
223.635	-6.88
223.869	-16.88
224.104	-24.88
224.338	-6.88
224.573	-19.88
224.808	-8.88
225.042	3.12
225.277	-10.88
225.511	-3.88
225.746	5.12
225.98	-4.88
226.215	11.12
226.449	21.12
226.683	27.12
226.918	19.12
227.152	17.12
227.387	21.12
227.621	41.12
227.856	33.12
228.09	52.12
228.324	53.12
228.559	46.12
228.793	59.12
229.027	73.12
229.262	77.12
229.496	98.12
229.73	101.12
229.964	98.12
230.199	97.12
230.433	83.12
230.667	87.12
230.901	86.12
231.136	93.12
231.37	91.12
231.604	94.12
231.838	99.12
232.072	99.12
232.306	98.12
232.541	79.12
232.775	113.12
233.009	113.12
233.243	92.12
233.477	108.12
233.711	100.12
233.945	101.12
234.179	94.12
234.413	96.12
234.647	98.12
234.881	93.12
235.115	94.12
235.349	96.12
235.583	96.12
235.817	94.12
236.051	98.12
236.285	101.12
236.519	97.12
236.753	88.12
236.987	107.12
237.221	119.12
237.455	147.12
237.689	156.12
237.922	111.12
238.156	89.12
238.39	99.12
238.624	84.12
238.858	100.12
239.091	90.12
239.325	89.12
239.559	102.12
239.793	106.12
240.027	95.12
240.26	110.12
240.494	122.12
240.728	99.12
240.961	105.12
241.195	108.12
241.429	101.12
241.662	115.12
241.896	101.12
242.13	102.12
242.363	85.12
242.597	104.12
242.83	100.12
243.064	113.12
243.298	94.12
243.531	104.12
243.765	111.12
243.998	105.12
244.232	99.12
244.465	96.12
244.699	91.12
244.932	99.12
245.166	103.12
245.399	99.12
245.633	111.12
245.866	115.12
246.099	104.12
246.333	101.12
246.566	109.12
246.8	111.12
247.033	125.12
247.266	110.12
247.5	102.12
247.733	122.12
247.966	120.12
248.2	115.12
248.433	127.12
248.666	129.12
248.899	125.12
249.133	126.12
249.366	138.12
249.599	118.12
249.832	115.12
250.066	127.12
250.299	131.12
250.532	126.12
250.765	133.12
250.998	143.12
251.231	145.12
251.465	145.12
251.698	145.12
251.931	128.12
252.164	121.12
252.397	129.12
252.63	134.12
252.863	117.12
253.096	131.12
253.329	151.12
253.562	145.12
253.795	146.12
254.028	131.12
254.261	137.12
254.494	155.12
254.727	155.12
254.96	166.12
255.193	158.12
255.426	158.12
255.659	134.12
255.892	153.12
256.124	159.12
256.357	147.12
256.59	154.12
256.823	127.12
257.056	127.12
257.289	138.12
257.521	137.12
257.754	125.12
257.987	125.12
258.22	132.12
258.452	118.12
258.685	129.12
258.918	134.12
259.151	139.12
259.383	121.12
259.616	147.12
259.849	142.12
260.081	145.12
260.314	148.12
260.547	156.12
260.779	155.12
261.012	146.12
261.244	133.12
261.477	141.12
261.71	148.12
261.942	139.12
262.175	139.12
262.407	148.12
262.64	149.12
262.872	133.12
263.105	134.12
263.337	129.12
263.57	132.12
263.802	131.12
264.035	158.12
264.267	143.12
264.499	123.12
264.732	130.12
264.964	138.12
265.197	130.12
265.429	138.12
265.661	141.12
265.894	128.12
266.126	131.12
266.358	148.12
266.591	139.12
266.823	143.12
267.055	148.12
267.287	140.12
267.52	147.12
267.752	131.12
267.984	145.12
268.216	145.12
268.448	150.12
268.681	144.12
268.913	169.12
269.145	155.12
269.377	157.12
269.609	166.12
269.841	170.12
270.073	169.12
270.306	172.12
270.538	191.12
270.77	197.12
271.002	182.12
271.234	173.12
271.466	172.12
271.698	201.12
271.93	189.12
272.162	186.12
272.394	178.12
272.626	157.12
272.858	167.12
273.09	165.12
273.322	160.12
273.553	162.12
273.785	159.12
274.017	143.12
274.249	164.12
274.481	155.12
274.713	153.12
274.945	164.12
275.176	159.12
275.408	169.12
275.64	160.12
275.872	150.12
276.104	149.12
276.335	152.12
276.567	158.12
276.799	187.12
277.031	174.12
277.262	199.12
277.494	184.12
277.726	190.12
277.957	170.12
278.189	164.12
278.421	167.12
278.652	173.12
278.884	161.12
279.115	164.12
279.347	151.12
279.579	156.12
279.81	158.12
280.042	143.12
280.273	148.12
280.505	155.12
280.736	161.12
280.968	159.12
281.199	162.12
281.431	165.12
281.662	158.12
281.894	151.12
282.125	166.12
282.356	189.12
282.588	185.12
282.819	185.12
283.051	178.12
283.282	158.12
283.513	155.12
283.745	162.12
283.976	154.12
284.207	177.12
284.439	170.12
284.67	155.12
284.901	162.12
285.132	162.12
285.364	160.12
285.595	183.12
285.826	166.12
286.057	167.12
286.288	169.12
286.52	151.12
286.751	155.12
286.982	174.12
287.213	173.12
287.444	172.12
287.675	178.12
287.906	169.12
288.138	161.12
288.369	181.12
288.6	175.12
288.831	181.12
289.062	193.12
289.293	177.12
289.524	173.12
289.755	181.12
289.986	166.12
290.217	156.12
290.448	164.12
290.679	170.12
290.91	175.12
291.141	173.12
291.371	158.12
291.602	168.12
291.833	174.12
292.064	166.12
292.295	179.12
292.526	164.12
292.757	159.12
292.987	186.12
293.218	157.12
293.449	157.12
293.68	166.12
293.91	161.12
294.141	179.12
294.372	172.12
294.603	186.12
294.833	173.12
295.064	165.12
295.295	157.12
295.525	158.12
295.756	188.12
295.987	199.12
296.217	181.12
296.448	195.12
296.679	163.12
296.909	173.12
297.14	166.12
297.37	177.12
297.601	186.12
297.831	179.12
298.062	181.12
298.292	173.12
298.523	180.12
298.753	181.12
298.984	194.12
299.214	185.12
299.445	172.12
299.675	171.12
299.905	183.12
300.136	177.12
300.366	173.12
300.597	173.12
300.827	165.12
301.057	201.12
301.288	204.12
301.518	183.12
301.748	191.12
301.979	174.12
302.209	171.12
302.439	180.12
302.669	171.12
302.9	194.12
303.13	199.12
303.36	182.12
303.59	201.12
303.82	199.12
304.051	199.12
304.281	184.12
304.511	187.12
304.741	185.12
304.971	178.12
305.201	184.12
305.431	183.12
305.661	184.12
305.891	170.12
306.121	187.12
306.352	195.12
306.582	190.12
306.812	189.12
307.042	183.12
307.272	191.12
307.502	194.12
307.731	199.12
307.961	201.12
308.191	206.12
308.421	187.12
308.651	193.12
308.881	179.12
309.111	189.12
309.341	184.12
309.571	211.12
309.8	216.12
310.03	195.12
310.26	216.12
310.49	212.12
310.72	222.12
310.949	211.12
311.179	212.12
311.409	203.12
311.639	201.12
311.868	212.12
312.098	200.12
312.328	221.12
312.557	230.12
312.787	227.12
313.017	229.12
313.246	214.12
313.476	189.12
313.706	214.12
313.935	222.12
314.165	217.12
314.394	229.12
314.624	218.12
314.853	218.12
315.083	219.12
315.312	226.12
315.542	205.12
315.771	212.12
316.001	215.12
316.23	221.12
316.46	198.12
316.689	209.12
316.919	206.12
317.148	218.12
317.377	230.12
317.607	211.12
317.836	216.12
318.065	215.12
318.295	216.12
318.524	193.12
318.753	192.12
318.983	201.12
319.212	199.12
319.441	218.12
319.67	220.12
319.9	218.12
320.129	210.12
320.358	212.12
320.587	212.12
320.816	222.12
321.046	228.12
321.275	214.12
321.504	228.12
321.733	216.12
321.962	206.12
322.191	238.12
322.42	232.12
322.649	246.12
322.878	240.12
323.108	227.12
323.337	262.12
323.566	263.12
323.795	269.12
324.024	302.12
324.253	391.12
324.482	535.12
324.71	821.12
324.939	1115.12
325.168	872.12
325.397	445.12
325.626	319.12
325.855	277.12
326.084	266.12
326.313	265.12
326.542	278.12
326.77	317.12
326.999	351.12
327.228	472.12
327.457	698.12
327.686	797.12
327.914	509.12
328.143	366.12
328.372	352.12
328.6	314.12
328.829	309.12
329.058	329.12
329.287	329.12
329.515	291.12
329.744	279.12
329.972	270.12
330.201	310.12
330.43	317.12
330.658	339.12
330.887	362.12
331.115	344.12
331.344	279.12
331.572	269.12
331.801	279.12
332.03	262.12
332.258	241.12
332.486	247.12
332.715	247.12
332.943	262.12
333.172	244.12
333.4	250.12
333.629	261.12
333.857	268.12
334.085	280.12
334.314	292.12
334.542	305.12
334.771	331.12
334.999	295.12
335.227	257.12
335.455	243.12
335.684	253.12
335.912	242.12
336.14	238.12
336.369	239.12
336.597	247.12
336.825	247.12
337.053	227.12
337.281	231.12
337.51	237.12
337.738	245.12
337.966	236.12
338.194	245.12
338.422	247.12
338.65	236.12
338.878	234.12
339.106	242.12
339.334	236.12
339.562	238.12
339.79	227.12
340.018	231.12
340.246	212.12
340.474	230.12
340.702	233.12
340.93	234.12
341.158	235.12
341.386	206.12
341.614	227.12
341.842	249.12
342.07	237.12
342.298	241.12
342.526	212.12
342.754	218.12
342.981	214.12
343.209	221.12
343.437	215.12
343.665	225.12
343.893	225.12
344.12	214.12
344.348	227.12
344.576	236.12
344.804	246.12
345.031	243.12
345.259	258.12
345.487	233.12
345.714	219.12
345.942	225.12
346.17	234.12
346.397	226.12
346.625	214.12
346.853	234.12
347.08	224.12
347.308	236.12
347.535	225.12
347.763	231.12
347.99	228.12
348.218	222.12
348.445	238.12
348.673	236.12
348.9	239.12
349.128	211.12
349.355	227.12
349.583	203.12
349.81	219.12
350.037	222.12
350.265	199.12
350.492	226.12
350.72	216.12
350.947	219.12
351.174	226.12
351.402	209.12
351.629	240.12
351.856	224.12
352.083	229.12
352.311	230.12
352.538	241.12
352.765	255.12
352.992	245.12
353.22	220.12
353.447	242.12
353.674	229.12
353.901	214.12
354.128	214.12
354.355	206.12
354.583	212.12
354.81	206.12
355.037	210.12
355.264	221.12
355.491	220.12
355.718	198.12
355.945	205.12
356.172	203.12
356.399	203.12
356.626	201.12
356.853	222.12
357.08	203.12
357.307	210.12
357.534	220.12
357.761	205.12
357.988	217.12
358.215	197.12
358.441	213.12
358.668	193.12
358.895	204.12
359.122	204.12
359.349	218.12
359.576	230.12
359.802	225.12
360.029	266.12
360.256	275.12
360.483	251.12
360.709	230.12
360.936	230.12
361.163	217.12
361.39	226.12
361.616	217.12
361.843	231.12
362.07	217.12
362.296	233.12
362.523	219.12
362.749	213.12
362.976	229.12
363.203	198.12
363.429	204.12
363.656	215.12
363.882	206.12
364.109	213.12
364.335	211.12
364.562	217.12
364.788	208.12
365.015	220.12
365.241	208.12
365.468	228.12
365.694	216.12
365.92	214.12
366.147	214.12
366.373	206.12
366.599	210.12
366.826	206.12
367.052	211.12
367.278	222.12
367.505	222.12
367.731	210.12
367.957	215.12
368.184	214.12
368.41	217.12
368.636	219.12
368.862	211.12
369.089	211.12
369.315	207.12
369.541	208.12
369.767	207.12
369.993	215.12
370.219	203.12
370.445	207.12
370.672	215.12
370.898	204.12
371.124	201.12
371.35	203.12
371.576	226.12
371.802	220.12
372.028	203.12
372.254	206.12
372.48	216.12
372.706	221.12
372.932	213.12
373.158	207.12
373.384	204.12
373.61	214.12
373.835	217.12
374.061	196.12
374.287	217.12
374.513	214.12
374.739	222.12
374.965	213.12
375.191	202.12
375.416	217.12
375.642	212.12
375.868	202.12
376.094	205.12
376.319	212.12
376.545	198.12
376.771	214.12
376.997	198.12
377.222	207.12
377.448	209.12
377.674	212.12
377.899	215.12
378.125	198.12
378.35	197.12
378.576	193.12
378.802	206.12
379.027	217.12
379.253	210.12
379.478	199.12
379.704	200.12
379.929	218.12
380.155	209.12
380.38	206.12
380.606	223.12
380.831	232.12
381.057	207.12
381.282	204.12
381.507	187.12
381.733	211.12
381.958	205.12
382.184	195.12
382.409	218.12
382.634	204.12
382.86	218.12
383.085	219.12
383.31	222.12
383.535	222.12
383.761	233.12
383.986	215.12
384.211	212.12
384.436	199.12
384.662	219.12
384.887	222.12
385.112	223.12
385.337	227.12
385.562	230.12
385.787	213.12
386.013	224.12
386.238	229.12
386.463	225.12
386.688	211.12
386.913	208.12
387.138	221.12
387.363	208.12
387.588	219.12
387.813	216.12
388.038	219.12
388.263	223.12
388.488	235.12
388.713	207.12
388.938	228.12
389.163	230.12
389.387	206.12
389.612	226.12
389.837	227.12
390.062	234.12
390.287	223.12
390.512	230.12
390.736	223.12
390.961	217.12
391.186	222.12
391.411	221.12
391.636	238.12
391.86	232.12
392.085	223.12
392.31	221.12
392.534	231.12
392.759	227.12
392.984	220.12
393.208	207.12
393.433	220.12
393.658	235.12
393.882	220.12
394.107	214.12
394.331	224.12
394.556	239.12
394.78	226.12
395.005	234.12
395.229	215.12
395.454	221.12
395.678	218.12
395.903	233.12
396.127	238.12
396.352	246.12
396.576	241.12
396.801	237.12
397.025	241.12
397.249	237.12
397.474	227.12
397.698	232.12
397.922	238.12
398.147	242.12
398.371	243.12
398.595	237.12
398.82	237.12
399.044	262.12
399.268	243.12
399.492	275.12
399.717	293.12
399.941	299.12
400.165	305.12
400.389	309.12
400.613	286.12
400.837	258.12
401.062	256.12
401.286	257.12
401.51	259.12
401.734	265.12
401.958	268.12
402.182	262.12
402.406	257.12
402.63	254.12
402.854	268.12
403.078	241.12
403.302	248.12
403.526	279.12
403.75	262.12
403.974	268.12
404.198	269.12
404.422	249.12
404.645	271.12
404.869	267.12
405.093	286.12
405.317	283.12
405.541	305.12
405.765	299.12
405.988	281.12
406.212	289.12
406.436	300.12
406.66	300.12
406.883	285.12
407.107	320.12
407.331	311.12
407.555	339.12
407.778	341.12
408.002	294.12
408.226	294.12
408.449	280.12
408.673	283.12
408.896	284.12
409.12	298.12
409.344	304.12
409.567	267.12
409.791	254.12
410.014	252.12
410.238	270.12
410.461	277.12
410.685	273.12
410.908	275.12
411.132	286.12
411.355	292.12
411.578	306.12
411.802	261.12
412.025	251.12
412.249	269.12
412.472	270.12
412.695	307.12
412.919	301.12
413.142	276.12
413.365	263.12
413.589	258.12
413.812	253.12
414.035	263.12
414.258	254.12
414.482	250.12
414.705	258.12
414.928	265.12
415.151	265.12
415.374	252.12
415.597	263.12
415.821	257.12
416.044	241.12
416.267	253.12
416.49	239.12
416.713	247.12
416.936	246.12
417.159	262.12
417.382	244.12
417.605	270.12
417.828	285.12
418.051	261.12
418.274	248.12
418.497	260.12
418.72	257.12
418.943	246.12
419.166	263.12
419.389	288.12
419.611	261.12
419.834	243.12
420.057	275.12
420.28	252.12
420.503	266.12
420.726	238.12
420.948	271.12
421.171	300.12
421.394	295.12
421.617	275.12
421.839	278.12
422.062	269.12
422.285	255.12
422.507	289.12
422.73	341.12
422.953	306.12
423.175	264.12
423.398	263.12
423.621	284.12
423.843	271.12
424.066	275.12
424.288	272.12
424.511	286.12
424.733	295.12
424.956	343.12
425.178	327.12
425.401	331.12
425.623	344.12
425.846	302.12
426.068	287.12
426.291	289.12
426.513	276.12
426.735	267.12
426.958	296.12
427.18	340.12
427.402	376.12
427.625	411.12
427.847	389.12
428.069	327.12
428.292	312.12
428.514	269.12
428.736	281.12
428.958	263.12
429.181	260.12
429.403	253.12
429.625	262.12
429.847	290.12
430.069	314.12
430.292	314.12
430.514	270.12
430.736	263.12
430.958	267.12
431.18	245.12
431.402	251.12
431.624	246.12
431.846	242.12
432.068	245.12
432.29	233.12
432.512	250.12
432.734	259.12
432.956	246.12
433.178	250.12
433.4	248.12
433.622	261.12
433.844	249.12
434.066	239.12
434.287	249.12
434.509	261.12
434.731	247.12
434.953	247.12
435.175	270.12
435.397	284.12
435.618	269.12
435.84	292.12
436.062	334.12
436.284	346.12
436.505	303.12
436.727	297.12
436.949	279.12
437.17	249.12
437.392	249.12
437.614	255.12
437.835	281.12
438.057	324.12
438.278	379.12
438.5	371.12
438.721	387.12
438.943	362.12
439.165	300.12
439.386	290.12
439.608	286.12
439.829	296.12
440.05	307.12
440.272	314.12
440.493	285.12
440.715	271.12
440.936	273.12
441.158	261.12
441.379	266.12
441.6	263.12
441.822	280.12
442.043	296.12
442.264	339.12
442.486	354.12
442.707	283.12
442.928	308.12
443.149	277.12
443.371	303.12
443.592	310.12
443.813	361.12
444.034	381.12
444.255	321.12
444.476	280.12
444.698	259.12
444.919	295.12
445.14	374.12
445.361	333.12
445.582	287.12
445.803	342.12
446.024	395.12
446.245	366.12
446.466	341.12
446.687	300.12
446.908	290.12
447.129	252.12
447.35	243.12
447.571	263.12
447.792	264.12
448.013	270.12
448.234	284.12
448.455	283.12
448.675	324.12
448.896	382.12
449.117	321.12
449.338	317.12
449.559	358.12
449.779	404.12
450	326.12
450.221	286.12
450.442	258.12
450.662	241.12
450.883	265.12
451.104	282.12
451.324	262.12
451.545	242.12
451.766	235.12
451.986	232.12
452.207	245.12
452.428	249.12
452.648	218.12
452.869	235.12
453.089	253.12
453.31	258.12
453.53	244.12
453.751	245.12
453.971	232.12
454.192	276.12
454.412	224.12
454.633	230.12
454.853	238.12
455.073	250.12
455.294	261.12
455.514	285.12
455.734	263.12
455.955	235.12
456.175	229.12
456.395	227.12
456.616	234.12
456.836	232.12
457.056	222.12
457.276	232.12
457.497	216.12
457.717	231.12
457.937	218.12
458.157	231.12
458.377	249.12
458.598	257.12
458.818	285.12
459.038	341.12
459.258	326.12
459.478	276.12
459.698	263.12
459.918	243.12
460.138	234.12
460.358	242.12
460.578	247.12
460.798	266.12
461.018	254.12
461.238	244.12
461.458	255.12
461.678	257.12
461.898	254.12
462.118	254.12
462.338	239.12
462.558	254.12
462.777	252.12
462.997	266.12
463.217	266.12
463.437	279.12
463.657	257.12
463.876	271.12
464.096	266.12
464.316	276.12
464.536	265.12
464.755	273.12
464.975	252.12
465.195	295.12
465.414	357.12
465.634	296.12
465.854	279.12
466.073	245.12
466.293	241.12
466.512	245.12
466.732	238.12
466.951	254.12
467.171	252.12
467.391	238.12
467.61	248.12
467.829	265.12
468.049	249.12
468.268	267.12
468.488	246.12
468.707	226.12
468.927	232.12
469.146	214.12
469.365	224.12
469.585	226.12
469.804	246.12
470.023	259.12
470.243	242.12
470.462	235.12
470.681	261.12
470.901	263.12
471.12	231.12
471.339	251.12
471.558	250.12
471.777	252.12
471.997	253.12
472.216	241.12
472.435	277.12
472.654	251.12
472.873	234.12
473.092	248.12
473.311	235.12
473.53	219.12
473.749	234.12
473.968	283.12
474.187	335.12
474.406	318.12
474.625	263.12
474.844	241.12
475.063	248.12
475.282	232.12
475.501	242.12
475.72	239.12
475.939	248.12
476.158	242.12
476.377	249.12
476.596	258.12
476.814	274.12
477.033	255.12
477.252	246.12
477.471	249.12
477.69	259.12
477.908	278.12
478.127	268.12
478.346	251.12
478.564	251.12
478.783	264.12
479.002	278.12
479.22	281.12
479.439	272.12
479.658	298.12
479.876	285.12
480.095	293.12
480.313	307.12
480.532	299.12
480.751	290.12
480.969	307.12
481.188	352.12
481.406	389.12
481.624	324.12
481.843	295.12
482.061	278.12
482.28	277.12
482.498	280.12
482.717	281.12
482.935	280.12
483.153	289.12
483.372	297.12
483.59	273.12
483.808	262.12
484.027	274.12
484.245	283.12
484.463	276.12
484.681	289.12
484.9	267.12
485.118	288.12
485.336	292.12
485.554	295.12
485.772	281.12
485.99	292.12
486.209	293.12
486.427	286.12
486.645	309.12
486.863	309.12
487.081	311.12
487.299	321.12
487.517	296.12
487.735	321.12
487.953	319.12
488.171	298.12
488.389	314.12
488.607	293.12
488.825	305.12
489.043	301.12
489.261	295.12
489.479	293.12
489.696	291.12
489.914	307.12
490.132	314.12
490.35	303.12
490.568	317.12
490.786	316.12
491.003	328.12
491.221	339.12
491.439	333.12
491.657	353.12
491.874	349.12
492.092	356.12
492.31	355.12
492.527	347.12
492.745	323.12
492.963	327.12
493.18	381.12
493.398	346.12
493.615	355.12
493.833	345.12
494.05	356.12
494.268	342.12
494.485	354.12
494.703	343.12
494.92	359.12
495.138	365.12
495.355	367.12
495.573	350.12
495.79	359.12
496.008	346.12
496.225	346.12
496.442	362.12
496.66	362.12
496.877	340.12
497.094	370.12
497.312	350.12
497.529	346.12
497.746	387.12
497.963	358.12
498.181	367.12
498.398	371.12
498.615	365.12
498.832	367.12
499.049	412.12
499.267	399.12
499.484	408.12
499.701	405.12
499.918	424.12
500.135	435.12
500.352	481.12
500.569	462.12
500.786	456.12
501.003	470.12
501.22	423.12
501.437	474.12
501.654	451.12
501.871	427.12
502.088	422.12
502.305	406.12
502.522	373.12
