Data from 1966.PennyLincolnUp.Lamp.En5.5.200Scan.071719.P1.Scan2.head_HRD10591_14-18-32-196.txt Node
Date: Thu Jul 18 14:18:32 EDT 2019
User: cochatt
Spectrometer: HR+D1059
Trigger mode: 1
Integration Time (sec): 1.000000E-1
Scans to average: 1
Electric dark correction enabled: true
Nonlinearity correction enabled: false
Boxcar width: 0
XAxis mode: Wavelengths
Number of Pixels in Spectrum: 2048
>>>>>Begin Spectral Data<<<<<
223.165	-1.12
223.4	-1.12
223.635	-1.12
223.869	-12.12
224.104	-18.12
224.338	-10.12
224.573	-19.12
224.808	-14.12
225.042	-20.12
225.277	-9.12
225.511	-3.12
225.746	-12.12
225.98	1.88
226.215	19.88
226.449	14.88
226.683	22.88
226.918	25.88
227.152	33.88
227.387	29.88
227.621	37.88
227.856	37.88
228.09	42.88
228.324	50.88
228.559	56.88
228.793	53.88
229.027	93.88
229.262	120.88
229.496	121.88
229.73	131.88
229.964	153.88
230.199	144.88
230.433	112.88
230.667	119.88
230.901	104.88
231.136	112.88
231.37	107.88
231.604	102.88
231.838	100.88
232.072	106.88
232.306	94.88
232.541	106.88
232.775	105.88
233.009	112.88
233.243	109.88
233.477	113.88
233.711	104.88
233.945	108.88
234.179	112.88
234.413	125.88
234.647	122.88
234.881	116.88
235.115	123.88
235.349	111.88
235.583	126.88
235.817	122.88
236.051	117.88
236.285	124.88
236.519	136.88
236.753	110.88
236.987	147.88
237.221	194.88
237.455	256.88
237.689	184.88
237.922	146.88
238.156	136.88
238.39	128.88
238.624	130.88
238.858	122.88
239.091	120.88
239.325	115.88
239.559	115.88
239.793	127.88
240.027	122.88
240.26	120.88
240.494	165.88
240.728	135.88
240.961	166.88
241.195	145.88
241.429	141.88
241.662	132.88
241.896	147.88
242.13	137.88
242.363	140.88
242.597	134.88
242.83	144.88
243.064	129.88
243.298	133.88
243.531	129.88
243.765	126.88
243.998	137.88
244.232	139.88
244.465	136.88
244.699	157.88
244.932	152.88
245.166	153.88
245.399	149.88
245.633	154.88
245.866	156.88
246.099	136.88
246.333	144.88
246.566	143.88
246.8	149.88
247.033	160.88
247.266	164.88
247.5	170.88
247.733	170.88
247.966	180.88
248.2	166.88
248.433	165.88
248.666	180.88
248.899	178.88
249.133	201.88
249.366	209.88
249.599	186.88
249.832	182.88
250.066	184.88
250.299	181.88
250.532	184.88
250.765	215.88
250.998	218.88
251.231	235.88
251.465	232.88
251.698	211.88
251.931	205.88
252.164	189.88
252.397	191.88
252.63	194.88
252.863	206.88
253.096	235.88
253.329	226.88
253.562	225.88
253.795	230.88
254.028	218.88
254.261	224.88
254.494	229.88
254.727	249.88
254.96	269.88
255.193	298.88
255.426	245.88
255.659	233.88
255.892	246.88
256.124	244.88
256.357	229.88
256.59	240.88
256.823	221.88
257.056	214.88
257.289	210.88
257.521	196.88
257.754	208.88
257.987	213.88
258.22	201.88
258.452	224.88
258.685	210.88
258.918	214.88
259.151	218.88
259.383	196.88
259.616	235.88
259.849	221.88
260.081	250.88
260.314	273.88
260.547	266.88
260.779	232.88
261.012	229.88
261.244	228.88
261.477	219.88
261.71	237.88
261.942	231.88
262.175	240.88
262.407	254.88
262.64	230.88
262.872	215.88
263.105	206.88
263.337	221.88
263.57	216.88
263.802	224.88
264.035	212.88
264.267	228.88
264.499	224.88
264.732	228.88
264.964	214.88
265.197	214.88
265.429	212.88
265.661	221.88
265.894	218.88
266.126	211.88
266.358	216.88
266.591	225.88
266.823	216.88
267.055	224.88
267.287	221.88
267.52	243.88
267.752	227.88
267.984	235.88
268.216	221.88
268.448	225.88
268.681	235.88
268.913	249.88
269.145	245.88
269.377	288.88
269.609	280.88
269.841	268.88
270.073	270.88
270.306	284.88
270.538	322.88
270.77	328.88
271.002	302.88
271.234	300.88
271.466	300.88
271.698	327.88
271.93	314.88
272.162	326.88
272.394	304.88
272.626	312.88
272.858	275.88
273.09	281.88
273.322	265.88
273.553	256.88
273.785	278.88
274.017	276.88
274.249	274.88
274.481	277.88
274.713	272.88
274.945	266.88
275.176	272.88
275.408	270.88
275.64	272.88
275.872	285.88
276.104	256.88
276.335	266.88
276.567	265.88
276.799	274.88
277.031	306.88
277.262	314.88
277.494	323.88
277.726	299.88
277.957	306.88
278.189	288.88
278.421	264.88
278.652	271.88
278.884	283.88
279.115	263.88
279.347	260.88
279.579	262.88
279.81	274.88
280.042	272.88
280.273	264.88
280.505	276.88
280.736	281.88
280.968	273.88
281.199	265.88
281.431	282.88
281.662	252.88
281.894	291.88
282.125	287.88
282.356	300.88
282.588	298.88
282.819	324.88
283.051	277.88
283.282	301.88
283.513	281.88
283.745	302.88
283.976	293.88
284.207	288.88
284.439	295.88
284.67	296.88
284.901	260.88
285.132	296.88
285.364	285.88
285.595	284.88
285.826	291.88
286.057	289.88
286.288	282.88
286.52	266.88
286.751	271.88
286.982	295.88
287.213	283.88
287.444	284.88
287.675	297.88
287.906	313.88
288.138	302.88
288.369	312.88
288.6	308.88
288.831	302.88
289.062	312.88
289.293	296.88
289.524	302.88
289.755	309.88
289.986	302.88
290.217	296.88
290.448	306.88
290.679	292.88
290.91	304.88
291.141	299.88
291.371	290.88
291.602	308.88
291.833	276.88
292.064	300.88
292.295	296.88
292.526	295.88
292.757	301.88
292.987	294.88
293.218	297.88
293.449	297.88
293.68	301.88
293.91	301.88
294.141	280.88
294.372	312.88
294.603	308.88
294.833	313.88
295.064	308.88
295.295	313.88
295.525	302.88
295.756	295.88
295.987	301.88
296.217	325.88
296.448	348.88
296.679	319.88
296.909	308.88
297.14	314.88
297.37	311.88
297.601	299.88
297.831	304.88
298.062	282.88
298.292	299.88
298.523	306.88
298.753	282.88
298.984	305.88
299.214	291.88
299.445	313.88
299.675	326.88
299.905	310.88
300.136	304.88
300.366	331.88
300.597	310.88
300.827	328.88
301.057	317.88
301.288	324.88
301.518	332.88
301.748	326.88
301.979	327.88
302.209	348.88
302.439	334.88
302.669	326.88
302.9	332.88
303.13	329.88
303.36	338.88
303.59	370.88
303.82	333.88
304.051	345.88
304.281	322.88
304.511	335.88
304.741	348.88
304.971	330.88
305.201	353.88
305.431	352.88
305.661	332.88
305.891	337.88
306.121	331.88
306.352	362.88
306.582	341.88
306.812	355.88
307.042	338.88
307.272	333.88
307.502	328.88
307.731	326.88
307.961	348.88
308.191	332.88
308.421	352.88
308.651	335.88
308.881	352.88
309.111	343.88
309.341	360.88
309.571	355.88
309.8	376.88
310.03	365.88
310.26	377.88
310.49	373.88
310.72	385.88
310.949	397.88
311.179	404.88
311.409	381.88
311.639	390.88
311.868	374.88
312.098	391.88
312.328	379.88
312.557	395.88
312.787	405.88
313.017	421.88
313.246	393.88
313.476	390.88
313.706	389.88
313.935	393.88
314.165	403.88
314.394	390.88
314.624	395.88
314.853	380.88
315.083	396.88
315.312	409.88
315.542	389.88
315.771	400.88
316.001	380.88
316.23	381.88
316.46	389.88
316.689	386.88
316.919	373.88
317.148	389.88
317.377	401.88
317.607	371.88
317.836	401.88
318.065	404.88
318.295	403.88
318.524	384.88
318.753	376.88
318.983	381.88
319.212	390.88
319.441	387.88
319.67	421.88
319.9	383.88
320.129	385.88
320.358	384.88
320.587	411.88
320.816	408.88
321.046	392.88
321.275	400.88
321.504	410.88
321.733	424.88
321.962	414.88
322.191	420.88
322.42	416.88
322.649	428.88
322.878	451.88
323.108	466.88
323.337	457.88
323.566	476.88
323.795	519.88
324.024	567.88
324.253	655.88
324.482	976.88
324.71	1498.88
324.939	2244.88
325.168	1936.88
325.397	938.88
325.626	635.88
325.855	535.88
326.084	501.88
326.313	490.88
326.542	526.88
326.77	572.88
326.999	650.88
327.228	863.88
327.457	1337.88
327.686	1682.88
327.914	1084.88
328.143	724.88
328.372	605.88
328.6	568.88
328.829	553.88
329.058	578.88
329.287	569.88
329.515	537.88
329.744	529.88
329.972	501.88
330.201	550.88
330.43	559.88
330.658	584.88
330.887	622.88
331.115	604.88
331.344	540.88
331.572	501.88
331.801	496.88
332.03	498.88
332.258	483.88
332.486	480.88
332.715	474.88
332.943	456.88
333.172	480.88
333.4	489.88
333.629	499.88
333.857	489.88
334.085	506.88
334.314	538.88
334.542	554.88
334.771	552.88
334.999	521.88
335.227	498.88
335.455	477.88
335.684	464.88
335.912	470.88
336.14	470.88
336.369	452.88
336.597	465.88
336.825	477.88
337.053	461.88
337.281	466.88
337.51	437.88
337.738	464.88
337.966	454.88
338.194	477.88
338.422	448.88
338.65	457.88
338.878	477.88
339.106	457.88
339.334	454.88
339.562	460.88
339.79	455.88
340.018	441.88
340.246	454.88
340.474	441.88
340.702	446.88
340.93	435.88
341.158	425.88
341.386	463.88
341.614	432.88
341.842	429.88
342.07	448.88
342.298	436.88
342.526	419.88
342.754	430.88
342.981	427.88
343.209	437.88
343.437	450.88
343.665	450.88
343.893	467.88
344.12	465.88
344.348	467.88
344.576	458.88
344.804	451.88
345.031	465.88
345.259	472.88
345.487	465.88
345.714	454.88
345.942	464.88
346.17	436.88
346.397	442.88
346.625	446.88
346.853	436.88
347.08	432.88
347.308	427.88
347.535	456.88
347.763	445.88
347.99	432.88
348.218	452.88
348.445	457.88
348.673	456.88
348.9	441.88
349.128	424.88
349.355	413.88
349.583	436.88
349.81	436.88
350.037	425.88
350.265	438.88
350.492	421.88
350.72	430.88
350.947	440.88
351.174	428.88
351.402	443.88
351.629	443.88
351.856	449.88
352.083	468.88
352.311	458.88
352.538	444.88
352.765	477.88
352.992	447.88
353.22	452.88
353.447	430.88
353.674	442.88
353.901	423.88
354.128	418.88
354.355	410.88
354.583	417.88
354.81	418.88
355.037	420.88
355.264	407.88
355.491	420.88
355.718	405.88
355.945	396.88
356.172	415.88
356.399	409.88
356.626	408.88
356.853	416.88
357.08	408.88
357.307	420.88
357.534	393.88
357.761	411.88
357.988	402.88
358.215	406.88
358.441	414.88
358.668	421.88
358.895	432.88
359.122	428.88
359.349	427.88
359.576	445.88
359.802	444.88
360.029	504.88
360.256	494.88
360.483	481.88
360.709	461.88
360.936	464.88
361.163	444.88
361.39	443.88
361.616	439.88
361.843	433.88
362.07	429.88
362.296	447.88
362.523	432.88
362.749	451.88
362.976	431.88
363.203	428.88
363.429	441.88
363.656	438.88
363.882	434.88
364.109	416.88
364.335	406.88
364.562	431.88
364.788	423.88
365.015	446.88
365.241	443.88
365.468	451.88
365.694	436.88
365.92	435.88
366.147	424.88
366.373	432.88
366.599	444.88
366.826	420.88
367.052	414.88
367.278	438.88
367.505	427.88
367.731	423.88
367.957	423.88
368.184	425.88
368.41	430.88
368.636	436.88
368.862	448.88
369.089	448.88
369.315	442.88
369.541	437.88
369.767	449.88
369.993	456.88
370.219	426.88
370.445	448.88
370.672	422.88
370.898	418.88
371.124	437.88
371.35	458.88
371.576	451.88
371.802	442.88
372.028	464.88
372.254	425.88
372.48	423.88
372.706	434.88
372.932	436.88
373.158	429.88
373.384	463.88
373.61	439.88
373.835	454.88
374.061	440.88
374.287	444.88
374.513	437.88
374.739	448.88
374.965	439.88
375.191	432.88
375.416	459.88
375.642	457.88
375.868	459.88
376.094	425.88
376.319	461.88
376.545	445.88
376.771	428.88
376.997	438.88
377.222	446.88
377.448	454.88
377.674	405.88
377.899	428.88
378.125	446.88
378.35	444.88
378.576	433.88
378.802	405.88
379.027	434.88
379.253	437.88
379.478	424.88
379.704	426.88
379.929	456.88
380.155	448.88
380.38	436.88
380.606	445.88
380.831	467.88
381.057	460.88
381.282	420.88
381.507	432.88
381.733	436.88
381.958	431.88
382.184	456.88
382.409	458.88
382.634	465.88
382.86	443.88
383.085	464.88
383.31	453.88
383.535	475.88
383.761	466.88
383.986	450.88
384.211	473.88
384.436	476.88
384.662	482.88
384.887	475.88
385.112	481.88
385.337	468.88
385.562	488.88
385.787	463.88
386.013	504.88
386.238	505.88
386.463	500.88
386.688	478.88
386.913	485.88
387.138	500.88
387.363	520.88
387.588	480.88
387.813	475.88
388.038	489.88
388.263	499.88
388.488	492.88
388.713	482.88
388.938	489.88
389.163	477.88
389.387	488.88
389.612	474.88
389.837	489.88
390.062	467.88
390.287	489.88
390.512	479.88
390.736	484.88
390.961	500.88
391.186	484.88
391.411	488.88
391.636	496.88
391.86	491.88
392.085	512.88
392.31	503.88
392.534	517.88
392.759	488.88
392.984	518.88
393.208	482.88
393.433	501.88
393.658	486.88
393.882	500.88
394.107	496.88
394.331	499.88
394.556	496.88
394.78	495.88
395.005	486.88
395.229	500.88
395.454	487.88
395.678	502.88
395.903	520.88
396.127	537.88
396.352	531.88
396.576	523.88
396.801	530.88
397.025	516.88
397.249	512.88
397.474	533.88
397.698	536.88
397.922	539.88
398.147	546.88
398.371	556.88
398.595	537.88
398.82	565.88
399.044	587.88
399.268	613.88
399.492	638.88
399.717	680.88
399.941	668.88
400.165	700.88
400.389	730.88
400.613	643.88
400.837	612.88
401.062	589.88
401.286	570.88
401.51	562.88
401.734	560.88
401.958	565.88
402.182	577.88
402.406	576.88
402.63	578.88
402.854	570.88
403.078	565.88
403.302	588.88
403.526	589.88
403.75	590.88
403.974	589.88
404.198	576.88
404.422	585.88
404.645	600.88
404.869	622.88
405.093	624.88
405.317	696.88
405.541	705.88
405.765	669.88
405.988	614.88
406.212	629.88
406.436	666.88
406.66	674.88
406.883	648.88
407.107	649.88
407.331	698.88
407.555	763.88
407.778	774.88
408.002	723.88
408.226	640.88
408.449	650.88
408.673	653.88
408.896	690.88
409.12	715.88
409.344	671.88
409.567	618.88
409.791	629.88
410.014	602.88
410.238	587.88
410.461	594.88
410.685	582.88
410.908	625.88
411.132	662.88
411.355	683.88
411.578	661.88
411.802	620.88
412.025	615.88
412.249	572.88
412.472	630.88
412.695	657.88
412.919	673.88
413.142	628.88
413.365	572.88
413.589	589.88
413.812	576.88
414.035	577.88
414.258	541.88
414.482	570.88
414.705	568.88
414.928	566.88
415.151	579.88
415.374	574.88
415.597	544.88
415.821	556.88
416.044	553.88
416.267	567.88
416.49	557.88
416.713	550.88
416.936	570.88
417.159	556.88
417.382	577.88
417.605	560.88
417.828	562.88
418.051	587.88
418.274	597.88
418.497	551.88
418.72	550.88
418.943	558.88
419.166	588.88
419.389	612.88
419.611	606.88
419.834	621.88
420.057	593.88
420.28	610.88
420.503	562.88
420.726	586.88
420.948	610.88
421.171	619.88
421.394	696.88
421.617	639.88
421.839	566.88
422.062	607.88
422.285	607.88
422.507	653.88
422.73	754.88
422.953	708.88
423.175	638.88
423.398	607.88
423.621	634.88
423.843	626.88
424.066	628.88
424.288	636.88
424.511	666.88
424.733	710.88
424.956	816.88
425.178	769.88
425.401	768.88
425.623	802.88
425.846	685.88
426.068	642.88
426.291	640.88
426.513	628.88
426.735	634.88
426.958	699.88
427.18	788.88
427.402	895.88
427.625	1032.88
427.847	897.88
428.069	738.88
428.292	670.88
428.514	626.88
428.736	595.88
428.958	582.88
429.181	585.88
429.403	601.88
429.625	609.88
429.847	650.88
430.069	702.88
430.292	697.88
430.514	617.88
430.736	595.88
430.958	572.88
431.18	554.88
431.402	553.88
431.624	549.88
431.846	541.88
432.068	534.88
432.29	554.88
432.512	558.88
432.734	569.88
432.956	568.88
433.178	582.88
433.4	567.88
433.622	588.88
433.844	567.88
434.066	552.88
434.287	572.88
434.509	550.88
434.731	590.88
434.953	582.88
435.175	596.88
435.397	624.88
435.618	633.88
435.84	682.88
436.062	770.88
436.284	850.88
436.505	733.88
436.727	638.88
436.949	621.88
437.17	582.88
437.392	576.88
437.614	562.88
437.835	640.88
438.057	740.88
438.278	838.88
438.5	823.88
438.721	910.88
438.943	907.88
439.165	722.88
439.386	645.88
439.608	653.88
439.829	636.88
440.05	677.88
440.272	728.88
440.493	680.88
440.715	632.88
440.936	588.88
441.158	600.88
441.379	584.88
441.6	617.88
441.822	601.88
442.043	653.88
442.264	770.88
442.486	804.88
442.707	673.88
442.928	645.88
443.149	650.88
443.371	682.88
443.592	742.88
443.813	828.88
444.034	904.88
444.255	750.88
444.476	665.88
444.698	618.88
444.919	647.88
445.14	742.88
445.361	717.88
445.582	672.88
445.803	756.88
446.024	861.88
446.245	859.88
446.466	807.88
446.687	673.88
446.908	618.88
447.129	588.88
447.35	594.88
447.571	576.88
447.792	567.88
448.013	588.88
448.234	578.88
448.455	652.88
448.675	798.88
448.896	932.88
449.117	774.88
449.338	728.88
449.559	878.88
449.779	985.88
450	794.88
450.221	625.88
450.442	592.88
450.662	552.88
450.883	577.88
451.104	605.88
451.324	569.88
451.545	567.88
451.766	556.88
451.986	516.88
452.207	513.88
452.428	505.88
452.648	526.88
452.869	501.88
453.089	508.88
453.31	540.88
453.53	517.88
453.751	508.88
453.971	513.88
454.192	540.88
454.412	516.88
454.633	500.88
454.853	524.88
455.073	508.88
455.294	555.88
455.514	636.88
455.734	594.88
455.955	540.88
456.175	504.88
456.395	477.88
456.616	479.88
456.836	486.88
457.056	494.88
457.276	472.88
457.497	492.88
457.717	491.88
457.937	498.88
458.157	491.88
458.377	506.88
458.598	538.88
458.818	613.88
459.038	692.88
459.258	698.88
459.478	600.88
459.698	564.88
459.918	568.88
460.138	548.88
460.358	547.88
460.578	588.88
460.798	565.88
461.018	565.88
461.238	574.88
461.458	563.88
461.678	567.88
461.898	581.88
462.118	571.88
462.338	564.88
462.558	578.88
462.777	625.88
462.997	614.88
463.217	637.88
463.437	642.88
463.657	615.88
463.876	621.88
464.096	622.88
464.316	595.88
464.536	620.88
464.755	626.88
464.975	604.88
465.195	654.88
465.414	714.88
465.634	632.88
465.854	605.88
466.073	572.88
466.293	548.88
466.512	562.88
466.732	546.88
466.951	536.88
467.171	553.88
467.391	550.88
467.61	559.88
467.829	559.88
468.049	553.88
468.268	534.88
468.488	510.88
468.707	502.88
468.927	521.88
469.146	516.88
469.365	539.88
469.585	525.88
469.804	531.88
470.023	539.88
470.243	529.88
470.462	534.88
470.681	562.88
470.901	574.88
471.12	548.88
471.339	555.88
471.558	535.88
471.777	543.88
471.997	548.88
472.216	546.88
472.435	602.88
472.654	572.88
472.873	546.88
473.092	550.88
473.311	519.88
473.53	548.88
473.749	548.88
473.968	610.88
474.187	714.88
474.406	745.88
474.625	616.88
474.844	572.88
475.063	535.88
475.282	548.88
475.501	555.88
475.72	557.88
475.939	562.88
476.158	556.88
476.377	575.88
476.596	552.88
476.814	579.88
477.033	578.88
477.252	563.88
477.471	558.88
477.69	578.88
477.908	587.88
478.127	614.88
478.346	598.88
478.564	618.88
478.783	616.88
479.002	609.88
479.22	619.88
479.439	626.88
479.658	648.88
479.876	652.88
480.095	675.88
480.313	713.88
480.532	694.88
480.751	668.88
480.969	678.88
481.188	737.88
481.406	780.88
481.624	710.88
481.843	680.88
482.061	677.88
482.28	657.88
482.498	636.88
482.717	640.88
482.935	654.88
483.153	636.88
483.372	647.88
483.59	654.88
483.808	660.88
484.027	630.88
484.245	655.88
484.463	633.88
484.681	635.88
484.9	667.88
485.118	663.88
485.336	651.88
485.554	671.88
485.772	678.88
485.99	661.88
486.209	669.88
486.427	663.88
486.645	676.88
486.863	677.88
487.081	695.88
487.299	681.88
487.517	677.88
487.735	668.88
487.953	661.88
488.171	689.88
488.389	672.88
488.607	690.88
488.825	685.88
489.043	686.88
489.261	684.88
489.479	695.88
489.696	691.88
489.914	710.88
490.132	702.88
490.35	729.88
490.568	747.88
490.786	724.88
491.003	770.88
491.221	759.88
491.439	780.88
491.657	773.88
491.874	796.88
492.092	794.88
492.31	779.88
492.527	796.88
492.745	800.88
492.963	836.88
493.18	789.88
493.398	827.88
493.615	816.88
493.833	806.88
494.05	811.88
494.268	804.88
494.485	790.88
494.703	841.88
494.92	801.88
495.138	822.88
495.355	809.88
495.573	813.88
495.79	825.88
496.008	830.88
496.225	814.88
496.442	837.88
496.66	839.88
496.877	844.88
497.094	837.88
497.312	836.88
497.529	837.88
497.746	854.88
497.963	884.88
498.181	867.88
498.398	912.88
498.615	891.88
498.832	936.88
499.049	945.88
499.267	960.88
499.484	1015.88
499.701	1022.88
499.918	1069.88
500.135	1153.88
500.352	1176.88
500.569	1197.88
500.786	1224.88
501.003	1200.88
501.22	1154.88
501.437	1129.88
501.654	1083.88
