Data from 1966.PennyLincolnUp.Lamp.En5.5.200Scan.071719.P1._HRD10591_14-15-18-939.txt Node
Date: Thu Jul 18 14:15:18 EDT 2019
User: cochatt
Spectrometer: HR+D1059
Trigger mode: 1
Integration Time (sec): 1.000000E-1
Scans to average: 1
Electric dark correction enabled: true
Nonlinearity correction enabled: false
Boxcar width: 0
XAxis mode: Wavelengths
Number of Pixels in Spectrum: 2048
>>>>>Begin Spectral Data<<<<<
223.165	-28.81
223.4	-28.81
223.635	-28.81
223.869	-11.81
224.104	-19.81
224.338	-21.81
224.573	9.19
224.808	6.19
225.042	-12.81
225.277	-23.81
225.511	6.19
225.746	-6.81
225.98	7.19
226.215	13.19
226.449	22.19
226.683	11.19
226.918	23.19
227.152	27.19
227.387	36.19
227.621	37.19
227.856	42.19
228.09	51.19
228.324	46.19
228.559	53.19
228.793	59.19
229.027	70.19
229.262	85.19
229.496	68.19
229.73	101.19
229.964	102.19
230.199	109.19
230.433	99.19
230.667	83.19
230.901	87.19
231.136	97.19
231.37	94.19
231.604	99.19
231.838	94.19
232.072	77.19
232.306	89.19
232.541	106.19
232.775	102.19
233.009	99.19
233.243	104.19
233.477	91.19
233.711	80.19
233.945	82.19
234.179	93.19
234.413	101.19
234.647	95.19
234.881	90.19
235.115	87.19
235.349	105.19
235.583	91.19
235.817	90.19
236.051	99.19
236.285	104.19
236.519	90.19
236.753	95.19
236.987	107.19
237.221	132.19
237.455	147.19
237.689	114.19
237.922	85.19
238.156	97.19
238.39	94.19
238.624	100.19
238.858	95.19
239.091	91.19
239.325	113.19
239.559	101.19
239.793	98.19
240.027	104.19
240.26	86.19
240.494	113.19
240.728	135.19
240.961	114.19
241.195	107.19
241.429	101.19
241.662	102.19
241.896	94.19
242.13	108.19
242.363	105.19
242.597	98.19
242.83	108.19
243.064	106.19
243.298	122.19
243.531	97.19
243.765	100.19
243.998	115.19
244.232	111.19
244.465	99.19
244.699	102.19
244.932	107.19
245.166	101.19
245.399	98.19
245.633	109.19
245.866	108.19
246.099	105.19
246.333	106.19
246.566	112.19
246.8	117.19
247.033	110.19
247.266	121.19
247.5	99.19
247.733	121.19
247.966	127.19
248.2	120.19
248.433	124.19
248.666	114.19
248.899	120.19
249.133	113.19
249.366	141.19
249.599	129.19
249.832	104.19
250.066	115.19
250.299	133.19
250.532	144.19
250.765	142.19
250.998	139.19
251.231	150.19
251.465	155.19
251.698	129.19
251.931	134.19
252.164	124.19
252.397	138.19
252.63	127.19
252.863	140.19
253.096	136.19
253.329	146.19
253.562	145.19
253.795	135.19
254.028	152.19
254.261	138.19
254.494	153.19
254.727	169.19
254.96	181.19
255.193	169.19
255.426	145.19
255.659	135.19
255.892	154.19
256.124	158.19
256.357	151.19
256.59	147.19
256.823	135.19
257.056	137.19
257.289	136.19
257.521	131.19
257.754	134.19
257.987	122.19
258.22	143.19
258.452	128.19
258.685	155.19
258.918	136.19
259.151	125.19
259.383	136.19
259.616	149.19
259.849	133.19
260.081	155.19
260.314	170.19
260.547	153.19
260.779	168.19
261.012	139.19
261.244	143.19
261.477	143.19
261.71	153.19
261.942	139.19
262.175	156.19
262.407	144.19
262.64	146.19
262.872	143.19
263.105	145.19
263.337	151.19
263.57	140.19
263.802	137.19
264.035	137.19
264.267	134.19
264.499	143.19
264.732	138.19
264.964	145.19
265.197	124.19
265.429	131.19
265.661	137.19
265.894	115.19
266.126	156.19
266.358	139.19
266.591	147.19
266.823	142.19
267.055	135.19
267.287	150.19
267.52	137.19
267.752	131.19
267.984	127.19
268.216	136.19
268.448	150.19
268.681	141.19
268.913	165.19
269.145	165.19
269.377	180.19
269.609	160.19
269.841	162.19
270.073	170.19
270.306	157.19
270.538	185.19
270.77	185.19
271.002	177.19
271.234	159.19
271.466	189.19
271.698	211.19
271.93	193.19
272.162	198.19
272.394	184.19
272.626	181.19
272.858	179.19
273.09	161.19
273.322	153.19
273.553	154.19
273.785	149.19
274.017	151.19
274.249	181.19
274.481	163.19
274.713	157.19
274.945	159.19
275.176	153.19
275.408	170.19
275.64	164.19
275.872	158.19
276.104	169.19
276.335	165.19
276.567	169.19
276.799	174.19
277.031	187.19
277.262	191.19
277.494	182.19
277.726	172.19
277.957	163.19
278.189	170.19
278.421	167.19
278.652	155.19
278.884	149.19
279.115	148.19
279.347	165.19
279.579	154.19
279.81	171.19
280.042	156.19
280.273	166.19
280.505	169.19
280.736	156.19
280.968	169.19
281.199	144.19
281.431	159.19
281.662	164.19
281.894	153.19
282.125	172.19
282.356	173.19
282.588	181.19
282.819	177.19
283.051	143.19
283.282	164.19
283.513	172.19
283.745	171.19
283.976	161.19
284.207	174.19
284.439	161.19
284.67	174.19
284.901	183.19
285.132	161.19
285.364	161.19
285.595	174.19
285.826	152.19
286.057	179.19
286.288	162.19
286.52	172.19
286.751	174.19
286.982	157.19
287.213	166.19
287.444	167.19
287.675	172.19
287.906	191.19
288.138	192.19
288.369	185.19
288.6	178.19
288.831	167.19
289.062	169.19
289.293	170.19
289.524	161.19
289.755	165.19
289.986	163.19
290.217	179.19
290.448	175.19
290.679	161.19
290.91	181.19
291.141	158.19
291.371	162.19
291.602	179.19
291.833	169.19
292.064	176.19
292.295	182.19
292.526	169.19
292.757	157.19
292.987	168.19
293.218	165.19
293.449	180.19
293.68	179.19
293.91	160.19
294.141	167.19
294.372	178.19
294.603	167.19
294.833	170.19
295.064	173.19
295.295	170.19
295.525	165.19
295.756	183.19
295.987	184.19
296.217	186.19
296.448	191.19
296.679	189.19
296.909	168.19
297.14	173.19
297.37	162.19
297.601	167.19
297.831	167.19
298.062	170.19
298.292	185.19
298.523	174.19
298.753	191.19
298.984	178.19
299.214	175.19
299.445	170.19
299.675	175.19
299.905	180.19
300.136	187.19
300.366	173.19
300.597	173.19
300.827	185.19
301.057	202.19
301.288	186.19
301.518	179.19
301.748	180.19
301.979	196.19
302.209	188.19
302.439	187.19
302.669	178.19
302.9	183.19
303.13	202.19
303.36	183.19
303.59	196.19
303.82	177.19
304.051	195.19
304.281	193.19
304.511	194.19
304.741	204.19
304.971	189.19
305.201	189.19
305.431	191.19
305.661	187.19
305.891	190.19
306.121	188.19
306.352	192.19
306.582	196.19
306.812	197.19
307.042	190.19
307.272	189.19
307.502	179.19
307.731	190.19
307.961	199.19
308.191	193.19
308.421	186.19
308.651	194.19
308.881	192.19
309.111	211.19
309.341	200.19
309.571	189.19
309.8	206.19
310.03	202.19
310.26	206.19
310.49	209.19
310.72	220.19
310.949	218.19
311.179	211.19
311.409	220.19
311.639	189.19
311.868	206.19
312.098	218.19
312.328	230.19
312.557	225.19
312.787	235.19
313.017	237.19
313.246	216.19
313.476	219.19
313.706	219.19
313.935	206.19
314.165	219.19
314.394	222.19
314.624	214.19
314.853	209.19
315.083	216.19
315.312	222.19
315.542	211.19
315.771	204.19
316.001	203.19
316.23	216.19
316.46	194.19
316.689	204.19
316.919	211.19
317.148	223.19
317.377	232.19
317.607	203.19
317.836	212.19
318.065	209.19
318.295	203.19
318.524	201.19
318.753	195.19
318.983	186.19
319.212	212.19
319.441	201.19
319.67	205.19
319.9	206.19
320.129	197.19
320.358	209.19
320.587	214.19
320.816	197.19
321.046	212.19
321.275	210.19
321.504	216.19
321.733	230.19
321.962	229.19
322.191	219.19
322.42	221.19
322.649	251.19
322.878	239.19
323.108	257.19
323.337	270.19
323.566	273.19
323.795	301.19
324.024	315.19
324.253	373.19
324.482	553.19
324.71	809.19
324.939	1078.19
325.168	883.19
325.397	430.19
325.626	321.19
325.855	270.19
326.084	253.19
326.313	259.19
326.542	294.19
326.77	290.19
326.999	350.19
327.228	486.19
327.457	729.19
327.686	821.19
327.914	542.19
328.143	369.19
328.372	337.19
328.6	311.19
328.829	303.19
329.058	307.19
329.287	327.19
329.515	300.19
329.744	289.19
329.972	276.19
330.201	297.19
330.43	330.19
330.658	336.19
330.887	349.19
331.115	334.19
331.344	289.19
331.572	271.19
331.801	263.19
332.03	265.19
332.258	268.19
332.486	230.19
332.715	244.19
332.943	239.19
333.172	257.19
333.4	265.19
333.629	244.19
333.857	261.19
334.085	274.19
334.314	284.19
334.542	307.19
334.771	328.19
334.999	287.19
335.227	260.19
335.455	264.19
335.684	252.19
335.912	228.19
336.14	226.19
336.369	236.19
336.597	246.19
336.825	247.19
337.053	211.19
337.281	235.19
337.51	222.19
337.738	247.19
337.966	237.19
338.194	249.19
338.422	236.19
338.65	250.19
338.878	220.19
339.106	230.19
339.334	245.19
339.562	234.19
339.79	239.19
340.018	242.19
340.246	227.19
340.474	245.19
340.702	232.19
340.93	224.19
341.158	215.19
341.386	244.19
341.614	230.19
341.842	228.19
342.07	237.19
342.298	221.19
342.526	205.19
342.754	221.19
342.981	227.19
343.209	231.19
343.437	227.19
343.665	230.19
343.893	223.19
344.12	236.19
344.348	215.19
344.576	251.19
344.804	260.19
345.031	245.19
345.259	255.19
345.487	227.19
345.714	232.19
345.942	217.19
346.17	231.19
346.397	220.19
346.625	229.19
346.853	210.19
347.08	227.19
347.308	243.19
347.535	214.19
347.763	216.19
347.99	218.19
348.218	218.19
348.445	233.19
348.673	243.19
348.9	229.19
349.128	229.19
349.355	210.19
349.583	212.19
349.81	221.19
350.037	221.19
350.265	222.19
350.492	220.19
350.72	205.19
350.947	224.19
351.174	231.19
351.402	223.19
351.629	218.19
351.856	214.19
352.083	226.19
352.311	236.19
352.538	219.19
352.765	234.19
352.992	215.19
353.22	226.19
353.447	225.19
353.674	236.19
353.901	219.19
354.128	216.19
354.355	205.19
354.583	217.19
354.81	207.19
355.037	210.19
355.264	207.19
355.491	198.19
355.718	198.19
355.945	205.19
356.172	222.19
356.399	204.19
356.626	187.19
356.853	191.19
357.08	200.19
357.307	218.19
357.534	217.19
357.761	197.19
357.988	215.19
358.215	214.19
358.441	216.19
358.668	214.19
358.895	225.19
359.122	185.19
359.349	211.19
359.576	236.19
359.802	238.19
360.029	253.19
360.256	267.19
360.483	260.19
360.709	226.19
360.936	230.19
361.163	207.19
361.39	215.19
361.616	237.19
361.843	230.19
362.07	222.19
362.296	222.19
362.523	227.19
362.749	239.19
362.976	207.19
363.203	230.19
363.429	214.19
363.656	201.19
363.882	207.19
364.109	210.19
364.335	219.19
364.562	218.19
364.788	203.19
365.015	202.19
365.241	202.19
365.468	213.19
365.694	217.19
365.92	223.19
366.147	215.19
366.373	205.19
366.599	207.19
366.826	210.19
367.052	204.19
367.278	227.19
367.505	212.19
367.731	213.19
367.957	202.19
368.184	205.19
368.41	220.19
368.636	236.19
368.862	226.19
369.089	224.19
369.315	212.19
369.541	227.19
369.767	215.19
369.993	206.19
370.219	215.19
370.445	210.19
370.672	208.19
370.898	206.19
371.124	227.19
371.35	194.19
371.576	209.19
371.802	209.19
372.028	215.19
372.254	199.19
372.48	206.19
372.706	211.19
372.932	195.19
373.158	202.19
373.384	206.19
373.61	208.19
373.835	193.19
374.061	215.19
374.287	229.19
374.513	220.19
374.739	213.19
374.965	210.19
375.191	221.19
375.416	191.19
375.642	213.19
375.868	217.19
376.094	216.19
376.319	214.19
376.545	213.19
376.771	196.19
376.997	213.19
377.222	196.19
377.448	194.19
377.674	226.19
377.899	214.19
378.125	198.19
378.35	207.19
378.576	207.19
378.802	202.19
379.027	220.19
379.253	222.19
379.478	214.19
379.704	205.19
379.929	214.19
380.155	218.19
380.38	213.19
380.606	212.19
380.831	213.19
381.057	218.19
381.282	211.19
381.507	210.19
381.733	207.19
381.958	203.19
382.184	205.19
382.409	218.19
382.634	213.19
382.86	200.19
383.085	213.19
383.31	210.19
383.535	213.19
383.761	215.19
383.986	219.19
384.211	215.19
384.436	211.19
384.662	221.19
384.887	231.19
385.112	218.19
385.337	199.19
385.562	214.19
385.787	205.19
386.013	237.19
386.238	231.19
386.463	227.19
386.688	221.19
386.913	229.19
387.138	222.19
387.363	236.19
387.588	226.19
387.813	220.19
388.038	220.19
388.263	227.19
388.488	228.19
388.713	232.19
388.938	218.19
389.163	229.19
389.387	229.19
389.612	227.19
389.837	197.19
390.062	229.19
390.287	218.19
390.512	205.19
390.736	228.19
390.961	212.19
391.186	216.19
391.411	215.19
391.636	231.19
391.86	227.19
392.085	237.19
392.31	234.19
392.534	225.19
392.759	238.19
392.984	243.19
393.208	217.19
393.433	247.19
393.658	239.19
393.882	209.19
394.107	227.19
394.331	212.19
394.556	200.19
394.78	210.19
395.005	224.19
395.229	216.19
395.454	239.19
395.678	235.19
395.903	226.19
396.127	246.19
396.352	233.19
396.576	221.19
396.801	236.19
397.025	220.19
397.249	234.19
397.474	213.19
397.698	225.19
397.922	238.19
398.147	244.19
398.371	237.19
398.595	235.19
398.82	232.19
399.044	251.19
399.268	281.19
399.492	265.19
399.717	285.19
399.941	286.19
400.165	311.19
400.389	289.19
400.613	279.19
400.837	268.19
401.062	265.19
401.286	266.19
401.51	263.19
401.734	252.19
401.958	257.19
402.182	243.19
402.406	251.19
402.63	276.19
402.854	276.19
403.078	263.19
403.302	262.19
403.526	260.19
403.75	268.19
403.974	260.19
404.198	261.19
404.422	280.19
404.645	281.19
404.869	292.19
405.093	281.19
405.317	310.19
405.541	322.19
405.765	293.19
405.988	278.19
406.212	293.19
406.436	292.19
406.66	297.19
406.883	292.19
407.107	303.19
407.331	287.19
407.555	325.19
407.778	339.19
408.002	300.19
408.226	291.19
408.449	289.19
408.673	283.19
408.896	276.19
409.12	287.19
409.344	315.19
409.567	269.19
409.791	281.19
410.014	266.19
410.238	265.19
410.461	238.19
410.685	281.19
410.908	254.19
411.132	295.19
411.355	309.19
411.578	300.19
411.802	256.19
412.025	256.19
412.249	263.19
412.472	274.19
412.695	301.19
412.919	277.19
413.142	249.19
413.365	258.19
413.589	252.19
413.812	259.19
414.035	261.19
414.258	265.19
414.482	260.19
414.705	262.19
414.928	238.19
415.151	251.19
415.374	242.19
415.597	251.19
415.821	243.19
416.044	254.19
416.267	265.19
416.49	255.19
416.713	247.19
416.936	248.19
417.159	243.19
417.382	257.19
417.605	245.19
417.828	258.19
418.051	263.19
418.274	268.19
418.497	248.19
418.72	245.19
418.943	236.19
419.166	264.19
419.389	269.19
419.611	247.19
419.834	259.19
420.057	284.19
420.28	279.19
420.503	254.19
420.726	264.19
420.948	251.19
421.171	263.19
421.394	299.19
421.617	273.19
421.839	267.19
422.062	266.19
422.285	263.19
422.507	302.19
422.73	335.19
422.953	317.19
423.175	262.19
423.398	267.19
423.621	274.19
423.843	275.19
424.066	268.19
424.288	285.19
424.511	283.19
424.733	317.19
424.956	348.19
425.178	311.19
425.401	322.19
425.623	325.19
425.846	283.19
426.068	260.19
426.291	262.19
426.513	265.19
426.735	275.19
426.958	311.19
427.18	346.19
427.402	385.19
427.625	415.19
427.847	369.19
428.069	332.19
428.292	268.19
428.514	264.19
428.736	256.19
428.958	246.19
429.181	259.19
429.403	253.19
429.625	250.19
429.847	283.19
430.069	302.19
430.292	287.19
430.514	272.19
430.736	250.19
430.958	253.19
431.18	246.19
431.402	235.19
431.624	235.19
431.846	229.19
432.068	244.19
432.29	247.19
432.512	248.19
432.734	238.19
432.956	243.19
433.178	264.19
433.4	267.19
433.622	250.19
433.844	250.19
434.066	247.19
434.287	238.19
434.509	245.19
434.731	256.19
434.953	267.19
435.175	265.19
435.397	268.19
435.618	276.19
435.84	300.19
436.062	346.19
436.284	367.19
436.505	284.19
436.727	271.19
436.949	251.19
437.17	259.19
437.392	246.19
437.614	281.19
437.835	281.19
438.057	334.19
438.278	381.19
438.5	355.19
438.721	389.19
438.943	386.19
439.165	310.19
439.386	275.19
439.608	267.19
439.829	279.19
440.05	303.19
440.272	312.19
440.493	301.19
440.715	294.19
440.936	260.19
441.158	274.19
441.379	257.19
441.6	272.19
441.822	283.19
442.043	283.19
442.264	336.19
442.486	358.19
442.707	294.19
442.928	280.19
443.149	279.19
443.371	297.19
443.592	323.19
443.813	352.19
444.034	376.19
444.255	312.19
444.476	291.19
444.698	275.19
444.919	282.19
445.14	371.19
445.361	323.19
445.582	284.19
445.803	326.19
446.024	373.19
446.245	352.19
446.466	326.19
446.687	290.19
446.908	261.19
447.129	272.19
447.35	268.19
447.571	256.19
447.792	264.19
448.013	266.19
448.234	265.19
448.455	316.19
448.675	333.19
448.896	381.19
449.117	328.19
449.338	321.19
449.559	344.19
449.779	396.19
450	302.19
450.221	270.19
450.442	248.19
450.662	252.19
450.883	271.19
451.104	272.19
451.324	271.19
451.545	257.19
451.766	234.19
451.986	222.19
452.207	209.19
452.428	231.19
452.648	231.19
452.869	238.19
453.089	252.19
453.31	249.19
453.53	228.19
453.751	236.19
453.971	236.19
454.192	248.19
454.412	250.19
454.633	230.19
454.853	230.19
455.073	226.19
455.294	258.19
455.514	297.19
455.734	272.19
455.955	231.19
456.175	236.19
456.395	230.19
456.616	221.19
456.836	218.19
457.056	225.19
457.276	232.19
457.497	232.19
457.717	231.19
457.937	223.19
458.157	228.19
458.377	220.19
458.598	260.19
458.818	297.19
459.038	340.19
459.258	287.19
459.478	278.19
459.698	250.19
459.918	226.19
460.138	244.19
460.358	249.19
460.578	246.19
460.798	226.19
461.018	255.19
461.238	241.19
461.458	256.19
461.678	238.19
461.898	238.19
462.118	249.19
462.338	269.19
462.558	268.19
462.777	251.19
462.997	258.19
463.217	276.19
463.437	276.19
463.657	249.19
463.876	259.19
464.096	263.19
464.316	265.19
464.536	274.19
464.755	279.19
464.975	276.19
465.195	334.19
465.414	363.19
465.634	292.19
465.854	252.19
466.073	251.19
466.293	249.19
466.512	245.19
466.732	238.19
466.951	241.19
467.171	221.19
467.391	223.19
467.61	246.19
467.829	251.19
468.049	239.19
468.268	239.19
468.488	243.19
468.707	230.19
468.927	240.19
469.146	221.19
469.365	241.19
469.585	242.19
469.804	235.19
470.023	253.19
470.243	246.19
470.462	273.19
470.681	284.19
470.901	265.19
471.12	248.19
471.339	249.19
471.558	246.19
471.777	235.19
471.997	232.19
472.216	263.19
472.435	305.19
472.654	297.19
472.873	246.19
473.092	255.19
473.311	256.19
473.53	245.19
473.749	250.19
473.968	285.19
474.187	337.19
474.406	326.19
474.625	269.19
474.844	253.19
475.063	242.19
475.282	230.19
475.501	249.19
475.72	239.19
475.939	230.19
476.158	247.19
476.377	249.19
476.596	249.19
476.814	246.19
477.033	270.19
477.252	249.19
477.471	254.19
477.69	263.19
477.908	282.19
478.127	264.19
478.346	253.19
478.564	244.19
478.783	295.19
479.002	269.19
479.22	281.19
479.439	296.19
479.658	304.19
479.876	298.19
480.095	295.19
480.313	299.19
480.532	291.19
480.751	310.19
480.969	317.19
481.188	369.19
481.406	410.19
481.624	313.19
481.843	293.19
482.061	286.19
482.28	284.19
482.498	288.19
482.717	282.19
482.935	267.19
483.153	271.19
483.372	286.19
483.59	287.19
483.808	279.19
484.027	274.19
484.245	265.19
484.463	292.19
484.681	285.19
484.9	280.19
485.118	288.19
485.336	268.19
485.554	289.19
485.772	287.19
485.99	295.19
486.209	301.19
486.427	294.19
486.645	298.19
486.863	293.19
487.081	309.19
487.299	298.19
487.517	291.19
487.735	302.19
487.953	304.19
488.171	308.19
488.389	304.19
488.607	303.19
488.825	300.19
489.043	294.19
489.261	306.19
489.479	290.19
489.696	317.19
489.914	305.19
490.132	313.19
490.35	321.19
490.568	323.19
490.786	313.19
491.003	314.19
491.221	335.19
491.439	349.19
491.657	360.19
491.874	350.19
492.092	338.19
492.31	358.19
492.527	342.19
492.745	376.19
492.963	341.19
493.18	335.19
493.398	357.19
493.615	356.19
493.833	356.19
494.05	367.19
494.268	346.19
494.485	345.19
494.703	347.19
494.92	358.19
495.138	342.19
495.355	347.19
495.573	349.19
495.79	358.19
496.008	344.19
496.225	344.19
496.442	350.19
496.66	346.19
496.877	359.19
497.094	353.19
497.312	371.19
497.529	350.19
497.746	379.19
497.963	373.19
498.181	384.19
498.398	388.19
498.615	375.19
498.832	387.19
499.049	395.19
499.267	388.19
499.484	410.19
499.701	423.19
499.918	421.19
500.135	438.19
500.352	466.19
500.569	454.19
500.786	457.19
501.003	463.19
501.22	452.19
501.437	449.19
501.654	425.19
501.871	444.19
502.088	408.19
502.305	385.19
502.522	384.19
