Data from 1966.PennyLincolnUp.Lamp.En5.5.200Scan.071719.P1.Scan2.head_HRD10591_14-18-50-219.txt Node
Date: Thu Jul 18 14:18:50 EDT 2019
User: cochatt
Spectrometer: HR+D1059
Trigger mode: 1
Integration Time (sec): 1.000000E-1
Scans to average: 1
Electric dark correction enabled: true
Nonlinearity correction enabled: false
Boxcar width: 0
XAxis mode: Wavelengths
Number of Pixels in Spectrum: 2048
>>>>>Begin Spectral Data<<<<<
223.165	-25.12
223.4	-25.12
223.635	-25.12
223.869	-18.12
224.104	-13.12
224.338	-11.12
224.573	-9.12
224.808	-22.12
225.042	-10.12
225.277	-3.12
225.511	1.88
225.746	7.88
225.98	12.88
226.215	12.88
226.449	23.88
226.683	8.88
226.918	17.88
227.152	25.88
227.387	29.88
227.621	42.88
227.856	30.88
228.09	52.88
228.324	44.88
228.559	56.88
228.793	70.88
229.027	118.88
229.262	107.88
229.496	119.88
229.73	137.88
229.964	153.88
230.199	127.88
230.433	108.88
230.667	127.88
230.901	119.88
231.136	109.88
231.37	123.88
231.604	103.88
231.838	108.88
232.072	127.88
232.306	119.88
232.541	94.88
232.775	116.88
233.009	124.88
233.243	127.88
233.477	125.88
233.711	109.88
233.945	119.88
234.179	131.88
234.413	116.88
234.647	121.88
234.881	128.88
235.115	106.88
235.349	135.88
235.583	141.88
235.817	119.88
236.051	131.88
236.285	142.88
236.519	127.88
236.753	129.88
236.987	148.88
237.221	183.88
237.455	254.88
237.689	199.88
237.922	149.88
238.156	147.88
238.39	124.88
238.624	129.88
238.858	140.88
239.091	133.88
239.325	117.88
239.559	132.88
239.793	135.88
240.027	144.88
240.26	150.88
240.494	144.88
240.728	165.88
240.961	153.88
241.195	145.88
241.429	137.88
241.662	127.88
241.896	117.88
242.13	141.88
242.363	144.88
242.597	141.88
242.83	151.88
243.064	150.88
243.298	143.88
243.531	151.88
243.765	138.88
243.998	141.88
244.232	131.88
244.465	142.88
244.699	135.88
244.932	156.88
245.166	176.88
245.399	149.88
245.633	151.88
245.866	153.88
246.099	141.88
246.333	152.88
246.566	144.88
246.8	150.88
247.033	161.88
247.266	161.88
247.5	159.88
247.733	185.88
247.966	159.88
248.2	181.88
248.433	183.88
248.666	189.88
248.899	179.88
249.133	201.88
249.366	232.88
249.599	193.88
249.832	199.88
250.066	190.88
250.299	185.88
250.532	196.88
250.765	224.88
250.998	227.88
251.231	239.88
251.465	221.88
251.698	217.88
251.931	199.88
252.164	194.88
252.397	222.88
252.63	208.88
252.863	222.88
253.096	238.88
253.329	234.88
253.562	239.88
253.795	237.88
254.028	228.88
254.261	229.88
254.494	235.88
254.727	257.88
254.96	297.88
255.193	279.88
255.426	266.88
255.659	246.88
255.892	247.88
256.124	257.88
256.357	260.88
256.59	255.88
256.823	230.88
257.056	235.88
257.289	220.88
257.521	215.88
257.754	215.88
257.987	212.88
258.22	208.88
258.452	205.88
258.685	221.88
258.918	222.88
259.151	231.88
259.383	221.88
259.616	230.88
259.849	202.88
260.081	268.88
260.314	267.88
260.547	248.88
260.779	266.88
261.012	241.88
261.244	231.88
261.477	245.88
261.71	238.88
261.942	230.88
262.175	239.88
262.407	233.88
262.64	237.88
262.872	219.88
263.105	204.88
263.337	214.88
263.57	232.88
263.802	232.88
264.035	216.88
264.267	238.88
264.499	224.88
264.732	229.88
264.964	236.88
265.197	206.88
265.429	215.88
265.661	217.88
265.894	224.88
266.126	229.88
266.358	231.88
266.591	237.88
266.823	228.88
267.055	244.88
267.287	232.88
267.52	232.88
267.752	238.88
267.984	228.88
268.216	245.88
268.448	234.88
268.681	248.88
268.913	277.88
269.145	285.88
269.377	274.88
269.609	280.88
269.841	266.88
270.073	266.88
270.306	292.88
270.538	321.88
270.77	314.88
271.002	314.88
271.234	293.88
271.466	315.88
271.698	317.88
271.93	325.88
272.162	335.88
272.394	336.88
272.626	331.88
272.858	300.88
273.09	277.88
273.322	273.88
273.553	283.88
273.785	286.88
274.017	295.88
274.249	272.88
274.481	265.88
274.713	262.88
274.945	279.88
275.176	274.88
275.408	309.88
275.64	281.88
275.872	279.88
276.104	279.88
276.335	281.88
276.567	270.88
276.799	300.88
277.031	316.88
277.262	334.88
277.494	355.88
277.726	301.88
277.957	302.88
278.189	292.88
278.421	266.88
278.652	269.88
278.884	288.88
279.115	279.88
279.347	285.88
279.579	290.88
279.81	281.88
280.042	271.88
280.273	286.88
280.505	269.88
280.736	289.88
280.968	267.88
281.199	276.88
281.431	271.88
281.662	279.88
281.894	277.88
282.125	291.88
282.356	309.88
282.588	332.88
282.819	329.88
283.051	293.88
283.282	294.88
283.513	301.88
283.745	305.88
283.976	293.88
284.207	309.88
284.439	293.88
284.67	277.88
284.901	290.88
285.132	291.88
285.364	284.88
285.595	289.88
285.826	277.88
286.057	302.88
286.288	292.88
286.52	291.88
286.751	292.88
286.982	308.88
287.213	304.88
287.444	296.88
287.675	290.88
287.906	321.88
288.138	307.88
288.369	332.88
288.6	318.88
288.831	310.88
289.062	311.88
289.293	311.88
289.524	323.88
289.755	307.88
289.986	299.88
290.217	324.88
290.448	304.88
290.679	314.88
290.91	319.88
291.141	313.88
291.371	301.88
291.602	303.88
291.833	328.88
292.064	304.88
292.295	325.88
292.526	283.88
292.757	316.88
292.987	311.88
293.218	307.88
293.449	300.88
293.68	311.88
293.91	295.88
294.141	290.88
294.372	309.88
294.603	296.88
294.833	313.88
295.064	270.88
295.295	318.88
295.525	303.88
295.756	315.88
295.987	343.88
296.217	327.88
296.448	358.88
296.679	319.88
296.909	318.88
297.14	294.88
297.37	318.88
297.601	327.88
297.831	325.88
298.062	323.88
298.292	308.88
298.523	320.88
298.753	339.88
298.984	336.88
299.214	320.88
299.445	319.88
299.675	330.88
299.905	340.88
300.136	339.88
300.366	342.88
300.597	321.88
300.827	343.88
301.057	334.88
301.288	350.88
301.518	354.88
301.748	348.88
301.979	348.88
302.209	338.88
302.439	363.88
302.669	352.88
302.9	350.88
303.13	341.88
303.36	335.88
303.59	343.88
303.82	343.88
304.051	358.88
304.281	342.88
304.511	357.88
304.741	361.88
304.971	348.88
305.201	360.88
305.431	350.88
305.661	351.88
305.891	355.88
306.121	351.88
306.352	351.88
306.582	349.88
306.812	361.88
307.042	356.88
307.272	343.88
307.502	351.88
307.731	384.88
307.961	351.88
308.191	334.88
308.421	335.88
308.651	344.88
308.881	375.88
309.111	369.88
309.341	379.88
309.571	379.88
309.8	368.88
310.03	404.88
310.26	383.88
310.49	382.88
310.72	392.88
310.949	407.88
311.179	409.88
311.409	398.88
311.639	401.88
311.868	396.88
312.098	410.88
312.328	409.88
312.557	429.88
312.787	418.88
313.017	416.88
313.246	396.88
313.476	394.88
313.706	423.88
313.935	391.88
314.165	419.88
314.394	415.88
314.624	410.88
314.853	416.88
315.083	397.88
315.312	400.88
315.542	413.88
315.771	414.88
316.001	387.88
316.23	395.88
316.46	382.88
316.689	401.88
316.919	415.88
317.148	411.88
317.377	422.88
317.607	408.88
317.836	397.88
318.065	426.88
318.295	406.88
318.524	411.88
318.753	389.88
318.983	415.88
319.212	386.88
319.441	391.88
319.67	427.88
319.9	379.88
320.129	385.88
320.358	399.88
320.587	407.88
320.816	403.88
321.046	409.88
321.275	425.88
321.504	410.88
321.733	409.88
321.962	417.88
322.191	426.88
322.42	453.88
322.649	458.88
322.878	475.88
323.108	469.88
323.337	504.88
323.566	513.88
323.795	535.88
324.024	611.88
324.253	695.88
324.482	993.88
324.71	1583.88
324.939	2359.88
325.168	2080.88
325.397	1020.88
325.626	674.88
325.855	594.88
326.084	529.88
326.313	515.88
326.542	512.88
326.77	557.88
326.999	658.88
327.228	929.88
327.457	1433.88
327.686	1802.88
327.914	1146.88
328.143	730.88
328.372	658.88
328.6	619.88
328.829	601.88
329.058	587.88
329.287	582.88
329.515	577.88
329.744	550.88
329.972	535.88
330.201	566.88
330.43	642.88
330.658	647.88
330.887	626.88
331.115	631.88
331.344	550.88
331.572	506.88
331.801	524.88
332.03	524.88
332.258	523.88
332.486	494.88
332.715	497.88
332.943	486.88
333.172	485.88
333.4	492.88
333.629	512.88
333.857	527.88
334.085	543.88
334.314	520.88
334.542	591.88
334.771	600.88
334.999	525.88
335.227	521.88
335.455	500.88
335.684	494.88
335.912	504.88
336.14	479.88
336.369	461.88
336.597	493.88
336.825	478.88
337.053	493.88
337.281	463.88
337.51	483.88
337.738	484.88
337.966	459.88
338.194	478.88
338.422	475.88
338.65	467.88
338.878	455.88
339.106	443.88
339.334	464.88
339.562	452.88
339.79	461.88
340.018	451.88
340.246	478.88
340.474	460.88
340.702	468.88
340.93	463.88
341.158	469.88
341.386	477.88
341.614	466.88
341.842	450.88
342.07	453.88
342.298	460.88
342.526	469.88
342.754	458.88
342.981	449.88
343.209	451.88
343.437	456.88
343.665	445.88
343.893	484.88
344.12	472.88
344.348	473.88
344.576	450.88
344.804	485.88
345.031	485.88
345.259	497.88
345.487	493.88
345.714	486.88
345.942	446.88
346.17	456.88
346.397	460.88
346.625	452.88
346.853	458.88
347.08	456.88
347.308	447.88
347.535	445.88
347.763	453.88
347.99	455.88
348.218	479.88
348.445	463.88
348.673	479.88
348.9	455.88
349.128	449.88
349.355	433.88
349.583	446.88
349.81	443.88
350.037	458.88
350.265	429.88
350.492	429.88
350.72	426.88
350.947	447.88
351.174	469.88
351.402	474.88
351.629	429.88
351.856	471.88
352.083	483.88
352.311	474.88
352.538	472.88
352.765	459.88
352.992	464.88
353.22	451.88
353.447	462.88
353.674	442.88
353.901	455.88
354.128	441.88
354.355	426.88
354.583	432.88
354.81	425.88
355.037	444.88
355.264	425.88
355.491	419.88
355.718	409.88
355.945	414.88
356.172	421.88
356.399	424.88
356.626	421.88
356.853	443.88
357.08	411.88
357.307	448.88
357.534	423.88
357.761	431.88
357.988	462.88
358.215	431.88
358.441	418.88
358.668	429.88
358.895	412.88
359.122	457.88
359.349	427.88
359.576	470.88
359.802	462.88
360.029	502.88
360.256	508.88
360.483	496.88
360.709	463.88
360.936	458.88
361.163	463.88
361.39	438.88
361.616	452.88
361.843	446.88
362.07	462.88
362.296	474.88
362.523	461.88
362.749	452.88
362.976	432.88
363.203	459.88
363.429	443.88
363.656	443.88
363.882	455.88
364.109	455.88
364.335	462.88
364.562	439.88
364.788	439.88
365.015	439.88
365.241	436.88
365.468	451.88
365.694	459.88
365.92	441.88
366.147	438.88
366.373	446.88
366.599	448.88
366.826	438.88
367.052	423.88
367.278	427.88
367.505	451.88
367.731	443.88
367.957	464.88
368.184	442.88
368.41	439.88
368.636	471.88
368.862	455.88
369.089	438.88
369.315	443.88
369.541	437.88
369.767	441.88
369.993	458.88
370.219	459.88
370.445	441.88
370.672	447.88
370.898	422.88
371.124	436.88
371.35	453.88
371.576	423.88
371.802	452.88
372.028	443.88
372.254	436.88
372.48	449.88
372.706	460.88
372.932	448.88
373.158	460.88
373.384	461.88
373.61	454.88
373.835	429.88
374.061	467.88
374.287	450.88
374.513	461.88
374.739	444.88
374.965	483.88
375.191	468.88
375.416	475.88
375.642	468.88
375.868	452.88
376.094	435.88
376.319	441.88
376.545	435.88
376.771	443.88
376.997	435.88
377.222	461.88
377.448	457.88
377.674	468.88
377.899	437.88
378.125	427.88
378.35	445.88
378.576	445.88
378.802	461.88
379.027	436.88
379.253	443.88
379.478	446.88
379.704	451.88
379.929	446.88
380.155	450.88
380.38	437.88
380.606	448.88
380.831	450.88
381.057	461.88
381.282	457.88
381.507	441.88
381.733	439.88
381.958	444.88
382.184	452.88
382.409	478.88
382.634	495.88
382.86	455.88
383.085	474.88
383.31	480.88
383.535	495.88
383.761	465.88
383.986	486.88
384.211	481.88
384.436	496.88
384.662	485.88
384.887	476.88
385.112	474.88
385.337	524.88
385.562	487.88
385.787	503.88
386.013	513.88
386.238	495.88
386.463	506.88
386.688	504.88
386.913	480.88
387.138	489.88
387.363	509.88
387.588	481.88
387.813	503.88
388.038	513.88
388.263	503.88
388.488	491.88
388.713	487.88
388.938	494.88
389.163	506.88
389.387	520.88
389.612	511.88
389.837	506.88
390.062	476.88
390.287	502.88
390.512	486.88
390.736	495.88
390.961	495.88
391.186	496.88
391.411	501.88
391.636	497.88
391.86	511.88
392.085	525.88
392.31	520.88
392.534	517.88
392.759	519.88
392.984	488.88
393.208	509.88
393.433	506.88
393.658	537.88
393.882	493.88
394.107	521.88
394.331	519.88
394.556	512.88
394.78	527.88
395.005	534.88
395.229	485.88
395.454	521.88
395.678	526.88
395.903	545.88
396.127	551.88
396.352	567.88
396.576	527.88
396.801	540.88
397.025	549.88
397.249	537.88
397.474	524.88
397.698	547.88
397.922	560.88
398.147	566.88
398.371	588.88
398.595	586.88
398.82	579.88
399.044	581.88
399.268	615.88
399.492	645.88
399.717	688.88
399.941	726.88
400.165	721.88
400.389	704.88
400.613	663.88
400.837	627.88
401.062	615.88
401.286	599.88
401.51	565.88
401.734	574.88
401.958	568.88
402.182	597.88
402.406	603.88
402.63	586.88
402.854	601.88
403.078	602.88
403.302	598.88
403.526	619.88
403.75	602.88
403.974	604.88
404.198	607.88
404.422	593.88
404.645	620.88
404.869	632.88
405.093	646.88
405.317	691.88
405.541	740.88
405.765	688.88
405.988	653.88
406.212	640.88
406.436	663.88
406.66	674.88
406.883	671.88
407.107	711.88
407.331	731.88
407.555	801.88
407.778	803.88
408.002	752.88
408.226	681.88
408.449	672.88
408.673	679.88
408.896	706.88
409.12	770.88
409.344	707.88
409.567	637.88
409.791	642.88
410.014	631.88
410.238	609.88
410.461	599.88
410.685	604.88
410.908	623.88
411.132	681.88
411.355	697.88
411.578	686.88
411.802	629.88
412.025	617.88
412.249	639.88
412.472	645.88
412.695	705.88
412.919	686.88
413.142	634.88
413.365	623.88
413.589	605.88
413.812	597.88
414.035	587.88
414.258	595.88
414.482	566.88
414.705	593.88
414.928	594.88
415.151	581.88
415.374	587.88
415.597	602.88
415.821	573.88
416.044	575.88
416.267	591.88
416.49	578.88
416.713	564.88
416.936	573.88
417.159	563.88
417.382	565.88
417.605	567.88
417.828	578.88
418.051	603.88
418.274	594.88
418.497	605.88
418.72	588.88
418.943	585.88
419.166	624.88
419.389	613.88
419.611	617.88
419.834	629.88
420.057	619.88
420.28	609.88
420.503	615.88
420.726	606.88
420.948	603.88
421.171	683.88
421.394	689.88
421.617	633.88
421.839	600.88
422.062	593.88
422.285	615.88
422.507	689.88
422.73	776.88
422.953	760.88
423.175	675.88
423.398	639.88
423.621	639.88
423.843	650.88
424.066	658.88
424.288	638.88
424.511	705.88
424.733	732.88
424.956	816.88
425.178	790.88
425.401	802.88
425.623	827.88
425.846	701.88
426.068	652.88
426.291	653.88
426.513	636.88
426.735	681.88
426.958	691.88
427.18	795.88
427.402	970.88
427.625	1019.88
427.847	923.88
428.069	792.88
428.292	701.88
428.514	647.88
428.736	615.88
428.958	600.88
429.181	583.88
429.403	593.88
429.625	622.88
429.847	647.88
430.069	734.88
430.292	702.88
430.514	632.88
430.736	606.88
430.958	597.88
431.18	586.88
431.402	564.88
431.624	551.88
431.846	565.88
432.068	549.88
432.29	569.88
432.512	557.88
432.734	592.88
432.956	569.88
433.178	595.88
433.4	594.88
433.622	591.88
433.844	577.88
434.066	574.88
434.287	572.88
434.509	565.88
434.731	570.88
434.953	633.88
435.175	629.88
435.397	659.88
435.618	651.88
435.84	696.88
436.062	830.88
436.284	881.88
436.505	745.88
436.727	665.88
436.949	640.88
437.17	631.88
437.392	609.88
437.614	605.88
437.835	656.88
438.057	791.88
438.278	873.88
438.5	892.88
438.721	978.88
438.943	944.88
439.165	716.88
439.386	666.88
439.608	676.88
439.829	663.88
440.05	677.88
440.272	766.88
440.493	714.88
440.715	653.88
440.936	632.88
441.158	624.88
441.379	606.88
441.6	646.88
441.822	620.88
442.043	697.88
442.264	797.88
442.486	829.88
442.707	745.88
442.928	679.88
443.149	678.88
443.371	711.88
443.592	719.88
443.813	849.88
444.034	931.88
444.255	764.88
444.476	699.88
444.698	668.88
444.919	661.88
445.14	800.88
445.361	713.88
445.582	717.88
445.803	784.88
446.024	892.88
446.245	899.88
446.466	830.88
446.687	706.88
446.908	649.88
447.129	599.88
447.35	591.88
447.571	588.88
447.792	593.88
448.013	607.88
448.234	629.88
448.455	657.88
448.675	800.88
448.896	921.88
449.117	766.88
449.338	745.88
449.559	815.88
449.779	983.88
450	783.88
450.221	631.88
450.442	631.88
450.662	575.88
450.883	591.88
451.104	603.88
451.324	584.88
451.545	573.88
451.766	567.88
451.986	549.88
452.207	543.88
452.428	543.88
452.648	540.88
452.869	540.88
453.089	560.88
453.31	549.88
453.53	538.88
453.751	542.88
453.971	557.88
454.192	565.88
454.412	551.88
454.633	547.88
454.853	529.88
455.073	537.88
455.294	576.88
455.514	629.88
455.734	622.88
455.955	521.88
456.175	531.88
456.395	521.88
456.616	527.88
456.836	519.88
457.056	503.88
457.276	488.88
457.497	527.88
457.717	515.88
457.937	521.88
458.157	516.88
458.377	533.88
458.598	551.88
458.818	601.88
459.038	713.88
459.258	726.88
459.478	621.88
459.698	575.88
459.918	571.88
460.138	564.88
460.358	583.88
460.578	609.88
460.798	585.88
461.018	588.88
461.238	577.88
461.458	595.88
461.678	579.88
461.898	584.88
462.118	596.88
462.338	601.88
462.558	599.88
462.777	623.88
462.997	636.88
463.217	655.88
463.437	657.88
463.657	633.88
463.876	633.88
464.096	623.88
464.316	616.88
464.536	622.88
464.755	658.88
464.975	641.88
465.195	681.88
465.414	735.88
465.634	655.88
465.854	615.88
466.073	578.88
466.293	571.88
466.512	563.88
466.732	575.88
466.951	568.88
467.171	529.88
467.391	551.88
467.61	575.88
467.829	565.88
468.049	594.88
468.268	557.88
468.488	544.88
468.707	555.88
468.927	547.88
469.146	507.88
469.365	527.88
469.585	530.88
469.804	531.88
470.023	575.88
470.243	559.88
470.462	572.88
470.681	587.88
470.901	567.88
471.12	575.88
471.339	573.88
471.558	587.88
471.777	579.88
471.997	570.88
472.216	550.88
472.435	610.88
472.654	579.88
472.873	569.88
473.092	561.88
473.311	557.88
473.53	578.88
473.749	583.88
473.968	623.88
474.187	742.88
474.406	733.88
474.625	601.88
474.844	593.88
475.063	568.88
475.282	539.88
475.501	572.88
475.72	573.88
475.939	568.88
476.158	563.88
476.377	589.88
476.596	595.88
476.814	590.88
477.033	601.88
477.252	605.88
477.471	623.88
477.69	601.88
477.908	616.88
478.127	614.88
478.346	608.88
478.564	649.88
478.783	621.88
479.002	629.88
479.22	673.88
479.439	664.88
479.658	683.88
479.876	677.88
480.095	692.88
480.313	711.88
480.532	705.88
480.751	697.88
480.969	702.88
481.188	767.88
481.406	821.88
481.624	724.88
481.843	704.88
482.061	683.88
482.28	685.88
482.498	664.88
482.717	695.88
482.935	675.88
483.153	670.88
483.372	635.88
483.59	673.88
483.808	670.88
484.027	652.88
484.245	673.88
484.463	657.88
484.681	677.88
484.9	677.88
485.118	689.88
485.336	671.88
485.554	679.88
485.772	669.88
485.99	685.88
486.209	673.88
486.427	684.88
486.645	685.88
486.863	734.88
487.081	735.88
487.299	694.88
487.517	717.88
487.735	695.88
487.953	702.88
488.171	708.88
488.389	705.88
488.607	723.88
488.825	704.88
489.043	695.88
489.261	702.88
489.479	727.88
489.696	726.88
489.914	698.88
490.132	749.88
490.35	745.88
490.568	745.88
490.786	772.88
491.003	782.88
491.221	751.88
491.439	820.88
491.657	796.88
491.874	807.88
492.092	819.88
492.31	827.88
492.527	810.88
492.745	832.88
492.963	805.88
493.18	814.88
493.398	876.88
493.615	853.88
493.833	832.88
494.05	837.88
494.268	835.88
494.485	851.88
494.703	865.88
494.92	821.88
495.138	853.88
495.355	827.88
495.573	831.88
495.79	840.88
496.008	853.88
496.225	872.88
496.442	852.88
496.66	819.88
496.877	856.88
497.094	847.88
497.312	839.88
497.529	852.88
497.746	899.88
497.963	876.88
498.181	935.88
498.398	928.88
498.615	941.88
498.832	979.88
499.049	974.88
499.267	992.88
499.484	1032.88
499.701	1071.88
499.918	1098.88
500.135	1138.88
500.352	1221.88
500.569	1231.88
500.786	1237.88
501.003	1229.88
501.22	1180.88
501.437	1145.88
501.654	1115.88
