Data from 1966.PennyLincolnUp.Lamp.En5.5.200Scan.071719.P1.Scan2.head_HRD10591_14-17-13-091.txt Node
Date: Thu Jul 18 14:17:13 EDT 2019
User: cochatt
Spectrometer: HR+D1059
Trigger mode: 1
Integration Time (sec): 1.000000E-1
Scans to average: 1
Electric dark correction enabled: true
Nonlinearity correction enabled: false
Boxcar width: 0
XAxis mode: Wavelengths
Number of Pixels in Spectrum: 2048
>>>>>Begin Spectral Data<<<<<
223.165	-7.5
223.4	-7.5
223.635	-7.5
223.869	-16.5
224.104	-25.5
224.338	-9.5
224.573	-28.5
224.808	-19.5
225.042	-16.5
225.277	2.5
225.511	8.5
225.746	14.5
225.98	10.5
226.215	7.5
226.449	13.5
226.683	13.5
226.918	24.5
227.152	28.5
227.387	27.5
227.621	52.5
227.856	46.5
228.09	56.5
228.324	55.5
228.559	42.5
228.793	62.5
229.027	103.5
229.262	109.5
229.496	101.5
229.73	123.5
229.964	144.5
230.199	130.5
230.433	99.5
230.667	115.5
230.901	113.5
231.136	107.5
231.37	100.5
231.604	109.5
231.838	105.5
232.072	118.5
232.306	128.5
232.541	108.5
232.775	110.5
233.009	108.5
233.243	112.5
233.477	107.5
233.711	114.5
233.945	105.5
234.179	111.5
234.413	114.5
234.647	116.5
234.881	124.5
235.115	124.5
235.349	110.5
235.583	122.5
235.817	126.5
236.051	128.5
236.285	118.5
236.519	116.5
236.753	127.5
236.987	127.5
237.221	182.5
237.455	202.5
237.689	181.5
237.922	144.5
238.156	129.5
238.39	114.5
238.624	119.5
238.858	142.5
239.091	119.5
239.325	111.5
239.559	118.5
239.793	132.5
240.027	130.5
240.26	142.5
240.494	153.5
240.728	132.5
240.961	152.5
241.195	141.5
241.429	127.5
241.662	131.5
241.896	114.5
242.13	126.5
242.363	137.5
242.597	123.5
242.83	150.5
243.064	134.5
243.298	141.5
243.531	135.5
243.765	134.5
243.998	130.5
244.232	134.5
244.465	150.5
244.699	141.5
244.932	146.5
245.166	147.5
245.399	146.5
245.633	144.5
245.866	144.5
246.099	141.5
246.333	156.5
246.566	134.5
246.8	142.5
247.033	151.5
247.266	148.5
247.5	169.5
247.733	169.5
247.966	181.5
248.2	173.5
248.433	164.5
248.666	148.5
248.899	165.5
249.133	186.5
249.366	188.5
249.599	190.5
249.832	179.5
250.066	167.5
250.299	180.5
250.532	180.5
250.765	174.5
250.998	204.5
251.231	202.5
251.465	193.5
251.698	198.5
251.931	206.5
252.164	200.5
252.397	192.5
252.63	194.5
252.863	207.5
253.096	199.5
253.329	205.5
253.562	216.5
253.795	206.5
254.028	199.5
254.261	208.5
254.494	215.5
254.727	228.5
254.96	252.5
255.193	235.5
255.426	233.5
255.659	222.5
255.892	215.5
256.124	216.5
256.357	226.5
256.59	206.5
256.823	205.5
257.056	200.5
257.289	208.5
257.521	235.5
257.754	216.5
257.987	197.5
258.22	208.5
258.452	201.5
258.685	204.5
258.918	193.5
259.151	207.5
259.383	214.5
259.616	208.5
259.849	232.5
260.081	223.5
260.314	236.5
260.547	236.5
260.779	244.5
261.012	216.5
261.244	214.5
261.477	216.5
261.71	212.5
261.942	205.5
262.175	219.5
262.407	229.5
262.64	229.5
262.872	205.5
263.105	216.5
263.337	206.5
263.57	202.5
263.802	221.5
264.035	210.5
264.267	206.5
264.499	206.5
264.732	202.5
264.964	215.5
265.197	206.5
265.429	215.5
265.661	221.5
265.894	226.5
266.126	201.5
266.358	204.5
266.591	235.5
266.823	203.5
267.055	219.5
267.287	234.5
267.52	201.5
267.752	232.5
267.984	222.5
268.216	216.5
268.448	222.5
268.681	229.5
268.913	234.5
269.145	257.5
269.377	278.5
269.609	238.5
269.841	236.5
270.073	246.5
270.306	270.5
270.538	299.5
270.77	301.5
271.002	284.5
271.234	276.5
271.466	270.5
271.698	283.5
271.93	286.5
272.162	314.5
272.394	303.5
272.626	272.5
272.858	277.5
273.09	268.5
273.322	274.5
273.553	262.5
273.785	261.5
274.017	268.5
274.249	255.5
274.481	252.5
274.713	261.5
274.945	266.5
275.176	253.5
275.408	230.5
275.64	264.5
275.872	253.5
276.104	266.5
276.335	252.5
276.567	264.5
276.799	265.5
277.031	284.5
277.262	302.5
277.494	294.5
277.726	284.5
277.957	288.5
278.189	256.5
278.421	265.5
278.652	264.5
278.884	266.5
279.115	258.5
279.347	275.5
279.579	259.5
279.81	254.5
280.042	261.5
280.273	267.5
280.505	258.5
280.736	258.5
280.968	252.5
281.199	262.5
281.431	268.5
281.662	262.5
281.894	271.5
282.125	278.5
282.356	271.5
282.588	281.5
282.819	290.5
283.051	272.5
283.282	274.5
283.513	242.5
283.745	270.5
283.976	277.5
284.207	267.5
284.439	284.5
284.67	268.5
284.901	259.5
285.132	255.5
285.364	252.5
285.595	274.5
285.826	271.5
286.057	280.5
286.288	282.5
286.52	273.5
286.751	282.5
286.982	288.5
287.213	291.5
287.444	276.5
287.675	291.5
287.906	275.5
288.138	293.5
288.369	297.5
288.6	285.5
288.831	294.5
289.062	299.5
289.293	281.5
289.524	298.5
289.755	292.5
289.986	272.5
290.217	280.5
290.448	286.5
290.679	272.5
290.91	296.5
291.141	271.5
291.371	277.5
291.602	300.5
291.833	293.5
292.064	276.5
292.295	282.5
292.526	289.5
292.757	281.5
292.987	300.5
293.218	284.5
293.449	271.5
293.68	286.5
293.91	280.5
294.141	284.5
294.372	280.5
294.603	271.5
294.833	307.5
295.064	301.5
295.295	285.5
295.525	271.5
295.756	288.5
295.987	300.5
296.217	324.5
296.448	298.5
296.679	300.5
296.909	289.5
297.14	276.5
297.37	290.5
297.601	270.5
297.831	295.5
298.062	300.5
298.292	302.5
298.523	313.5
298.753	310.5
298.984	318.5
299.214	307.5
299.445	303.5
299.675	296.5
299.905	305.5
300.136	311.5
300.366	297.5
300.597	310.5
300.827	321.5
301.057	317.5
301.288	332.5
301.518	318.5
301.748	323.5
301.979	330.5
302.209	325.5
302.439	322.5
302.669	316.5
302.9	316.5
303.13	319.5
303.36	327.5
303.59	327.5
303.82	324.5
304.051	345.5
304.281	318.5
304.511	335.5
304.741	315.5
304.971	315.5
305.201	311.5
305.431	338.5
305.661	318.5
305.891	311.5
306.121	314.5
306.352	311.5
306.582	323.5
306.812	330.5
307.042	326.5
307.272	323.5
307.502	330.5
307.731	343.5
307.961	330.5
308.191	340.5
308.421	320.5
308.651	318.5
308.881	330.5
309.111	316.5
309.341	335.5
309.571	348.5
309.8	370.5
310.03	341.5
310.26	341.5
310.49	349.5
310.72	339.5
310.949	360.5
311.179	371.5
311.409	344.5
311.639	359.5
311.868	370.5
312.098	358.5
312.328	375.5
312.557	381.5
312.787	392.5
313.017	382.5
313.246	377.5
313.476	362.5
313.706	366.5
313.935	363.5
314.165	388.5
314.394	388.5
314.624	375.5
314.853	375.5
315.083	380.5
315.312	362.5
315.542	358.5
315.771	370.5
316.001	370.5
316.23	367.5
316.46	376.5
316.689	355.5
316.919	367.5
317.148	382.5
317.377	381.5
317.607	392.5
317.836	375.5
318.065	375.5
318.295	352.5
318.524	358.5
318.753	363.5
318.983	359.5
319.212	371.5
319.441	384.5
319.67	391.5
319.9	368.5
320.129	349.5
320.358	377.5
320.587	380.5
320.816	372.5
321.046	393.5
321.275	396.5
321.504	380.5
321.733	375.5
321.962	404.5
322.191	392.5
322.42	396.5
322.649	419.5
322.878	434.5
323.108	420.5
323.337	441.5
323.566	461.5
323.795	478.5
324.024	514.5
324.253	625.5
324.482	828.5
324.71	1254.5
324.939	1909.5
325.168	1651.5
325.397	858.5
325.626	575.5
325.855	485.5
326.084	472.5
326.313	465.5
326.542	458.5
326.77	485.5
326.999	571.5
327.228	756.5
327.457	1155.5
327.686	1464.5
327.914	960.5
328.143	633.5
328.372	581.5
328.6	532.5
328.829	516.5
329.058	510.5
329.287	539.5
329.515	527.5
329.744	483.5
329.972	487.5
330.201	514.5
330.43	518.5
330.658	549.5
330.887	543.5
331.115	552.5
331.344	494.5
331.572	460.5
331.801	480.5
332.03	465.5
332.258	447.5
332.486	446.5
332.715	428.5
332.943	445.5
333.172	448.5
333.4	489.5
333.629	462.5
333.857	463.5
334.085	474.5
334.314	504.5
334.542	503.5
334.771	541.5
334.999	480.5
335.227	452.5
335.455	461.5
335.684	448.5
335.912	465.5
336.14	461.5
336.369	448.5
336.597	444.5
336.825	454.5
337.053	441.5
337.281	424.5
337.51	418.5
337.738	442.5
337.966	437.5
338.194	460.5
338.422	437.5
338.65	429.5
338.878	414.5
339.106	410.5
339.334	440.5
339.562	429.5
339.79	434.5
340.018	423.5
340.246	423.5
340.474	407.5
340.702	451.5
340.93	424.5
341.158	422.5
341.386	442.5
341.614	449.5
341.842	417.5
342.07	435.5
342.298	416.5
342.526	420.5
342.754	414.5
342.981	414.5
343.209	404.5
343.437	421.5
343.665	417.5
343.893	433.5
344.12	454.5
344.348	452.5
344.576	447.5
344.804	416.5
345.031	444.5
345.259	460.5
345.487	454.5
345.714	441.5
345.942	424.5
346.17	423.5
346.397	406.5
346.625	401.5
346.853	415.5
347.08	416.5
347.308	410.5
347.535	408.5
347.763	441.5
347.99	444.5
348.218	428.5
348.445	425.5
348.673	418.5
348.9	418.5
349.128	422.5
349.355	412.5
349.583	414.5
349.81	407.5
350.037	396.5
350.265	390.5
350.492	392.5
350.72	386.5
350.947	411.5
351.174	430.5
351.402	426.5
351.629	421.5
351.856	414.5
352.083	422.5
352.311	441.5
352.538	424.5
352.765	434.5
352.992	424.5
353.22	402.5
353.447	414.5
353.674	408.5
353.901	385.5
354.128	426.5
354.355	401.5
354.583	394.5
354.81	413.5
355.037	405.5
355.264	393.5
355.491	406.5
355.718	380.5
355.945	397.5
356.172	398.5
356.399	382.5
356.626	387.5
356.853	390.5
357.08	392.5
357.307	382.5
357.534	406.5
357.761	397.5
357.988	400.5
358.215	389.5
358.441	401.5
358.668	398.5
358.895	372.5
359.122	395.5
359.349	430.5
359.576	419.5
359.802	441.5
360.029	450.5
360.256	448.5
360.483	463.5
360.709	418.5
360.936	408.5
361.163	404.5
361.39	435.5
361.616	431.5
361.843	409.5
362.07	422.5
362.296	427.5
362.523	417.5
362.749	427.5
362.976	400.5
363.203	412.5
363.429	431.5
363.656	411.5
363.882	440.5
364.109	423.5
364.335	410.5
364.562	410.5
364.788	401.5
365.015	424.5
365.241	395.5
365.468	403.5
365.694	413.5
365.92	417.5
366.147	414.5
366.373	392.5
366.599	400.5
366.826	412.5
367.052	423.5
367.278	395.5
367.505	404.5
367.731	420.5
367.957	426.5
368.184	411.5
368.41	437.5
368.636	434.5
368.862	439.5
369.089	437.5
369.315	423.5
369.541	403.5
369.767	422.5
369.993	415.5
370.219	418.5
370.445	421.5
370.672	416.5
370.898	396.5
371.124	410.5
371.35	425.5
371.576	410.5
371.802	428.5
372.028	399.5
372.254	403.5
372.48	429.5
372.706	424.5
372.932	412.5
373.158	426.5
373.384	447.5
373.61	435.5
373.835	408.5
374.061	428.5
374.287	435.5
374.513	426.5
374.739	402.5
374.965	431.5
375.191	424.5
375.416	408.5
375.642	436.5
375.868	428.5
376.094	420.5
376.319	427.5
376.545	407.5
376.771	416.5
376.997	406.5
377.222	420.5
377.448	400.5
377.674	431.5
377.899	412.5
378.125	412.5
378.35	420.5
378.576	438.5
378.802	420.5
379.027	420.5
379.253	403.5
379.478	420.5
379.704	421.5
379.929	403.5
380.155	415.5
380.38	431.5
380.606	422.5
380.831	408.5
381.057	423.5
381.282	406.5
381.507	419.5
381.733	446.5
381.958	429.5
382.184	429.5
382.409	432.5
382.634	411.5
382.86	447.5
383.085	420.5
383.31	447.5
383.535	442.5
383.761	450.5
383.986	436.5
384.211	457.5
384.436	461.5
384.662	450.5
384.887	448.5
385.112	450.5
385.337	449.5
385.562	439.5
385.787	462.5
386.013	459.5
386.238	474.5
386.463	494.5
386.688	462.5
386.913	444.5
387.138	483.5
387.363	453.5
387.588	453.5
387.813	462.5
388.038	485.5
388.263	469.5
388.488	452.5
388.713	489.5
388.938	464.5
389.163	475.5
389.387	465.5
389.612	475.5
389.837	459.5
390.062	474.5
390.287	479.5
390.512	469.5
390.736	463.5
390.961	471.5
391.186	464.5
391.411	487.5
391.636	467.5
391.86	457.5
392.085	474.5
392.31	472.5
392.534	492.5
392.759	500.5
392.984	493.5
393.208	498.5
393.433	506.5
393.658	481.5
393.882	476.5
394.107	455.5
394.331	490.5
394.556	472.5
394.78	470.5
395.005	495.5
395.229	476.5
395.454	485.5
395.678	516.5
395.903	492.5
396.127	495.5
396.352	525.5
396.576	488.5
396.801	510.5
397.025	518.5
397.249	512.5
397.474	521.5
397.698	503.5
397.922	535.5
398.147	546.5
398.371	541.5
398.595	509.5
398.82	528.5
399.044	549.5
399.268	578.5
399.492	619.5
399.717	614.5
399.941	648.5
400.165	693.5
400.389	665.5
400.613	601.5
400.837	596.5
401.062	570.5
401.286	536.5
401.51	569.5
401.734	552.5
401.958	530.5
402.182	553.5
402.406	558.5
402.63	578.5
402.854	548.5
403.078	552.5
403.302	552.5
403.526	551.5
403.75	567.5
403.974	556.5
404.198	558.5
404.422	590.5
404.645	575.5
404.869	576.5
405.093	615.5
405.317	643.5
405.541	678.5
405.765	626.5
405.988	602.5
406.212	615.5
406.436	612.5
406.66	631.5
406.883	610.5
407.107	642.5
407.331	692.5
407.555	751.5
407.778	756.5
408.002	671.5
408.226	625.5
408.449	626.5
408.673	615.5
408.896	642.5
409.12	698.5
409.344	647.5
409.567	616.5
409.791	593.5
410.014	583.5
410.238	584.5
410.461	600.5
410.685	573.5
410.908	578.5
411.132	623.5
411.355	646.5
411.578	624.5
411.802	589.5
412.025	576.5
412.249	563.5
412.472	594.5
412.695	639.5
412.919	657.5
413.142	581.5
413.365	560.5
413.589	557.5
413.812	543.5
414.035	555.5
414.258	554.5
414.482	543.5
414.705	554.5
414.928	550.5
415.151	538.5
415.374	547.5
415.597	528.5
415.821	539.5
416.044	547.5
416.267	542.5
416.49	517.5
416.713	532.5
416.936	537.5
417.159	556.5
417.382	547.5
417.605	518.5
417.828	554.5
418.051	555.5
418.274	563.5
418.497	541.5
418.72	536.5
418.943	541.5
419.166	571.5
419.389	566.5
419.611	561.5
419.834	568.5
420.057	583.5
420.28	559.5
420.503	559.5
420.726	562.5
420.948	569.5
421.171	605.5
421.394	642.5
421.617	564.5
421.839	561.5
422.062	551.5
422.285	559.5
422.507	640.5
422.73	721.5
422.953	672.5
423.175	605.5
423.398	584.5
423.621	576.5
423.843	596.5
424.066	594.5
424.288	584.5
424.511	618.5
424.733	667.5
424.956	747.5
425.178	700.5
425.401	689.5
425.623	746.5
425.846	612.5
426.068	615.5
426.291	613.5
426.513	600.5
426.735	588.5
426.958	650.5
427.18	719.5
427.402	844.5
427.625	902.5
427.847	809.5
428.069	715.5
428.292	628.5
428.514	606.5
428.736	574.5
428.958	568.5
429.181	525.5
429.403	546.5
429.625	538.5
429.847	571.5
430.069	660.5
430.292	658.5
430.514	554.5
430.736	519.5
430.958	538.5
431.18	538.5
431.402	531.5
431.624	512.5
431.846	532.5
432.068	495.5
432.29	546.5
432.512	542.5
432.734	556.5
432.956	525.5
433.178	552.5
433.4	529.5
433.622	518.5
433.844	532.5
434.066	518.5
434.287	506.5
434.509	520.5
434.731	554.5
434.953	574.5
435.175	578.5
435.397	574.5
435.618	596.5
435.84	619.5
436.062	744.5
436.284	823.5
436.505	692.5
436.727	595.5
436.949	545.5
437.17	575.5
437.392	556.5
437.614	564.5
437.835	609.5
438.057	687.5
438.278	795.5
438.5	815.5
438.721	878.5
438.943	829.5
439.165	629.5
439.386	591.5
439.608	559.5
439.829	568.5
440.05	622.5
440.272	663.5
440.493	640.5
440.715	580.5
440.936	576.5
441.158	566.5
441.379	572.5
441.6	564.5
441.822	582.5
442.043	623.5
442.264	732.5
442.486	751.5
442.707	665.5
442.928	610.5
443.149	644.5
443.371	653.5
443.592	654.5
443.813	746.5
444.034	818.5
444.255	688.5
444.476	636.5
444.698	626.5
444.919	609.5
445.14	691.5
445.361	670.5
445.582	642.5
445.803	686.5
446.024	813.5
446.245	815.5
446.466	738.5
446.687	639.5
446.908	600.5
447.129	570.5
447.35	539.5
447.571	538.5
447.792	554.5
448.013	556.5
448.234	595.5
448.455	622.5
448.675	719.5
448.896	830.5
449.117	712.5
449.338	687.5
449.559	784.5
449.779	892.5
450	698.5
450.221	586.5
450.442	559.5
450.662	564.5
450.883	554.5
451.104	548.5
451.324	535.5
451.545	500.5
451.766	501.5
451.986	505.5
452.207	473.5
452.428	477.5
452.648	490.5
452.869	495.5
453.089	503.5
453.31	522.5
453.53	490.5
453.751	487.5
453.971	506.5
454.192	506.5
454.412	507.5
454.633	491.5
454.853	494.5
455.073	479.5
455.294	535.5
455.514	565.5
455.734	570.5
455.955	477.5
456.175	479.5
456.395	468.5
456.616	450.5
456.836	470.5
457.056	460.5
457.276	468.5
457.497	461.5
457.717	472.5
457.937	480.5
458.157	490.5
458.377	501.5
458.598	511.5
458.818	558.5
459.038	634.5
459.258	633.5
459.478	592.5
459.698	548.5
459.918	511.5
460.138	527.5
460.358	535.5
460.578	539.5
460.798	542.5
461.018	546.5
461.238	531.5
461.458	548.5
461.678	563.5
461.898	538.5
462.118	571.5
462.338	571.5
462.558	572.5
462.777	592.5
462.997	612.5
463.217	613.5
463.437	606.5
463.657	616.5
463.876	606.5
464.096	580.5
464.316	583.5
464.536	591.5
464.755	583.5
464.975	575.5
465.195	633.5
465.414	645.5
465.634	636.5
465.854	575.5
466.073	548.5
466.293	526.5
466.512	518.5
466.732	506.5
466.951	529.5
467.171	507.5
467.391	511.5
467.61	524.5
467.829	524.5
468.049	507.5
468.268	556.5
468.488	503.5
468.707	494.5
468.927	500.5
469.146	493.5
469.365	490.5
469.585	522.5
469.804	516.5
470.023	520.5
470.243	498.5
470.462	524.5
470.681	547.5
470.901	559.5
471.12	538.5
471.339	514.5
471.558	524.5
471.777	504.5
471.997	528.5
472.216	516.5
472.435	543.5
472.654	528.5
472.873	508.5
473.092	525.5
473.311	518.5
473.53	535.5
473.749	536.5
473.968	557.5
474.187	658.5
474.406	654.5
474.625	572.5
474.844	524.5
475.063	528.5
475.282	528.5
475.501	500.5
475.72	545.5
475.939	544.5
476.158	542.5
476.377	555.5
476.596	529.5
476.814	546.5
477.033	539.5
477.252	543.5
477.471	576.5
477.69	590.5
477.908	574.5
478.127	575.5
478.346	569.5
478.564	580.5
478.783	619.5
479.002	610.5
479.22	613.5
479.439	593.5
479.658	612.5
479.876	633.5
480.095	634.5
480.313	645.5
480.532	638.5
480.751	649.5
480.969	664.5
481.188	680.5
481.406	720.5
481.624	682.5
481.843	638.5
482.061	611.5
482.28	628.5
482.498	609.5
482.717	616.5
482.935	614.5
483.153	615.5
483.372	616.5
483.59	622.5
483.808	617.5
484.027	628.5
484.245	601.5
484.463	606.5
484.681	626.5
484.9	616.5
485.118	646.5
485.336	619.5
485.554	644.5
485.772	645.5
485.99	650.5
486.209	628.5
486.427	639.5
486.645	637.5
486.863	651.5
487.081	683.5
487.299	662.5
487.517	664.5
487.735	654.5
487.953	667.5
488.171	658.5
488.389	660.5
488.607	659.5
488.825	648.5
489.043	642.5
489.261	664.5
489.479	674.5
489.696	667.5
489.914	679.5
490.132	676.5
490.35	679.5
490.568	698.5
490.786	692.5
491.003	719.5
491.221	701.5
491.439	732.5
491.657	717.5
491.874	726.5
492.092	748.5
492.31	772.5
492.527	764.5
492.745	752.5
492.963	727.5
493.18	756.5
493.398	794.5
493.615	745.5
493.833	770.5
494.05	730.5
494.268	758.5
494.485	742.5
494.703	796.5
494.92	777.5
495.138	773.5
495.355	773.5
495.573	774.5
495.79	768.5
496.008	779.5
496.225	757.5
496.442	756.5
496.66	779.5
496.877	790.5
497.094	808.5
497.312	789.5
497.529	815.5
497.746	820.5
497.963	811.5
498.181	876.5
498.398	841.5
498.615	861.5
498.832	892.5
499.049	930.5
499.267	915.5
499.484	954.5
499.701	994.5
499.918	1046.5
500.135	1098.5
500.352	1168.5
500.569	1140.5
500.786	1151.5
501.003	1143.5
501.22	1102.5
501.437	1053.5
501.654	1061.5
501.871	1016.5
502.088	941.5
502.305	932.5
502.522	907.5
502.739	907.5
502.956	868.5
503.172	869.5
503.389	838.5
503.606	847.5
503.823	838.5
504.04	808.5
504.256	795.5
504.473	778.5
504.69	793.5
504.907	808.5
505.123	783.5
505.34	766.5
505.557	745.5
505.773	762.5
505.99	726.5
506.207	767.5
506.423	728.5
506.64	741.5
506.856	726.5
507.073	710.5
507.289	703.5
507.506	710.5
507.722	747.5
507.939	746.5
508.155	703.5
508.372	697.5
508.588	702.5
508.805	679.5
509.021	702.5
509.238	714.5
509.454	696.5
509.67	709.5
509.887	719.5
510.103	687.5
510.319	710.5
510.536	790.5
510.752	1161.5
510.968	958.5
511.184	703.5
511.401	656.5
511.617	690.5
511.833	676.5
512.049	656.5
512.265	663.5
512.481	656.5
512.698	656.5
512.914	654.5
513.13	662.5
513.346	645.5
513.562	630.5
513.778	660.5
513.994	671.5
514.21	674.5
514.426	681.5
514.642	716.5
514.858	737.5
515.074	754.5
515.29	849.5
515.506	1156.5
515.721	1005.5
515.937	765.5
516.153	713.5
516.369	698.5
516.585	705.5
516.801	678.5
517.016	679.5
517.232	668.5
517.448	681.5
517.664	707.5
517.879	685.5
518.095	670.5
518.311	680.5
518.527	669.5
518.742	664.5
518.958	673.5
519.173	679.5
519.389	662.5
519.605	658.5
