Data from 1966.PennyLincolnUp.Lamp.En5.5.200Scan.071719.P1.Scan2.head_HRD10591_14-17-35-120.txt Node
Date: Thu Jul 18 14:17:35 EDT 2019
User: cochatt
Spectrometer: HR+D1059
Trigger mode: 1
Integration Time (sec): 1.000000E-1
Scans to average: 1
Electric dark correction enabled: true
Nonlinearity correction enabled: false
Boxcar width: 0
XAxis mode: Wavelengths
Number of Pixels in Spectrum: 2048
>>>>>Begin Spectral Data<<<<<
223.165	-10.56
223.4	-10.56
223.635	-10.56
223.869	-20.56
224.104	-15.56
224.338	-24.56
224.573	-2.56
224.808	-4.56
225.042	-23.56
225.277	-17.56
225.511	-8.56
225.746	9.44
225.98	13.44
226.215	3.44
226.449	21.44
226.683	29.44
226.918	18.44
227.152	32.44
227.387	30.44
227.621	51.44
227.856	41.44
228.09	47.44
228.324	47.44
228.559	49.44
228.793	67.44
229.027	95.44
229.262	95.44
229.496	107.44
229.73	125.44
229.964	157.44
230.199	121.44
230.433	112.44
230.667	115.44
230.901	115.44
231.136	115.44
231.37	105.44
231.604	120.44
231.838	100.44
232.072	106.44
232.306	106.44
232.541	111.44
232.775	122.44
233.009	104.44
233.243	112.44
233.477	112.44
233.711	118.44
233.945	106.44
234.179	125.44
234.413	120.44
234.647	125.44
234.881	116.44
235.115	106.44
235.349	111.44
235.583	122.44
235.817	108.44
236.051	119.44
236.285	137.44
236.519	120.44
236.753	113.44
236.987	151.44
237.221	180.44
237.455	222.44
237.689	189.44
237.922	150.44
238.156	133.44
238.39	125.44
238.624	138.44
238.858	123.44
239.091	131.44
239.325	112.44
239.559	131.44
239.793	133.44
240.027	128.44
240.26	159.44
240.494	159.44
240.728	149.44
240.961	148.44
241.195	142.44
241.429	134.44
241.662	130.44
241.896	135.44
242.13	138.44
242.363	128.44
242.597	144.44
242.83	144.44
243.064	135.44
243.298	132.44
243.531	148.44
243.765	138.44
243.998	144.44
244.232	143.44
244.465	139.44
244.699	144.44
244.932	148.44
245.166	148.44
245.399	155.44
245.633	156.44
245.866	147.44
246.099	155.44
246.333	167.44
246.566	149.44
246.8	159.44
247.033	153.44
247.266	157.44
247.5	158.44
247.733	179.44
247.966	171.44
248.2	169.44
248.433	167.44
248.666	181.44
248.899	179.44
249.133	204.44
249.366	193.44
249.599	202.44
249.832	182.44
250.066	181.44
250.299	156.44
250.532	202.44
250.765	196.44
250.998	219.44
251.231	226.44
251.465	220.44
251.698	206.44
251.931	187.44
252.164	201.44
252.397	200.44
252.63	195.44
252.863	209.44
253.096	197.44
253.329	228.44
253.562	221.44
253.795	201.44
254.028	208.44
254.261	223.44
254.494	216.44
254.727	233.44
254.96	277.44
255.193	245.44
255.426	232.44
255.659	224.44
255.892	232.44
256.124	222.44
256.357	205.44
256.59	215.44
256.823	196.44
257.056	217.44
257.289	220.44
257.521	213.44
257.754	215.44
257.987	223.44
258.22	209.44
258.452	197.44
258.685	208.44
258.918	218.44
259.151	205.44
259.383	198.44
259.616	216.44
259.849	213.44
260.081	220.44
260.314	237.44
260.547	243.44
260.779	234.44
261.012	243.44
261.244	225.44
261.477	213.44
261.71	214.44
261.942	217.44
262.175	218.44
262.407	217.44
262.64	202.44
262.872	207.44
263.105	215.44
263.337	204.44
263.57	203.44
263.802	208.44
264.035	192.44
264.267	208.44
264.499	220.44
264.732	195.44
264.964	210.44
265.197	205.44
265.429	205.44
265.661	203.44
265.894	208.44
266.126	208.44
266.358	212.44
266.591	215.44
266.823	209.44
267.055	223.44
267.287	223.44
267.52	217.44
267.752	232.44
267.984	225.44
268.216	226.44
268.448	235.44
268.681	229.44
268.913	225.44
269.145	245.44
269.377	262.44
269.609	289.44
269.841	263.44
270.073	271.44
270.306	284.44
270.538	308.44
270.77	317.44
271.002	296.44
271.234	283.44
271.466	285.44
271.698	300.44
271.93	302.44
272.162	301.44
272.394	287.44
272.626	291.44
272.858	266.44
273.09	263.44
273.322	263.44
273.553	243.44
273.785	279.44
274.017	252.44
274.249	249.44
274.481	280.44
274.713	242.44
274.945	265.44
275.176	262.44
275.408	265.44
275.64	277.44
275.872	269.44
276.104	256.44
276.335	270.44
276.567	280.44
276.799	277.44
277.031	299.44
277.262	313.44
277.494	314.44
277.726	298.44
277.957	274.44
278.189	256.44
278.421	282.44
278.652	268.44
278.884	279.44
279.115	259.44
279.347	251.44
279.579	267.44
279.81	264.44
280.042	270.44
280.273	273.44
280.505	265.44
280.736	253.44
280.968	243.44
281.199	259.44
281.431	256.44
281.662	267.44
281.894	266.44
282.125	273.44
282.356	277.44
282.588	285.44
282.819	287.44
283.051	272.44
283.282	266.44
283.513	267.44
283.745	282.44
283.976	269.44
284.207	265.44
284.439	268.44
284.67	273.44
284.901	287.44
285.132	277.44
285.364	279.44
285.595	275.44
285.826	264.44
286.057	269.44
286.288	270.44
286.52	276.44
286.751	283.44
286.982	291.44
287.213	267.44
287.444	292.44
287.675	299.44
287.906	280.44
288.138	292.44
288.369	303.44
288.6	293.44
288.831	300.44
289.062	289.44
289.293	299.44
289.524	301.44
289.755	283.44
289.986	276.44
290.217	286.44
290.448	293.44
290.679	282.44
290.91	266.44
291.141	291.44
291.371	294.44
291.602	279.44
291.833	268.44
292.064	281.44
292.295	289.44
292.526	280.44
292.757	278.44
292.987	284.44
293.218	299.44
293.449	289.44
293.68	297.44
293.91	290.44
294.141	277.44
294.372	285.44
294.603	302.44
294.833	291.44
295.064	286.44
295.295	274.44
295.525	289.44
295.756	314.44
295.987	327.44
296.217	327.44
296.448	342.44
296.679	325.44
296.909	303.44
297.14	288.44
297.37	296.44
297.601	292.44
297.831	296.44
298.062	286.44
298.292	285.44
298.523	291.44
298.753	311.44
298.984	303.44
299.214	290.44
299.445	303.44
299.675	321.44
299.905	324.44
300.136	296.44
300.366	304.44
300.597	322.44
300.827	300.44
301.057	304.44
301.288	340.44
301.518	307.44
301.748	320.44
301.979	319.44
302.209	326.44
302.439	320.44
302.669	310.44
302.9	322.44
303.13	331.44
303.36	328.44
303.59	336.44
303.82	319.44
304.051	332.44
304.281	331.44
304.511	289.44
304.741	325.44
304.971	323.44
305.201	337.44
305.431	325.44
305.661	325.44
305.891	307.44
306.121	321.44
306.352	331.44
306.582	291.44
306.812	308.44
307.042	319.44
307.272	303.44
307.502	320.44
307.731	333.44
307.961	332.44
308.191	316.44
308.421	329.44
308.651	345.44
308.881	337.44
309.111	340.44
309.341	317.44
309.571	358.44
309.8	344.44
310.03	358.44
310.26	372.44
310.49	355.44
310.72	355.44
310.949	358.44
311.179	376.44
311.409	381.44
311.639	372.44
311.868	360.44
312.098	364.44
312.328	376.44
312.557	365.44
312.787	387.44
313.017	400.44
313.246	383.44
313.476	352.44
313.706	337.44
313.935	366.44
314.165	364.44
314.394	381.44
314.624	395.44
314.853	376.44
315.083	375.44
315.312	359.44
315.542	366.44
315.771	347.44
316.001	351.44
316.23	366.44
316.46	361.44
316.689	368.44
316.919	376.44
317.148	375.44
317.377	380.44
317.607	388.44
317.836	378.44
318.065	375.44
318.295	349.44
318.524	345.44
318.753	375.44
318.983	371.44
319.212	382.44
319.441	379.44
319.67	372.44
319.9	373.44
320.129	372.44
320.358	365.44
320.587	369.44
320.816	375.44
321.046	391.44
321.275	396.44
321.504	386.44
321.733	406.44
321.962	386.44
322.191	380.44
322.42	394.44
322.649	440.44
322.878	437.44
323.108	418.44
323.337	460.44
323.566	488.44
323.795	477.44
324.024	523.44
324.253	639.44
324.482	855.44
324.71	1366.44
324.939	1991.44
325.168	1749.44
325.397	889.44
325.626	624.44
325.855	509.44
326.084	486.44
326.313	470.44
326.542	475.44
326.77	526.44
326.999	582.44
327.228	797.44
327.457	1193.44
327.686	1518.44
327.914	1003.44
328.143	664.44
328.372	573.44
328.6	558.44
328.829	514.44
329.058	557.44
329.287	555.44
329.515	512.44
329.744	502.44
329.972	523.44
330.201	519.44
330.43	538.44
330.658	558.44
330.887	586.44
331.115	564.44
331.344	491.44
331.572	473.44
331.801	478.44
332.03	480.44
332.258	444.44
332.486	468.44
332.715	455.44
332.943	433.44
333.172	462.44
333.4	441.44
333.629	475.44
333.857	476.44
334.085	491.44
334.314	488.44
334.542	533.44
334.771	549.44
334.999	491.44
335.227	484.44
335.455	467.44
335.684	464.44
335.912	445.44
336.14	443.44
336.369	444.44
336.597	449.44
336.825	458.44
337.053	456.44
337.281	443.44
337.51	460.44
337.738	439.44
337.966	436.44
338.194	433.44
338.422	448.44
338.65	424.44
338.878	445.44
339.106	436.44
339.334	427.44
339.562	440.44
339.79	414.44
340.018	444.44
340.246	430.44
340.474	423.44
340.702	427.44
340.93	417.44
341.158	424.44
341.386	421.44
341.614	429.44
341.842	428.44
342.07	426.44
342.298	436.44
342.526	411.44
342.754	419.44
342.981	411.44
343.209	394.44
343.437	421.44
343.665	443.44
343.893	433.44
344.12	427.44
344.348	440.44
344.576	453.44
344.804	441.44
345.031	448.44
345.259	435.44
345.487	440.44
345.714	425.44
345.942	440.44
346.17	431.44
346.397	427.44
346.625	415.44
346.853	427.44
347.08	411.44
347.308	408.44
347.535	416.44
347.763	428.44
347.99	431.44
348.218	418.44
348.445	439.44
348.673	428.44
348.9	438.44
349.128	417.44
349.355	409.44
349.583	409.44
349.81	398.44
350.037	409.44
350.265	423.44
350.492	398.44
350.72	415.44
350.947	411.44
351.174	417.44
351.402	446.44
351.629	424.44
351.856	428.44
352.083	428.44
352.311	433.44
352.538	447.44
352.765	441.44
352.992	422.44
353.22	416.44
353.447	424.44
353.674	402.44
353.901	407.44
354.128	427.44
354.355	395.44
354.583	392.44
354.81	381.44
355.037	368.44
355.264	389.44
355.491	397.44
355.718	406.44
355.945	383.44
356.172	398.44
356.399	392.44
356.626	399.44
356.853	398.44
357.08	398.44
357.307	400.44
357.534	399.44
357.761	400.44
357.988	388.44
358.215	400.44
358.441	402.44
358.668	407.44
358.895	411.44
359.122	407.44
359.349	417.44
359.576	420.44
359.802	433.44
360.029	479.44
360.256	459.44
360.483	468.44
360.709	421.44
360.936	407.44
361.163	417.44
361.39	423.44
361.616	447.44
361.843	412.44
362.07	403.44
362.296	406.44
362.523	404.44
362.749	419.44
362.976	416.44
363.203	418.44
363.429	423.44
363.656	416.44
363.882	426.44
364.109	435.44
364.335	415.44
364.562	408.44
364.788	412.44
365.015	417.44
365.241	425.44
365.468	405.44
365.694	391.44
365.92	413.44
366.147	418.44
366.373	411.44
366.599	409.44
366.826	404.44
367.052	401.44
367.278	385.44
367.505	388.44
367.731	404.44
367.957	402.44
368.184	420.44
368.41	444.44
368.636	413.44
368.862	436.44
369.089	417.44
369.315	431.44
369.541	422.44
369.767	424.44
369.993	427.44
370.219	416.44
370.445	422.44
370.672	423.44
370.898	416.44
371.124	413.44
371.35	414.44
371.576	425.44
371.802	430.44
372.028	415.44
372.254	424.44
372.48	439.44
372.706	415.44
372.932	438.44
373.158	430.44
373.384	422.44
373.61	427.44
373.835	432.44
374.061	411.44
374.287	408.44
374.513	437.44
374.739	430.44
374.965	425.44
375.191	430.44
375.416	428.44
375.642	449.44
375.868	432.44
376.094	439.44
376.319	433.44
376.545	413.44
376.771	429.44
376.997	430.44
377.222	392.44
377.448	435.44
377.674	417.44
377.899	416.44
378.125	409.44
378.35	408.44
378.576	408.44
378.802	412.44
379.027	423.44
379.253	406.44
379.478	402.44
379.704	409.44
379.929	419.44
380.155	432.44
380.38	419.44
380.606	435.44
380.831	443.44
381.057	431.44
381.282	421.44
381.507	441.44
381.733	453.44
381.958	437.44
382.184	453.44
382.409	427.44
382.634	447.44
382.86	432.44
383.085	429.44
383.31	437.44
383.535	442.44
383.761	413.44
383.986	445.44
384.211	440.44
384.436	438.44
384.662	449.44
384.887	466.44
385.112	460.44
385.337	468.44
385.562	459.44
385.787	475.44
386.013	445.44
386.238	478.44
386.463	493.44
386.688	468.44
386.913	475.44
387.138	469.44
387.363	480.44
387.588	452.44
387.813	457.44
388.038	469.44
388.263	488.44
388.488	472.44
388.713	477.44
388.938	482.44
389.163	473.44
389.387	481.44
389.612	475.44
389.837	488.44
390.062	455.44
390.287	465.44
390.512	484.44
390.736	464.44
390.961	471.44
391.186	472.44
391.411	473.44
391.636	481.44
391.86	476.44
392.085	488.44
392.31	498.44
392.534	501.44
392.759	501.44
392.984	449.44
393.208	459.44
393.433	496.44
393.658	479.44
393.882	454.44
394.107	489.44
394.331	485.44
394.556	476.44
394.78	490.44
395.005	473.44
395.229	462.44
395.454	472.44
395.678	486.44
395.903	500.44
396.127	513.44
396.352	516.44
396.576	502.44
396.801	482.44
397.025	505.44
397.249	503.44
397.474	503.44
397.698	513.44
397.922	533.44
398.147	526.44
398.371	563.44
398.595	535.44
398.82	548.44
399.044	555.44
399.268	557.44
399.492	597.44
399.717	643.44
399.941	634.44
400.165	693.44
400.389	686.44
400.613	625.44
400.837	597.44
401.062	556.44
401.286	557.44
401.51	533.44
401.734	553.44
401.958	566.44
402.182	563.44
402.406	549.44
402.63	561.44
402.854	574.44
403.078	569.44
403.302	556.44
403.526	587.44
403.75	567.44
403.974	550.44
404.198	574.44
404.422	587.44
404.645	591.44
404.869	601.44
405.093	602.44
405.317	661.44
405.541	680.44
405.765	623.44
405.988	594.44
406.212	602.44
406.436	635.44
406.66	643.44
406.883	623.44
407.107	657.44
407.331	670.44
407.555	737.44
407.778	743.44
408.002	681.44
408.226	639.44
408.449	637.44
408.673	625.44
408.896	643.44
409.12	693.44
409.344	639.44
409.567	596.44
409.791	599.44
410.014	586.44
410.238	584.44
410.461	590.44
410.685	590.44
410.908	596.44
411.132	638.44
411.355	634.44
411.578	627.44
411.802	599.44
412.025	575.44
412.249	594.44
412.472	623.44
412.695	643.44
412.919	612.44
413.142	587.44
413.365	575.44
413.589	574.44
413.812	565.44
414.035	541.44
414.258	518.44
414.482	550.44
414.705	551.44
414.928	554.44
415.151	546.44
415.374	531.44
415.597	537.44
415.821	522.44
416.044	551.44
416.267	544.44
416.49	547.44
416.713	530.44
416.936	510.44
417.159	523.44
417.382	531.44
417.605	570.44
417.828	556.44
418.051	566.44
418.274	556.44
418.497	536.44
418.72	535.44
418.943	520.44
419.166	553.44
419.389	592.44
419.611	584.44
419.834	584.44
420.057	584.44
420.28	586.44
420.503	569.44
420.726	565.44
420.948	565.44
421.171	631.44
421.394	646.44
421.617	572.44
421.839	561.44
422.062	568.44
422.285	576.44
422.507	640.44
422.73	725.44
422.953	697.44
423.175	614.44
423.398	611.44
423.621	593.44
423.843	595.44
424.066	591.44
424.288	608.44
424.511	630.44
424.733	683.44
424.956	784.44
425.178	725.44
425.401	715.44
425.623	751.44
425.846	637.44
426.068	608.44
426.291	596.44
426.513	571.44
426.735	624.44
426.958	635.44
427.18	717.44
427.402	886.44
427.625	951.44
427.847	843.44
428.069	719.44
428.292	645.44
428.514	605.44
428.736	571.44
428.958	585.44
429.181	563.44
429.403	531.44
429.625	563.44
429.847	593.44
430.069	655.44
430.292	667.44
430.514	576.44
430.736	563.44
430.958	573.44
431.18	535.44
431.402	513.44
431.624	529.44
431.846	532.44
432.068	538.44
432.29	538.44
432.512	539.44
432.734	533.44
432.956	525.44
433.178	551.44
433.4	548.44
433.622	526.44
433.844	518.44
434.066	537.44
434.287	534.44
434.509	528.44
434.731	551.44
434.953	561.44
435.175	552.44
435.397	590.44
435.618	599.44
435.84	637.44
436.062	730.44
436.284	796.44
436.505	655.44
436.727	597.44
436.949	579.44
437.17	585.44
437.392	557.44
437.614	595.44
437.835	608.44
438.057	703.44
438.278	773.44
438.5	763.44
438.721	861.44
438.943	828.44
439.165	681.44
439.386	608.44
439.608	636.44
439.829	605.44
440.05	650.44
440.272	671.44
440.493	643.44
440.715	581.44
440.936	570.44
441.158	592.44
441.379	558.44
441.6	580.44
441.822	588.44
442.043	628.44
442.264	744.44
442.486	765.44
442.707	643.44
442.928	622.44
443.149	627.44
443.371	637.44
443.592	692.44
443.813	793.44
444.034	837.44
444.255	721.44
444.476	609.44
444.698	640.44
444.919	608.44
445.14	723.44
445.361	653.44
445.582	656.44
445.803	702.44
446.024	789.44
446.245	819.44
446.466	775.44
446.687	659.44
446.908	595.44
447.129	560.44
447.35	571.44
447.571	556.44
447.792	531.44
448.013	560.44
448.234	573.44
448.455	639.44
448.675	742.44
448.896	876.44
449.117	744.44
449.338	687.44
449.559	786.44
449.779	930.44
450	722.44
450.221	623.44
450.442	559.44
450.662	536.44
450.883	535.44
451.104	547.44
451.324	538.44
451.545	532.44
451.766	519.44
451.986	492.44
452.207	487.44
452.428	484.44
452.648	500.44
452.869	517.44
453.089	520.44
453.31	515.44
453.53	490.44
453.751	495.44
453.971	489.44
454.192	479.44
454.412	497.44
454.633	492.44
454.853	480.44
455.073	471.44
455.294	504.44
455.514	607.44
455.734	580.44
455.955	485.44
456.175	474.44
456.395	459.44
456.616	469.44
456.836	481.44
457.056	491.44
457.276	463.44
457.497	475.44
457.717	486.44
457.937	487.44
458.157	468.44
458.377	495.44
458.598	525.44
458.818	561.44
459.038	609.44
459.258	693.44
459.478	585.44
459.698	551.44
459.918	537.44
460.138	528.44
460.358	530.44
460.578	571.44
460.798	550.44
461.018	566.44
461.238	548.44
461.458	552.44
461.678	545.44
461.898	556.44
462.118	552.44
462.338	563.44
462.558	579.44
462.777	584.44
462.997	580.44
463.217	615.44
463.437	602.44
463.657	591.44
463.876	584.44
464.096	581.44
464.316	586.44
464.536	605.44
464.755	596.44
464.975	575.44
465.195	608.44
465.414	647.44
465.634	592.44
465.854	543.44
466.073	564.44
466.293	547.44
466.512	532.44
466.732	539.44
466.951	535.44
467.171	526.44
467.391	515.44
467.61	507.44
467.829	538.44
468.049	533.44
468.268	524.44
468.488	501.44
468.707	517.44
468.927	513.44
469.146	509.44
469.365	487.44
469.585	494.44
469.804	509.44
470.023	505.44
470.243	539.44
470.462	552.44
470.681	542.44
470.901	543.44
471.12	524.44
471.339	542.44
471.558	543.44
471.777	508.44
471.997	495.44
472.216	516.44
472.435	569.44
472.654	544.44
472.873	525.44
473.092	515.44
473.311	538.44
473.53	533.44
473.749	529.44
473.968	549.44
474.187	650.44
474.406	675.44
474.625	592.44
474.844	528.44
475.063	516.44
475.282	534.44
475.501	539.44
475.72	530.44
475.939	559.44
476.158	556.44
476.377	533.44
476.596	559.44
476.814	547.44
477.033	551.44
477.252	530.44
477.471	536.44
477.69	582.44
477.908	567.44
478.127	579.44
478.346	584.44
478.564	588.44
478.783	588.44
479.002	601.44
479.22	599.44
479.439	597.44
479.658	613.44
479.876	639.44
480.095	641.44
480.313	665.44
480.532	648.44
480.751	638.44
480.969	635.44
481.188	700.44
481.406	749.44
481.624	668.44
481.843	639.44
482.061	655.44
482.28	637.44
482.498	634.44
482.717	631.44
482.935	638.44
483.153	617.44
483.372	635.44
483.59	604.44
483.808	624.44
484.027	609.44
484.245	607.44
484.463	627.44
484.681	641.44
484.9	653.44
485.118	642.44
485.336	630.44
485.554	639.44
485.772	652.44
485.99	640.44
486.209	630.44
486.427	630.44
486.645	626.44
486.863	673.44
487.081	648.44
487.299	671.44
487.517	638.44
487.735	677.44
487.953	663.44
488.171	663.44
488.389	681.44
488.607	667.44
488.825	653.44
489.043	649.44
489.261	636.44
489.479	675.44
489.696	684.44
489.914	683.44
490.132	669.44
490.35	699.44
490.568	676.44
490.786	700.44
491.003	699.44
491.221	730.44
491.439	720.44
491.657	759.44
491.874	736.44
492.092	751.44
492.31	770.44
492.527	745.44
492.745	735.44
492.963	769.44
493.18	759.44
493.398	794.44
493.615	772.44
493.833	760.44
494.05	786.44
494.268	777.44
494.485	755.44
494.703	757.44
494.92	767.44
495.138	769.44
495.355	785.44
495.573	797.44
495.79	789.44
496.008	788.44
496.225	772.44
496.442	782.44
496.66	795.44
496.877	782.44
497.094	781.44
497.312	796.44
497.529	814.44
497.746	806.44
497.963	845.44
498.181	864.44
498.398	862.44
498.615	873.44
498.832	880.44
499.049	924.44
499.267	957.44
499.484	1012.44
499.701	988.44
499.918	1049.44
500.135	1064.44
500.352	1149.44
500.569	1133.44
500.786	1145.44
501.003	1149.44
501.22	1108.44
501.437	1058.44
501.654	1049.44
