Data from 1966.PennyLincolnUp.Lamp.En5.5.200Scan.071719.P1._HRD10591_14-14-10-914.txt Node
Date: Thu Jul 18 14:14:10 EDT 2019
User: cochatt
Spectrometer: HR+D1059
Trigger mode: 1
Integration Time (sec): 1.000000E-1
Scans to average: 1
Electric dark correction enabled: true
Nonlinearity correction enabled: false
Boxcar width: 0
XAxis mode: Wavelengths
Number of Pixels in Spectrum: 2048
>>>>>Begin Spectral Data<<<<<
223.165	-15.38
223.4	-15.38
223.635	-15.38
223.869	-9.38
224.104	-21.38
224.338	-16.38
224.573	-7.38
224.808	-22.38
225.042	1.62
225.277	-6.38
225.511	-3.38
225.746	-8.38
225.98	-9.38
226.215	10.62
226.449	11.62
226.683	27.62
226.918	26.62
227.152	41.62
227.387	25.62
227.621	47.62
227.856	38.62
228.09	38.62
228.324	48.62
228.559	61.62
228.793	67.62
229.027	57.62
229.262	91.62
229.496	87.62
229.73	107.62
229.964	109.62
230.199	100.62
230.433	89.62
230.667	105.62
230.901	81.62
231.136	92.62
231.37	110.62
231.604	92.62
231.838	99.62
232.072	82.62
232.306	96.62
232.541	104.62
232.775	101.62
233.009	96.62
233.243	100.62
233.477	96.62
233.711	97.62
233.945	105.62
234.179	96.62
234.413	94.62
234.647	88.62
234.881	89.62
235.115	95.62
235.349	99.62
235.583	100.62
235.817	92.62
236.051	90.62
236.285	110.62
236.519	95.62
236.753	109.62
236.987	119.62
237.221	120.62
237.455	146.62
237.689	126.62
237.922	100.62
238.156	107.62
238.39	104.62
238.624	106.62
238.858	87.62
239.091	106.62
239.325	103.62
239.559	116.62
239.793	103.62
240.027	108.62
240.26	97.62
240.494	111.62
240.728	105.62
240.961	105.62
241.195	104.62
241.429	88.62
241.662	95.62
241.896	107.62
242.13	100.62
242.363	104.62
242.597	110.62
242.83	102.62
243.064	94.62
243.298	86.62
243.531	107.62
243.765	92.62
243.998	117.62
244.232	115.62
244.465	95.62
244.699	99.62
244.932	92.62
245.166	105.62
245.399	117.62
245.633	107.62
245.866	119.62
246.099	116.62
246.333	93.62
246.566	123.62
246.8	116.62
247.033	107.62
247.266	101.62
247.5	121.62
247.733	107.62
247.966	126.62
248.2	123.62
248.433	124.62
248.666	116.62
248.899	130.62
249.133	136.62
249.366	149.62
249.599	130.62
249.832	128.62
250.066	129.62
250.299	118.62
250.532	121.62
250.765	139.62
250.998	151.62
251.231	155.62
251.465	139.62
251.698	129.62
251.931	117.62
252.164	127.62
252.397	119.62
252.63	123.62
252.863	124.62
253.096	121.62
253.329	139.62
253.562	153.62
253.795	133.62
254.028	140.62
254.261	142.62
254.494	142.62
254.727	165.62
254.96	173.62
255.193	161.62
255.426	152.62
255.659	151.62
255.892	146.62
256.124	171.62
256.357	141.62
256.59	143.62
256.823	129.62
257.056	132.62
257.289	134.62
257.521	141.62
257.754	124.62
257.987	136.62
258.22	128.62
258.452	144.62
258.685	128.62
258.918	132.62
259.151	139.62
259.383	154.62
259.616	139.62
259.849	135.62
260.081	147.62
260.314	149.62
260.547	167.62
260.779	137.62
261.012	153.62
261.244	135.62
261.477	153.62
261.71	128.62
261.942	129.62
262.175	153.62
262.407	148.62
262.64	132.62
262.872	147.62
263.105	123.62
263.337	129.62
263.57	135.62
263.802	143.62
264.035	134.62
264.267	135.62
264.499	144.62
264.732	129.62
264.964	140.62
265.197	158.62
265.429	148.62
265.661	128.62
265.894	147.62
266.126	132.62
266.358	137.62
266.591	143.62
266.823	156.62
267.055	120.62
267.287	144.62
267.52	148.62
267.752	155.62
267.984	153.62
268.216	151.62
268.448	148.62
268.681	155.62
268.913	152.62
269.145	161.62
269.377	154.62
269.609	178.62
269.841	153.62
270.073	174.62
270.306	181.62
270.538	193.62
270.77	192.62
271.002	168.62
271.234	176.62
271.466	168.62
271.698	188.62
271.93	183.62
272.162	182.62
272.394	177.62
272.626	160.62
272.858	177.62
273.09	173.62
273.322	162.62
273.553	160.62
273.785	167.62
274.017	161.62
274.249	149.62
274.481	163.62
274.713	173.62
274.945	161.62
275.176	157.62
275.408	152.62
275.64	161.62
275.872	161.62
276.104	170.62
276.335	159.62
276.567	173.62
276.799	184.62
277.031	192.62
277.262	202.62
277.494	188.62
277.726	177.62
277.957	163.62
278.189	175.62
278.421	159.62
278.652	163.62
278.884	165.62
279.115	165.62
279.347	165.62
279.579	166.62
279.81	155.62
280.042	153.62
280.273	164.62
280.505	153.62
280.736	169.62
280.968	170.62
281.199	164.62
281.431	169.62
281.662	158.62
281.894	165.62
282.125	165.62
282.356	176.62
282.588	187.62
282.819	191.62
283.051	172.62
283.282	156.62
283.513	159.62
283.745	157.62
283.976	168.62
284.207	171.62
284.439	171.62
284.67	170.62
284.901	147.62
285.132	173.62
285.364	170.62
285.595	174.62
285.826	163.62
286.057	171.62
286.288	169.62
286.52	170.62
286.751	175.62
286.982	182.62
287.213	158.62
287.444	169.62
287.675	173.62
287.906	169.62
288.138	172.62
288.369	178.62
288.6	173.62
288.831	185.62
289.062	167.62
289.293	164.62
289.524	173.62
289.755	158.62
289.986	167.62
290.217	168.62
290.448	158.62
290.679	172.62
290.91	190.62
291.141	175.62
291.371	185.62
291.602	179.62
291.833	169.62
292.064	169.62
292.295	167.62
292.526	156.62
292.757	189.62
292.987	173.62
293.218	175.62
293.449	172.62
293.68	166.62
293.91	164.62
294.141	169.62
294.372	171.62
294.603	175.62
294.833	162.62
295.064	175.62
295.295	191.62
295.525	181.62
295.756	187.62
295.987	175.62
296.217	196.62
296.448	195.62
296.679	182.62
296.909	165.62
297.14	183.62
297.37	180.62
297.601	165.62
297.831	184.62
298.062	181.62
298.292	181.62
298.523	174.62
298.753	192.62
298.984	187.62
299.214	189.62
299.445	191.62
299.675	189.62
299.905	188.62
300.136	188.62
300.366	181.62
300.597	191.62
300.827	183.62
301.057	193.62
301.288	203.62
301.518	195.62
301.748	194.62
301.979	190.62
302.209	188.62
302.439	192.62
302.669	193.62
302.9	190.62
303.13	200.62
303.36	190.62
303.59	187.62
303.82	193.62
304.051	191.62
304.281	198.62
304.511	206.62
304.741	180.62
304.971	199.62
305.201	190.62
305.431	175.62
305.661	182.62
305.891	177.62
306.121	195.62
306.352	209.62
306.582	199.62
306.812	207.62
307.042	186.62
307.272	182.62
307.502	188.62
307.731	186.62
307.961	190.62
308.191	181.62
308.421	169.62
308.651	197.62
308.881	185.62
309.111	193.62
309.341	201.62
309.571	213.62
309.8	207.62
310.03	212.62
310.26	213.62
310.49	221.62
310.72	224.62
310.949	233.62
311.179	230.62
311.409	209.62
311.639	206.62
311.868	213.62
312.098	206.62
312.328	211.62
312.557	217.62
312.787	228.62
313.017	221.62
313.246	221.62
313.476	230.62
313.706	222.62
313.935	213.62
314.165	209.62
314.394	227.62
314.624	230.62
314.853	220.62
315.083	213.62
315.312	194.62
315.542	215.62
315.771	205.62
316.001	204.62
316.23	196.62
316.46	196.62
316.689	216.62
316.919	218.62
317.148	203.62
317.377	215.62
317.607	208.62
317.836	219.62
318.065	202.62
318.295	207.62
318.524	205.62
318.753	206.62
318.983	217.62
319.212	205.62
319.441	215.62
319.67	210.62
319.9	205.62
320.129	208.62
320.358	197.62
320.587	222.62
320.816	201.62
321.046	223.62
321.275	230.62
321.504	207.62
321.733	199.62
321.962	218.62
322.191	220.62
322.42	235.62
322.649	225.62
322.878	241.62
323.108	261.62
323.337	247.62
323.566	253.62
323.795	281.62
324.024	309.62
324.253	381.62
324.482	523.62
324.71	762.62
324.939	1057.62
325.168	849.62
325.397	445.62
325.626	307.62
325.855	267.62
326.084	269.62
326.313	269.62
326.542	254.62
326.77	287.62
326.999	347.62
327.228	480.62
327.457	717.62
327.686	795.62
327.914	521.62
328.143	387.62
328.372	331.62
328.6	313.62
328.829	316.62
329.058	308.62
329.287	334.62
329.515	282.62
329.744	281.62
329.972	270.62
330.201	312.62
330.43	323.62
330.658	324.62
330.887	329.62
331.115	327.62
331.344	299.62
331.572	264.62
331.801	270.62
332.03	277.62
332.258	266.62
332.486	243.62
332.715	248.62
332.943	238.62
333.172	247.62
333.4	252.62
333.629	256.62
333.857	268.62
334.085	280.62
334.314	287.62
334.542	316.62
334.771	343.62
334.999	311.62
335.227	268.62
335.455	263.62
335.684	234.62
335.912	249.62
336.14	229.62
336.369	216.62
336.597	236.62
336.825	255.62
337.053	261.62
337.281	219.62
337.51	250.62
337.738	229.62
337.966	251.62
338.194	259.62
338.422	227.62
338.65	232.62
338.878	238.62
339.106	227.62
339.334	235.62
339.562	238.62
339.79	240.62
340.018	222.62
340.246	224.62
340.474	231.62
340.702	243.62
340.93	245.62
341.158	234.62
341.386	232.62
341.614	232.62
341.842	218.62
342.07	246.62
342.298	232.62
342.526	223.62
342.754	230.62
342.981	216.62
343.209	218.62
343.437	235.62
343.665	225.62
343.893	243.62
344.12	247.62
344.348	230.62
344.576	230.62
344.804	220.62
345.031	232.62
345.259	247.62
345.487	225.62
345.714	222.62
345.942	227.62
346.17	227.62
346.397	222.62
346.625	220.62
346.853	222.62
347.08	237.62
347.308	223.62
347.535	243.62
347.763	239.62
347.99	236.62
348.218	231.62
348.445	236.62
348.673	235.62
348.9	225.62
349.128	215.62
349.355	209.62
349.583	215.62
349.81	217.62
350.037	220.62
350.265	215.62
350.492	204.62
350.72	226.62
350.947	207.62
351.174	236.62
351.402	245.62
351.629	229.62
351.856	241.62
352.083	230.62
352.311	240.62
352.538	222.62
352.765	233.62
352.992	222.62
353.22	230.62
353.447	215.62
353.674	227.62
353.901	233.62
354.128	226.62
354.355	217.62
354.583	218.62
354.81	205.62
355.037	204.62
355.264	223.62
355.491	222.62
355.718	205.62
355.945	204.62
356.172	201.62
356.399	203.62
356.626	208.62
356.853	216.62
357.08	208.62
357.307	213.62
357.534	218.62
357.761	215.62
357.988	204.62
358.215	209.62
358.441	196.62
358.668	224.62
358.895	222.62
359.122	219.62
359.349	224.62
359.576	230.62
359.802	229.62
360.029	269.62
360.256	248.62
360.483	248.62
360.709	231.62
360.936	217.62
361.163	221.62
361.39	223.62
361.616	243.62
361.843	227.62
362.07	240.62
362.296	225.62
362.523	206.62
362.749	238.62
362.976	210.62
363.203	240.62
363.429	216.62
363.656	232.62
363.882	239.62
364.109	211.62
364.335	207.62
364.562	215.62
364.788	219.62
365.015	192.62
365.241	223.62
365.468	209.62
365.694	218.62
365.92	223.62
366.147	214.62
366.373	196.62
366.599	215.62
366.826	194.62
367.052	222.62
367.278	197.62
367.505	228.62
367.731	221.62
367.957	204.62
368.184	213.62
368.41	215.62
368.636	227.62
368.862	221.62
369.089	228.62
369.315	219.62
369.541	215.62
369.767	208.62
369.993	213.62
370.219	196.62
370.445	218.62
370.672	215.62
370.898	214.62
371.124	210.62
371.35	210.62
371.576	205.62
371.802	206.62
372.028	217.62
372.254	214.62
372.48	219.62
372.706	217.62
372.932	199.62
373.158	225.62
373.384	207.62
373.61	200.62
373.835	209.62
374.061	238.62
374.287	213.62
374.513	224.62
374.739	219.62
374.965	221.62
375.191	220.62
375.416	215.62
375.642	202.62
375.868	206.62
376.094	206.62
376.319	204.62
376.545	204.62
376.771	204.62
376.997	203.62
377.222	198.62
377.448	214.62
377.674	208.62
377.899	206.62
378.125	222.62
378.35	205.62
378.576	213.62
378.802	214.62
379.027	225.62
379.253	189.62
379.478	220.62
379.704	219.62
379.929	202.62
380.155	204.62
380.38	220.62
380.606	208.62
380.831	192.62
381.057	204.62
381.282	203.62
381.507	230.62
381.733	217.62
381.958	207.62
382.184	208.62
382.409	224.62
382.634	222.62
382.86	218.62
383.085	236.62
383.31	212.62
383.535	223.62
383.761	211.62
383.986	231.62
384.211	208.62
384.436	235.62
384.662	236.62
384.887	233.62
385.112	214.62
385.337	223.62
385.562	237.62
385.787	229.62
386.013	238.62
386.238	229.62
386.463	233.62
386.688	229.62
386.913	219.62
387.138	224.62
387.363	237.62
387.588	244.62
387.813	222.62
388.038	222.62
388.263	217.62
388.488	217.62
388.713	221.62
388.938	232.62
389.163	236.62
389.387	243.62
389.612	234.62
389.837	230.62
390.062	219.62
390.287	240.62
390.512	222.62
390.736	224.62
390.961	219.62
391.186	218.62
391.411	214.62
391.636	234.62
391.86	236.62
392.085	241.62
392.31	243.62
392.534	245.62
392.759	219.62
392.984	234.62
393.208	228.62
393.433	238.62
393.658	222.62
393.882	212.62
394.107	213.62
394.331	236.62
394.556	236.62
394.78	227.62
395.005	229.62
395.229	234.62
395.454	236.62
395.678	228.62
395.903	238.62
396.127	247.62
396.352	246.62
396.576	232.62
396.801	237.62
397.025	246.62
397.249	227.62
397.474	230.62
397.698	247.62
397.922	245.62
398.147	262.62
398.371	254.62
398.595	273.62
398.82	225.62
399.044	251.62
399.268	264.62
399.492	276.62
399.717	299.62
399.941	291.62
400.165	299.62
400.389	299.62
400.613	281.62
400.837	273.62
401.062	256.62
401.286	253.62
401.51	265.62
401.734	251.62
401.958	269.62
402.182	261.62
402.406	270.62
402.63	269.62
402.854	279.62
403.078	249.62
403.302	260.62
403.526	274.62
403.75	267.62
403.974	266.62
404.198	271.62
404.422	265.62
404.645	283.62
404.869	264.62
405.093	287.62
405.317	299.62
405.541	328.62
405.765	296.62
405.988	280.62
406.212	285.62
406.436	317.62
406.66	286.62
406.883	295.62
407.107	303.62
407.331	310.62
407.555	336.62
407.778	316.62
408.002	311.62
408.226	299.62
408.449	271.62
408.673	302.62
408.896	304.62
409.12	307.62
409.344	302.62
409.567	274.62
409.791	255.62
410.014	267.62
410.238	280.62
410.461	268.62
410.685	285.62
410.908	273.62
411.132	282.62
411.355	297.62
411.578	284.62
411.802	279.62
412.025	267.62
412.249	274.62
412.472	274.62
412.695	282.62
412.919	287.62
413.142	268.62
413.365	254.62
413.589	259.62
413.812	255.62
414.035	247.62
414.258	252.62
414.482	235.62
414.705	254.62
414.928	249.62
415.151	251.62
415.374	233.62
415.597	255.62
415.821	268.62
416.044	247.62
416.267	245.62
416.49	257.62
416.713	236.62
416.936	252.62
417.159	263.62
417.382	253.62
417.605	261.62
417.828	256.62
418.051	271.62
418.274	262.62
418.497	272.62
418.72	260.62
418.943	262.62
419.166	274.62
419.389	273.62
419.611	270.62
419.834	278.62
420.057	263.62
420.28	271.62
420.503	258.62
420.726	271.62
420.948	270.62
421.171	307.62
421.394	304.62
421.617	282.62
421.839	268.62
422.062	271.62
422.285	301.62
422.507	294.62
422.73	332.62
422.953	307.62
423.175	274.62
423.398	277.62
423.621	284.62
423.843	279.62
424.066	287.62
424.288	270.62
424.511	293.62
424.733	329.62
424.956	353.62
425.178	330.62
425.401	325.62
425.623	339.62
425.846	286.62
426.068	287.62
426.291	285.62
426.513	271.62
426.735	309.62
426.958	317.62
427.18	333.62
427.402	387.62
427.625	424.62
427.847	380.62
428.069	311.62
428.292	291.62
428.514	257.62
428.736	263.62
428.958	252.62
429.181	248.62
429.403	267.62
429.625	260.62
429.847	276.62
430.069	318.62
430.292	310.62
430.514	272.62
430.736	268.62
430.958	244.62
431.18	248.62
431.402	257.62
431.624	236.62
431.846	259.62
432.068	243.62
432.29	243.62
432.512	252.62
432.734	266.62
432.956	224.62
433.178	240.62
433.4	264.62
433.622	263.62
433.844	234.62
434.066	253.62
434.287	235.62
434.509	240.62
434.731	250.62
434.953	273.62
435.175	273.62
435.397	269.62
435.618	280.62
435.84	293.62
436.062	335.62
436.284	372.62
436.505	311.62
436.727	295.62
436.949	279.62
437.17	276.62
437.392	270.62
437.614	270.62
437.835	288.62
438.057	342.62
438.278	384.62
438.5	372.62
438.721	390.62
438.943	363.62
439.165	303.62
439.386	279.62
439.608	273.62
439.829	283.62
440.05	319.62
440.272	310.62
440.493	288.62
440.715	278.62
440.936	263.62
441.158	259.62
441.379	247.62
441.6	263.62
441.822	295.62
442.043	307.62
442.264	333.62
442.486	347.62
442.707	312.62
442.928	278.62
443.149	299.62
443.371	305.62
443.592	324.62
443.813	371.62
444.034	361.62
444.255	315.62
444.476	283.62
444.698	285.62
444.919	272.62
445.14	363.62
445.361	332.62
445.582	315.62
445.803	349.62
446.024	385.62
446.245	380.62
446.466	345.62
446.687	287.62
446.908	264.62
447.129	266.62
447.35	244.62
447.571	267.62
447.792	244.62
448.013	252.62
448.234	259.62
448.455	299.62
448.675	340.62
448.896	396.62
449.117	309.62
449.338	309.62
449.559	358.62
449.779	399.62
450	310.62
450.221	271.62
450.442	269.62
450.662	249.62
450.883	259.62
451.104	269.62
451.324	271.62
451.545	248.62
451.766	244.62
451.986	246.62
452.207	240.62
452.428	219.62
452.648	229.62
452.869	241.62
453.089	264.62
453.31	252.62
453.53	230.62
453.751	245.62
453.971	236.62
454.192	267.62
454.412	239.62
454.633	233.62
454.853	223.62
455.073	230.62
455.294	251.62
455.514	275.62
455.734	268.62
455.955	244.62
456.175	231.62
456.395	253.62
456.616	229.62
456.836	222.62
457.056	223.62
457.276	215.62
457.497	233.62
457.717	219.62
457.937	227.62
458.157	247.62
458.377	225.62
458.598	228.62
458.818	278.62
459.038	322.62
459.258	308.62
459.478	265.62
459.698	259.62
459.918	228.62
460.138	245.62
460.358	239.62
460.578	257.62
460.798	246.62
461.018	252.62
461.238	263.62
461.458	245.62
461.678	253.62
461.898	250.62
462.118	233.62
462.338	262.62
462.558	258.62
462.777	258.62
462.997	258.62
463.217	267.62
463.437	261.62
463.657	264.62
463.876	258.62
464.096	278.62
464.316	252.62
464.536	286.62
464.755	275.62
464.975	275.62
465.195	305.62
465.414	369.62
465.634	297.62
465.854	277.62
466.073	246.62
466.293	245.62
466.512	235.62
466.732	249.62
466.951	247.62
467.171	252.62
467.391	240.62
467.61	263.62
467.829	254.62
468.049	260.62
468.268	237.62
468.488	256.62
468.707	238.62
468.927	240.62
469.146	238.62
469.365	245.62
469.585	230.62
469.804	245.62
470.023	248.62
470.243	248.62
470.462	238.62
470.681	267.62
470.901	265.62
471.12	231.62
471.339	260.62
471.558	237.62
471.777	253.62
471.997	252.62
472.216	261.62
472.435	283.62
472.654	279.62
472.873	235.62
473.092	236.62
473.311	244.62
473.53	243.62
473.749	246.62
473.968	267.62
474.187	332.62
474.406	305.62
474.625	268.62
474.844	249.62
475.063	240.62
475.282	237.62
475.501	241.62
475.72	256.62
475.939	255.62
476.158	241.62
476.377	261.62
476.596	250.62
476.814	249.62
477.033	261.62
477.252	268.62
477.471	237.62
477.69	249.62
477.908	276.62
478.127	272.62
478.346	262.62
478.564	268.62
478.783	259.62
479.002	256.62
479.22	279.62
479.439	295.62
479.658	305.62
479.876	288.62
480.095	287.62
480.313	308.62
480.532	313.62
480.751	308.62
480.969	330.62
481.188	355.62
481.406	371.62
481.624	309.62
481.843	282.62
482.061	287.62
482.28	298.62
482.498	271.62
482.717	289.62
482.935	284.62
483.153	289.62
483.372	292.62
483.59	294.62
483.808	277.62
484.027	281.62
484.245	289.62
484.463	283.62
484.681	289.62
484.9	296.62
485.118	279.62
485.336	288.62
485.554	279.62
485.772	308.62
485.99	299.62
486.209	285.62
486.427	299.62
486.645	307.62
486.863	299.62
487.081	301.62
487.299	312.62
487.517	294.62
487.735	304.62
487.953	297.62
488.171	317.62
488.389	299.62
488.607	294.62
488.825	302.62
489.043	301.62
489.261	297.62
489.479	308.62
489.696	304.62
489.914	307.62
490.132	291.62
490.35	320.62
490.568	314.62
490.786	322.62
491.003	327.62
491.221	343.62
491.439	353.62
491.657	355.62
491.874	364.62
492.092	341.62
492.31	350.62
492.527	351.62
492.745	336.62
492.963	360.62
493.18	346.62
493.398	358.62
493.615	370.62
493.833	363.62
494.05	355.62
494.268	339.62
494.485	346.62
494.703	339.62
494.92	363.62
495.138	360.62
495.355	341.62
495.573	356.62
495.79	347.62
496.008	351.62
496.225	343.62
496.442	329.62
496.66	358.62
496.877	337.62
497.094	358.62
497.312	340.62
497.529	352.62
497.746	351.62
497.963	360.62
498.181	398.62
498.398	394.62
498.615	376.62
498.832	378.62
499.049	386.62
499.267	399.62
499.484	399.62
499.701	418.62
499.918	438.62
500.135	466.62
500.352	466.62
500.569	497.62
500.786	471.62
501.003	465.62
501.22	445.62
501.437	463.62
501.654	430.62
501.871	424.62
502.088	404.62
502.305	390.62
502.522	371.62
