Data from 1966.PennyLincolnUp.Lamp.En5.5.200Scan.071719.P1._HRD10591_14-14-58-914.txt Node
Date: Thu Jul 18 14:14:58 EDT 2019
User: cochatt
Spectrometer: HR+D1059
Trigger mode: 1
Integration Time (sec): 1.000000E-1
Scans to average: 1
Electric dark correction enabled: true
Nonlinearity correction enabled: false
Boxcar width: 0
XAxis mode: Wavelengths
Number of Pixels in Spectrum: 2048
>>>>>Begin Spectral Data<<<<<
223.165	-26.5
223.4	-26.5
223.635	-26.5
223.869	-14.5
224.104	-21.5
224.338	-19.5
224.573	3.5
224.808	-12.5
225.042	-10.5
225.277	-4.5
225.511	-14.5
225.746	0.5
225.98	-14.5
226.215	13.5
226.449	27.5
226.683	22.5
226.918	27.5
227.152	43.5
227.387	22.5
227.621	36.5
227.856	43.5
228.09	52.5
228.324	46.5
228.559	47.5
228.793	59.5
229.027	75.5
229.262	80.5
229.496	88.5
229.73	91.5
229.964	110.5
230.199	83.5
230.433	91.5
230.667	86.5
230.901	83.5
231.136	82.5
231.37	93.5
231.604	89.5
231.838	86.5
232.072	99.5
232.306	106.5
232.541	106.5
232.775	81.5
233.009	93.5
233.243	91.5
233.477	98.5
233.711	83.5
233.945	87.5
234.179	106.5
234.413	106.5
234.647	113.5
234.881	100.5
235.115	111.5
235.349	100.5
235.583	84.5
235.817	92.5
236.051	103.5
236.285	89.5
236.519	95.5
236.753	101.5
236.987	100.5
237.221	119.5
237.455	143.5
237.689	121.5
237.922	117.5
238.156	89.5
238.39	90.5
238.624	94.5
238.858	97.5
239.091	90.5
239.325	94.5
239.559	87.5
239.793	87.5
240.027	98.5
240.26	97.5
240.494	109.5
240.728	122.5
240.961	126.5
241.195	115.5
241.429	105.5
241.662	108.5
241.896	106.5
242.13	95.5
242.363	99.5
242.597	107.5
242.83	102.5
243.064	102.5
243.298	102.5
243.531	101.5
243.765	96.5
243.998	97.5
244.232	102.5
244.465	105.5
244.699	115.5
244.932	113.5
245.166	99.5
245.399	102.5
245.633	109.5
245.866	118.5
246.099	109.5
246.333	103.5
246.566	89.5
246.8	105.5
247.033	113.5
247.266	109.5
247.5	91.5
247.733	112.5
247.966	113.5
248.2	115.5
248.433	124.5
248.666	120.5
248.899	137.5
249.133	137.5
249.366	128.5
249.599	132.5
249.832	120.5
250.066	116.5
250.299	129.5
250.532	121.5
250.765	131.5
250.998	144.5
251.231	149.5
251.465	150.5
251.698	125.5
251.931	121.5
252.164	118.5
252.397	129.5
252.63	135.5
252.863	123.5
253.096	115.5
253.329	134.5
253.562	133.5
253.795	130.5
254.028	144.5
254.261	128.5
254.494	128.5
254.727	184.5
254.96	186.5
255.193	160.5
255.426	155.5
255.659	137.5
255.892	137.5
256.124	147.5
256.357	154.5
256.59	150.5
256.823	136.5
257.056	131.5
257.289	145.5
257.521	150.5
257.754	119.5
257.987	133.5
258.22	141.5
258.452	123.5
258.685	119.5
258.918	139.5
259.151	138.5
259.383	147.5
259.616	162.5
259.849	133.5
260.081	153.5
260.314	163.5
260.547	160.5
260.779	143.5
261.012	156.5
261.244	136.5
261.477	153.5
261.71	139.5
261.942	154.5
262.175	145.5
262.407	137.5
262.64	127.5
262.872	140.5
263.105	121.5
263.337	139.5
263.57	139.5
263.802	128.5
264.035	161.5
264.267	141.5
264.499	136.5
264.732	139.5
264.964	133.5
265.197	143.5
265.429	142.5
265.661	130.5
265.894	128.5
266.126	134.5
266.358	142.5
266.591	143.5
266.823	147.5
267.055	140.5
267.287	147.5
267.52	147.5
267.752	161.5
267.984	144.5
268.216	151.5
268.448	148.5
268.681	144.5
268.913	161.5
269.145	170.5
269.377	170.5
269.609	166.5
269.841	158.5
270.073	159.5
270.306	182.5
270.538	184.5
270.77	185.5
271.002	172.5
271.234	185.5
271.466	181.5
271.698	174.5
271.93	179.5
272.162	193.5
272.394	193.5
272.626	169.5
272.858	163.5
273.09	151.5
273.322	162.5
273.553	161.5
273.785	169.5
274.017	167.5
274.249	166.5
274.481	163.5
274.713	154.5
274.945	160.5
275.176	162.5
275.408	158.5
275.64	151.5
275.872	157.5
276.104	149.5
276.335	157.5
276.567	177.5
276.799	173.5
277.031	187.5
277.262	204.5
277.494	200.5
277.726	168.5
277.957	168.5
278.189	178.5
278.421	149.5
278.652	151.5
278.884	163.5
279.115	154.5
279.347	190.5
279.579	161.5
279.81	164.5
280.042	159.5
280.273	170.5
280.505	164.5
280.736	182.5
280.968	165.5
281.199	149.5
281.431	167.5
281.662	164.5
281.894	150.5
282.125	161.5
282.356	169.5
282.588	194.5
282.819	193.5
283.051	177.5
283.282	177.5
283.513	157.5
283.745	171.5
283.976	186.5
284.207	156.5
284.439	166.5
284.67	163.5
284.901	168.5
285.132	165.5
285.364	159.5
285.595	176.5
285.826	161.5
286.057	165.5
286.288	158.5
286.52	171.5
286.751	166.5
286.982	158.5
287.213	171.5
287.444	168.5
287.675	171.5
287.906	179.5
288.138	170.5
288.369	180.5
288.6	168.5
288.831	202.5
289.062	168.5
289.293	182.5
289.524	170.5
289.755	160.5
289.986	184.5
290.217	174.5
290.448	166.5
290.679	162.5
290.91	172.5
291.141	164.5
291.371	182.5
291.602	170.5
291.833	195.5
292.064	177.5
292.295	160.5
292.526	174.5
292.757	168.5
292.987	172.5
293.218	171.5
293.449	174.5
293.68	174.5
293.91	159.5
294.141	166.5
294.372	178.5
294.603	181.5
294.833	173.5
295.064	165.5
295.295	183.5
295.525	159.5
295.756	183.5
295.987	186.5
296.217	176.5
296.448	175.5
296.679	171.5
296.909	168.5
297.14	186.5
297.37	173.5
297.601	172.5
297.831	169.5
298.062	158.5
298.292	174.5
298.523	198.5
298.753	191.5
298.984	194.5
299.214	177.5
299.445	172.5
299.675	176.5
299.905	193.5
300.136	175.5
300.366	181.5
300.597	179.5
300.827	192.5
301.057	198.5
301.288	201.5
301.518	181.5
301.748	198.5
301.979	191.5
302.209	190.5
302.439	164.5
302.669	194.5
302.9	191.5
303.13	198.5
303.36	185.5
303.59	183.5
303.82	185.5
304.051	187.5
304.281	197.5
304.511	187.5
304.741	177.5
304.971	183.5
305.201	191.5
305.431	187.5
305.661	179.5
305.891	182.5
306.121	174.5
306.352	165.5
306.582	199.5
306.812	199.5
307.042	197.5
307.272	193.5
307.502	188.5
307.731	199.5
307.961	179.5
308.191	182.5
308.421	199.5
308.651	188.5
308.881	197.5
309.111	200.5
309.341	195.5
309.571	193.5
309.8	202.5
310.03	225.5
310.26	223.5
310.49	216.5
310.72	222.5
310.949	222.5
311.179	241.5
311.409	207.5
311.639	207.5
311.868	199.5
312.098	215.5
312.328	228.5
312.557	224.5
312.787	231.5
313.017	228.5
313.246	219.5
313.476	201.5
313.706	203.5
313.935	218.5
314.165	211.5
314.394	212.5
314.624	246.5
314.853	233.5
315.083	228.5
315.312	196.5
315.542	203.5
315.771	222.5
316.001	214.5
316.23	205.5
316.46	205.5
316.689	209.5
316.919	203.5
317.148	219.5
317.377	220.5
317.607	206.5
317.836	199.5
318.065	218.5
318.295	211.5
318.524	202.5
318.753	211.5
318.983	207.5
319.212	209.5
319.441	221.5
319.67	229.5
319.9	212.5
320.129	203.5
320.358	218.5
320.587	219.5
320.816	219.5
321.046	221.5
321.275	222.5
321.504	226.5
321.733	228.5
321.962	214.5
322.191	227.5
322.42	237.5
322.649	246.5
322.878	251.5
323.108	260.5
323.337	271.5
323.566	290.5
323.795	294.5
324.024	291.5
324.253	374.5
324.482	521.5
324.71	825.5
324.939	1078.5
325.168	864.5
325.397	439.5
325.626	323.5
325.855	286.5
326.084	271.5
326.313	249.5
326.542	273.5
326.77	319.5
326.999	360.5
327.228	475.5
327.457	729.5
327.686	776.5
327.914	514.5
328.143	373.5
328.372	340.5
328.6	294.5
328.829	298.5
329.058	305.5
329.287	331.5
329.515	305.5
329.744	291.5
329.972	270.5
330.201	295.5
330.43	322.5
330.658	355.5
330.887	363.5
331.115	329.5
331.344	285.5
331.572	273.5
331.801	286.5
332.03	260.5
332.258	262.5
332.486	244.5
332.715	241.5
332.943	241.5
333.172	246.5
333.4	242.5
333.629	277.5
333.857	229.5
334.085	269.5
334.314	278.5
334.542	317.5
334.771	317.5
334.999	281.5
335.227	254.5
335.455	257.5
335.684	222.5
335.912	243.5
336.14	245.5
336.369	234.5
336.597	233.5
336.825	246.5
337.053	244.5
337.281	261.5
337.51	229.5
337.738	234.5
337.966	237.5
338.194	237.5
338.422	248.5
338.65	255.5
338.878	225.5
339.106	225.5
339.334	234.5
339.562	239.5
339.79	243.5
340.018	227.5
340.246	229.5
340.474	238.5
340.702	235.5
340.93	214.5
341.158	237.5
341.386	233.5
341.614	221.5
341.842	225.5
342.07	220.5
342.298	228.5
342.526	214.5
342.754	217.5
342.981	214.5
343.209	218.5
343.437	221.5
343.665	235.5
343.893	247.5
344.12	221.5
344.348	227.5
344.576	230.5
344.804	212.5
345.031	236.5
345.259	265.5
345.487	238.5
345.714	236.5
345.942	226.5
346.17	215.5
346.397	229.5
346.625	245.5
346.853	226.5
347.08	223.5
347.308	219.5
347.535	226.5
347.763	224.5
347.99	237.5
348.218	215.5
348.445	228.5
348.673	223.5
348.9	233.5
349.128	225.5
349.355	216.5
349.583	219.5
349.81	214.5
350.037	218.5
350.265	212.5
350.492	200.5
350.72	221.5
350.947	234.5
351.174	232.5
351.402	227.5
351.629	219.5
351.856	218.5
352.083	223.5
352.311	241.5
352.538	249.5
352.765	235.5
352.992	229.5
353.22	230.5
353.447	222.5
353.674	224.5
353.901	211.5
354.128	192.5
354.355	218.5
354.583	231.5
354.81	211.5
355.037	227.5
355.264	205.5
355.491	203.5
355.718	201.5
355.945	199.5
356.172	197.5
356.399	214.5
356.626	190.5
356.853	202.5
357.08	200.5
357.307	197.5
357.534	205.5
357.761	199.5
357.988	199.5
358.215	206.5
358.441	207.5
358.668	206.5
358.895	193.5
359.122	204.5
359.349	219.5
359.576	223.5
359.802	253.5
360.029	269.5
360.256	255.5
360.483	257.5
360.709	225.5
360.936	232.5
361.163	227.5
361.39	243.5
361.616	219.5
361.843	216.5
362.07	216.5
362.296	222.5
362.523	219.5
362.749	230.5
362.976	212.5
363.203	226.5
363.429	213.5
363.656	204.5
363.882	219.5
364.109	212.5
364.335	213.5
364.562	212.5
364.788	220.5
365.015	217.5
365.241	214.5
365.468	208.5
365.694	212.5
365.92	231.5
366.147	220.5
366.373	211.5
366.599	201.5
366.826	204.5
367.052	210.5
367.278	206.5
367.505	223.5
367.731	225.5
367.957	220.5
368.184	215.5
368.41	226.5
368.636	227.5
368.862	224.5
369.089	216.5
369.315	209.5
369.541	222.5
369.767	214.5
369.993	218.5
370.219	205.5
370.445	217.5
370.672	212.5
370.898	203.5
371.124	203.5
371.35	196.5
371.576	202.5
371.802	211.5
372.028	201.5
372.254	207.5
372.48	213.5
372.706	213.5
372.932	206.5
373.158	220.5
373.384	202.5
373.61	204.5
373.835	203.5
374.061	207.5
374.287	220.5
374.513	215.5
374.739	206.5
374.965	219.5
375.191	215.5
375.416	219.5
375.642	215.5
375.868	204.5
376.094	196.5
376.319	202.5
376.545	219.5
376.771	209.5
376.997	212.5
377.222	208.5
377.448	212.5
377.674	205.5
377.899	207.5
378.125	202.5
378.35	190.5
378.576	200.5
378.802	187.5
379.027	226.5
379.253	206.5
379.478	199.5
379.704	197.5
379.929	209.5
380.155	213.5
380.38	214.5
380.606	206.5
380.831	214.5
381.057	228.5
381.282	225.5
381.507	185.5
381.733	211.5
381.958	191.5
382.184	207.5
382.409	200.5
382.634	222.5
382.86	207.5
383.085	205.5
383.31	201.5
383.535	210.5
383.761	226.5
383.986	215.5
384.211	213.5
384.436	217.5
384.662	194.5
384.887	221.5
385.112	221.5
385.337	228.5
385.562	211.5
385.787	227.5
386.013	221.5
386.238	227.5
386.463	215.5
386.688	206.5
386.913	228.5
387.138	220.5
387.363	222.5
387.588	219.5
387.813	221.5
388.038	213.5
388.263	247.5
388.488	228.5
388.713	224.5
388.938	238.5
389.163	233.5
389.387	222.5
389.612	223.5
389.837	214.5
390.062	215.5
390.287	241.5
390.512	235.5
390.736	225.5
390.961	211.5
391.186	223.5
391.411	260.5
391.636	230.5
391.86	224.5
392.085	235.5
392.31	236.5
392.534	220.5
392.759	218.5
392.984	232.5
393.208	235.5
393.433	230.5
393.658	229.5
393.882	235.5
394.107	223.5
394.331	232.5
394.556	221.5
394.78	230.5
395.005	231.5
395.229	222.5
395.454	231.5
395.678	248.5
395.903	235.5
396.127	242.5
396.352	243.5
396.576	245.5
396.801	233.5
397.025	234.5
397.249	229.5
397.474	232.5
397.698	228.5
397.922	249.5
398.147	257.5
398.371	247.5
398.595	256.5
398.82	247.5
399.044	244.5
399.268	269.5
399.492	281.5
399.717	286.5
399.941	281.5
400.165	310.5
400.389	295.5
400.613	289.5
400.837	273.5
401.062	262.5
401.286	254.5
401.51	253.5
401.734	266.5
401.958	236.5
402.182	277.5
402.406	286.5
402.63	259.5
402.854	248.5
403.078	242.5
403.302	265.5
403.526	264.5
403.75	255.5
403.974	273.5
404.198	265.5
404.422	274.5
404.645	263.5
404.869	272.5
405.093	283.5
405.317	290.5
405.541	309.5
405.765	306.5
405.988	280.5
406.212	290.5
406.436	294.5
406.66	308.5
406.883	300.5
407.107	289.5
407.331	302.5
407.555	329.5
407.778	330.5
408.002	297.5
408.226	280.5
408.449	290.5
408.673	281.5
408.896	297.5
409.12	308.5
409.344	279.5
409.567	263.5
409.791	259.5
410.014	267.5
410.238	252.5
410.461	269.5
410.685	289.5
410.908	282.5
411.132	291.5
411.355	311.5
411.578	294.5
411.802	262.5
412.025	249.5
412.249	259.5
412.472	270.5
412.695	280.5
412.919	294.5
413.142	262.5
413.365	250.5
413.589	265.5
413.812	268.5
414.035	239.5
414.258	278.5
414.482	242.5
414.705	250.5
414.928	245.5
415.151	257.5
415.374	260.5
415.597	240.5
415.821	251.5
416.044	251.5
416.267	263.5
416.49	251.5
416.713	248.5
416.936	257.5
417.159	249.5
417.382	261.5
417.605	245.5
417.828	260.5
418.051	265.5
418.274	254.5
418.497	261.5
418.72	262.5
418.943	258.5
419.166	239.5
419.389	281.5
419.611	274.5
419.834	253.5
420.057	253.5
420.28	254.5
420.503	268.5
420.726	255.5
420.948	271.5
421.171	292.5
421.394	308.5
421.617	246.5
421.839	262.5
422.062	246.5
422.285	289.5
422.507	290.5
422.73	333.5
422.953	309.5
423.175	277.5
423.398	254.5
423.621	280.5
423.843	285.5
424.066	287.5
424.288	276.5
424.511	282.5
424.733	295.5
424.956	351.5
425.178	321.5
425.401	321.5
425.623	354.5
425.846	291.5
426.068	285.5
426.291	294.5
426.513	270.5
426.735	256.5
426.958	299.5
427.18	329.5
427.402	394.5
427.625	414.5
427.847	387.5
428.069	326.5
428.292	289.5
428.514	278.5
428.736	281.5
428.958	262.5
429.181	263.5
429.403	249.5
429.625	262.5
429.847	281.5
430.069	319.5
430.292	279.5
430.514	267.5
430.736	248.5
430.958	265.5
431.18	245.5
431.402	259.5
431.624	236.5
431.846	243.5
432.068	248.5
432.29	238.5
432.512	254.5
432.734	242.5
432.956	278.5
433.178	255.5
433.4	253.5
433.622	248.5
433.844	253.5
434.066	250.5
434.287	253.5
434.509	250.5
434.731	257.5
434.953	263.5
435.175	267.5
435.397	274.5
435.618	281.5
435.84	290.5
436.062	331.5
436.284	327.5
436.505	312.5
436.727	279.5
436.949	281.5
437.17	272.5
437.392	259.5
437.614	261.5
437.835	295.5
438.057	330.5
438.278	358.5
438.5	347.5
438.721	396.5
438.943	377.5
439.165	311.5
439.386	279.5
439.608	274.5
439.829	279.5
440.05	303.5
440.272	333.5
440.493	302.5
440.715	275.5
440.936	252.5
441.158	261.5
441.379	262.5
441.6	255.5
441.822	278.5
442.043	300.5
442.264	354.5
442.486	362.5
442.707	328.5
442.928	316.5
443.149	300.5
443.371	319.5
443.592	311.5
443.813	380.5
444.034	375.5
444.255	310.5
444.476	270.5
444.698	271.5
444.919	292.5
445.14	367.5
445.361	322.5
445.582	306.5
445.803	323.5
446.024	385.5
446.245	382.5
446.466	333.5
446.687	300.5
446.908	284.5
447.129	278.5
447.35	261.5
447.571	261.5
447.792	244.5
448.013	239.5
448.234	267.5
448.455	286.5
448.675	326.5
448.896	376.5
449.117	337.5
449.338	311.5
449.559	353.5
449.779	396.5
450	327.5
450.221	257.5
450.442	252.5
450.662	260.5
450.883	247.5
451.104	267.5
451.324	271.5
451.545	236.5
451.766	251.5
451.986	238.5
452.207	219.5
452.428	237.5
452.648	232.5
452.869	244.5
453.089	271.5
453.31	268.5
453.53	259.5
453.751	244.5
453.971	259.5
454.192	277.5
454.412	247.5
454.633	227.5
454.853	224.5
455.073	229.5
455.294	250.5
455.514	265.5
455.734	280.5
455.955	220.5
456.175	219.5
456.395	200.5
456.616	226.5
456.836	210.5
457.056	215.5
457.276	228.5
457.497	224.5
457.717	225.5
457.937	227.5
458.157	228.5
458.377	229.5
458.598	245.5
458.818	289.5
459.038	323.5
459.258	311.5
459.478	252.5
459.698	259.5
459.918	251.5
460.138	234.5
460.358	242.5
460.578	253.5
460.798	265.5
461.018	263.5
461.238	243.5
461.458	249.5
461.678	245.5
461.898	257.5
462.118	233.5
462.338	262.5
462.558	245.5
462.777	260.5
462.997	282.5
463.217	247.5
463.437	275.5
463.657	243.5
463.876	269.5
464.096	271.5
464.316	277.5
464.536	258.5
464.755	267.5
464.975	281.5
465.195	299.5
465.414	359.5
465.634	309.5
465.854	279.5
466.073	263.5
466.293	249.5
466.512	239.5
466.732	243.5
466.951	249.5
467.171	233.5
467.391	243.5
467.61	233.5
467.829	247.5
468.049	243.5
468.268	245.5
468.488	253.5
468.707	226.5
468.927	236.5
469.146	247.5
469.365	218.5
469.585	248.5
469.804	258.5
470.023	261.5
470.243	256.5
470.462	245.5
470.681	258.5
470.901	274.5
471.12	254.5
471.339	246.5
471.558	234.5
471.777	244.5
471.997	235.5
472.216	245.5
472.435	292.5
472.654	268.5
472.873	261.5
473.092	230.5
473.311	241.5
473.53	246.5
473.749	240.5
473.968	268.5
474.187	317.5
474.406	344.5
474.625	284.5
474.844	251.5
475.063	238.5
475.282	237.5
475.501	255.5
475.72	258.5
475.939	234.5
476.158	234.5
476.377	245.5
476.596	240.5
476.814	271.5
477.033	241.5
477.252	248.5
477.471	257.5
477.69	251.5
477.908	260.5
478.127	257.5
478.346	254.5
478.564	266.5
478.783	271.5
479.002	264.5
479.22	270.5
479.439	293.5
479.658	311.5
479.876	290.5
480.095	283.5
480.313	303.5
480.532	296.5
480.751	313.5
480.969	313.5
481.188	361.5
481.406	393.5
481.624	320.5
481.843	291.5
482.061	269.5
482.28	285.5
482.498	277.5
482.717	277.5
482.935	271.5
483.153	291.5
483.372	297.5
483.59	279.5
483.808	266.5
484.027	280.5
484.245	269.5
484.463	265.5
484.681	290.5
484.9	288.5
485.118	294.5
485.336	291.5
485.554	294.5
485.772	289.5
485.99	305.5
486.209	287.5
486.427	282.5
486.645	298.5
486.863	323.5
487.081	317.5
487.299	313.5
487.517	305.5
487.735	292.5
487.953	303.5
488.171	301.5
488.389	298.5
488.607	300.5
488.825	331.5
489.043	309.5
489.261	300.5
489.479	290.5
489.696	336.5
489.914	295.5
490.132	297.5
490.35	329.5
490.568	334.5
490.786	329.5
491.003	318.5
491.221	344.5
491.439	339.5
491.657	355.5
491.874	365.5
492.092	359.5
492.31	333.5
492.527	350.5
492.745	369.5
492.963	357.5
493.18	362.5
493.398	371.5
493.615	369.5
493.833	373.5
494.05	373.5
494.268	356.5
494.485	354.5
494.703	354.5
494.92	370.5
495.138	379.5
495.355	339.5
495.573	352.5
495.79	341.5
496.008	342.5
496.225	331.5
496.442	335.5
496.66	350.5
496.877	349.5
497.094	357.5
497.312	350.5
497.529	354.5
497.746	364.5
497.963	349.5
498.181	381.5
498.398	399.5
498.615	379.5
498.832	369.5
499.049	369.5
499.267	380.5
499.484	396.5
499.701	399.5
499.918	435.5
500.135	443.5
500.352	468.5
500.569	471.5
500.786	487.5
501.003	459.5
501.22	436.5
501.437	444.5
501.654	422.5
501.871	425.5
502.088	398.5
502.305	417.5
502.522	373.5
502.739	381.5
502.956	381.5
503.172	371.5
503.389	357.5
503.606	361.5
503.823	359.5
504.04	349.5
504.256	337.5
504.473	355.5
504.69	324.5
504.907	347.5
505.123	337.5
505.34	331.5
505.557	335.5
505.773	336.5
505.99	341.5
506.207	322.5
506.423	334.5
506.64	335.5
506.856	340.5
507.073	337.5
507.289	311.5
507.506	327.5
507.722	329.5
507.939	353.5
508.155	345.5
508.372	329.5
508.588	325.5
508.805	330.5
509.021	323.5
509.238	327.5
509.454	307.5
509.67	314.5
509.887	305.5
510.103	297.5
510.319	335.5
510.536	417.5
510.752	796.5
510.968	579.5
511.184	327.5
511.401	326.5
511.617	316.5
511.833	296.5
512.049	312.5
512.265	280.5
512.481	290.5
512.698	315.5
512.914	324.5
513.13	291.5
513.346	283.5
513.562	294.5
513.778	290.5
513.994	305.5
514.21	321.5
514.426	318.5
514.642	368.5
514.858	375.5
515.074	401.5
515.29	521.5
515.506	854.5
515.721	661.5
515.937	384.5
516.153	346.5
516.369	319.5
516.585	335.5
516.801	339.5
517.016	324.5
517.232	304.5
517.448	293.5
517.664	301.5
517.879	294.5
518.095	292.5
518.311	308.5
518.527	314.5
518.742	298.5
518.958	292.5
519.173	316.5
519.389	302.5
519.605	289.5
519.82	302.5
520.036	315.5
520.251	317.5
520.467	344.5
