Data from 1966.PennyLincolnUp.Lamp.En5.5.200Scan.071719.P1._HRD10591_14-14-29-915.txt Node
Date: Thu Jul 18 14:14:29 EDT 2019
User: cochatt
Spectrometer: HR+D1059
Trigger mode: 1
Integration Time (sec): 1.000000E-1
Scans to average: 1
Electric dark correction enabled: true
Nonlinearity correction enabled: false
Boxcar width: 0
XAxis mode: Wavelengths
Number of Pixels in Spectrum: 2048
>>>>>Begin Spectral Data<<<<<
223.165	-14.31
223.4	-14.31
223.635	-14.31
223.869	-22.31
224.104	-13.31
224.338	-13.31
224.573	-14.31
224.808	-4.31
225.042	-7.31
225.277	-8.31
225.511	-10.31
225.746	0.69
225.98	-3.31
226.215	18.69
226.449	10.69
226.683	13.69
226.918	37.69
227.152	29.69
227.387	40.69
227.621	28.69
227.856	34.69
228.09	32.69
228.324	60.69
228.559	76.69
228.793	41.69
229.027	72.69
229.262	97.69
229.496	84.69
229.73	82.69
229.964	111.69
230.199	81.69
230.433	84.69
230.667	92.69
230.901	105.69
231.136	90.69
231.37	98.69
231.604	99.69
231.838	120.69
232.072	105.69
232.306	87.69
232.541	103.69
232.775	93.69
233.009	93.69
233.243	95.69
233.477	95.69
233.711	96.69
233.945	92.69
234.179	99.69
234.413	96.69
234.647	95.69
234.881	88.69
235.115	86.69
235.349	108.69
235.583	93.69
235.817	93.69
236.051	95.69
236.285	97.69
236.519	108.69
236.753	108.69
236.987	97.69
237.221	109.69
237.455	140.69
237.689	130.69
237.922	106.69
238.156	94.69
238.39	93.69
238.624	96.69
238.858	94.69
239.091	88.69
239.325	99.69
239.559	81.69
239.793	90.69
240.027	98.69
240.26	95.69
240.494	107.69
240.728	121.69
240.961	89.69
241.195	89.69
241.429	94.69
241.662	100.69
241.896	88.69
242.13	85.69
242.363	98.69
242.597	95.69
242.83	93.69
243.064	117.69
243.298	95.69
243.531	98.69
243.765	104.69
243.998	96.69
244.232	104.69
244.465	95.69
244.699	109.69
244.932	93.69
245.166	92.69
245.399	94.69
245.633	108.69
245.866	107.69
246.099	114.69
246.333	95.69
246.566	107.69
246.8	101.69
247.033	105.69
247.266	107.69
247.5	111.69
247.733	124.69
247.966	113.69
248.2	107.69
248.433	121.69
248.666	122.69
248.899	121.69
249.133	111.69
249.366	137.69
249.599	139.69
249.832	128.69
250.066	111.69
250.299	116.69
250.532	127.69
250.765	130.69
250.998	133.69
251.231	146.69
251.465	129.69
251.698	132.69
251.931	108.69
252.164	135.69
252.397	122.69
252.63	130.69
252.863	140.69
253.096	137.69
253.329	144.69
253.562	130.69
253.795	128.69
254.028	129.69
254.261	137.69
254.494	146.69
254.727	144.69
254.96	173.69
255.193	152.69
255.426	146.69
255.659	154.69
255.892	146.69
256.124	148.69
256.357	144.69
256.59	154.69
256.823	135.69
257.056	126.69
257.289	134.69
257.521	133.69
257.754	140.69
257.987	135.69
258.22	125.69
258.452	133.69
258.685	129.69
258.918	127.69
259.151	134.69
259.383	130.69
259.616	128.69
259.849	138.69
260.081	152.69
260.314	155.69
260.547	152.69
260.779	145.69
261.012	139.69
261.244	142.69
261.477	157.69
261.71	146.69
261.942	126.69
262.175	142.69
262.407	146.69
262.64	125.69
262.872	120.69
263.105	137.69
263.337	143.69
263.57	144.69
263.802	123.69
264.035	134.69
264.267	144.69
264.499	133.69
264.732	146.69
264.964	140.69
265.197	129.69
265.429	134.69
265.661	150.69
265.894	143.69
266.126	126.69
266.358	134.69
266.591	126.69
266.823	135.69
267.055	140.69
267.287	134.69
267.52	149.69
267.752	145.69
267.984	142.69
268.216	133.69
268.448	138.69
268.681	132.69
268.913	145.69
269.145	160.69
269.377	156.69
269.609	162.69
269.841	155.69
270.073	152.69
270.306	178.69
270.538	177.69
270.77	180.69
271.002	184.69
271.234	153.69
271.466	170.69
271.698	163.69
271.93	185.69
272.162	170.69
272.394	172.69
272.626	163.69
272.858	174.69
273.09	165.69
273.322	151.69
273.553	155.69
273.785	171.69
274.017	156.69
274.249	138.69
274.481	144.69
274.713	165.69
274.945	154.69
275.176	157.69
275.408	147.69
275.64	158.69
275.872	152.69
276.104	170.69
276.335	169.69
276.567	164.69
276.799	169.69
277.031	179.69
277.262	186.69
277.494	200.69
277.726	189.69
277.957	160.69
278.189	159.69
278.421	164.69
278.652	138.69
278.884	131.69
279.115	164.69
279.347	161.69
279.579	153.69
279.81	139.69
280.042	148.69
280.273	144.69
280.505	173.69
280.736	153.69
280.968	149.69
281.199	155.69
281.431	154.69
281.662	158.69
281.894	159.69
282.125	160.69
282.356	152.69
282.588	171.69
282.819	165.69
283.051	160.69
283.282	163.69
283.513	166.69
283.745	161.69
283.976	167.69
284.207	161.69
284.439	159.69
284.67	148.69
284.901	158.69
285.132	156.69
285.364	158.69
285.595	159.69
285.826	166.69
286.057	156.69
286.288	156.69
286.52	158.69
286.751	144.69
286.982	165.69
287.213	157.69
287.444	165.69
287.675	159.69
287.906	174.69
288.138	172.69
288.369	175.69
288.6	164.69
288.831	168.69
289.062	171.69
289.293	170.69
289.524	157.69
289.755	140.69
289.986	171.69
290.217	161.69
290.448	154.69
290.679	152.69
290.91	157.69
291.141	162.69
291.371	170.69
291.602	184.69
291.833	154.69
292.064	149.69
292.295	172.69
292.526	169.69
292.757	164.69
292.987	167.69
293.218	169.69
293.449	155.69
293.68	160.69
293.91	178.69
294.141	158.69
294.372	156.69
294.603	177.69
294.833	170.69
295.064	173.69
295.295	183.69
295.525	168.69
295.756	164.69
295.987	180.69
296.217	177.69
296.448	188.69
296.679	172.69
296.909	155.69
297.14	173.69
297.37	157.69
297.601	165.69
297.831	170.69
298.062	161.69
298.292	172.69
298.523	168.69
298.753	163.69
298.984	159.69
299.214	172.69
299.445	189.69
299.675	172.69
299.905	164.69
300.136	171.69
300.366	171.69
300.597	164.69
300.827	191.69
301.057	183.69
301.288	176.69
301.518	178.69
301.748	191.69
301.979	188.69
302.209	168.69
302.439	171.69
302.669	180.69
302.9	184.69
303.13	168.69
303.36	184.69
303.59	183.69
303.82	202.69
304.051	167.69
304.281	174.69
304.511	172.69
304.741	172.69
304.971	169.69
305.201	172.69
305.431	171.69
305.661	169.69
305.891	186.69
306.121	178.69
306.352	169.69
306.582	182.69
306.812	186.69
307.042	180.69
307.272	170.69
307.502	187.69
307.731	178.69
307.961	182.69
308.191	193.69
308.421	179.69
308.651	185.69
308.881	175.69
309.111	198.69
309.341	202.69
309.571	186.69
309.8	202.69
310.03	185.69
310.26	204.69
310.49	208.69
310.72	218.69
310.949	202.69
311.179	208.69
311.409	199.69
311.639	195.69
311.868	209.69
312.098	205.69
312.328	196.69
312.557	203.69
312.787	208.69
313.017	217.69
313.246	209.69
313.476	200.69
313.706	195.69
313.935	202.69
314.165	217.69
314.394	205.69
314.624	212.69
314.853	222.69
315.083	206.69
315.312	206.69
315.542	197.69
315.771	200.69
316.001	198.69
316.23	182.69
316.46	204.69
316.689	185.69
316.919	205.69
317.148	204.69
317.377	201.69
317.607	198.69
317.836	192.69
318.065	188.69
318.295	200.69
318.524	205.69
318.753	196.69
318.983	182.69
319.212	201.69
319.441	188.69
319.67	209.69
319.9	196.69
320.129	194.69
320.358	208.69
320.587	204.69
320.816	216.69
321.046	218.69
321.275	214.69
321.504	199.69
321.733	201.69
321.962	206.69
322.191	209.69
322.42	214.69
322.649	218.69
322.878	233.69
323.108	233.69
323.337	252.69
323.566	253.69
323.795	258.69
324.024	305.69
324.253	350.69
324.482	473.69
324.71	734.69
324.939	972.69
325.168	782.69
325.397	423.69
325.626	303.69
325.855	268.69
326.084	234.69
326.313	237.69
326.542	239.69
326.77	271.69
326.999	340.69
327.228	428.69
327.457	643.69
327.686	729.69
327.914	477.69
328.143	344.69
328.372	301.69
328.6	290.69
328.829	287.69
329.058	315.69
329.287	310.69
329.515	284.69
329.744	258.69
329.972	270.69
330.201	265.69
330.43	284.69
330.658	316.69
330.887	337.69
331.115	321.69
331.344	256.69
331.572	245.69
331.801	252.69
332.03	255.69
332.258	251.69
332.486	231.69
332.715	229.69
332.943	232.69
333.172	233.69
333.4	229.69
333.629	213.69
333.857	242.69
334.085	269.69
334.314	286.69
334.542	285.69
334.771	275.69
334.999	253.69
335.227	228.69
335.455	234.69
335.684	210.69
335.912	238.69
336.14	217.69
336.369	235.69
336.597	233.69
336.825	229.69
337.053	231.69
337.281	229.69
337.51	226.69
337.738	205.69
337.966	212.69
338.194	224.69
338.422	232.69
338.65	216.69
338.878	213.69
339.106	230.69
339.334	236.69
339.562	217.69
339.79	228.69
340.018	218.69
340.246	215.69
340.474	220.69
340.702	215.69
340.93	215.69
341.158	208.69
341.386	203.69
341.614	217.69
341.842	210.69
342.07	200.69
342.298	201.69
342.526	208.69
342.754	203.69
342.981	221.69
343.209	202.69
343.437	209.69
343.665	224.69
343.893	230.69
344.12	229.69
344.348	223.69
344.576	209.69
344.804	236.69
345.031	229.69
345.259	229.69
345.487	231.69
345.714	210.69
345.942	221.69
346.17	209.69
346.397	201.69
346.625	207.69
346.853	220.69
347.08	207.69
347.308	208.69
347.535	217.69
347.763	214.69
347.99	214.69
348.218	211.69
348.445	214.69
348.673	219.69
348.9	214.69
349.128	221.69
349.355	216.69
349.583	199.69
349.81	205.69
350.037	217.69
350.265	227.69
350.492	201.69
350.72	212.69
350.947	196.69
351.174	218.69
351.402	223.69
351.629	222.69
351.856	212.69
352.083	202.69
352.311	223.69
352.538	224.69
352.765	223.69
352.992	227.69
353.22	225.69
353.447	209.69
353.674	205.69
353.901	217.69
354.128	196.69
354.355	199.69
354.583	205.69
354.81	189.69
355.037	212.69
355.264	194.69
355.491	213.69
355.718	202.69
355.945	201.69
356.172	192.69
356.399	199.69
356.626	204.69
356.853	196.69
357.08	213.69
357.307	197.69
357.534	196.69
357.761	198.69
357.988	186.69
358.215	193.69
358.441	194.69
358.668	202.69
358.895	197.69
359.122	203.69
359.349	204.69
359.576	200.69
359.802	225.69
360.029	226.69
360.256	244.69
360.483	219.69
360.709	213.69
360.936	215.69
361.163	205.69
361.39	215.69
361.616	209.69
361.843	202.69
362.07	214.69
362.296	213.69
362.523	196.69
362.749	216.69
362.976	203.69
363.203	200.69
363.429	215.69
363.656	205.69
363.882	207.69
364.109	196.69
364.335	201.69
364.562	201.69
364.788	206.69
365.015	208.69
365.241	196.69
365.468	220.69
365.694	216.69
365.92	212.69
366.147	208.69
366.373	207.69
366.599	190.69
366.826	193.69
367.052	196.69
367.278	200.69
367.505	207.69
367.731	206.69
367.957	208.69
368.184	196.69
368.41	209.69
368.636	193.69
368.862	205.69
369.089	196.69
369.315	196.69
369.541	194.69
369.767	187.69
369.993	209.69
370.219	209.69
370.445	207.69
370.672	194.69
370.898	214.69
371.124	189.69
371.35	199.69
371.576	196.69
371.802	201.69
372.028	196.69
372.254	189.69
372.48	200.69
372.706	215.69
372.932	192.69
373.158	204.69
373.384	200.69
373.61	209.69
373.835	203.69
374.061	202.69
374.287	206.69
374.513	207.69
374.739	202.69
374.965	210.69
375.191	201.69
375.416	210.69
375.642	199.69
375.868	213.69
376.094	201.69
376.319	201.69
376.545	201.69
376.771	202.69
376.997	195.69
377.222	201.69
377.448	180.69
377.674	197.69
377.899	194.69
378.125	177.69
378.35	205.69
378.576	199.69
378.802	190.69
379.027	186.69
379.253	204.69
379.478	201.69
379.704	199.69
379.929	204.69
380.155	196.69
380.38	189.69
380.606	204.69
380.831	195.69
381.057	209.69
381.282	206.69
381.507	198.69
381.733	197.69
381.958	197.69
382.184	207.69
382.409	198.69
382.634	194.69
382.86	207.69
383.085	214.69
383.31	207.69
383.535	215.69
383.761	202.69
383.986	206.69
384.211	224.69
384.436	210.69
384.662	209.69
384.887	214.69
385.112	208.69
385.337	197.69
385.562	219.69
385.787	197.69
386.013	217.69
386.238	231.69
386.463	215.69
386.688	213.69
386.913	203.69
387.138	204.69
387.363	223.69
387.588	210.69
387.813	197.69
388.038	206.69
388.263	207.69
388.488	215.69
388.713	205.69
388.938	207.69
389.163	223.69
389.387	219.69
389.612	208.69
389.837	223.69
390.062	206.69
390.287	219.69
390.512	211.69
390.736	201.69
390.961	202.69
391.186	211.69
391.411	214.69
391.636	215.69
391.86	225.69
392.085	226.69
392.31	216.69
392.534	202.69
392.759	204.69
392.984	216.69
393.208	224.69
393.433	219.69
393.658	216.69
393.882	199.69
394.107	193.69
394.331	190.69
394.556	212.69
394.78	220.69
395.005	220.69
395.229	208.69
395.454	207.69
395.678	222.69
395.903	213.69
396.127	245.69
396.352	233.69
396.576	234.69
396.801	219.69
397.025	207.69
397.249	203.69
397.474	209.69
397.698	233.69
397.922	239.69
398.147	225.69
398.371	244.69
398.595	229.69
398.82	239.69
399.044	223.69
399.268	241.69
399.492	251.69
399.717	262.69
399.941	267.69
400.165	280.69
400.389	274.69
400.613	263.69
400.837	244.69
401.062	244.69
401.286	262.69
401.51	225.69
401.734	227.69
401.958	241.69
402.182	239.69
402.406	249.69
402.63	260.69
402.854	231.69
403.078	241.69
403.302	240.69
403.526	262.69
403.75	232.69
403.974	239.69
404.198	250.69
404.422	252.69
404.645	242.69
404.869	245.69
405.093	267.69
405.317	296.69
405.541	297.69
405.765	280.69
405.988	263.69
406.212	270.69
406.436	286.69
406.66	301.69
406.883	275.69
407.107	280.69
407.331	276.69
407.555	333.69
407.778	300.69
408.002	279.69
408.226	274.69
408.449	254.69
408.673	279.69
408.896	293.69
409.12	285.69
409.344	267.69
409.567	253.69
409.791	248.69
410.014	270.69
410.238	272.69
410.461	253.69
410.685	264.69
410.908	237.69
411.132	274.69
411.355	273.69
411.578	251.69
411.802	244.69
412.025	253.69
412.249	244.69
412.472	262.69
412.695	267.69
412.919	270.69
413.142	253.69
413.365	259.69
413.589	236.69
413.812	224.69
414.035	232.69
414.258	244.69
414.482	237.69
414.705	245.69
414.928	232.69
415.151	225.69
415.374	241.69
415.597	225.69
415.821	227.69
416.044	224.69
416.267	239.69
416.49	234.69
416.713	248.69
416.936	233.69
417.159	244.69
417.382	245.69
417.605	231.69
417.828	241.69
418.051	236.69
418.274	249.69
418.497	234.69
418.72	241.69
418.943	225.69
419.166	264.69
419.389	234.69
419.611	258.69
419.834	257.69
420.057	256.69
420.28	258.69
420.503	240.69
420.726	254.69
420.948	244.69
421.171	271.69
421.394	278.69
421.617	246.69
421.839	232.69
422.062	240.69
422.285	251.69
422.507	255.69
422.73	309.69
422.953	285.69
423.175	260.69
423.398	246.69
423.621	253.69
423.843	273.69
424.066	270.69
424.288	261.69
424.511	263.69
424.733	292.69
424.956	304.69
425.178	309.69
425.401	308.69
425.623	312.69
425.846	270.69
426.068	265.69
426.291	260.69
426.513	268.69
426.735	246.69
426.958	284.69
427.18	308.69
427.402	343.69
427.625	390.69
427.847	361.69
428.069	310.69
428.292	288.69
428.514	259.69
428.736	262.69
428.958	240.69
429.181	250.69
429.403	266.69
429.625	261.69
429.847	258.69
430.069	281.69
430.292	275.69
430.514	257.69
430.736	244.69
430.958	241.69
431.18	223.69
431.402	216.69
431.624	210.69
431.846	233.69
432.068	217.69
432.29	222.69
432.512	236.69
432.734	233.69
432.956	233.69
433.178	251.69
433.4	227.69
433.622	226.69
433.844	223.69
434.066	232.69
434.287	220.69
434.509	228.69
434.731	241.69
434.953	239.69
435.175	237.69
435.397	246.69
435.618	246.69
435.84	284.69
436.062	313.69
436.284	340.69
436.505	260.69
436.727	278.69
436.949	266.69
437.17	234.69
437.392	254.69
437.614	251.69
437.835	256.69
438.057	310.69
438.278	339.69
438.5	337.69
438.721	361.69
438.943	351.69
439.165	291.69
439.386	265.69
439.608	238.69
439.829	262.69
440.05	270.69
440.272	278.69
440.493	266.69
440.715	255.69
440.936	240.69
441.158	233.69
441.379	241.69
441.6	249.69
441.822	258.69
442.043	281.69
442.264	313.69
442.486	332.69
442.707	281.69
442.928	258.69
443.149	258.69
443.371	280.69
443.592	302.69
443.813	357.69
444.034	356.69
444.255	299.69
444.476	262.69
444.698	268.69
444.919	248.69
445.14	345.69
445.361	317.69
445.582	281.69
445.803	306.69
446.024	346.69
446.245	343.69
446.466	309.69
446.687	274.69
446.908	250.69
447.129	265.69
447.35	226.69
447.571	251.69
447.792	245.69
448.013	241.69
448.234	262.69
448.455	265.69
448.675	316.69
448.896	352.69
449.117	308.69
449.338	289.69
449.559	358.69
449.779	361.69
450	304.69
450.221	262.69
450.442	241.69
450.662	221.69
450.883	266.69
451.104	246.69
451.324	236.69
451.545	237.69
451.766	212.69
451.986	224.69
452.207	233.69
452.428	225.69
452.648	220.69
452.869	211.69
453.089	228.69
453.31	232.69
453.53	218.69
453.751	231.69
453.971	214.69
454.192	238.69
454.412	242.69
454.633	226.69
454.853	213.69
455.073	212.69
455.294	231.69
455.514	260.69
455.734	229.69
455.955	218.69
456.175	214.69
456.395	214.69
456.616	211.69
456.836	204.69
457.056	214.69
457.276	189.69
457.497	194.69
457.717	225.69
457.937	218.69
458.157	206.69
458.377	209.69
458.598	241.69
458.818	264.69
459.038	306.69
459.258	305.69
459.478	274.69
459.698	237.69
459.918	223.69
460.138	249.69
460.358	229.69
460.578	222.69
460.798	252.69
461.018	240.69
461.238	234.69
461.458	245.69
461.678	239.69
461.898	223.69
462.118	230.69
462.338	225.69
462.558	230.69
462.777	246.69
462.997	251.69
463.217	246.69
463.437	245.69
463.657	256.69
463.876	259.69
464.096	249.69
464.316	240.69
464.536	241.69
464.755	262.69
464.975	252.69
465.195	289.69
465.414	328.69
465.634	276.69
465.854	246.69
466.073	244.69
466.293	239.69
466.512	238.69
466.732	214.69
466.951	233.69
467.171	232.69
467.391	249.69
467.61	264.69
467.829	241.69
468.049	221.69
468.268	236.69
468.488	224.69
468.707	240.69
468.927	218.69
469.146	209.69
469.365	226.69
469.585	224.69
469.804	227.69
470.023	227.69
470.243	236.69
470.462	248.69
470.681	254.69
470.901	239.69
471.12	248.69
471.339	246.69
471.558	231.69
471.777	228.69
471.997	234.69
472.216	238.69
472.435	268.69
472.654	237.69
472.873	225.69
473.092	225.69
473.311	229.69
473.53	228.69
473.749	230.69
473.968	246.69
474.187	314.69
474.406	320.69
474.625	249.69
474.844	233.69
475.063	216.69
475.282	233.69
475.501	233.69
475.72	230.69
475.939	240.69
476.158	227.69
476.377	217.69
476.596	219.69
476.814	244.69
477.033	234.69
477.252	240.69
477.471	245.69
477.69	250.69
477.908	253.69
478.127	250.69
478.346	240.69
478.564	253.69
478.783	250.69
479.002	264.69
479.22	264.69
479.439	271.69
479.658	279.69
479.876	258.69
480.095	257.69
480.313	294.69
480.532	288.69
480.751	267.69
480.969	273.69
481.188	358.69
481.406	347.69
481.624	300.69
481.843	263.69
482.061	277.69
482.28	287.69
482.498	281.69
482.717	256.69
482.935	249.69
483.153	250.69
483.372	269.69
483.59	264.69
483.808	252.69
484.027	255.69
484.245	249.69
484.463	250.69
484.681	277.69
484.9	269.69
485.118	267.69
485.336	293.69
485.554	272.69
485.772	268.69
485.99	263.69
486.209	274.69
486.427	275.69
486.645	285.69
486.863	296.69
487.081	292.69
487.299	282.69
487.517	292.69
487.735	264.69
487.953	294.69
488.171	291.69
488.389	294.69
488.607	288.69
488.825	274.69
489.043	298.69
489.261	290.69
489.479	284.69
489.696	292.69
489.914	285.69
490.132	287.69
490.35	294.69
490.568	295.69
490.786	311.69
491.003	326.69
491.221	302.69
491.439	311.69
491.657	310.69
491.874	323.69
492.092	325.69
492.31	325.69
492.527	346.69
492.745	336.69
492.963	349.69
493.18	322.69
493.398	325.69
493.615	336.69
493.833	327.69
494.05	329.69
494.268	316.69
494.485	321.69
494.703	331.69
494.92	342.69
495.138	327.69
495.355	327.69
495.573	342.69
495.79	335.69
496.008	320.69
496.225	324.69
496.442	334.69
496.66	330.69
496.877	314.69
497.094	329.69
497.312	321.69
497.529	334.69
497.746	329.69
497.963	338.69
498.181	351.69
498.398	326.69
498.615	338.69
498.832	350.69
499.049	367.69
499.267	346.69
499.484	365.69
499.701	384.69
499.918	384.69
500.135	410.69
500.352	416.69
500.569	423.69
500.786	425.69
501.003	423.69
501.22	397.69
501.437	414.69
501.654	420.69
501.871	383.69
502.088	400.69
502.305	385.69
502.522	376.69
502.739	341.69
