Data from 1966.PennyLincolnUp.Lamp.En5.5.200Scan.071719.P1._HRD10591_14-13-31-917.txt Node
Date: Thu Jul 18 14:13:31 EDT 2019
User: cochatt
Spectrometer: HR+D1059
Trigger mode: 1
Integration Time (sec): 1.000000E-1
Scans to average: 1
Electric dark correction enabled: true
Nonlinearity correction enabled: false
Boxcar width: 0
XAxis mode: Wavelengths
Number of Pixels in Spectrum: 2048
>>>>>Begin Spectral Data<<<<<
223.165	-16.81
223.4	-16.81
223.635	-16.81
223.869	-13.81
224.104	-21.81
224.338	-9.81
224.573	-12.81
224.808	-26.81
225.042	1.19
225.277	5.19
225.511	7.19
225.746	1.19
225.98	3.19
226.215	14.19
226.449	9.19
226.683	14.19
226.918	27.19
227.152	19.19
227.387	33.19
227.621	24.19
227.856	37.19
228.09	30.19
228.324	38.19
228.559	47.19
228.793	59.19
229.027	73.19
229.262	83.19
229.496	92.19
229.73	93.19
229.964	92.19
230.199	91.19
230.433	88.19
230.667	76.19
230.901	98.19
231.136	86.19
231.37	92.19
231.604	97.19
231.838	117.19
232.072	89.19
232.306	94.19
232.541	104.19
232.775	94.19
233.009	84.19
233.243	90.19
233.477	87.19
233.711	95.19
233.945	111.19
234.179	92.19
234.413	89.19
234.647	89.19
234.881	89.19
235.115	83.19
235.349	90.19
235.583	102.19
235.817	106.19
236.051	105.19
236.285	101.19
236.519	97.19
236.753	99.19
236.987	105.19
237.221	114.19
237.455	141.19
237.689	127.19
237.922	103.19
238.156	93.19
238.39	95.19
238.624	98.19
238.858	101.19
239.091	100.19
239.325	94.19
239.559	111.19
239.793	105.19
240.027	119.19
240.26	93.19
240.494	109.19
240.728	111.19
240.961	107.19
241.195	105.19
241.429	90.19
241.662	100.19
241.896	95.19
242.13	106.19
242.363	110.19
242.597	96.19
242.83	103.19
243.064	114.19
243.298	111.19
243.531	110.19
243.765	110.19
243.998	111.19
244.232	118.19
244.465	81.19
244.699	102.19
244.932	99.19
245.166	117.19
245.399	121.19
245.633	120.19
245.866	114.19
246.099	107.19
246.333	99.19
246.566	112.19
246.8	122.19
247.033	117.19
247.266	111.19
247.5	111.19
247.733	114.19
247.966	123.19
248.2	134.19
248.433	114.19
248.666	105.19
248.899	125.19
249.133	121.19
249.366	126.19
249.599	148.19
249.832	135.19
250.066	130.19
250.299	124.19
250.532	128.19
250.765	129.19
250.998	136.19
251.231	125.19
251.465	135.19
251.698	130.19
251.931	133.19
252.164	125.19
252.397	132.19
252.63	133.19
252.863	129.19
253.096	153.19
253.329	136.19
253.562	158.19
253.795	143.19
254.028	151.19
254.261	135.19
254.494	137.19
254.727	164.19
254.96	163.19
255.193	156.19
255.426	154.19
255.659	142.19
255.892	157.19
256.124	137.19
256.357	144.19
256.59	137.19
256.823	131.19
257.056	129.19
257.289	133.19
257.521	129.19
257.754	128.19
257.987	111.19
258.22	124.19
258.452	121.19
258.685	128.19
258.918	131.19
259.151	136.19
259.383	144.19
259.616	144.19
259.849	135.19
260.081	141.19
260.314	153.19
260.547	151.19
260.779	136.19
261.012	148.19
261.244	130.19
261.477	150.19
261.71	147.19
261.942	143.19
262.175	169.19
262.407	143.19
262.64	130.19
262.872	142.19
263.105	131.19
263.337	143.19
263.57	135.19
263.802	123.19
264.035	150.19
264.267	151.19
264.499	139.19
264.732	143.19
264.964	126.19
265.197	147.19
265.429	151.19
265.661	127.19
265.894	134.19
266.126	125.19
266.358	131.19
266.591	143.19
266.823	136.19
267.055	142.19
267.287	144.19
267.52	137.19
267.752	145.19
267.984	135.19
268.216	150.19
268.448	145.19
268.681	151.19
268.913	157.19
269.145	158.19
269.377	153.19
269.609	164.19
269.841	161.19
270.073	162.19
270.306	176.19
270.538	180.19
270.77	175.19
271.002	159.19
271.234	163.19
271.466	167.19
271.698	170.19
271.93	170.19
272.162	171.19
272.394	184.19
272.626	161.19
272.858	171.19
273.09	174.19
273.322	163.19
273.553	155.19
273.785	159.19
274.017	157.19
274.249	145.19
274.481	147.19
274.713	167.19
274.945	160.19
275.176	154.19
275.408	158.19
275.64	155.19
275.872	151.19
276.104	153.19
276.335	161.19
276.567	154.19
276.799	171.19
277.031	171.19
277.262	173.19
277.494	193.19
277.726	182.19
277.957	169.19
278.189	164.19
278.421	160.19
278.652	150.19
278.884	165.19
279.115	154.19
279.347	143.19
279.579	163.19
279.81	175.19
280.042	159.19
280.273	150.19
280.505	156.19
280.736	176.19
280.968	159.19
281.199	159.19
281.431	161.19
281.662	174.19
281.894	155.19
282.125	166.19
282.356	181.19
282.588	196.19
282.819	176.19
283.051	170.19
283.282	162.19
283.513	176.19
283.745	159.19
283.976	173.19
284.207	170.19
284.439	159.19
284.67	163.19
284.901	161.19
285.132	183.19
285.364	157.19
285.595	183.19
285.826	157.19
286.057	170.19
286.288	165.19
286.52	168.19
286.751	172.19
286.982	176.19
287.213	162.19
287.444	170.19
287.675	177.19
287.906	173.19
288.138	172.19
288.369	182.19
288.6	184.19
288.831	160.19
289.062	169.19
289.293	170.19
289.524	169.19
289.755	174.19
289.986	165.19
290.217	167.19
290.448	152.19
290.679	169.19
290.91	176.19
291.141	168.19
291.371	177.19
291.602	160.19
291.833	162.19
292.064	173.19
292.295	163.19
292.526	167.19
292.757	172.19
292.987	172.19
293.218	158.19
293.449	170.19
293.68	179.19
293.91	173.19
294.141	170.19
294.372	161.19
294.603	186.19
294.833	181.19
295.064	175.19
295.295	175.19
295.525	177.19
295.756	185.19
295.987	187.19
296.217	197.19
296.448	205.19
296.679	189.19
296.909	187.19
297.14	176.19
297.37	173.19
297.601	162.19
297.831	166.19
298.062	185.19
298.292	172.19
298.523	178.19
298.753	185.19
298.984	178.19
299.214	181.19
299.445	188.19
299.675	166.19
299.905	206.19
300.136	174.19
300.366	186.19
300.597	170.19
300.827	173.19
301.057	191.19
301.288	188.19
301.518	192.19
301.748	172.19
301.979	202.19
302.209	175.19
302.439	185.19
302.669	197.19
302.9	175.19
303.13	189.19
303.36	205.19
303.59	187.19
303.82	188.19
304.051	186.19
304.281	195.19
304.511	199.19
304.741	183.19
304.971	171.19
305.201	182.19
305.431	176.19
305.661	170.19
305.891	187.19
306.121	178.19
306.352	187.19
306.582	193.19
306.812	190.19
307.042	169.19
307.272	174.19
307.502	197.19
307.731	193.19
307.961	186.19
308.191	196.19
308.421	183.19
308.651	188.19
308.881	191.19
309.111	194.19
309.341	196.19
309.571	211.19
309.8	183.19
310.03	206.19
310.26	217.19
310.49	201.19
310.72	221.19
310.949	221.19
311.179	226.19
311.409	216.19
311.639	222.19
311.868	219.19
312.098	214.19
312.328	202.19
312.557	214.19
312.787	230.19
313.017	216.19
313.246	212.19
313.476	217.19
313.706	198.19
313.935	224.19
314.165	205.19
314.394	234.19
314.624	210.19
314.853	205.19
315.083	228.19
315.312	207.19
315.542	194.19
315.771	192.19
316.001	213.19
316.23	203.19
316.46	190.19
316.689	189.19
316.919	214.19
317.148	210.19
317.377	210.19
317.607	220.19
317.836	232.19
318.065	204.19
318.295	186.19
318.524	191.19
318.753	193.19
318.983	209.19
319.212	198.19
319.441	224.19
319.67	217.19
319.9	201.19
320.129	212.19
320.358	223.19
320.587	207.19
320.816	221.19
321.046	210.19
321.275	217.19
321.504	209.19
321.733	226.19
321.962	230.19
322.191	218.19
322.42	240.19
322.649	232.19
322.878	235.19
323.108	247.19
323.337	249.19
323.566	259.19
323.795	283.19
324.024	281.19
324.253	333.19
324.482	493.19
324.71	746.19
324.939	1012.19
325.168	815.19
325.397	422.19
325.626	295.19
325.855	264.19
326.084	248.19
326.313	253.19
326.542	252.19
326.77	280.19
326.999	351.19
327.228	450.19
327.457	696.19
327.686	744.19
327.914	502.19
328.143	362.19
328.372	329.19
328.6	328.19
328.829	286.19
329.058	301.19
329.287	306.19
329.515	290.19
329.744	273.19
329.972	259.19
330.201	291.19
330.43	300.19
330.658	325.19
330.887	333.19
331.115	308.19
331.344	264.19
331.572	257.19
331.801	294.19
332.03	247.19
332.258	248.19
332.486	245.19
332.715	237.19
332.943	231.19
333.172	237.19
333.4	234.19
333.629	242.19
333.857	255.19
334.085	269.19
334.314	271.19
334.542	294.19
334.771	311.19
334.999	270.19
335.227	261.19
335.455	275.19
335.684	251.19
335.912	231.19
336.14	247.19
336.369	234.19
336.597	250.19
336.825	229.19
337.053	232.19
337.281	225.19
337.51	234.19
337.738	251.19
337.966	225.19
338.194	231.19
338.422	238.19
338.65	219.19
338.878	240.19
339.106	228.19
339.334	225.19
339.562	226.19
339.79	230.19
340.018	225.19
340.246	215.19
340.474	223.19
340.702	235.19
340.93	221.19
341.158	214.19
341.386	220.19
341.614	231.19
341.842	222.19
342.07	223.19
342.298	220.19
342.526	215.19
342.754	217.19
342.981	225.19
343.209	227.19
343.437	227.19
343.665	226.19
343.893	235.19
344.12	241.19
344.348	244.19
344.576	231.19
344.804	231.19
345.031	238.19
345.259	238.19
345.487	253.19
345.714	226.19
345.942	238.19
346.17	226.19
346.397	227.19
346.625	218.19
346.853	226.19
347.08	215.19
347.308	194.19
347.535	236.19
347.763	247.19
347.99	236.19
348.218	235.19
348.445	249.19
348.673	234.19
348.9	230.19
349.128	229.19
349.355	201.19
349.583	205.19
349.81	216.19
350.037	206.19
350.265	217.19
350.492	198.19
350.72	208.19
350.947	212.19
351.174	208.19
351.402	229.19
351.629	209.19
351.856	223.19
352.083	242.19
352.311	222.19
352.538	209.19
352.765	229.19
352.992	232.19
353.22	228.19
353.447	213.19
353.674	217.19
353.901	216.19
354.128	198.19
354.355	197.19
354.583	211.19
354.81	209.19
355.037	198.19
355.264	205.19
355.491	213.19
355.718	218.19
355.945	201.19
356.172	188.19
356.399	214.19
356.626	201.19
356.853	207.19
357.08	230.19
357.307	209.19
357.534	222.19
357.761	213.19
357.988	205.19
358.215	201.19
358.441	194.19
358.668	215.19
358.895	207.19
359.122	213.19
359.349	211.19
359.576	219.19
359.802	234.19
360.029	234.19
360.256	250.19
360.483	252.19
360.709	205.19
360.936	232.19
361.163	216.19
361.39	223.19
361.616	220.19
361.843	220.19
362.07	226.19
362.296	215.19
362.523	227.19
362.749	209.19
362.976	206.19
363.203	219.19
363.429	213.19
363.656	211.19
363.882	207.19
364.109	221.19
364.335	225.19
364.562	198.19
364.788	193.19
365.015	208.19
365.241	210.19
365.468	206.19
365.694	208.19
365.92	185.19
366.147	193.19
366.373	216.19
366.599	210.19
366.826	202.19
367.052	202.19
367.278	194.19
367.505	209.19
367.731	197.19
367.957	206.19
368.184	209.19
368.41	206.19
368.636	211.19
368.862	239.19
369.089	210.19
369.315	215.19
369.541	215.19
369.767	225.19
369.993	230.19
370.219	211.19
370.445	221.19
370.672	223.19
370.898	217.19
371.124	213.19
371.35	217.19
371.576	219.19
371.802	194.19
372.028	199.19
372.254	199.19
372.48	224.19
372.706	204.19
372.932	209.19
373.158	225.19
373.384	198.19
373.61	209.19
373.835	214.19
374.061	208.19
374.287	221.19
374.513	222.19
374.739	208.19
374.965	216.19
375.191	229.19
375.416	229.19
375.642	216.19
375.868	232.19
376.094	212.19
376.319	204.19
376.545	216.19
376.771	203.19
376.997	208.19
377.222	197.19
377.448	200.19
377.674	208.19
377.899	199.19
378.125	208.19
378.35	199.19
378.576	215.19
378.802	197.19
379.027	208.19
379.253	213.19
379.478	197.19
379.704	194.19
379.929	218.19
380.155	210.19
380.38	207.19
380.606	198.19
380.831	229.19
381.057	209.19
381.282	205.19
381.507	195.19
381.733	205.19
381.958	187.19
382.184	206.19
382.409	217.19
382.634	204.19
382.86	209.19
383.085	205.19
383.31	222.19
383.535	211.19
383.761	205.19
383.986	219.19
384.211	203.19
384.436	210.19
384.662	211.19
384.887	214.19
385.112	221.19
385.337	227.19
385.562	216.19
385.787	215.19
386.013	194.19
386.238	232.19
386.463	218.19
386.688	218.19
386.913	201.19
387.138	210.19
387.363	206.19
387.588	226.19
387.813	216.19
388.038	213.19
388.263	208.19
388.488	207.19
388.713	215.19
388.938	232.19
389.163	226.19
389.387	224.19
389.612	215.19
389.837	215.19
390.062	217.19
390.287	203.19
390.512	216.19
390.736	236.19
390.961	220.19
391.186	239.19
391.411	229.19
391.636	228.19
391.86	218.19
392.085	237.19
392.31	235.19
392.534	253.19
392.759	227.19
392.984	242.19
393.208	218.19
393.433	239.19
393.658	229.19
393.882	226.19
394.107	231.19
394.331	215.19
394.556	215.19
394.78	222.19
395.005	235.19
395.229	225.19
395.454	224.19
395.678	219.19
395.903	241.19
396.127	253.19
396.352	237.19
396.576	218.19
396.801	234.19
397.025	230.19
397.249	243.19
397.474	221.19
397.698	239.19
397.922	243.19
398.147	249.19
398.371	238.19
398.595	243.19
398.82	227.19
399.044	257.19
399.268	285.19
399.492	284.19
399.717	294.19
399.941	295.19
400.165	274.19
400.389	296.19
400.613	283.19
400.837	269.19
401.062	246.19
401.286	241.19
401.51	251.19
401.734	265.19
401.958	232.19
402.182	261.19
402.406	258.19
402.63	275.19
402.854	271.19
403.078	264.19
403.302	259.19
403.526	272.19
403.75	246.19
403.974	256.19
404.198	261.19
404.422	274.19
404.645	262.19
404.869	279.19
405.093	270.19
405.317	281.19
405.541	309.19
405.765	285.19
405.988	274.19
406.212	282.19
406.436	303.19
406.66	290.19
406.883	285.19
407.107	281.19
407.331	300.19
407.555	333.19
407.778	330.19
408.002	315.19
408.226	296.19
408.449	296.19
408.673	279.19
408.896	282.19
409.12	303.19
409.344	281.19
409.567	285.19
409.791	259.19
410.014	257.19
410.238	257.19
410.461	259.19
410.685	272.19
410.908	250.19
411.132	285.19
411.355	297.19
411.578	281.19
411.802	253.19
412.025	269.19
412.249	279.19
412.472	270.19
412.695	287.19
412.919	296.19
413.142	270.19
413.365	261.19
413.589	247.19
413.812	234.19
414.035	245.19
414.258	253.19
414.482	254.19
414.705	261.19
414.928	244.19
415.151	241.19
415.374	255.19
415.597	254.19
415.821	241.19
416.044	255.19
416.267	251.19
416.49	241.19
416.713	246.19
416.936	232.19
417.159	263.19
417.382	252.19
417.605	236.19
417.828	259.19
418.051	275.19
418.274	266.19
418.497	249.19
418.72	243.19
418.943	249.19
419.166	265.19
419.389	267.19
419.611	270.19
419.834	239.19
420.057	266.19
420.28	258.19
420.503	263.19
420.726	265.19
420.948	274.19
421.171	301.19
421.394	282.19
421.617	263.19
421.839	243.19
422.062	251.19
422.285	235.19
422.507	277.19
422.73	323.19
422.953	321.19
423.175	273.19
423.398	272.19
423.621	273.19
423.843	294.19
424.066	289.19
424.288	279.19
424.511	273.19
424.733	302.19
424.956	348.19
425.178	317.19
425.401	321.19
425.623	323.19
425.846	287.19
426.068	287.19
426.291	280.19
426.513	246.19
426.735	272.19
426.958	297.19
427.18	328.19
427.402	407.19
427.625	401.19
427.847	364.19
428.069	319.19
428.292	279.19
428.514	265.19
428.736	246.19
428.958	264.19
429.181	241.19
429.403	253.19
429.625	242.19
429.847	261.19
430.069	306.19
430.292	301.19
430.514	264.19
430.736	240.19
430.958	247.19
431.18	263.19
431.402	247.19
431.624	250.19
431.846	236.19
432.068	264.19
432.29	241.19
432.512	254.19
432.734	232.19
432.956	247.19
433.178	266.19
433.4	257.19
433.622	265.19
433.844	245.19
434.066	251.19
434.287	257.19
434.509	253.19
434.731	267.19
434.953	275.19
435.175	281.19
435.397	271.19
435.618	290.19
435.84	288.19
436.062	335.19
436.284	348.19
436.505	301.19
436.727	269.19
436.949	273.19
437.17	249.19
437.392	250.19
437.614	260.19
437.835	281.19
438.057	305.19
438.278	352.19
438.5	365.19
438.721	395.19
438.943	357.19
439.165	297.19
439.386	270.19
439.608	280.19
439.829	261.19
440.05	295.19
440.272	331.19
440.493	284.19
440.715	265.19
440.936	249.19
441.158	256.19
441.379	265.19
441.6	266.19
441.822	295.19
442.043	297.19
442.264	339.19
442.486	343.19
442.707	307.19
442.928	280.19
443.149	286.19
443.371	322.19
443.592	319.19
443.813	359.19
444.034	387.19
444.255	327.19
444.476	276.19
444.698	289.19
444.919	263.19
445.14	359.19
445.361	347.19
445.582	321.19
445.803	334.19
446.024	382.19
446.245	381.19
446.466	337.19
446.687	290.19
446.908	275.19
447.129	282.19
447.35	247.19
447.571	271.19
447.792	248.19
448.013	245.19
448.234	267.19
448.455	300.19
448.675	341.19
448.896	383.19
449.117	337.19
449.338	293.19
449.559	355.19
449.779	400.19
450	312.19
450.221	267.19
450.442	253.19
450.662	251.19
450.883	256.19
451.104	281.19
451.324	247.19
451.545	245.19
451.766	241.19
451.986	234.19
452.207	225.19
452.428	241.19
452.648	233.19
452.869	246.19
453.089	236.19
453.31	239.19
453.53	253.19
453.751	234.19
453.971	227.19
454.192	243.19
454.412	235.19
454.633	241.19
454.853	235.19
455.073	235.19
455.294	240.19
455.514	271.19
455.734	280.19
455.955	248.19
456.175	237.19
456.395	230.19
456.616	226.19
456.836	220.19
457.056	221.19
457.276	228.19
457.497	224.19
457.717	210.19
457.937	223.19
458.157	234.19
458.377	213.19
458.598	234.19
458.818	285.19
459.038	324.19
459.258	316.19
459.478	281.19
459.698	230.19
459.918	242.19
460.138	233.19
460.358	265.19
460.578	254.19
460.798	257.19
461.018	253.19
461.238	247.19
461.458	249.19
461.678	242.19
461.898	241.19
462.118	234.19
462.338	265.19
462.558	262.19
462.777	251.19
462.997	277.19
463.217	270.19
463.437	270.19
463.657	266.19
463.876	270.19
464.096	261.19
464.316	277.19
464.536	280.19
464.755	282.19
464.975	283.19
465.195	322.19
465.414	365.19
465.634	299.19
465.854	261.19
466.073	269.19
466.293	254.19
466.512	246.19
466.732	249.19
466.951	242.19
467.171	239.19
467.391	245.19
467.61	241.19
467.829	274.19
468.049	266.19
468.268	248.19
468.488	233.19
468.707	253.19
468.927	222.19
469.146	229.19
469.365	243.19
469.585	242.19
469.804	235.19
470.023	230.19
470.243	235.19
470.462	253.19
470.681	263.19
470.901	247.19
471.12	238.19
471.339	239.19
471.558	255.19
471.777	239.19
471.997	239.19
472.216	248.19
472.435	270.19
472.654	256.19
472.873	243.19
473.092	276.19
473.311	259.19
473.53	247.19
473.749	249.19
473.968	278.19
474.187	312.19
474.406	329.19
474.625	256.19
474.844	247.19
475.063	246.19
475.282	230.19
475.501	257.19
475.72	252.19
475.939	253.19
476.158	243.19
476.377	254.19
476.596	245.19
476.814	252.19
477.033	257.19
477.252	266.19
477.471	265.19
477.69	262.19
477.908	263.19
478.127	244.19
478.346	273.19
478.564	264.19
478.783	281.19
479.002	262.19
479.22	273.19
479.439	276.19
479.658	285.19
479.876	282.19
480.095	282.19
480.313	301.19
480.532	290.19
480.751	296.19
480.969	306.19
481.188	355.19
481.406	370.19
481.624	303.19
481.843	289.19
482.061	285.19
482.28	274.19
482.498	271.19
482.717	257.19
482.935	283.19
483.153	266.19
483.372	270.19
483.59	262.19
483.808	262.19
484.027	262.19
484.245	273.19
484.463	276.19
484.681	294.19
484.9	281.19
485.118	300.19
485.336	281.19
485.554	282.19
485.772	306.19
485.99	298.19
486.209	297.19
486.427	296.19
486.645	301.19
486.863	316.19
487.081	280.19
487.299	301.19
487.517	288.19
487.735	296.19
487.953	290.19
488.171	291.19
488.389	306.19
488.607	295.19
488.825	288.19
489.043	299.19
489.261	297.19
489.479	309.19
489.696	307.19
489.914	303.19
490.132	298.19
490.35	312.19
490.568	319.19
490.786	305.19
491.003	301.19
491.221	324.19
491.439	350.19
491.657	338.19
491.874	342.19
492.092	347.19
492.31	349.19
492.527	343.19
492.745	339.19
492.963	333.19
493.18	360.19
493.398	341.19
493.615	357.19
493.833	360.19
494.05	349.19
494.268	349.19
494.485	339.19
494.703	347.19
494.92	368.19
495.138	362.19
495.355	344.19
495.573	352.19
495.79	330.19
496.008	331.19
496.225	352.19
496.442	345.19
496.66	358.19
496.877	321.19
497.094	343.19
497.312	329.19
497.529	355.19
497.746	363.19
497.963	374.19
498.181	383.19
498.398	361.19
498.615	366.19
498.832	375.19
499.049	381.19
499.267	381.19
499.484	406.19
499.701	409.19
499.918	416.19
500.135	425.19
500.352	450.19
500.569	467.19
500.786	479.19
501.003	460.19
501.22	450.19
501.437	435.19
501.654	415.19
501.871	418.19
502.088	397.19
502.305	399.19
502.522	381.19
