Data from 1966.PennyLincolnUp.Lamp.En5.5.200Scan.071719.P1.Scan2.head_HRD10591_14-17-43-130.txt Node
Date: Thu Jul 18 14:17:43 EDT 2019
User: cochatt
Spectrometer: HR+D1059
Trigger mode: 1
Integration Time (sec): 1.000000E-1
Scans to average: 1
Electric dark correction enabled: true
Nonlinearity correction enabled: false
Boxcar width: 0
XAxis mode: Wavelengths
Number of Pixels in Spectrum: 2048
>>>>>Begin Spectral Data<<<<<
223.165	-16.31
223.4	-16.31
223.635	-16.31
223.869	-19.31
224.104	-21.31
224.338	-5.31
224.573	-1.31
224.808	-12.31
225.042	-1.31
225.277	-8.31
225.511	-4.31
225.746	6.69
225.98	13.69
226.215	2.69
226.449	2.69
226.683	15.69
226.918	25.69
227.152	22.69
227.387	34.69
227.621	37.69
227.856	42.69
228.09	49.69
228.324	48.69
228.559	35.69
228.793	65.69
229.027	96.69
229.262	105.69
229.496	114.69
229.73	126.69
229.964	163.69
230.199	138.69
230.433	110.69
230.667	97.69
230.901	109.69
231.136	116.69
231.37	105.69
231.604	122.69
231.838	118.69
232.072	124.69
232.306	108.69
232.541	119.69
232.775	126.69
233.009	118.69
233.243	110.69
233.477	106.69
233.711	110.69
233.945	113.69
234.179	115.69
234.413	117.69
234.647	122.69
234.881	119.69
235.115	120.69
235.349	99.69
235.583	117.69
235.817	113.69
236.051	131.69
236.285	129.69
236.519	128.69
236.753	113.69
236.987	137.69
237.221	202.69
237.455	230.69
237.689	183.69
237.922	114.69
238.156	121.69
238.39	141.69
238.624	130.69
238.858	112.69
239.091	130.69
239.325	116.69
239.559	130.69
239.793	145.69
240.027	122.69
240.26	133.69
240.494	148.69
240.728	157.69
240.961	165.69
241.195	149.69
241.429	137.69
241.662	158.69
241.896	130.69
242.13	122.69
242.363	135.69
242.597	123.69
242.83	134.69
243.064	120.69
243.298	127.69
243.531	140.69
243.765	126.69
243.998	144.69
244.232	153.69
244.465	134.69
244.699	132.69
244.932	146.69
245.166	138.69
245.399	146.69
245.633	144.69
245.866	152.69
246.099	148.69
246.333	148.69
246.566	144.69
246.8	155.69
247.033	156.69
247.266	147.69
247.5	167.69
247.733	157.69
247.966	163.69
248.2	177.69
248.433	159.69
248.666	171.69
248.899	179.69
249.133	190.69
249.366	208.69
249.599	183.69
249.832	189.69
250.066	188.69
250.299	190.69
250.532	186.69
250.765	191.69
250.998	229.69
251.231	227.69
251.465	213.69
251.698	203.69
251.931	205.69
252.164	202.69
252.397	210.69
252.63	199.69
252.863	208.69
253.096	199.69
253.329	219.69
253.562	227.69
253.795	211.69
254.028	210.69
254.261	210.69
254.494	226.69
254.727	250.69
254.96	252.69
255.193	252.69
255.426	260.69
255.659	231.69
255.892	209.69
256.124	218.69
256.357	231.69
256.59	228.69
256.823	196.69
257.056	207.69
257.289	208.69
257.521	212.69
257.754	203.69
257.987	193.69
258.22	203.69
258.452	221.69
258.685	192.69
258.918	208.69
259.151	196.69
259.383	222.69
259.616	202.69
259.849	212.69
260.081	231.69
260.314	231.69
260.547	246.69
260.779	221.69
261.012	211.69
261.244	230.69
261.477	207.69
261.71	221.69
261.942	228.69
262.175	240.69
262.407	220.69
262.64	206.69
262.872	238.69
263.105	223.69
263.337	216.69
263.57	214.69
263.802	218.69
264.035	211.69
264.267	200.69
264.499	210.69
264.732	205.69
264.964	226.69
265.197	216.69
265.429	232.69
265.661	206.69
265.894	195.69
266.126	223.69
266.358	216.69
266.591	219.69
266.823	223.69
267.055	224.69
267.287	232.69
267.52	227.69
267.752	214.69
267.984	231.69
268.216	228.69
268.448	240.69
268.681	218.69
268.913	223.69
269.145	264.69
269.377	263.69
269.609	267.69
269.841	249.69
270.073	268.69
270.306	293.69
270.538	290.69
270.77	293.69
271.002	292.69
271.234	278.69
271.466	294.69
271.698	296.69
271.93	285.69
272.162	301.69
272.394	310.69
272.626	286.69
272.858	269.69
273.09	270.69
273.322	259.69
273.553	276.69
273.785	248.69
274.017	254.69
274.249	262.69
274.481	258.69
274.713	259.69
274.945	270.69
275.176	286.69
275.408	271.69
275.64	270.69
275.872	257.69
276.104	256.69
276.335	284.69
276.567	256.69
276.799	265.69
277.031	288.69
277.262	306.69
277.494	307.69
277.726	308.69
277.957	279.69
278.189	276.69
278.421	281.69
278.652	284.69
278.884	265.69
279.115	260.69
279.347	265.69
279.579	254.69
279.81	251.69
280.042	256.69
280.273	277.69
280.505	254.69
280.736	259.69
280.968	274.69
281.199	247.69
281.431	259.69
281.662	279.69
281.894	262.69
282.125	255.69
282.356	275.69
282.588	298.69
282.819	278.69
283.051	270.69
283.282	262.69
283.513	275.69
283.745	248.69
283.976	281.69
284.207	274.69
284.439	267.69
284.67	275.69
284.901	276.69
285.132	291.69
285.364	264.69
285.595	267.69
285.826	277.69
286.057	270.69
286.288	273.69
286.52	275.69
286.751	272.69
286.982	277.69
287.213	254.69
287.444	278.69
287.675	279.69
287.906	277.69
288.138	298.69
288.369	287.69
288.6	308.69
288.831	302.69
289.062	303.69
289.293	287.69
289.524	295.69
289.755	293.69
289.986	277.69
290.217	296.69
290.448	287.69
290.679	281.69
290.91	288.69
291.141	296.69
291.371	310.69
291.602	290.69
291.833	286.69
292.064	288.69
292.295	287.69
292.526	299.69
292.757	284.69
292.987	300.69
293.218	280.69
293.449	299.69
293.68	276.69
293.91	300.69
294.141	288.69
294.372	283.69
294.603	290.69
294.833	282.69
295.064	267.69
295.295	280.69
295.525	293.69
295.756	297.69
295.987	305.69
296.217	313.69
296.448	323.69
296.679	302.69
296.909	293.69
297.14	288.69
297.37	304.69
297.601	299.69
297.831	288.69
298.062	300.69
298.292	302.69
298.523	302.69
298.753	297.69
298.984	314.69
299.214	298.69
299.445	303.69
299.675	318.69
299.905	305.69
300.136	320.69
300.366	300.69
300.597	315.69
300.827	321.69
301.057	318.69
301.288	320.69
301.518	325.69
301.748	329.69
301.979	323.69
302.209	323.69
302.439	330.69
302.669	336.69
302.9	336.69
303.13	311.69
303.36	340.69
303.59	339.69
303.82	327.69
304.051	317.69
304.281	313.69
304.511	331.69
304.741	330.69
304.971	322.69
305.201	316.69
305.431	324.69
305.661	309.69
305.891	330.69
306.121	327.69
306.352	335.69
306.582	324.69
306.812	339.69
307.042	337.69
307.272	321.69
307.502	348.69
307.731	336.69
307.961	325.69
308.191	309.69
308.421	314.69
308.651	332.69
308.881	322.69
309.111	325.69
309.341	338.69
309.571	345.69
309.8	337.69
310.03	366.69
310.26	368.69
310.49	365.69
310.72	379.69
310.949	382.69
311.179	385.69
311.409	364.69
311.639	370.69
311.868	395.69
312.098	366.69
312.328	374.69
312.557	379.69
312.787	395.69
313.017	393.69
313.246	371.69
313.476	355.69
313.706	360.69
313.935	383.69
314.165	391.69
314.394	380.69
314.624	380.69
314.853	376.69
315.083	373.69
315.312	382.69
315.542	376.69
315.771	367.69
316.001	370.69
316.23	371.69
316.46	372.69
316.689	379.69
316.919	386.69
317.148	384.69
317.377	387.69
317.607	370.69
317.836	368.69
318.065	374.69
318.295	376.69
318.524	362.69
318.753	378.69
318.983	383.69
319.212	357.69
319.441	376.69
319.67	384.69
319.9	367.69
320.129	379.69
320.358	374.69
320.587	394.69
320.816	393.69
321.046	395.69
321.275	409.69
321.504	396.69
321.733	380.69
321.962	410.69
322.191	423.69
322.42	425.69
322.649	417.69
322.878	447.69
323.108	436.69
323.337	472.69
323.566	462.69
323.795	516.69
324.024	538.69
324.253	627.69
324.482	885.69
324.71	1365.69
324.939	2044.69
325.168	1765.69
325.397	896.69
325.626	616.69
325.855	536.69
326.084	488.69
326.313	471.69
326.542	488.69
326.77	505.69
326.999	603.69
327.228	818.69
327.457	1259.69
327.686	1560.69
327.914	1018.69
328.143	665.69
328.372	570.69
328.6	552.69
328.829	522.69
329.058	558.69
329.287	555.69
329.515	523.69
329.744	498.69
329.972	496.69
330.201	503.69
330.43	535.69
330.658	579.69
330.887	571.69
331.115	568.69
331.344	497.69
331.572	510.69
331.801	489.69
332.03	479.69
332.258	455.69
332.486	447.69
332.715	430.69
332.943	452.69
333.172	462.69
333.4	455.69
333.629	478.69
333.857	468.69
334.085	492.69
334.314	518.69
334.542	539.69
334.771	540.69
334.999	510.69
335.227	485.69
335.455	459.69
335.684	452.69
335.912	435.69
336.14	443.69
336.369	435.69
336.597	436.69
336.825	447.69
337.053	430.69
337.281	423.69
337.51	440.69
337.738	420.69
337.966	442.69
338.194	459.69
338.422	433.69
338.65	439.69
338.878	430.69
339.106	450.69
339.334	439.69
339.562	422.69
339.79	430.69
340.018	422.69
340.246	436.69
340.474	442.69
340.702	425.69
340.93	439.69
341.158	425.69
341.386	455.69
341.614	415.69
341.842	432.69
342.07	425.69
342.298	423.69
342.526	422.69
342.754	424.69
342.981	406.69
343.209	417.69
343.437	415.69
343.665	435.69
343.893	456.69
344.12	437.69
344.348	465.69
344.576	459.69
344.804	444.69
345.031	448.69
345.259	429.69
345.487	425.69
345.714	439.69
345.942	418.69
346.17	427.69
346.397	427.69
346.625	416.69
346.853	445.69
347.08	418.69
347.308	437.69
347.535	414.69
347.763	426.69
347.99	432.69
348.218	426.69
348.445	443.69
348.673	418.69
348.9	438.69
349.128	416.69
349.355	414.69
349.583	388.69
349.81	423.69
350.037	408.69
350.265	421.69
350.492	402.69
350.72	397.69
350.947	429.69
351.174	434.69
351.402	444.69
351.629	425.69
351.856	437.69
352.083	426.69
352.311	437.69
352.538	439.69
352.765	439.69
352.992	432.69
353.22	428.69
353.447	409.69
353.674	430.69
353.901	408.69
354.128	408.69
354.355	397.69
354.583	403.69
354.81	388.69
355.037	390.69
355.264	382.69
355.491	403.69
355.718	394.69
355.945	402.69
356.172	408.69
356.399	390.69
356.626	414.69
356.853	407.69
357.08	403.69
357.307	382.69
357.534	404.69
357.761	398.69
357.988	411.69
358.215	408.69
358.441	426.69
358.668	384.69
358.895	408.69
359.122	404.69
359.349	410.69
359.576	438.69
359.802	442.69
360.029	471.69
360.256	486.69
360.483	471.69
360.709	424.69
360.936	441.69
361.163	448.69
361.39	434.69
361.616	425.69
361.843	404.69
362.07	428.69
362.296	422.69
362.523	442.69
362.749	426.69
362.976	405.69
363.203	420.69
363.429	409.69
363.656	409.69
363.882	407.69
364.109	412.69
364.335	441.69
364.562	417.69
364.788	385.69
365.015	436.69
365.241	406.69
365.468	423.69
365.694	403.69
365.92	427.69
366.147	415.69
366.373	413.69
366.599	396.69
366.826	425.69
367.052	413.69
367.278	390.69
367.505	400.69
367.731	403.69
367.957	411.69
368.184	406.69
368.41	433.69
368.636	421.69
368.862	441.69
369.089	426.69
369.315	412.69
369.541	401.69
369.767	402.69
369.993	395.69
370.219	430.69
370.445	414.69
370.672	440.69
370.898	423.69
371.124	421.69
371.35	415.69
371.576	404.69
371.802	402.69
372.028	416.69
372.254	420.69
372.48	407.69
372.706	427.69
372.932	419.69
373.158	438.69
373.384	425.69
373.61	409.69
373.835	402.69
374.061	425.69
374.287	432.69
374.513	402.69
374.739	420.69
374.965	427.69
375.191	427.69
375.416	450.69
375.642	427.69
375.868	420.69
376.094	412.69
376.319	402.69
376.545	419.69
376.771	400.69
376.997	427.69
377.222	433.69
377.448	410.69
377.674	427.69
377.899	428.69
378.125	431.69
378.35	432.69
378.576	428.69
378.802	420.69
379.027	425.69
379.253	418.69
379.478	412.69
379.704	427.69
379.929	412.69
380.155	420.69
380.38	407.69
380.606	431.69
380.831	414.69
381.057	416.69
381.282	424.69
381.507	418.69
381.733	443.69
381.958	423.69
382.184	418.69
382.409	427.69
382.634	452.69
382.86	435.69
383.085	435.69
383.31	433.69
383.535	439.69
383.761	428.69
383.986	446.69
384.211	449.69
384.436	441.69
384.662	446.69
384.887	454.69
385.112	448.69
385.337	463.69
385.562	461.69
385.787	463.69
386.013	492.69
386.238	487.69
386.463	466.69
386.688	458.69
386.913	467.69
387.138	494.69
387.363	467.69
387.588	491.69
387.813	471.69
388.038	476.69
388.263	469.69
388.488	482.69
388.713	465.69
388.938	457.69
389.163	474.69
389.387	474.69
389.612	454.69
389.837	470.69
390.062	471.69
390.287	465.69
390.512	465.69
390.736	481.69
390.961	458.69
391.186	467.69
391.411	484.69
391.636	480.69
391.86	479.69
392.085	486.69
392.31	486.69
392.534	478.69
392.759	486.69
392.984	492.69
393.208	492.69
393.433	482.69
393.658	478.69
393.882	474.69
394.107	465.69
394.331	464.69
394.556	460.69
394.78	464.69
395.005	477.69
395.229	464.69
395.454	487.69
395.678	482.69
395.903	498.69
396.127	530.69
396.352	530.69
396.576	519.69
396.801	483.69
397.025	515.69
397.249	503.69
397.474	484.69
397.698	518.69
397.922	535.69
398.147	523.69
398.371	551.69
398.595	531.69
398.82	549.69
399.044	543.69
399.268	582.69
399.492	614.69
399.717	636.69
399.941	647.69
400.165	678.69
400.389	702.69
400.613	619.69
400.837	570.69
401.062	570.69
401.286	536.69
401.51	552.69
401.734	547.69
401.958	562.69
402.182	559.69
402.406	549.69
402.63	563.69
402.854	585.69
403.078	559.69
403.302	560.69
403.526	562.69
403.75	574.69
403.974	564.69
404.198	559.69
404.422	584.69
404.645	568.69
404.869	604.69
405.093	631.69
405.317	664.69
405.541	673.69
405.765	640.69
405.988	582.69
406.212	614.69
406.436	626.69
406.66	624.69
406.883	619.69
407.107	644.69
407.331	670.69
407.555	749.69
407.778	726.69
408.002	680.69
408.226	638.69
408.449	609.69
408.673	646.69
408.896	651.69
409.12	692.69
409.344	667.69
409.567	609.69
409.791	596.69
410.014	561.69
410.238	577.69
410.461	584.69
410.685	585.69
410.908	597.69
411.132	634.69
411.355	657.69
411.578	643.69
411.802	571.69
412.025	551.69
412.249	595.69
412.472	620.69
412.695	665.69
412.919	640.69
413.142	569.69
413.365	574.69
413.589	562.69
413.812	566.69
414.035	560.69
414.258	545.69
414.482	535.69
414.705	552.69
414.928	521.69
415.151	519.69
415.374	547.69
415.597	537.69
415.821	530.69
416.044	547.69
416.267	570.69
416.49	568.69
416.713	548.69
416.936	538.69
417.159	534.69
417.382	563.69
417.605	530.69
417.828	559.69
418.051	553.69
418.274	540.69
418.497	528.69
418.72	544.69
418.943	554.69
419.166	565.69
419.389	585.69
419.611	571.69
419.834	581.69
420.057	586.69
420.28	585.69
420.503	582.69
420.726	560.69
420.948	576.69
421.171	626.69
421.394	646.69
421.617	576.69
421.839	568.69
422.062	555.69
422.285	589.69
422.507	648.69
422.73	729.69
422.953	709.69
423.175	630.69
423.398	587.69
423.621	562.69
423.843	612.69
424.066	604.69
424.288	615.69
424.511	629.69
424.733	694.69
424.956	746.69
425.178	715.69
425.401	710.69
425.623	738.69
425.846	641.69
426.068	618.69
426.291	594.69
426.513	600.69
426.735	601.69
426.958	659.69
427.18	727.69
427.402	856.69
427.625	944.69
427.847	805.69
428.069	730.69
428.292	657.69
428.514	588.69
428.736	586.69
428.958	579.69
429.181	547.69
429.403	563.69
429.625	570.69
429.847	612.69
430.069	671.69
430.292	658.69
430.514	574.69
430.736	552.69
430.958	554.69
431.18	562.69
431.402	539.69
431.624	491.69
431.846	516.69
432.068	540.69
432.29	542.69
432.512	531.69
432.734	531.69
432.956	556.69
433.178	549.69
433.4	536.69
433.622	549.69
433.844	531.69
434.066	525.69
434.287	534.69
434.509	553.69
434.731	545.69
434.953	565.69
435.175	565.69
435.397	611.69
435.618	581.69
435.84	646.69
436.062	754.69
436.284	814.69
436.505	679.69
436.727	600.69
436.949	563.69
437.17	579.69
437.392	553.69
437.614	575.69
437.835	609.69
438.057	682.69
438.278	825.69
438.5	786.69
438.721	934.69
438.943	848.69
439.165	664.69
439.386	613.69
439.608	625.69
439.829	625.69
440.05	657.69
440.272	669.69
440.493	630.69
440.715	566.69
440.936	584.69
441.158	547.69
441.379	560.69
441.6	579.69
441.822	589.69
442.043	649.69
442.264	755.69
442.486	757.69
442.707	648.69
442.928	627.69
443.149	616.69
443.371	646.69
443.592	674.69
443.813	787.69
444.034	866.69
444.255	717.69
444.476	648.69
444.698	610.69
444.919	641.69
445.14	702.69
445.361	655.69
445.582	644.69
445.803	684.69
446.024	802.69
446.245	823.69
446.466	773.69
446.687	684.69
446.908	600.69
447.129	573.69
447.35	539.69
447.571	564.69
447.792	539.69
448.013	558.69
448.234	549.69
448.455	622.69
448.675	747.69
448.896	879.69
449.117	750.69
449.338	691.69
449.559	772.69
449.779	889.69
450	716.69
450.221	619.69
450.442	550.69
450.662	542.69
450.883	523.69
451.104	568.69
451.324	518.69
451.545	529.69
451.766	514.69
451.986	501.69
452.207	498.69
452.428	472.69
452.648	489.69
452.869	485.69
453.089	502.69
453.31	516.69
453.53	498.69
453.751	505.69
453.971	498.69
454.192	532.69
454.412	504.69
454.633	507.69
454.853	474.69
455.073	497.69
455.294	518.69
455.514	588.69
455.734	565.69
455.955	501.69
456.175	460.69
456.395	473.69
456.616	454.69
456.836	486.69
457.056	472.69
457.276	473.69
457.497	482.69
457.717	480.69
457.937	487.69
458.157	486.69
458.377	499.69
458.598	515.69
458.818	550.69
459.038	614.69
459.258	669.69
459.478	588.69
459.698	555.69
459.918	528.69
460.138	524.69
460.358	524.69
460.578	537.69
460.798	529.69
461.018	546.69
461.238	571.69
461.458	542.69
461.678	542.69
461.898	528.69
462.118	540.69
462.338	566.69
462.558	568.69
462.777	571.69
462.997	593.69
463.217	598.69
463.437	613.69
463.657	588.69
463.876	574.69
464.096	591.69
464.316	593.69
464.536	600.69
464.755	579.69
464.975	581.69
465.195	619.69
465.414	664.69
465.634	604.69
465.854	553.69
466.073	562.69
466.293	519.69
466.512	523.69
466.732	507.69
466.951	504.69
467.171	520.69
467.391	548.69
467.61	536.69
467.829	544.69
468.049	527.69
468.268	538.69
468.488	505.69
468.707	509.69
468.927	506.69
469.146	488.69
469.365	514.69
469.585	499.69
469.804	517.69
470.023	542.69
470.243	506.69
470.462	507.69
470.681	542.69
470.901	543.69
471.12	506.69
471.339	532.69
471.558	526.69
471.777	524.69
471.997	519.69
472.216	515.69
472.435	583.69
472.654	566.69
472.873	512.69
473.092	522.69
473.311	519.69
473.53	523.69
473.749	523.69
473.968	571.69
474.187	679.69
474.406	715.69
474.625	570.69
474.844	564.69
475.063	543.69
475.282	540.69
475.501	538.69
475.72	531.69
475.939	533.69
476.158	552.69
476.377	549.69
476.596	567.69
476.814	549.69
477.033	560.69
477.252	570.69
477.471	570.69
477.69	568.69
477.908	575.69
478.127	583.69
478.346	579.69
478.564	584.69
478.783	568.69
479.002	609.69
479.22	585.69
479.439	623.69
479.658	630.69
479.876	644.69
480.095	635.69
480.313	652.69
480.532	641.69
480.751	658.69
480.969	656.69
481.188	715.69
481.406	731.69
481.624	693.69
481.843	666.69
482.061	634.69
482.28	627.69
482.498	620.69
482.717	630.69
482.935	615.69
483.153	601.69
483.372	608.69
483.59	630.69
483.808	629.69
484.027	632.69
484.245	614.69
484.463	619.69
484.681	630.69
484.9	632.69
485.118	631.69
485.336	648.69
485.554	634.69
485.772	651.69
485.99	643.69
486.209	662.69
486.427	632.69
486.645	670.69
486.863	653.69
487.081	674.69
487.299	670.69
487.517	653.69
487.735	663.69
487.953	670.69
488.171	678.69
488.389	660.69
488.607	651.69
488.825	687.69
489.043	658.69
489.261	666.69
489.479	681.69
489.696	688.69
489.914	710.69
490.132	700.69
490.35	673.69
490.568	690.69
490.786	689.69
491.003	716.69
491.221	711.69
491.439	732.69
491.657	725.69
491.874	748.69
492.092	777.69
492.31	738.69
492.527	763.69
492.745	779.69
492.963	759.69
493.18	744.69
493.398	755.69
493.615	768.69
493.833	754.69
494.05	782.69
494.268	793.69
494.485	771.69
494.703	761.69
494.92	755.69
495.138	765.69
495.355	766.69
495.573	780.69
495.79	764.69
496.008	802.69
496.225	786.69
496.442	780.69
496.66	795.69
496.877	795.69
497.094	814.69
497.312	786.69
497.529	807.69
497.746	821.69
497.963	839.69
498.181	867.69
498.398	873.69
498.615	895.69
498.832	905.69
499.049	912.69
499.267	932.69
499.484	972.69
499.701	1016.69
499.918	1011.69
500.135	1060.69
500.352	1140.69
500.569	1148.69
500.786	1139.69
501.003	1170.69
501.22	1085.69
501.437	1065.69
501.654	1057.69
