Data from 1966.PennyLincolnUp.Lamp.En5.5.200Scan.071719.P1._HRD10591_14-12-43-913.txt Node
Date: Thu Jul 18 14:12:43 EDT 2019
User: cochatt
Spectrometer: HR+D1059
Trigger mode: 1
Integration Time (sec): 1.000000E-1
Scans to average: 1
Electric dark correction enabled: true
Nonlinearity correction enabled: false
Boxcar width: 0
XAxis mode: Wavelengths
Number of Pixels in Spectrum: 2048
>>>>>Begin Spectral Data<<<<<
223.165	-11.19
223.4	-11.19
223.635	-11.19
223.869	-19.19
224.104	-21.19
224.338	-10.19
224.573	-17.19
224.808	-6.19
225.042	-6.19
225.277	-5.19
225.511	-2.19
225.746	7.81
225.98	-2.19
226.215	14.81
226.449	20.81
226.683	12.81
226.918	13.81
227.152	30.81
227.387	29.81
227.621	26.81
227.856	54.81
228.09	43.81
228.324	28.81
228.559	49.81
228.793	61.81
229.027	62.81
229.262	59.81
229.496	66.81
229.73	87.81
229.964	98.81
230.199	104.81
230.433	94.81
230.667	87.81
230.901	89.81
231.136	89.81
231.37	100.81
231.604	86.81
231.838	98.81
232.072	83.81
232.306	85.81
232.541	83.81
232.775	92.81
233.009	88.81
233.243	78.81
233.477	90.81
233.711	83.81
233.945	91.81
234.179	98.81
234.413	98.81
234.647	92.81
234.881	98.81
235.115	79.81
235.349	79.81
235.583	89.81
235.817	79.81
236.051	102.81
236.285	91.81
236.519	96.81
236.753	101.81
236.987	113.81
237.221	112.81
237.455	146.81
237.689	134.81
237.922	100.81
238.156	104.81
238.39	87.81
238.624	86.81
238.858	97.81
239.091	88.81
239.325	97.81
239.559	93.81
239.793	104.81
240.027	103.81
240.26	103.81
240.494	120.81
240.728	96.81
240.961	96.81
241.195	108.81
241.429	97.81
241.662	89.81
241.896	97.81
242.13	94.81
242.363	102.81
242.597	91.81
242.83	89.81
243.064	101.81
243.298	102.81
243.531	113.81
243.765	108.81
243.998	101.81
244.232	92.81
244.465	99.81
244.699	105.81
244.932	98.81
245.166	94.81
245.399	104.81
245.633	104.81
245.866	112.81
246.099	107.81
246.333	99.81
246.566	99.81
246.8	102.81
247.033	114.81
247.266	111.81
247.5	105.81
247.733	119.81
247.966	104.81
248.2	128.81
248.433	115.81
248.666	112.81
248.899	119.81
249.133	133.81
249.366	112.81
249.599	125.81
249.832	114.81
250.066	132.81
250.299	123.81
250.532	118.81
250.765	120.81
250.998	125.81
251.231	127.81
251.465	126.81
251.698	119.81
251.931	122.81
252.164	114.81
252.397	113.81
252.63	138.81
252.863	127.81
253.096	137.81
253.329	143.81
253.562	133.81
253.795	140.81
254.028	114.81
254.261	122.81
254.494	146.81
254.727	134.81
254.96	166.81
255.193	157.81
255.426	136.81
255.659	141.81
255.892	141.81
256.124	140.81
256.357	132.81
256.59	125.81
256.823	122.81
257.056	133.81
257.289	129.81
257.521	134.81
257.754	124.81
257.987	121.81
258.22	132.81
258.452	139.81
258.685	115.81
258.918	128.81
259.151	140.81
259.383	121.81
259.616	139.81
259.849	136.81
260.081	150.81
260.314	140.81
260.547	145.81
260.779	144.81
261.012	128.81
261.244	126.81
261.477	139.81
261.71	136.81
261.942	119.81
262.175	153.81
262.407	139.81
262.64	121.81
262.872	139.81
263.105	134.81
263.337	146.81
263.57	145.81
263.802	136.81
264.035	146.81
264.267	111.81
264.499	128.81
264.732	128.81
264.964	131.81
265.197	128.81
265.429	129.81
265.661	127.81
265.894	145.81
266.126	144.81
266.358	126.81
266.591	132.81
266.823	130.81
267.055	158.81
267.287	126.81
267.52	131.81
267.752	140.81
267.984	133.81
268.216	122.81
268.448	136.81
268.681	141.81
268.913	154.81
269.145	153.81
269.377	154.81
269.609	173.81
269.841	150.81
270.073	176.81
270.306	160.81
270.538	190.81
270.77	170.81
271.002	158.81
271.234	157.81
271.466	158.81
271.698	176.81
271.93	178.81
272.162	179.81
272.394	189.81
272.626	178.81
272.858	161.81
273.09	155.81
273.322	150.81
273.553	163.81
273.785	154.81
274.017	134.81
274.249	148.81
274.481	143.81
274.713	146.81
274.945	154.81
275.176	136.81
275.408	145.81
275.64	159.81
275.872	145.81
276.104	155.81
276.335	146.81
276.567	148.81
276.799	156.81
277.031	161.81
277.262	173.81
277.494	183.81
277.726	154.81
277.957	157.81
278.189	151.81
278.421	160.81
278.652	151.81
278.884	158.81
279.115	162.81
279.347	151.81
279.579	161.81
279.81	156.81
280.042	159.81
280.273	150.81
280.505	166.81
280.736	157.81
280.968	148.81
281.199	144.81
281.431	148.81
281.662	162.81
281.894	148.81
282.125	161.81
282.356	171.81
282.588	173.81
282.819	162.81
283.051	151.81
283.282	141.81
283.513	151.81
283.745	143.81
283.976	146.81
284.207	156.81
284.439	163.81
284.67	179.81
284.901	151.81
285.132	145.81
285.364	150.81
285.595	152.81
285.826	156.81
286.057	164.81
286.288	163.81
286.52	140.81
286.751	143.81
286.982	164.81
287.213	164.81
287.444	158.81
287.675	167.81
287.906	170.81
288.138	177.81
288.369	179.81
288.6	163.81
288.831	172.81
289.062	168.81
289.293	160.81
289.524	152.81
289.755	166.81
289.986	164.81
290.217	162.81
290.448	167.81
290.679	152.81
290.91	153.81
291.141	168.81
291.371	178.81
291.602	169.81
291.833	166.81
292.064	163.81
292.295	169.81
292.526	160.81
292.757	163.81
292.987	165.81
293.218	169.81
293.449	158.81
293.68	169.81
293.91	176.81
294.141	156.81
294.372	178.81
294.603	168.81
294.833	165.81
295.064	162.81
295.295	165.81
295.525	147.81
295.756	167.81
295.987	187.81
296.217	178.81
296.448	189.81
296.679	157.81
296.909	166.81
297.14	175.81
297.37	163.81
297.601	162.81
297.831	161.81
298.062	167.81
298.292	175.81
298.523	160.81
298.753	171.81
298.984	182.81
299.214	170.81
299.445	157.81
299.675	173.81
299.905	174.81
300.136	174.81
300.366	172.81
300.597	165.81
300.827	160.81
301.057	177.81
301.288	193.81
301.518	163.81
301.748	176.81
301.979	184.81
302.209	191.81
302.439	183.81
302.669	169.81
302.9	192.81
303.13	165.81
303.36	150.81
303.59	187.81
303.82	177.81
304.051	170.81
304.281	181.81
304.511	183.81
304.741	196.81
304.971	180.81
305.201	165.81
305.431	163.81
305.661	176.81
305.891	179.81
306.121	177.81
306.352	182.81
306.582	155.81
306.812	170.81
307.042	180.81
307.272	179.81
307.502	173.81
307.731	184.81
307.961	192.81
308.191	193.81
308.421	181.81
308.651	188.81
308.881	203.81
309.111	168.81
309.341	189.81
309.571	171.81
309.8	196.81
310.03	188.81
310.26	205.81
310.49	191.81
310.72	205.81
310.949	201.81
311.179	200.81
311.409	193.81
311.639	205.81
311.868	205.81
312.098	198.81
312.328	200.81
312.557	209.81
312.787	217.81
313.017	220.81
313.246	219.81
313.476	188.81
313.706	199.81
313.935	194.81
314.165	204.81
314.394	214.81
314.624	207.81
314.853	196.81
315.083	205.81
315.312	202.81
315.542	197.81
315.771	185.81
316.001	209.81
316.23	196.81
316.46	188.81
316.689	198.81
316.919	197.81
317.148	194.81
317.377	197.81
317.607	193.81
317.836	188.81
318.065	198.81
318.295	185.81
318.524	200.81
318.753	214.81
318.983	204.81
319.212	196.81
319.441	201.81
319.67	196.81
319.9	193.81
320.129	199.81
320.358	199.81
320.587	197.81
320.816	195.81
321.046	209.81
321.275	219.81
321.504	203.81
321.733	202.81
321.962	208.81
322.191	207.81
322.42	223.81
322.649	217.81
322.878	213.81
323.108	225.81
323.337	254.81
323.566	236.81
323.795	264.81
324.024	282.81
324.253	329.81
324.482	460.81
324.71	672.81
324.939	926.81
325.168	758.81
325.397	386.81
325.626	306.81
325.855	269.81
326.084	233.81
326.313	232.81
326.542	250.81
326.77	258.81
326.999	316.81
327.228	446.81
327.457	613.81
327.686	704.81
327.914	480.81
328.143	331.81
328.372	305.81
328.6	292.81
328.829	277.81
329.058	286.81
329.287	300.81
329.515	267.81
329.744	235.81
329.972	245.81
330.201	257.81
330.43	276.81
330.658	309.81
330.887	299.81
331.115	293.81
331.344	257.81
331.572	222.81
331.801	248.81
332.03	265.81
332.258	229.81
332.486	218.81
332.715	216.81
332.943	224.81
333.172	241.81
333.4	241.81
333.629	226.81
333.857	227.81
334.085	219.81
334.314	274.81
334.542	263.81
334.771	280.81
334.999	225.81
335.227	226.81
335.455	244.81
335.684	237.81
335.912	233.81
336.14	216.81
336.369	231.81
336.597	240.81
336.825	235.81
337.053	224.81
337.281	223.81
337.51	241.81
337.738	227.81
337.966	211.81
338.194	215.81
338.422	214.81
338.65	214.81
338.878	214.81
339.106	221.81
339.334	224.81
339.562	214.81
339.79	211.81
340.018	210.81
340.246	205.81
340.474	226.81
340.702	205.81
340.93	194.81
341.158	214.81
341.386	215.81
341.614	217.81
341.842	216.81
342.07	201.81
342.298	196.81
342.526	197.81
342.754	211.81
342.981	210.81
343.209	218.81
343.437	218.81
343.665	231.81
343.893	231.81
344.12	225.81
344.348	201.81
344.576	216.81
344.804	209.81
345.031	216.81
345.259	229.81
345.487	235.81
345.714	209.81
345.942	225.81
346.17	197.81
346.397	192.81
346.625	209.81
346.853	211.81
347.08	196.81
347.308	199.81
347.535	211.81
347.763	203.81
347.99	205.81
348.218	228.81
348.445	204.81
348.673	214.81
348.9	232.81
349.128	220.81
349.355	204.81
349.583	197.81
349.81	205.81
350.037	210.81
350.265	193.81
350.492	184.81
350.72	204.81
350.947	230.81
351.174	219.81
351.402	221.81
351.629	207.81
351.856	216.81
352.083	216.81
352.311	209.81
352.538	218.81
352.765	229.81
352.992	209.81
353.22	208.81
353.447	206.81
353.674	206.81
353.901	186.81
354.128	189.81
354.355	188.81
354.583	189.81
354.81	217.81
355.037	195.81
355.264	189.81
355.491	184.81
355.718	186.81
355.945	190.81
356.172	202.81
356.399	201.81
356.626	192.81
356.853	188.81
357.08	185.81
357.307	200.81
357.534	203.81
357.761	206.81
357.988	190.81
358.215	190.81
358.441	212.81
358.668	212.81
358.895	202.81
359.122	204.81
359.349	202.81
359.576	209.81
359.802	232.81
360.029	248.81
360.256	236.81
360.483	234.81
360.709	221.81
360.936	206.81
361.163	205.81
361.39	210.81
361.616	212.81
361.843	207.81
362.07	216.81
362.296	205.81
362.523	213.81
362.749	203.81
362.976	182.81
363.203	189.81
363.429	194.81
363.656	202.81
363.882	212.81
364.109	199.81
364.335	201.81
364.562	179.81
364.788	200.81
365.015	197.81
365.241	200.81
365.468	190.81
365.694	213.81
365.92	204.81
366.147	203.81
366.373	204.81
366.599	205.81
366.826	180.81
367.052	202.81
367.278	205.81
367.505	183.81
367.731	186.81
367.957	206.81
368.184	207.81
368.41	208.81
368.636	220.81
368.862	210.81
369.089	192.81
369.315	197.81
369.541	202.81
369.767	198.81
369.993	198.81
370.219	198.81
370.445	195.81
370.672	195.81
370.898	202.81
371.124	196.81
371.35	196.81
371.576	188.81
371.802	212.81
372.028	206.81
372.254	212.81
372.48	202.81
372.706	180.81
372.932	195.81
373.158	206.81
373.384	198.81
373.61	206.81
373.835	200.81
374.061	207.81
374.287	196.81
374.513	208.81
374.739	213.81
374.965	194.81
375.191	201.81
375.416	192.81
375.642	198.81
375.868	201.81
376.094	188.81
376.319	201.81
376.545	204.81
376.771	210.81
376.997	200.81
377.222	206.81
377.448	197.81
377.674	199.81
377.899	190.81
378.125	205.81
378.35	199.81
378.576	172.81
378.802	209.81
379.027	188.81
379.253	214.81
379.478	206.81
379.704	197.81
379.929	201.81
380.155	207.81
380.38	202.81
380.606	200.81
380.831	210.81
381.057	205.81
381.282	202.81
381.507	194.81
381.733	195.81
381.958	200.81
382.184	197.81
382.409	215.81
382.634	198.81
382.86	203.81
383.085	221.81
383.31	221.81
383.535	215.81
383.761	199.81
383.986	196.81
384.211	206.81
384.436	222.81
384.662	215.81
384.887	207.81
385.112	206.81
385.337	211.81
385.562	213.81
385.787	205.81
386.013	216.81
386.238	230.81
386.463	220.81
386.688	204.81
386.913	230.81
387.138	235.81
387.363	211.81
387.588	216.81
387.813	231.81
388.038	205.81
388.263	227.81
388.488	220.81
388.713	227.81
388.938	240.81
389.163	216.81
389.387	236.81
389.612	216.81
389.837	216.81
390.062	212.81
390.287	216.81
390.512	218.81
390.736	202.81
390.961	209.81
391.186	231.81
391.411	218.81
391.636	220.81
391.86	219.81
392.085	218.81
392.31	216.81
392.534	230.81
392.759	219.81
392.984	212.81
393.208	229.81
393.433	234.81
393.658	226.81
393.882	207.81
394.107	196.81
394.331	220.81
394.556	201.81
394.78	189.81
395.005	207.81
395.229	205.81
395.454	229.81
395.678	240.81
395.903	219.81
396.127	225.81
396.352	227.81
396.576	214.81
396.801	235.81
397.025	221.81
397.249	218.81
397.474	237.81
397.698	224.81
397.922	234.81
398.147	244.81
398.371	226.81
398.595	233.81
398.82	220.81
399.044	248.81
399.268	243.81
399.492	277.81
399.717	278.81
399.941	300.81
400.165	285.81
400.389	282.81
400.613	272.81
400.837	241.81
401.062	224.81
401.286	224.81
401.51	220.81
401.734	225.81
401.958	245.81
402.182	252.81
402.406	259.81
402.63	260.81
402.854	253.81
403.078	247.81
403.302	251.81
403.526	245.81
403.75	232.81
403.974	250.81
404.198	264.81
404.422	241.81
404.645	253.81
404.869	258.81
405.093	250.81
405.317	269.81
405.541	281.81
405.765	280.81
405.988	261.81
406.212	264.81
406.436	296.81
406.66	305.81
406.883	264.81
407.107	284.81
407.331	290.81
407.555	304.81
407.778	304.81
408.002	300.81
408.226	270.81
408.449	279.81
408.673	270.81
408.896	272.81
409.12	309.81
409.344	287.81
409.567	262.81
409.791	261.81
410.014	242.81
410.238	247.81
410.461	258.81
410.685	268.81
410.908	268.81
411.132	288.81
411.355	265.81
411.578	272.81
411.802	245.81
412.025	237.81
412.249	246.81
412.472	263.81
412.695	268.81
412.919	280.81
413.142	240.81
413.365	243.81
413.589	233.81
413.812	245.81
414.035	245.81
414.258	241.81
414.482	235.81
414.705	229.81
414.928	243.81
415.151	223.81
415.374	230.81
415.597	248.81
415.821	229.81
416.044	244.81
416.267	237.81
416.49	222.81
416.713	229.81
416.936	236.81
417.159	213.81
417.382	247.81
417.605	243.81
417.828	248.81
418.051	261.81
418.274	267.81
418.497	241.81
418.72	240.81
418.943	229.81
419.166	230.81
419.389	258.81
419.611	268.81
419.834	248.81
420.057	277.81
420.28	260.81
420.503	253.81
420.726	254.81
420.948	275.81
421.171	261.81
421.394	271.81
421.617	264.81
421.839	258.81
422.062	234.81
422.285	262.81
422.507	281.81
422.73	304.81
422.953	304.81
423.175	285.81
423.398	258.81
423.621	278.81
423.843	261.81
424.066	275.81
424.288	285.81
424.511	280.81
424.733	285.81
424.956	314.81
425.178	316.81
425.401	297.81
425.623	329.81
425.846	260.81
426.068	260.81
426.291	241.81
426.513	246.81
426.735	265.81
426.958	282.81
427.18	312.81
427.402	353.81
427.625	397.81
427.847	371.81
428.069	315.81
428.292	266.81
428.514	260.81
428.736	256.81
428.958	246.81
429.181	253.81
429.403	246.81
429.625	256.81
429.847	262.81
430.069	285.81
430.292	269.81
430.514	252.81
430.736	256.81
430.958	239.81
431.18	227.81
431.402	219.81
431.624	246.81
431.846	229.81
432.068	231.81
432.29	250.81
432.512	230.81
432.734	240.81
432.956	243.81
433.178	257.81
433.4	234.81
433.622	236.81
433.844	241.81
434.066	241.81
434.287	233.81
434.509	240.81
434.731	236.81
434.953	250.81
435.175	259.81
435.397	265.81
435.618	256.81
435.84	292.81
436.062	301.81
436.284	339.81
436.505	267.81
436.727	260.81
436.949	247.81
437.17	253.81
437.392	248.81
437.614	248.81
437.835	273.81
438.057	312.81
438.278	344.81
438.5	332.81
438.721	376.81
438.943	355.81
439.165	277.81
439.386	276.81
439.608	281.81
439.829	280.81
440.05	298.81
440.272	315.81
440.493	269.81
440.715	247.81
440.936	247.81
441.158	244.81
441.379	247.81
441.6	240.81
441.822	266.81
442.043	288.81
442.264	309.81
442.486	316.81
442.707	261.81
442.928	267.81
443.149	273.81
443.371	278.81
443.592	313.81
443.813	326.81
444.034	349.81
444.255	296.81
444.476	270.81
444.698	280.81
444.919	268.81
445.14	343.81
445.361	312.81
445.582	309.81
445.803	312.81
446.024	359.81
446.245	366.81
446.466	329.81
446.687	269.81
446.908	265.81
447.129	248.81
447.35	241.81
447.571	252.81
447.792	262.81
448.013	244.81
448.234	246.81
448.455	277.81
448.675	326.81
448.896	374.81
449.117	292.81
449.338	290.81
449.559	331.81
449.779	371.81
450	289.81
450.221	239.81
450.442	243.81
450.662	244.81
450.883	251.81
451.104	245.81
451.324	235.81
451.545	243.81
451.766	220.81
451.986	219.81
452.207	231.81
452.428	215.81
452.648	223.81
452.869	225.81
453.089	237.81
453.31	227.81
453.53	237.81
453.751	250.81
453.971	228.81
454.192	232.81
454.412	218.81
454.633	246.81
454.853	220.81
455.073	222.81
455.294	236.81
455.514	255.81
455.734	260.81
455.955	215.81
456.175	219.81
456.395	211.81
456.616	219.81
456.836	215.81
457.056	216.81
457.276	227.81
457.497	216.81
457.717	218.81
457.937	221.81
458.157	209.81
458.377	218.81
458.598	232.81
458.818	257.81
459.038	295.81
459.258	304.81
459.478	249.81
459.698	232.81
459.918	219.81
460.138	223.81
460.358	225.81
460.578	235.81
460.798	233.81
461.018	246.81
461.238	229.81
461.458	222.81
461.678	232.81
461.898	233.81
462.118	235.81
462.338	232.81
462.558	242.81
462.777	259.81
462.997	236.81
463.217	266.81
463.437	273.81
463.657	258.81
463.876	239.81
464.096	253.81
464.316	244.81
464.536	235.81
464.755	262.81
464.975	248.81
465.195	261.81
465.414	318.81
465.634	273.81
465.854	246.81
466.073	212.81
466.293	243.81
466.512	233.81
466.732	219.81
466.951	234.81
467.171	215.81
467.391	229.81
467.61	259.81
467.829	236.81
468.049	236.81
468.268	233.81
468.488	218.81
468.707	221.81
468.927	245.81
469.146	228.81
469.365	227.81
469.585	235.81
469.804	236.81
470.023	243.81
470.243	236.81
470.462	241.81
470.681	235.81
470.901	243.81
471.12	230.81
471.339	217.81
471.558	230.81
471.777	232.81
471.997	228.81
472.216	239.81
472.435	282.81
472.654	260.81
472.873	211.81
473.092	234.81
473.311	218.81
473.53	220.81
473.749	235.81
473.968	262.81
474.187	299.81
474.406	294.81
474.625	256.81
474.844	252.81
475.063	241.81
475.282	231.81
475.501	221.81
475.72	221.81
475.939	237.81
476.158	225.81
476.377	245.81
476.596	242.81
476.814	252.81
477.033	240.81
477.252	245.81
477.471	245.81
477.69	251.81
477.908	273.81
478.127	251.81
478.346	236.81
478.564	264.81
478.783	258.81
479.002	249.81
479.22	265.81
479.439	249.81
479.658	274.81
479.876	282.81
480.095	281.81
480.313	294.81
480.532	289.81
480.751	285.81
480.969	299.81
481.188	332.81
481.406	347.81
481.624	298.81
481.843	262.81
482.061	259.81
482.28	268.81
482.498	273.81
482.717	264.81
482.935	253.81
483.153	254.81
483.372	279.81
483.59	246.81
483.808	264.81
484.027	252.81
484.245	264.81
484.463	262.81
484.681	292.81
484.9	265.81
485.118	279.81
485.336	283.81
485.554	283.81
485.772	256.81
485.99	266.81
486.209	289.81
486.427	290.81
486.645	288.81
486.863	295.81
487.081	296.81
487.299	299.81
487.517	292.81
487.735	284.81
487.953	299.81
488.171	283.81
488.389	297.81
488.607	278.81
488.825	288.81
489.043	278.81
489.261	291.81
489.479	283.81
489.696	284.81
489.914	315.81
490.132	294.81
490.35	308.81
490.568	301.81
490.786	306.81
491.003	307.81
491.221	331.81
491.439	317.81
491.657	327.81
491.874	324.81
492.092	338.81
492.31	327.81
492.527	330.81
492.745	329.81
492.963	340.81
493.18	330.81
493.398	359.81
493.615	337.81
493.833	336.81
494.05	347.81
494.268	324.81
494.485	334.81
494.703	336.81
494.92	338.81
495.138	343.81
495.355	333.81
495.573	330.81
495.79	322.81
496.008	356.81
496.225	340.81
496.442	319.81
496.66	330.81
496.877	332.81
497.094	343.81
497.312	348.81
497.529	343.81
497.746	344.81
497.963	347.81
498.181	363.81
498.398	343.81
498.615	363.81
498.832	365.81
499.049	374.81
499.267	364.81
499.484	360.81
499.701	403.81
499.918	407.81
500.135	425.81
500.352	441.81
500.569	442.81
500.786	455.81
501.003	427.81
501.22	446.81
501.437	428.81
501.654	421.81
501.871	421.81
502.088	392.81
502.305	382.81
502.522	363.81
502.739	348.81
