Data from 1966.PennyLincolnUp.Lamp.En5.5.200Scan.071719.P1.Scan2.head_HRD10591_14-16-46-056.txt Node
Date: Thu Jul 18 14:16:46 EDT 2019
User: cochatt
Spectrometer: HR+D1059
Trigger mode: 1
Integration Time (sec): 1.000000E-1
Scans to average: 1
Electric dark correction enabled: true
Nonlinearity correction enabled: false
Boxcar width: 0
XAxis mode: Wavelengths
Number of Pixels in Spectrum: 2048
>>>>>Begin Spectral Data<<<<<
223.165	-11.44
223.4	-11.44
223.635	-11.44
223.869	-17.44
224.104	-8.44
224.338	-13.44
224.573	-16.44
224.808	-25.44
225.042	8.56
225.277	6.56
225.511	-4.44
225.746	-2.44
225.98	-9.44
226.215	5.56
226.449	16.56
226.683	14.56
226.918	25.56
227.152	31.56
227.387	25.56
227.621	28.56
227.856	33.56
228.09	45.56
228.324	39.56
228.559	55.56
228.793	71.56
229.027	87.56
229.262	76.56
229.496	94.56
229.73	108.56
229.964	131.56
230.199	103.56
230.433	105.56
230.667	111.56
230.901	113.56
231.136	92.56
231.37	110.56
231.604	92.56
231.838	109.56
232.072	103.56
232.306	102.56
232.541	111.56
232.775	114.56
233.009	87.56
233.243	91.56
233.477	103.56
233.711	96.56
233.945	107.56
234.179	104.56
234.413	114.56
234.647	103.56
234.881	100.56
235.115	115.56
235.349	102.56
235.583	100.56
235.817	122.56
236.051	118.56
236.285	119.56
236.519	114.56
236.753	104.56
236.987	117.56
237.221	143.56
237.455	205.56
237.689	174.56
237.922	115.56
238.156	118.56
238.39	115.56
238.624	105.56
238.858	130.56
239.091	118.56
239.325	122.56
239.559	121.56
239.793	120.56
240.027	122.56
240.26	132.56
240.494	139.56
240.728	132.56
240.961	134.56
241.195	118.56
241.429	125.56
241.662	107.56
241.896	122.56
242.13	122.56
242.363	130.56
242.597	125.56
242.83	133.56
243.064	138.56
243.298	122.56
243.531	117.56
243.765	126.56
243.998	139.56
244.232	139.56
244.465	133.56
244.699	144.56
244.932	122.56
245.166	126.56
245.399	134.56
245.633	133.56
245.866	140.56
246.099	120.56
246.333	149.56
246.566	152.56
246.8	136.56
247.033	146.56
247.266	138.56
247.5	164.56
247.733	160.56
247.966	155.56
248.2	166.56
248.433	164.56
248.666	160.56
248.899	162.56
249.133	184.56
249.366	179.56
249.599	176.56
249.832	188.56
250.066	160.56
250.299	167.56
250.532	164.56
250.765	166.56
250.998	187.56
251.231	202.56
251.465	174.56
251.698	186.56
251.931	199.56
252.164	188.56
252.397	186.56
252.63	176.56
252.863	196.56
253.096	178.56
253.329	200.56
253.562	203.56
253.795	202.56
254.028	191.56
254.261	189.56
254.494	201.56
254.727	224.56
254.96	227.56
255.193	250.56
255.426	221.56
255.659	208.56
255.892	219.56
256.124	216.56
256.357	214.56
256.59	209.56
256.823	202.56
257.056	190.56
257.289	192.56
257.521	194.56
257.754	189.56
257.987	188.56
258.22	203.56
258.452	196.56
258.685	183.56
258.918	197.56
259.151	182.56
259.383	206.56
259.616	196.56
259.849	197.56
260.081	201.56
260.314	207.56
260.547	243.56
260.779	221.56
261.012	213.56
261.244	193.56
261.477	206.56
261.71	206.56
261.942	197.56
262.175	210.56
262.407	197.56
262.64	188.56
262.872	209.56
263.105	198.56
263.337	198.56
263.57	185.56
263.802	179.56
264.035	212.56
264.267	191.56
264.499	198.56
264.732	199.56
264.964	182.56
265.197	183.56
265.429	203.56
265.661	196.56
265.894	206.56
266.126	187.56
266.358	201.56
266.591	190.56
266.823	200.56
267.055	214.56
267.287	218.56
267.52	201.56
267.752	202.56
267.984	208.56
268.216	193.56
268.448	200.56
268.681	224.56
268.913	216.56
269.145	234.56
269.377	219.56
269.609	241.56
269.841	226.56
270.073	245.56
270.306	258.56
270.538	266.56
270.77	279.56
271.002	259.56
271.234	256.56
271.466	260.56
271.698	277.56
271.93	274.56
272.162	259.56
272.394	273.56
272.626	279.56
272.858	260.56
273.09	225.56
273.322	256.56
273.553	251.56
273.785	245.56
274.017	246.56
274.249	230.56
274.481	237.56
274.713	231.56
274.945	220.56
275.176	258.56
275.408	244.56
275.64	242.56
275.872	234.56
276.104	228.56
276.335	218.56
276.567	243.56
276.799	271.56
277.031	260.56
277.262	265.56
277.494	283.56
277.726	267.56
277.957	257.56
278.189	241.56
278.421	250.56
278.652	249.56
278.884	255.56
279.115	233.56
279.347	235.56
279.579	250.56
279.81	234.56
280.042	238.56
280.273	233.56
280.505	256.56
280.736	243.56
280.968	223.56
281.199	243.56
281.431	243.56
281.662	246.56
281.894	243.56
282.125	231.56
282.356	272.56
282.588	262.56
282.819	265.56
283.051	273.56
283.282	246.56
283.513	243.56
283.745	245.56
283.976	264.56
284.207	252.56
284.439	254.56
284.67	251.56
284.901	238.56
285.132	235.56
285.364	256.56
285.595	260.56
285.826	262.56
286.057	263.56
286.288	255.56
286.52	260.56
286.751	252.56
286.982	266.56
287.213	245.56
287.444	259.56
287.675	262.56
287.906	267.56
288.138	260.56
288.369	279.56
288.6	279.56
288.831	275.56
289.062	265.56
289.293	264.56
289.524	258.56
289.755	258.56
289.986	258.56
290.217	259.56
290.448	274.56
290.679	264.56
290.91	249.56
291.141	263.56
291.371	268.56
291.602	262.56
291.833	247.56
292.064	249.56
292.295	252.56
292.526	285.56
292.757	252.56
292.987	274.56
293.218	276.56
293.449	282.56
293.68	287.56
293.91	258.56
294.141	260.56
294.372	258.56
294.603	270.56
294.833	279.56
295.064	263.56
295.295	280.56
295.525	284.56
295.756	291.56
295.987	292.56
296.217	283.56
296.448	291.56
296.679	277.56
296.909	280.56
297.14	279.56
297.37	271.56
297.601	282.56
297.831	306.56
298.062	282.56
298.292	268.56
298.523	280.56
298.753	282.56
298.984	267.56
299.214	306.56
299.445	282.56
299.675	316.56
299.905	298.56
300.136	295.56
300.366	291.56
300.597	283.56
300.827	273.56
301.057	294.56
301.288	305.56
301.518	297.56
301.748	287.56
301.979	278.56
302.209	302.56
302.439	305.56
302.669	290.56
302.9	312.56
303.13	306.56
303.36	319.56
303.59	316.56
303.82	309.56
304.051	305.56
304.281	308.56
304.511	315.56
304.741	296.56
304.971	308.56
305.201	284.56
305.431	295.56
305.661	304.56
305.891	296.56
306.121	300.56
306.352	324.56
306.582	304.56
306.812	304.56
307.042	297.56
307.272	316.56
307.502	298.56
307.731	304.56
307.961	291.56
308.191	320.56
308.421	306.56
308.651	316.56
308.881	308.56
309.111	319.56
309.341	295.56
309.571	316.56
309.8	328.56
310.03	320.56
310.26	325.56
310.49	319.56
310.72	333.56
310.949	336.56
311.179	346.56
311.409	334.56
311.639	343.56
311.868	318.56
312.098	337.56
312.328	361.56
312.557	321.56
312.787	352.56
313.017	374.56
313.246	360.56
313.476	330.56
313.706	340.56
313.935	347.56
314.165	366.56
314.394	359.56
314.624	366.56
314.853	354.56
315.083	336.56
315.312	339.56
315.542	333.56
315.771	340.56
316.001	341.56
316.23	341.56
316.46	356.56
316.689	346.56
316.919	352.56
317.148	343.56
317.377	331.56
317.607	331.56
317.836	353.56
318.065	342.56
318.295	324.56
318.524	338.56
318.753	348.56
318.983	343.56
319.212	341.56
319.441	339.56
319.67	352.56
319.9	352.56
320.129	341.56
320.358	349.56
320.587	347.56
320.816	360.56
321.046	370.56
321.275	354.56
321.504	342.56
321.733	354.56
321.962	363.56
322.191	358.56
322.42	351.56
322.649	402.56
322.878	404.56
323.108	410.56
323.337	406.56
323.566	414.56
323.795	446.56
324.024	476.56
324.253	553.56
324.482	734.56
324.71	1171.56
324.939	1750.56
325.168	1534.56
325.397	774.56
325.626	531.56
325.855	450.56
326.084	426.56
326.313	440.56
326.542	434.56
326.77	462.56
326.999	541.56
327.228	694.56
327.457	1074.56
327.686	1356.56
327.914	900.56
328.143	571.56
328.372	514.56
328.6	480.56
328.829	479.56
329.058	475.56
329.287	485.56
329.515	480.56
329.744	444.56
329.972	441.56
330.201	445.56
330.43	474.56
330.658	481.56
330.887	511.56
331.115	482.56
331.344	457.56
331.572	431.56
331.801	418.56
332.03	415.56
332.258	403.56
332.486	391.56
332.715	406.56
332.943	408.56
333.172	425.56
333.4	425.56
333.629	432.56
333.857	448.56
334.085	431.56
334.314	440.56
334.542	468.56
334.771	481.56
334.999	444.56
335.227	431.56
335.455	426.56
335.684	416.56
335.912	432.56
336.14	406.56
336.369	416.56
336.597	418.56
336.825	420.56
337.053	417.56
337.281	403.56
337.51	400.56
337.738	392.56
337.966	400.56
338.194	414.56
338.422	402.56
338.65	412.56
338.878	398.56
339.106	386.56
339.334	405.56
339.562	417.56
339.79	376.56
340.018	394.56
340.246	393.56
340.474	398.56
340.702	376.56
340.93	383.56
341.158	404.56
341.386	392.56
341.614	402.56
341.842	386.56
342.07	395.56
342.298	395.56
342.526	403.56
342.754	395.56
342.981	400.56
343.209	374.56
343.437	406.56
343.665	407.56
343.893	397.56
344.12	416.56
344.348	403.56
344.576	412.56
344.804	406.56
345.031	412.56
345.259	423.56
345.487	400.56
345.714	394.56
345.942	404.56
346.17	380.56
346.397	396.56
346.625	387.56
346.853	380.56
347.08	395.56
347.308	383.56
347.535	407.56
347.763	390.56
347.99	410.56
348.218	390.56
348.445	407.56
348.673	401.56
348.9	393.56
349.128	391.56
349.355	380.56
349.583	386.56
349.81	382.56
350.037	383.56
350.265	413.56
350.492	397.56
350.72	363.56
350.947	367.56
351.174	374.56
351.402	373.56
351.629	389.56
351.856	400.56
352.083	405.56
352.311	405.56
352.538	403.56
352.765	395.56
352.992	391.56
353.22	379.56
353.447	382.56
353.674	386.56
353.901	375.56
354.128	364.56
354.355	386.56
354.583	371.56
354.81	370.56
355.037	381.56
355.264	358.56
355.491	391.56
355.718	372.56
355.945	388.56
356.172	378.56
356.399	380.56
356.626	370.56
356.853	376.56
357.08	378.56
357.307	372.56
357.534	376.56
357.761	354.56
357.988	374.56
358.215	390.56
358.441	387.56
358.668	370.56
358.895	395.56
359.122	389.56
359.349	386.56
359.576	398.56
359.802	399.56
360.029	412.56
360.256	402.56
360.483	427.56
360.709	412.56
360.936	394.56
361.163	400.56
361.39	383.56
361.616	407.56
361.843	403.56
362.07	391.56
362.296	390.56
362.523	399.56
362.749	389.56
362.976	402.56
363.203	392.56
363.429	384.56
363.656	389.56
363.882	409.56
364.109	394.56
364.335	376.56
364.562	383.56
364.788	388.56
365.015	383.56
365.241	377.56
365.468	390.56
365.694	386.56
365.92	395.56
366.147	387.56
366.373	380.56
366.599	378.56
366.826	387.56
367.052	380.56
367.278	386.56
367.505	378.56
367.731	387.56
367.957	387.56
368.184	361.56
368.41	386.56
368.636	394.56
368.862	388.56
369.089	402.56
369.315	393.56
369.541	386.56
369.767	386.56
369.993	381.56
370.219	399.56
370.445	387.56
370.672	391.56
370.898	387.56
371.124	391.56
371.35	374.56
371.576	380.56
371.802	384.56
372.028	382.56
372.254	370.56
372.48	396.56
372.706	414.56
372.932	408.56
373.158	408.56
373.384	404.56
373.61	399.56
373.835	385.56
374.061	404.56
374.287	406.56
374.513	414.56
374.739	410.56
374.965	402.56
375.191	402.56
375.416	409.56
375.642	413.56
375.868	406.56
376.094	404.56
376.319	373.56
376.545	396.56
376.771	402.56
376.997	395.56
377.222	386.56
377.448	380.56
377.674	399.56
377.899	369.56
378.125	385.56
378.35	396.56
378.576	391.56
378.802	379.56
379.027	392.56
379.253	391.56
379.478	407.56
379.704	383.56
379.929	390.56
380.155	396.56
380.38	417.56
380.606	404.56
380.831	392.56
381.057	418.56
381.282	413.56
381.507	400.56
381.733	392.56
381.958	386.56
382.184	397.56
382.409	402.56
382.634	403.56
382.86	410.56
383.085	414.56
383.31	422.56
383.535	442.56
383.761	413.56
383.986	425.56
384.211	418.56
384.436	418.56
384.662	424.56
384.887	427.56
385.112	444.56
385.337	430.56
385.562	433.56
385.787	424.56
386.013	448.56
386.238	435.56
386.463	459.56
386.688	458.56
386.913	442.56
387.138	446.56
387.363	432.56
387.588	442.56
387.813	448.56
388.038	425.56
388.263	448.56
388.488	455.56
388.713	444.56
388.938	444.56
389.163	424.56
389.387	426.56
389.612	431.56
389.837	445.56
390.062	451.56
390.287	434.56
390.512	436.56
390.736	452.56
390.961	450.56
391.186	443.56
391.411	442.56
391.636	450.56
391.86	460.56
392.085	460.56
392.31	464.56
392.534	453.56
392.759	464.56
392.984	441.56
393.208	453.56
393.433	463.56
393.658	474.56
393.882	441.56
394.107	441.56
394.331	441.56
394.556	456.56
394.78	434.56
395.005	447.56
395.229	454.56
395.454	459.56
395.678	479.56
395.903	479.56
396.127	500.56
396.352	485.56
396.576	470.56
396.801	490.56
397.025	472.56
397.249	469.56
397.474	472.56
397.698	491.56
397.922	498.56
398.147	502.56
398.371	504.56
398.595	492.56
398.82	490.56
399.044	533.56
399.268	532.56
399.492	542.56
399.717	590.56
399.941	591.56
400.165	624.56
400.389	642.56
400.613	586.56
400.837	562.56
401.062	527.56
401.286	530.56
401.51	516.56
401.734	526.56
401.958	535.56
402.182	531.56
402.406	509.56
402.63	518.56
402.854	503.56
403.078	527.56
403.302	535.56
403.526	544.56
403.75	539.56
403.974	523.56
404.198	535.56
404.422	534.56
404.645	545.56
404.869	562.56
405.093	581.56
405.317	619.56
405.541	633.56
405.765	583.56
405.988	553.56
406.212	570.56
406.436	582.56
406.66	585.56
406.883	551.56
407.107	586.56
407.331	644.56
407.555	691.56
407.778	686.56
408.002	655.56
408.226	580.56
408.449	588.56
408.673	573.56
408.896	593.56
409.12	669.56
409.344	608.56
409.567	582.56
409.791	569.56
410.014	547.56
410.238	537.56
410.461	525.56
410.685	555.56
410.908	552.56
411.132	588.56
411.355	616.56
411.578	563.56
411.802	549.56
412.025	544.56
412.249	534.56
412.472	555.56
412.695	586.56
412.919	577.56
413.142	552.56
413.365	530.56
413.589	528.56
413.812	512.56
414.035	490.56
414.258	524.56
414.482	495.56
414.705	522.56
414.928	487.56
415.151	496.56
415.374	517.56
415.597	482.56
415.821	488.56
416.044	520.56
416.267	514.56
416.49	512.56
416.713	507.56
416.936	520.56
417.159	503.56
417.382	490.56
417.605	496.56
417.828	517.56
418.051	551.56
418.274	499.56
418.497	530.56
418.72	500.56
418.943	514.56
419.166	519.56
419.389	563.56
419.611	529.56
419.834	530.56
420.057	542.56
420.28	530.56
420.503	530.56
420.726	520.56
420.948	554.56
421.171	565.56
421.394	590.56
421.617	548.56
421.839	525.56
422.062	544.56
422.285	555.56
422.507	593.56
422.73	656.56
422.953	630.56
423.175	568.56
423.398	553.56
423.621	555.56
423.843	575.56
424.066	560.56
424.288	548.56
424.511	574.56
424.733	638.56
424.956	694.56
425.178	684.56
425.401	663.56
425.623	681.56
425.846	587.56
426.068	587.56
426.291	558.56
426.513	529.56
426.735	553.56
426.958	598.56
427.18	659.56
427.402	794.56
427.625	863.56
427.847	754.56
428.069	678.56
428.292	584.56
428.514	548.56
428.736	531.56
428.958	524.56
429.181	502.56
429.403	504.56
429.625	528.56
429.847	559.56
430.069	613.56
430.292	598.56
430.514	540.56
430.736	542.56
430.958	499.56
431.18	494.56
431.402	485.56
431.624	500.56
431.846	498.56
432.068	487.56
432.29	494.56
432.512	475.56
432.734	501.56
432.956	516.56
433.178	483.56
433.4	490.56
433.622	503.56
433.844	492.56
434.066	488.56
434.287	516.56
434.509	490.56
434.731	510.56
434.953	521.56
435.175	535.56
435.397	559.56
435.618	559.56
435.84	619.56
436.062	698.56
436.284	745.56
436.505	618.56
436.727	569.56
436.949	527.56
437.17	525.56
437.392	507.56
437.614	532.56
437.835	566.56
438.057	636.56
438.278	735.56
438.5	742.56
438.721	806.56
438.943	790.56
439.165	627.56
439.386	592.56
439.608	566.56
439.829	543.56
440.05	579.56
440.272	635.56
440.493	571.56
440.715	539.56
440.936	524.56
441.158	542.56
441.379	514.56
441.6	525.56
441.822	559.56
442.043	580.56
442.264	653.56
442.486	706.56
442.707	624.56
442.928	567.56
443.149	582.56
443.371	609.56
443.592	650.56
443.813	720.56
444.034	790.56
444.255	651.56
444.476	608.56
444.698	562.56
444.919	562.56
445.14	634.56
445.361	619.56
445.582	613.56
445.803	664.56
446.024	735.56
446.245	760.56
446.466	686.56
446.687	607.56
446.908	570.56
447.129	536.56
447.35	516.56
447.571	505.56
447.792	516.56
448.013	516.56
448.234	544.56
448.455	561.56
448.675	674.56
448.896	771.56
449.117	690.56
449.338	630.56
449.559	734.56
449.779	825.56
450	668.56
450.221	544.56
450.442	513.56
450.662	521.56
450.883	488.56
451.104	508.56
451.324	512.56
451.545	507.56
451.766	469.56
451.986	474.56
452.207	474.56
452.428	450.56
452.648	441.56
452.869	450.56
453.089	451.56
453.31	491.56
453.53	455.56
453.751	453.56
453.971	474.56
454.192	478.56
454.412	457.56
454.633	455.56
454.853	464.56
455.073	456.56
455.294	471.56
455.514	524.56
455.734	506.56
455.955	446.56
456.175	440.56
456.395	454.56
456.616	447.56
456.836	434.56
457.056	429.56
457.276	419.56
457.497	434.56
457.717	437.56
457.937	434.56
458.157	456.56
458.377	460.56
458.598	461.56
458.818	518.56
459.038	600.56
459.258	614.56
459.478	524.56
459.698	487.56
459.918	492.56
460.138	489.56
460.358	499.56
460.578	512.56
460.798	519.56
461.018	512.56
461.238	511.56
461.458	501.56
461.678	507.56
461.898	501.56
462.118	511.56
462.338	517.56
462.558	530.56
462.777	548.56
462.997	551.56
463.217	559.56
463.437	562.56
463.657	563.56
463.876	553.56
464.096	570.56
464.316	531.56
464.536	553.56
464.755	540.56
464.975	513.56
465.195	550.56
465.414	607.56
465.634	566.56
465.854	534.56
466.073	510.56
466.293	512.56
466.512	506.56
466.732	490.56
466.951	480.56
467.171	463.56
467.391	489.56
467.61	495.56
467.829	495.56
468.049	482.56
468.268	493.56
468.488	494.56
468.707	456.56
468.927	481.56
469.146	471.56
469.365	470.56
469.585	477.56
469.804	476.56
470.023	478.56
470.243	486.56
470.462	504.56
470.681	485.56
470.901	510.56
471.12	463.56
471.339	496.56
471.558	479.56
471.777	489.56
471.997	480.56
472.216	477.56
472.435	505.56
472.654	498.56
472.873	504.56
473.092	484.56
473.311	464.56
473.53	498.56
473.749	473.56
473.968	520.56
474.187	633.56
474.406	638.56
474.625	542.56
474.844	487.56
475.063	508.56
475.282	506.56
475.501	488.56
475.72	487.56
475.939	508.56
476.158	508.56
476.377	518.56
476.596	489.56
476.814	524.56
477.033	503.56
477.252	508.56
477.471	527.56
477.69	525.56
477.908	534.56
478.127	541.56
478.346	548.56
478.564	537.56
478.783	553.56
479.002	539.56
479.22	562.56
479.439	564.56
479.658	584.56
479.876	578.56
480.095	590.56
480.313	636.56
480.532	617.56
480.751	563.56
480.969	602.56
481.188	641.56
481.406	678.56
481.624	617.56
481.843	594.56
482.061	598.56
482.28	579.56
482.498	555.56
482.717	582.56
482.935	572.56
483.153	587.56
483.372	569.56
483.59	578.56
483.808	567.56
484.027	571.56
484.245	582.56
484.463	582.56
484.681	585.56
484.9	564.56
485.118	584.56
485.336	600.56
485.554	595.56
485.772	564.56
485.99	584.56
486.209	586.56
486.427	596.56
486.645	619.56
486.863	605.56
487.081	617.56
487.299	623.56
487.517	596.56
487.735	604.56
487.953	628.56
488.171	620.56
488.389	611.56
488.607	624.56
488.825	624.56
489.043	624.56
489.261	634.56
489.479	633.56
489.696	610.56
489.914	623.56
490.132	617.56
490.35	630.56
490.568	650.56
490.786	657.56
491.003	645.56
491.221	661.56
491.439	644.56
491.657	676.56
491.874	693.56
492.092	678.56
492.31	682.56
492.527	708.56
492.745	698.56
492.963	698.56
493.18	713.56
493.398	732.56
493.615	706.56
493.833	726.56
494.05	723.56
494.268	718.56
494.485	704.56
494.703	703.56
494.92	702.56
495.138	739.56
495.355	712.56
495.573	729.56
495.79	715.56
496.008	722.56
496.225	719.56
496.442	720.56
496.66	723.56
496.877	729.56
497.094	769.56
497.312	737.56
497.529	739.56
497.746	772.56
497.963	777.56
498.181	798.56
498.398	803.56
498.615	810.56
498.832	814.56
499.049	853.56
499.267	879.56
499.484	900.56
499.701	928.56
499.918	989.56
500.135	1019.56
500.352	1058.56
500.569	1064.56
500.786	1098.56
501.003	1088.56
501.22	1045.56
501.437	1015.56
501.654	965.56
501.871	930.56
