Data from 1966.PennyLincolnUp.Lamp.En5.5.200Scan.071719.P1._HRD10591_14-13-46-914.txt Node
Date: Thu Jul 18 14:13:46 EDT 2019
User: cochatt
Spectrometer: HR+D1059
Trigger mode: 1
Integration Time (sec): 1.000000E-1
Scans to average: 1
Electric dark correction enabled: true
Nonlinearity correction enabled: false
Boxcar width: 0
XAxis mode: Wavelengths
Number of Pixels in Spectrum: 2048
>>>>>Begin Spectral Data<<<<<
223.165	-14.88
223.4	-14.88
223.635	-14.88
223.869	-31.88
224.104	-21.88
224.338	-8.88
224.573	-17.88
224.808	0.12
225.042	-11.88
225.277	-0.88
225.511	-6.88
225.746	4.12
225.98	13.12
226.215	5.12
226.449	8.12
226.683	22.12
226.918	30.12
227.152	32.12
227.387	34.12
227.621	43.12
227.856	44.12
228.09	34.12
228.324	46.12
228.559	51.12
228.793	68.12
229.027	76.12
229.262	80.12
229.496	78.12
229.73	97.12
229.964	109.12
230.199	99.12
230.433	90.12
230.667	96.12
230.901	91.12
231.136	78.12
231.37	98.12
231.604	94.12
231.838	89.12
232.072	92.12
232.306	104.12
232.541	85.12
232.775	112.12
233.009	96.12
233.243	84.12
233.477	98.12
233.711	108.12
233.945	93.12
234.179	101.12
234.413	85.12
234.647	99.12
234.881	97.12
235.115	101.12
235.349	97.12
235.583	100.12
235.817	96.12
236.051	81.12
236.285	94.12
236.519	101.12
236.753	86.12
236.987	110.12
237.221	106.12
237.455	132.12
237.689	120.12
237.922	94.12
238.156	93.12
238.39	91.12
238.624	81.12
238.858	89.12
239.091	95.12
239.325	96.12
239.559	95.12
239.793	94.12
240.027	95.12
240.26	94.12
240.494	112.12
240.728	111.12
240.961	112.12
241.195	108.12
241.429	100.12
241.662	106.12
241.896	97.12
242.13	88.12
242.363	97.12
242.597	94.12
242.83	89.12
243.064	98.12
243.298	90.12
243.531	101.12
243.765	98.12
243.998	91.12
244.232	116.12
244.465	119.12
244.699	103.12
244.932	116.12
245.166	109.12
245.399	122.12
245.633	112.12
245.866	104.12
246.099	100.12
246.333	97.12
246.566	92.12
246.8	100.12
247.033	101.12
247.266	120.12
247.5	109.12
247.733	113.12
247.966	100.12
248.2	119.12
248.433	107.12
248.666	136.12
248.899	124.12
249.133	120.12
249.366	135.12
249.599	111.12
249.832	123.12
250.066	112.12
250.299	120.12
250.532	125.12
250.765	136.12
250.998	132.12
251.231	129.12
251.465	132.12
251.698	134.12
251.931	144.12
252.164	121.12
252.397	132.12
252.63	120.12
252.863	128.12
253.096	120.12
253.329	140.12
253.562	124.12
253.795	117.12
254.028	133.12
254.261	128.12
254.494	143.12
254.727	167.12
254.96	181.12
255.193	156.12
255.426	129.12
255.659	129.12
255.892	145.12
256.124	136.12
256.357	132.12
256.59	148.12
256.823	138.12
257.056	129.12
257.289	123.12
257.521	135.12
257.754	117.12
257.987	118.12
258.22	126.12
258.452	138.12
258.685	129.12
258.918	134.12
259.151	130.12
259.383	134.12
259.616	146.12
259.849	143.12
260.081	153.12
260.314	152.12
260.547	147.12
260.779	147.12
261.012	143.12
261.244	136.12
261.477	131.12
261.71	129.12
261.942	158.12
262.175	147.12
262.407	144.12
262.64	125.12
262.872	132.12
263.105	134.12
263.337	145.12
263.57	129.12
263.802	137.12
264.035	130.12
264.267	125.12
264.499	138.12
264.732	128.12
264.964	125.12
265.197	125.12
265.429	136.12
265.661	138.12
265.894	130.12
266.126	142.12
266.358	128.12
266.591	136.12
266.823	132.12
267.055	136.12
267.287	138.12
267.52	136.12
267.752	129.12
267.984	145.12
268.216	137.12
268.448	143.12
268.681	136.12
268.913	158.12
269.145	150.12
269.377	165.12
269.609	157.12
269.841	139.12
270.073	155.12
270.306	168.12
270.538	174.12
270.77	186.12
271.002	173.12
271.234	161.12
271.466	165.12
271.698	176.12
271.93	174.12
272.162	177.12
272.394	172.12
272.626	171.12
272.858	174.12
273.09	171.12
273.322	141.12
273.553	130.12
273.785	157.12
274.017	148.12
274.249	155.12
274.481	141.12
274.713	145.12
274.945	165.12
275.176	158.12
275.408	170.12
275.64	165.12
275.872	149.12
276.104	159.12
276.335	152.12
276.567	153.12
276.799	172.12
277.031	181.12
277.262	185.12
277.494	186.12
277.726	185.12
277.957	172.12
278.189	164.12
278.421	162.12
278.652	154.12
278.884	147.12
279.115	138.12
279.347	158.12
279.579	146.12
279.81	157.12
280.042	156.12
280.273	160.12
280.505	166.12
280.736	155.12
280.968	161.12
281.199	161.12
281.431	152.12
281.662	165.12
281.894	161.12
282.125	157.12
282.356	153.12
282.588	176.12
282.819	167.12
283.051	160.12
283.282	154.12
283.513	159.12
283.745	158.12
283.976	175.12
284.207	168.12
284.439	171.12
284.67	171.12
284.901	169.12
285.132	148.12
285.364	157.12
285.595	144.12
285.826	164.12
286.057	156.12
286.288	159.12
286.52	145.12
286.751	158.12
286.982	164.12
287.213	172.12
287.444	169.12
287.675	153.12
287.906	154.12
288.138	177.12
288.369	169.12
288.6	171.12
288.831	165.12
289.062	156.12
289.293	175.12
289.524	179.12
289.755	164.12
289.986	172.12
290.217	168.12
290.448	175.12
290.679	169.12
290.91	173.12
291.141	154.12
291.371	159.12
291.602	166.12
291.833	171.12
292.064	158.12
292.295	176.12
292.526	161.12
292.757	165.12
292.987	158.12
293.218	167.12
293.449	164.12
293.68	173.12
293.91	158.12
294.141	167.12
294.372	152.12
294.603	148.12
294.833	158.12
295.064	160.12
295.295	181.12
295.525	160.12
295.756	166.12
295.987	173.12
296.217	180.12
296.448	182.12
296.679	170.12
296.909	184.12
297.14	169.12
297.37	166.12
297.601	159.12
297.831	162.12
298.062	154.12
298.292	165.12
298.523	182.12
298.753	174.12
298.984	165.12
299.214	173.12
299.445	172.12
299.675	184.12
299.905	177.12
300.136	180.12
300.366	162.12
300.597	166.12
300.827	169.12
301.057	172.12
301.288	180.12
301.518	186.12
301.748	184.12
301.979	186.12
302.209	188.12
302.439	172.12
302.669	183.12
302.9	176.12
303.13	198.12
303.36	175.12
303.59	184.12
303.82	168.12
304.051	171.12
304.281	196.12
304.511	196.12
304.741	181.12
304.971	173.12
305.201	184.12
305.431	172.12
305.661	174.12
305.891	171.12
306.121	188.12
306.352	177.12
306.582	174.12
306.812	185.12
307.042	171.12
307.272	197.12
307.502	187.12
307.731	194.12
307.961	193.12
308.191	174.12
308.421	171.12
308.651	181.12
308.881	182.12
309.111	175.12
309.341	184.12
309.571	191.12
309.8	183.12
310.03	199.12
310.26	196.12
310.49	198.12
310.72	208.12
310.949	216.12
311.179	196.12
311.409	186.12
311.639	188.12
311.868	197.12
312.098	203.12
312.328	218.12
312.557	204.12
312.787	220.12
313.017	230.12
313.246	208.12
313.476	196.12
313.706	180.12
313.935	194.12
314.165	212.12
314.394	213.12
314.624	206.12
314.853	221.12
315.083	199.12
315.312	195.12
315.542	190.12
315.771	208.12
316.001	212.12
316.23	200.12
316.46	207.12
316.689	202.12
316.919	192.12
317.148	201.12
317.377	184.12
317.607	185.12
317.836	216.12
318.065	216.12
318.295	194.12
318.524	203.12
318.753	205.12
318.983	198.12
319.212	199.12
319.441	204.12
319.67	206.12
319.9	205.12
320.129	196.12
320.358	214.12
320.587	200.12
320.816	203.12
321.046	218.12
321.275	208.12
321.504	209.12
321.733	221.12
321.962	201.12
322.191	218.12
322.42	230.12
322.649	228.12
322.878	234.12
323.108	234.12
323.337	242.12
323.566	262.12
323.795	250.12
324.024	293.12
324.253	344.12
324.482	461.12
324.71	680.12
324.939	902.12
325.168	777.12
325.397	400.12
325.626	288.12
325.855	271.12
326.084	234.12
326.313	254.12
326.542	258.12
326.77	288.12
326.999	341.12
327.228	444.12
327.457	626.12
327.686	689.12
327.914	463.12
328.143	348.12
328.372	312.12
328.6	291.12
328.829	272.12
329.058	295.12
329.287	289.12
329.515	269.12
329.744	252.12
329.972	273.12
330.201	262.12
330.43	295.12
330.658	300.12
330.887	329.12
331.115	302.12
331.344	284.12
331.572	265.12
331.801	264.12
332.03	249.12
332.258	254.12
332.486	242.12
332.715	216.12
332.943	238.12
333.172	233.12
333.4	231.12
333.629	243.12
333.857	239.12
334.085	250.12
334.314	268.12
334.542	273.12
334.771	306.12
334.999	264.12
335.227	233.12
335.455	235.12
335.684	218.12
335.912	223.12
336.14	219.12
336.369	233.12
336.597	234.12
336.825	243.12
337.053	243.12
337.281	235.12
337.51	223.12
337.738	210.12
337.966	220.12
338.194	228.12
338.422	220.12
338.65	227.12
338.878	222.12
339.106	216.12
339.334	228.12
339.562	217.12
339.79	224.12
340.018	234.12
340.246	244.12
340.474	217.12
340.702	230.12
340.93	210.12
341.158	219.12
341.386	232.12
341.614	234.12
341.842	220.12
342.07	210.12
342.298	214.12
342.526	221.12
342.754	216.12
342.981	204.12
343.209	199.12
343.437	205.12
343.665	220.12
343.893	238.12
344.12	225.12
344.348	222.12
344.576	198.12
344.804	233.12
345.031	228.12
345.259	226.12
345.487	230.12
345.714	206.12
345.942	219.12
346.17	196.12
346.397	218.12
346.625	224.12
346.853	207.12
347.08	219.12
347.308	219.12
347.535	221.12
347.763	226.12
347.99	209.12
348.218	207.12
348.445	214.12
348.673	224.12
348.9	213.12
349.128	218.12
349.355	199.12
349.583	199.12
349.81	208.12
350.037	218.12
350.265	210.12
350.492	208.12
350.72	220.12
350.947	216.12
351.174	204.12
351.402	220.12
351.629	210.12
351.856	217.12
352.083	221.12
352.311	219.12
352.538	221.12
352.765	246.12
352.992	211.12
353.22	218.12
353.447	213.12
353.674	207.12
353.901	208.12
354.128	196.12
354.355	201.12
354.583	204.12
354.81	206.12
355.037	208.12
355.264	210.12
355.491	188.12
355.718	203.12
355.945	206.12
356.172	204.12
356.399	203.12
356.626	203.12
356.853	197.12
357.08	199.12
357.307	201.12
357.534	212.12
357.761	190.12
357.988	207.12
358.215	197.12
358.441	209.12
358.668	199.12
358.895	196.12
359.122	196.12
359.349	208.12
359.576	218.12
359.802	228.12
360.029	238.12
360.256	244.12
360.483	229.12
360.709	219.12
360.936	218.12
361.163	198.12
361.39	207.12
361.616	203.12
361.843	209.12
362.07	221.12
362.296	215.12
362.523	209.12
362.749	203.12
362.976	221.12
363.203	227.12
363.429	190.12
363.656	217.12
363.882	208.12
364.109	219.12
364.335	205.12
364.562	205.12
364.788	200.12
365.015	209.12
365.241	207.12
365.468	210.12
365.694	220.12
365.92	230.12
366.147	205.12
366.373	204.12
366.599	207.12
366.826	198.12
367.052	215.12
367.278	203.12
367.505	200.12
367.731	211.12
367.957	212.12
368.184	182.12
368.41	204.12
368.636	208.12
368.862	218.12
369.089	208.12
369.315	201.12
369.541	201.12
369.767	201.12
369.993	212.12
370.219	195.12
370.445	199.12
370.672	187.12
370.898	207.12
371.124	205.12
371.35	184.12
371.576	205.12
371.802	200.12
372.028	194.12
372.254	197.12
372.48	191.12
372.706	202.12
372.932	195.12
373.158	195.12
373.384	203.12
373.61	217.12
373.835	215.12
374.061	212.12
374.287	219.12
374.513	212.12
374.739	218.12
374.965	202.12
375.191	188.12
375.416	207.12
375.642	208.12
375.868	197.12
376.094	199.12
376.319	202.12
376.545	213.12
376.771	196.12
376.997	210.12
377.222	204.12
377.448	205.12
377.674	196.12
377.899	201.12
378.125	195.12
378.35	199.12
378.576	200.12
378.802	189.12
379.027	188.12
379.253	199.12
379.478	194.12
379.704	206.12
379.929	204.12
380.155	207.12
380.38	180.12
380.606	214.12
380.831	200.12
381.057	194.12
381.282	199.12
381.507	191.12
381.733	208.12
381.958	196.12
382.184	199.12
382.409	194.12
382.634	196.12
382.86	207.12
383.085	196.12
383.31	207.12
383.535	199.12
383.761	198.12
383.986	221.12
384.211	198.12
384.436	192.12
384.662	220.12
384.887	215.12
385.112	192.12
385.337	215.12
385.562	199.12
385.787	209.12
386.013	221.12
386.238	206.12
386.463	237.12
386.688	199.12
386.913	226.12
387.138	212.12
387.363	212.12
387.588	214.12
387.813	228.12
388.038	229.12
388.263	236.12
388.488	212.12
388.713	220.12
388.938	215.12
389.163	214.12
389.387	221.12
389.612	223.12
389.837	220.12
390.062	223.12
390.287	236.12
390.512	211.12
390.736	206.12
390.961	225.12
391.186	212.12
391.411	214.12
391.636	218.12
391.86	214.12
392.085	231.12
392.31	232.12
392.534	209.12
392.759	214.12
392.984	237.12
393.208	233.12
393.433	221.12
393.658	213.12
393.882	213.12
394.107	222.12
394.331	197.12
394.556	211.12
394.78	230.12
395.005	206.12
395.229	213.12
395.454	223.12
395.678	208.12
395.903	205.12
396.127	237.12
396.352	227.12
396.576	230.12
396.801	226.12
397.025	221.12
397.249	235.12
397.474	240.12
397.698	228.12
397.922	222.12
398.147	240.12
398.371	238.12
398.595	223.12
398.82	228.12
399.044	242.12
399.268	242.12
399.492	267.12
399.717	271.12
399.941	290.12
400.165	264.12
400.389	288.12
400.613	261.12
400.837	236.12
401.062	247.12
401.286	252.12
401.51	244.12
401.734	247.12
401.958	239.12
402.182	260.12
402.406	239.12
402.63	278.12
402.854	251.12
403.078	252.12
403.302	256.12
403.526	271.12
403.75	266.12
403.974	249.12
404.198	255.12
404.422	257.12
404.645	257.12
404.869	273.12
405.093	274.12
405.317	287.12
405.541	289.12
405.765	272.12
405.988	254.12
406.212	272.12
406.436	290.12
406.66	281.12
406.883	270.12
407.107	264.12
407.331	285.12
407.555	318.12
407.778	325.12
408.002	278.12
408.226	274.12
408.449	272.12
408.673	240.12
408.896	261.12
409.12	318.12
409.344	286.12
409.567	265.12
409.791	263.12
410.014	256.12
410.238	258.12
410.461	246.12
410.685	261.12
410.908	266.12
411.132	264.12
411.355	287.12
411.578	279.12
411.802	265.12
412.025	252.12
412.249	263.12
412.472	268.12
412.695	288.12
412.919	267.12
413.142	253.12
413.365	269.12
413.589	230.12
413.812	248.12
414.035	244.12
414.258	229.12
414.482	252.12
414.705	239.12
414.928	246.12
415.151	236.12
415.374	231.12
415.597	235.12
415.821	233.12
416.044	244.12
416.267	233.12
416.49	243.12
416.713	240.12
416.936	232.12
417.159	238.12
417.382	253.12
417.605	236.12
417.828	227.12
418.051	253.12
418.274	251.12
418.497	234.12
418.72	240.12
418.943	246.12
419.166	256.12
419.389	235.12
419.611	242.12
419.834	262.12
420.057	250.12
420.28	266.12
420.503	255.12
420.726	256.12
420.948	242.12
421.171	264.12
421.394	277.12
421.617	264.12
421.839	251.12
422.062	248.12
422.285	244.12
422.507	272.12
422.73	313.12
422.953	289.12
423.175	268.12
423.398	266.12
423.621	270.12
423.843	270.12
424.066	276.12
424.288	266.12
424.511	270.12
424.733	273.12
424.956	324.12
425.178	316.12
425.401	312.12
425.623	320.12
425.846	276.12
426.068	251.12
426.291	253.12
426.513	241.12
426.735	280.12
426.958	282.12
427.18	323.12
427.402	365.12
427.625	386.12
427.847	367.12
428.069	287.12
428.292	282.12
428.514	277.12
428.736	263.12
428.958	248.12
429.181	230.12
429.403	267.12
429.625	264.12
429.847	265.12
430.069	303.12
430.292	295.12
430.514	252.12
430.736	257.12
430.958	250.12
431.18	214.12
431.402	235.12
431.624	234.12
431.846	239.12
432.068	230.12
432.29	222.12
432.512	236.12
432.734	233.12
432.956	234.12
433.178	239.12
433.4	236.12
433.622	250.12
433.844	247.12
434.066	227.12
434.287	229.12
434.509	253.12
434.731	259.12
434.953	246.12
435.175	266.12
435.397	260.12
435.618	258.12
435.84	289.12
436.062	303.12
436.284	331.12
436.505	284.12
436.727	249.12
436.949	260.12
437.17	254.12
437.392	240.12
437.614	244.12
437.835	264.12
438.057	311.12
438.278	344.12
438.5	331.12
438.721	352.12
438.943	336.12
439.165	306.12
439.386	267.12
439.608	260.12
439.829	284.12
440.05	260.12
440.272	291.12
440.493	282.12
440.715	239.12
440.936	266.12
441.158	256.12
441.379	235.12
441.6	251.12
441.822	267.12
442.043	272.12
442.264	325.12
442.486	336.12
442.707	276.12
442.928	271.12
443.149	280.12
443.371	293.12
443.592	297.12
443.813	320.12
444.034	363.12
444.255	297.12
444.476	268.12
444.698	260.12
444.919	275.12
445.14	354.12
445.361	309.12
445.582	285.12
445.803	323.12
446.024	353.12
446.245	352.12
446.466	304.12
446.687	284.12
446.908	263.12
447.129	244.12
447.35	258.12
447.571	249.12
447.792	240.12
448.013	240.12
448.234	277.12
448.455	275.12
448.675	336.12
448.896	332.12
449.117	292.12
449.338	278.12
449.559	336.12
449.779	370.12
450	312.12
450.221	280.12
450.442	244.12
450.662	226.12
450.883	250.12
451.104	270.12
451.324	232.12
451.545	254.12
451.766	249.12
451.986	222.12
452.207	204.12
452.428	222.12
452.648	225.12
452.869	237.12
453.089	231.12
453.31	231.12
453.53	217.12
453.751	219.12
453.971	222.12
454.192	244.12
454.412	237.12
454.633	219.12
454.853	221.12
455.073	217.12
455.294	232.12
455.514	262.12
455.734	244.12
455.955	223.12
456.175	230.12
456.395	218.12
456.616	204.12
456.836	212.12
457.056	230.12
457.276	221.12
457.497	225.12
457.717	215.12
457.937	209.12
458.157	220.12
458.377	216.12
458.598	244.12
458.818	286.12
459.038	299.12
459.258	324.12
459.478	250.12
459.698	246.12
459.918	231.12
460.138	239.12
460.358	249.12
460.578	240.12
460.798	239.12
461.018	252.12
461.238	241.12
461.458	230.12
461.678	248.12
461.898	227.12
462.118	238.12
462.338	260.12
462.558	222.12
462.777	245.12
462.997	244.12
463.217	266.12
463.437	274.12
463.657	238.12
463.876	245.12
464.096	256.12
464.316	248.12
464.536	257.12
464.755	249.12
464.975	266.12
465.195	290.12
465.414	325.12
465.634	273.12
465.854	257.12
466.073	241.12
466.293	245.12
466.512	220.12
466.732	216.12
466.951	225.12
467.171	226.12
467.391	228.12
467.61	249.12
467.829	246.12
468.049	244.12
468.268	230.12
468.488	233.12
468.707	237.12
468.927	228.12
469.146	223.12
469.365	211.12
469.585	220.12
469.804	220.12
470.023	234.12
470.243	224.12
470.462	234.12
470.681	273.12
470.901	253.12
471.12	227.12
471.339	233.12
471.558	234.12
471.777	239.12
471.997	231.12
472.216	229.12
472.435	268.12
472.654	252.12
472.873	210.12
473.092	217.12
473.311	248.12
473.53	224.12
473.749	234.12
473.968	244.12
474.187	310.12
474.406	300.12
474.625	250.12
474.844	248.12
475.063	242.12
475.282	257.12
475.501	210.12
475.72	238.12
475.939	225.12
476.158	229.12
476.377	243.12
476.596	235.12
476.814	233.12
477.033	234.12
477.252	241.12
477.471	258.12
477.69	242.12
477.908	260.12
478.127	254.12
478.346	261.12
478.564	262.12
478.783	272.12
479.002	267.12
479.22	248.12
479.439	272.12
479.658	264.12
479.876	286.12
480.095	264.12
480.313	286.12
480.532	273.12
480.751	285.12
480.969	290.12
481.188	321.12
481.406	368.12
481.624	297.12
481.843	268.12
482.061	265.12
482.28	271.12
482.498	272.12
482.717	289.12
482.935	267.12
483.153	271.12
483.372	266.12
483.59	266.12
483.808	252.12
484.027	260.12
484.245	274.12
484.463	254.12
484.681	293.12
484.9	277.12
485.118	260.12
485.336	264.12
485.554	271.12
485.772	271.12
485.99	279.12
486.209	262.12
486.427	280.12
486.645	296.12
486.863	297.12
487.081	300.12
487.299	292.12
487.517	287.12
487.735	287.12
487.953	285.12
488.171	286.12
488.389	302.12
488.607	295.12
488.825	288.12
489.043	286.12
489.261	293.12
489.479	297.12
489.696	299.12
489.914	276.12
490.132	305.12
490.35	290.12
490.568	318.12
490.786	310.12
491.003	313.12
491.221	337.12
491.439	322.12
491.657	314.12
491.874	337.12
492.092	321.12
492.31	326.12
492.527	328.12
492.745	351.12
492.963	330.12
493.18	345.12
493.398	338.12
493.615	365.12
493.833	325.12
494.05	333.12
494.268	311.12
494.485	328.12
494.703	344.12
494.92	332.12
495.138	347.12
495.355	338.12
495.573	336.12
495.79	343.12
496.008	334.12
496.225	320.12
496.442	345.12
496.66	362.12
496.877	338.12
497.094	333.12
497.312	333.12
497.529	354.12
497.746	332.12
497.963	338.12
498.181	349.12
498.398	343.12
498.615	360.12
498.832	350.12
499.049	349.12
499.267	378.12
499.484	373.12
499.701	380.12
499.918	434.12
500.135	416.12
500.352	437.12
500.569	439.12
500.786	438.12
501.003	434.12
501.22	428.12
501.437	428.12
501.654	409.12
501.871	404.12
502.088	373.12
502.305	385.12
502.522	359.12
502.739	344.12
