Data from 1966.PennyLincolnUp.Lamp.En5.5.200Scan.071719.P1._HRD10591_14-12-25-914.txt Node
Date: Thu Jul 18 14:12:25 EDT 2019
User: cochatt
Spectrometer: HR+D1059
Trigger mode: 1
Integration Time (sec): 1.000000E-1
Scans to average: 1
Electric dark correction enabled: true
Nonlinearity correction enabled: false
Boxcar width: 0
XAxis mode: Wavelengths
Number of Pixels in Spectrum: 2048
>>>>>Begin Spectral Data<<<<<
223.165	-14.88
223.4	-14.88
223.635	-14.88
223.869	-22.88
224.104	-26.88
224.338	-1.88
224.573	-13.88
224.808	-19.88
225.042	-3.88
225.277	-6.88
225.511	-2.88
225.746	-2.88
225.98	7.12
226.215	9.12
226.449	18.12
226.683	13.12
226.918	23.12
227.152	46.12
227.387	40.12
227.621	36.12
227.856	51.12
228.09	47.12
228.324	64.12
228.559	49.12
228.793	62.12
229.027	74.12
229.262	75.12
229.496	81.12
229.73	87.12
229.964	104.12
230.199	83.12
230.433	76.12
230.667	83.12
230.901	98.12
231.136	93.12
231.37	90.12
231.604	84.12
231.838	89.12
232.072	104.12
232.306	95.12
232.541	92.12
232.775	99.12
233.009	85.12
233.243	90.12
233.477	89.12
233.711	106.12
233.945	99.12
234.179	106.12
234.413	106.12
234.647	94.12
234.881	100.12
235.115	100.12
235.349	91.12
235.583	91.12
235.817	86.12
236.051	91.12
236.285	82.12
236.519	93.12
236.753	103.12
236.987	86.12
237.221	113.12
237.455	120.12
237.689	126.12
237.922	95.12
238.156	86.12
238.39	82.12
238.624	92.12
238.858	84.12
239.091	89.12
239.325	102.12
239.559	97.12
239.793	99.12
240.027	88.12
240.26	93.12
240.494	100.12
240.728	106.12
240.961	108.12
241.195	112.12
241.429	113.12
241.662	103.12
241.896	101.12
242.13	90.12
242.363	112.12
242.597	74.12
242.83	86.12
243.064	106.12
243.298	104.12
243.531	106.12
243.765	91.12
243.998	103.12
244.232	109.12
244.465	105.12
244.699	95.12
244.932	93.12
245.166	101.12
245.399	106.12
245.633	123.12
245.866	109.12
246.099	93.12
246.333	113.12
246.566	93.12
246.8	109.12
247.033	110.12
247.266	97.12
247.5	113.12
247.733	108.12
247.966	111.12
248.2	111.12
248.433	122.12
248.666	113.12
248.899	109.12
249.133	118.12
249.366	117.12
249.599	118.12
249.832	107.12
250.066	114.12
250.299	124.12
250.532	114.12
250.765	135.12
250.998	138.12
251.231	130.12
251.465	130.12
251.698	125.12
251.931	104.12
252.164	108.12
252.397	129.12
252.63	119.12
252.863	123.12
253.096	135.12
253.329	132.12
253.562	137.12
253.795	136.12
254.028	140.12
254.261	122.12
254.494	130.12
254.727	146.12
254.96	160.12
255.193	139.12
255.426	146.12
255.659	133.12
255.892	137.12
256.124	133.12
256.357	149.12
256.59	133.12
256.823	128.12
257.056	122.12
257.289	134.12
257.521	122.12
257.754	127.12
257.987	122.12
258.22	112.12
258.452	128.12
258.685	122.12
258.918	116.12
259.151	131.12
259.383	131.12
259.616	135.12
259.849	135.12
260.081	149.12
260.314	134.12
260.547	140.12
260.779	150.12
261.012	135.12
261.244	134.12
261.477	158.12
261.71	124.12
261.942	143.12
262.175	138.12
262.407	133.12
262.64	134.12
262.872	134.12
263.105	127.12
263.337	124.12
263.57	125.12
263.802	131.12
264.035	129.12
264.267	122.12
264.499	137.12
264.732	133.12
264.964	131.12
265.197	122.12
265.429	128.12
265.661	131.12
265.894	130.12
266.126	136.12
266.358	141.12
266.591	132.12
266.823	126.12
267.055	121.12
267.287	129.12
267.52	117.12
267.752	130.12
267.984	137.12
268.216	117.12
268.448	138.12
268.681	146.12
268.913	146.12
269.145	168.12
269.377	147.12
269.609	152.12
269.841	158.12
270.073	152.12
270.306	160.12
270.538	164.12
270.77	160.12
271.002	146.12
271.234	156.12
271.466	159.12
271.698	161.12
271.93	153.12
272.162	159.12
272.394	162.12
272.626	175.12
272.858	152.12
273.09	146.12
273.322	136.12
273.553	148.12
273.785	159.12
274.017	145.12
274.249	155.12
274.481	157.12
274.713	126.12
274.945	140.12
275.176	153.12
275.408	161.12
275.64	154.12
275.872	142.12
276.104	144.12
276.335	134.12
276.567	141.12
276.799	156.12
277.031	159.12
277.262	172.12
277.494	167.12
277.726	171.12
277.957	150.12
278.189	144.12
278.421	162.12
278.652	164.12
278.884	149.12
279.115	153.12
279.347	152.12
279.579	149.12
279.81	157.12
280.042	153.12
280.273	132.12
280.505	152.12
280.736	158.12
280.968	152.12
281.199	144.12
281.431	149.12
281.662	138.12
281.894	146.12
282.125	156.12
282.356	167.12
282.588	165.12
282.819	168.12
283.051	147.12
283.282	140.12
283.513	157.12
283.745	159.12
283.976	141.12
284.207	154.12
284.439	153.12
284.67	157.12
284.901	138.12
285.132	146.12
285.364	155.12
285.595	147.12
285.826	149.12
286.057	169.12
286.288	146.12
286.52	149.12
286.751	149.12
286.982	168.12
287.213	148.12
287.444	134.12
287.675	148.12
287.906	164.12
288.138	159.12
288.369	170.12
288.6	181.12
288.831	141.12
289.062	148.12
289.293	168.12
289.524	163.12
289.755	146.12
289.986	166.12
290.217	172.12
290.448	151.12
290.679	134.12
290.91	157.12
291.141	156.12
291.371	155.12
291.602	167.12
291.833	161.12
292.064	151.12
292.295	165.12
292.526	157.12
292.757	154.12
292.987	151.12
293.218	140.12
293.449	152.12
293.68	159.12
293.91	166.12
294.141	167.12
294.372	165.12
294.603	166.12
294.833	165.12
295.064	169.12
295.295	166.12
295.525	164.12
295.756	161.12
295.987	163.12
296.217	169.12
296.448	189.12
296.679	166.12
296.909	168.12
297.14	151.12
297.37	170.12
297.601	153.12
297.831	147.12
298.062	165.12
298.292	162.12
298.523	165.12
298.753	164.12
298.984	166.12
299.214	151.12
299.445	161.12
299.675	169.12
299.905	155.12
300.136	161.12
300.366	141.12
300.597	168.12
300.827	166.12
301.057	176.12
301.288	190.12
301.518	173.12
301.748	172.12
301.979	165.12
302.209	165.12
302.439	179.12
302.669	181.12
302.9	184.12
303.13	166.12
303.36	175.12
303.59	173.12
303.82	191.12
304.051	192.12
304.281	177.12
304.511	156.12
304.741	184.12
304.971	164.12
305.201	172.12
305.431	168.12
305.661	175.12
305.891	168.12
306.121	169.12
306.352	175.12
306.582	147.12
306.812	180.12
307.042	172.12
307.272	172.12
307.502	181.12
307.731	173.12
307.961	168.12
308.191	165.12
308.421	180.12
308.651	180.12
308.881	176.12
309.111	168.12
309.341	190.12
309.571	186.12
309.8	184.12
310.03	189.12
310.26	182.12
310.49	185.12
310.72	180.12
310.949	188.12
311.179	194.12
311.409	186.12
311.639	182.12
311.868	197.12
312.098	178.12
312.328	194.12
312.557	198.12
312.787	212.12
313.017	205.12
313.246	200.12
313.476	191.12
313.706	178.12
313.935	196.12
314.165	204.12
314.394	197.12
314.624	198.12
314.853	193.12
315.083	188.12
315.312	193.12
315.542	205.12
315.771	196.12
316.001	191.12
316.23	172.12
316.46	200.12
316.689	191.12
316.919	182.12
317.148	193.12
317.377	190.12
317.607	188.12
317.836	191.12
318.065	192.12
318.295	170.12
318.524	177.12
318.753	193.12
318.983	198.12
319.212	198.12
319.441	203.12
319.67	193.12
319.9	175.12
320.129	175.12
320.358	181.12
320.587	202.12
320.816	192.12
321.046	197.12
321.275	209.12
321.504	200.12
321.733	203.12
321.962	206.12
322.191	206.12
322.42	221.12
322.649	204.12
322.878	212.12
323.108	226.12
323.337	238.12
323.566	241.12
323.795	248.12
324.024	252.12
324.253	302.12
324.482	434.12
324.71	662.12
324.939	875.12
325.168	688.12
325.397	375.12
325.626	255.12
325.855	230.12
326.084	225.12
326.313	220.12
326.542	214.12
326.77	248.12
326.999	292.12
327.228	390.12
327.457	595.12
327.686	638.12
327.914	414.12
328.143	312.12
328.372	279.12
328.6	286.12
328.829	261.12
329.058	268.12
329.287	269.12
329.515	254.12
329.744	230.12
329.972	250.12
330.201	244.12
330.43	268.12
330.658	275.12
330.887	278.12
331.115	270.12
331.344	245.12
331.572	248.12
331.801	233.12
332.03	253.12
332.258	236.12
332.486	208.12
332.715	228.12
332.943	216.12
333.172	219.12
333.4	227.12
333.629	222.12
333.857	228.12
334.085	240.12
334.314	231.12
334.542	262.12
334.771	275.12
334.999	245.12
335.227	221.12
335.455	211.12
335.684	216.12
335.912	216.12
336.14	224.12
336.369	209.12
336.597	217.12
336.825	230.12
337.053	204.12
337.281	213.12
337.51	201.12
337.738	210.12
337.966	226.12
338.194	203.12
338.422	209.12
338.65	215.12
338.878	208.12
339.106	208.12
339.334	214.12
339.562	207.12
339.79	189.12
340.018	195.12
340.246	185.12
340.474	204.12
340.702	223.12
340.93	201.12
341.158	197.12
341.386	210.12
341.614	217.12
341.842	205.12
342.07	191.12
342.298	211.12
342.526	200.12
342.754	205.12
342.981	216.12
343.209	202.12
343.437	182.12
343.665	203.12
343.893	208.12
344.12	216.12
344.348	216.12
344.576	206.12
344.804	208.12
345.031	207.12
345.259	219.12
345.487	218.12
345.714	226.12
345.942	199.12
346.17	192.12
346.397	224.12
346.625	204.12
346.853	214.12
347.08	191.12
347.308	184.12
347.535	196.12
347.763	208.12
347.99	213.12
348.218	190.12
348.445	197.12
348.673	209.12
348.9	204.12
349.128	200.12
349.355	208.12
349.583	219.12
349.81	192.12
350.037	193.12
350.265	195.12
350.492	205.12
350.72	191.12
350.947	196.12
351.174	201.12
351.402	196.12
351.629	193.12
351.856	212.12
352.083	217.12
352.311	200.12
352.538	206.12
352.765	200.12
352.992	186.12
353.22	208.12
353.447	216.12
353.674	206.12
353.901	188.12
354.128	202.12
354.355	178.12
354.583	194.12
354.81	202.12
355.037	184.12
355.264	180.12
355.491	179.12
355.718	198.12
355.945	181.12
356.172	188.12
356.399	198.12
356.626	190.12
356.853	189.12
357.08	187.12
357.307	197.12
357.534	169.12
357.761	187.12
357.988	182.12
358.215	187.12
358.441	201.12
358.668	180.12
358.895	173.12
359.122	178.12
359.349	205.12
359.576	206.12
359.802	203.12
360.029	214.12
360.256	217.12
360.483	226.12
360.709	205.12
360.936	190.12
361.163	208.12
361.39	216.12
361.616	202.12
361.843	197.12
362.07	204.12
362.296	202.12
362.523	209.12
362.749	206.12
362.976	181.12
363.203	187.12
363.429	194.12
363.656	199.12
363.882	185.12
364.109	184.12
364.335	188.12
364.562	173.12
364.788	193.12
365.015	210.12
365.241	197.12
365.468	196.12
365.694	195.12
365.92	207.12
366.147	205.12
366.373	207.12
366.599	196.12
366.826	190.12
367.052	192.12
367.278	178.12
367.505	192.12
367.731	197.12
367.957	180.12
368.184	192.12
368.41	197.12
368.636	198.12
368.862	201.12
369.089	202.12
369.315	178.12
369.541	210.12
369.767	191.12
369.993	189.12
370.219	208.12
370.445	188.12
370.672	189.12
370.898	190.12
371.124	205.12
371.35	194.12
371.576	180.12
371.802	194.12
372.028	179.12
372.254	192.12
372.48	185.12
372.706	191.12
372.932	201.12
373.158	196.12
373.384	184.12
373.61	199.12
373.835	200.12
374.061	188.12
374.287	191.12
374.513	197.12
374.739	214.12
374.965	206.12
375.191	193.12
375.416	184.12
375.642	200.12
375.868	210.12
376.094	181.12
376.319	185.12
376.545	181.12
376.771	200.12
376.997	195.12
377.222	195.12
377.448	184.12
377.674	200.12
377.899	199.12
378.125	193.12
378.35	187.12
378.576	200.12
378.802	209.12
379.027	199.12
379.253	208.12
379.478	192.12
379.704	184.12
379.929	193.12
380.155	191.12
380.38	186.12
380.606	196.12
380.831	186.12
381.057	173.12
381.282	196.12
381.507	200.12
381.733	198.12
381.958	200.12
382.184	190.12
382.409	192.12
382.634	198.12
382.86	195.12
383.085	186.12
383.31	193.12
383.535	185.12
383.761	200.12
383.986	202.12
384.211	201.12
384.436	202.12
384.662	196.12
384.887	201.12
385.112	194.12
385.337	205.12
385.562	215.12
385.787	198.12
386.013	196.12
386.238	197.12
386.463	221.12
386.688	207.12
386.913	203.12
387.138	209.12
387.363	205.12
387.588	211.12
387.813	216.12
388.038	199.12
388.263	204.12
388.488	191.12
388.713	216.12
388.938	170.12
389.163	194.12
389.387	216.12
389.612	208.12
389.837	200.12
390.062	207.12
390.287	203.12
390.512	227.12
390.736	195.12
390.961	198.12
391.186	205.12
391.411	207.12
391.636	205.12
391.86	210.12
392.085	208.12
392.31	210.12
392.534	207.12
392.759	200.12
392.984	212.12
393.208	214.12
393.433	226.12
393.658	230.12
393.882	212.12
394.107	207.12
394.331	196.12
394.556	200.12
394.78	212.12
395.005	214.12
395.229	197.12
395.454	219.12
395.678	206.12
395.903	214.12
396.127	240.12
396.352	237.12
396.576	198.12
396.801	212.12
397.025	217.12
397.249	232.12
397.474	221.12
397.698	216.12
397.922	218.12
398.147	227.12
398.371	226.12
398.595	220.12
398.82	233.12
399.044	237.12
399.268	231.12
399.492	260.12
399.717	282.12
399.941	266.12
400.165	268.12
400.389	261.12
400.613	270.12
400.837	245.12
401.062	234.12
401.286	232.12
401.51	218.12
401.734	215.12
401.958	233.12
402.182	230.12
402.406	231.12
402.63	248.12
402.854	244.12
403.078	237.12
403.302	236.12
403.526	234.12
403.75	251.12
403.974	248.12
404.198	221.12
404.422	238.12
404.645	253.12
404.869	248.12
405.093	244.12
405.317	278.12
405.541	282.12
405.765	255.12
405.988	258.12
406.212	249.12
406.436	240.12
406.66	284.12
406.883	268.12
407.107	277.12
407.331	264.12
407.555	291.12
407.778	313.12
408.002	289.12
408.226	269.12
408.449	261.12
408.673	253.12
408.896	270.12
409.12	287.12
409.344	249.12
409.567	226.12
409.791	264.12
410.014	240.12
410.238	233.12
410.461	249.12
410.685	238.12
410.908	244.12
411.132	269.12
411.355	284.12
411.578	258.12
411.802	238.12
412.025	244.12
412.249	234.12
412.472	240.12
412.695	252.12
412.919	260.12
413.142	233.12
413.365	239.12
413.589	225.12
413.812	218.12
414.035	230.12
414.258	221.12
414.482	228.12
414.705	232.12
414.928	232.12
415.151	238.12
415.374	253.12
415.597	244.12
415.821	232.12
416.044	246.12
416.267	234.12
416.49	236.12
416.713	228.12
416.936	217.12
417.159	233.12
417.382	237.12
417.605	241.12
417.828	255.12
418.051	241.12
418.274	249.12
418.497	239.12
418.72	236.12
418.943	226.12
419.166	241.12
419.389	237.12
419.611	237.12
419.834	241.12
420.057	245.12
420.28	229.12
420.503	250.12
420.726	236.12
420.948	241.12
421.171	273.12
421.394	271.12
421.617	252.12
421.839	229.12
422.062	230.12
422.285	239.12
422.507	274.12
422.73	305.12
422.953	289.12
423.175	241.12
423.398	247.12
423.621	252.12
423.843	260.12
424.066	253.12
424.288	255.12
424.511	252.12
424.733	273.12
424.956	306.12
425.178	306.12
425.401	305.12
425.623	290.12
425.846	279.12
426.068	251.12
426.291	240.12
426.513	247.12
426.735	248.12
426.958	268.12
427.18	314.12
427.402	336.12
427.625	367.12
427.847	334.12
428.069	294.12
428.292	268.12
428.514	236.12
428.736	233.12
428.958	236.12
429.181	234.12
429.403	244.12
429.625	252.12
429.847	256.12
430.069	263.12
430.292	269.12
430.514	233.12
430.736	223.12
430.958	228.12
431.18	227.12
431.402	220.12
431.624	208.12
431.846	243.12
432.068	229.12
432.29	234.12
432.512	226.12
432.734	224.12
432.956	226.12
433.178	239.12
433.4	239.12
433.622	234.12
433.844	216.12
434.066	221.12
434.287	221.12
434.509	228.12
434.731	227.12
434.953	244.12
435.175	237.12
435.397	253.12
435.618	247.12
435.84	265.12
436.062	294.12
436.284	317.12
436.505	288.12
436.727	259.12
436.949	228.12
437.17	236.12
437.392	218.12
437.614	230.12
437.835	268.12
438.057	293.12
438.278	331.12
438.5	321.12
438.721	321.12
438.943	319.12
439.165	268.12
439.386	269.12
439.608	248.12
439.829	270.12
440.05	273.12
440.272	270.12
440.493	270.12
440.715	229.12
440.936	213.12
441.158	247.12
441.379	239.12
441.6	244.12
441.822	255.12
442.043	258.12
442.264	304.12
442.486	311.12
442.707	260.12
442.928	245.12
443.149	268.12
443.371	295.12
443.592	300.12
443.813	306.12
444.034	349.12
444.255	297.12
444.476	285.12
444.698	249.12
444.919	250.12
445.14	334.12
445.361	312.12
445.582	255.12
445.803	300.12
446.024	342.12
446.245	319.12
446.466	304.12
446.687	260.12
446.908	261.12
447.129	240.12
447.35	239.12
447.571	228.12
447.792	239.12
448.013	245.12
448.234	247.12
448.455	278.12
448.675	303.12
448.896	336.12
449.117	283.12
449.338	271.12
449.559	337.12
449.779	367.12
450	305.12
450.221	255.12
450.442	218.12
450.662	228.12
450.883	236.12
451.104	242.12
451.324	245.12
451.545	224.12
451.766	225.12
451.986	209.12
452.207	206.12
452.428	214.12
452.648	207.12
452.869	214.12
453.089	215.12
453.31	213.12
453.53	222.12
453.751	222.12
453.971	214.12
454.192	245.12
454.412	213.12
454.633	203.12
454.853	190.12
455.073	225.12
455.294	213.12
455.514	257.12
455.734	249.12
455.955	207.12
456.175	229.12
456.395	199.12
456.616	196.12
456.836	208.12
457.056	202.12
457.276	215.12
457.497	225.12
457.717	208.12
457.937	203.12
458.157	200.12
458.377	227.12
458.598	225.12
458.818	250.12
459.038	301.12
459.258	293.12
459.478	241.12
459.698	240.12
459.918	209.12
460.138	225.12
460.358	225.12
460.578	220.12
460.798	210.12
461.018	244.12
461.238	224.12
461.458	232.12
461.678	226.12
461.898	248.12
462.118	244.12
462.338	230.12
462.558	246.12
462.777	236.12
462.997	228.12
463.217	261.12
463.437	233.12
463.657	251.12
463.876	238.12
464.096	230.12
464.316	226.12
464.536	241.12
464.755	251.12
464.975	245.12
465.195	277.12
465.414	312.12
465.634	270.12
465.854	236.12
466.073	231.12
466.293	235.12
466.512	234.12
466.732	220.12
466.951	216.12
467.171	213.12
467.391	196.12
467.61	235.12
467.829	244.12
468.049	214.12
468.268	218.12
468.488	226.12
468.707	228.12
468.927	214.12
469.146	203.12
469.365	220.12
469.585	212.12
469.804	225.12
470.023	231.12
470.243	228.12
470.462	237.12
470.681	220.12
470.901	236.12
471.12	218.12
471.339	228.12
471.558	230.12
471.777	216.12
471.997	223.12
472.216	231.12
472.435	242.12
472.654	238.12
472.873	206.12
473.092	225.12
473.311	231.12
473.53	206.12
473.749	217.12
473.968	236.12
474.187	283.12
474.406	284.12
474.625	230.12
474.844	233.12
475.063	215.12
475.282	222.12
475.501	208.12
475.72	222.12
475.939	234.12
476.158	235.12
476.377	214.12
476.596	224.12
476.814	219.12
477.033	236.12
477.252	229.12
477.471	230.12
477.69	241.12
477.908	242.12
478.127	239.12
478.346	232.12
478.564	237.12
478.783	240.12
479.002	270.12
479.22	251.12
479.439	262.12
479.658	277.12
479.876	268.12
480.095	278.12
480.313	271.12
480.532	248.12
480.751	269.12
480.969	268.12
481.188	300.12
481.406	327.12
481.624	285.12
481.843	250.12
482.061	247.12
482.28	259.12
482.498	252.12
482.717	250.12
482.935	270.12
483.153	269.12
483.372	246.12
483.59	248.12
483.808	237.12
484.027	248.12
484.245	248.12
484.463	263.12
484.681	268.12
484.9	283.12
485.118	270.12
485.336	256.12
485.554	253.12
485.772	273.12
485.99	280.12
486.209	276.12
486.427	269.12
486.645	282.12
486.863	278.12
487.081	281.12
487.299	272.12
487.517	266.12
487.735	266.12
487.953	284.12
488.171	272.12
488.389	277.12
488.607	282.12
488.825	269.12
489.043	285.12
489.261	274.12
489.479	270.12
489.696	275.12
489.914	282.12
490.132	284.12
490.35	282.12
490.568	275.12
490.786	286.12
491.003	294.12
491.221	302.12
491.439	304.12
491.657	317.12
491.874	303.12
492.092	326.12
492.31	328.12
492.527	337.12
492.745	308.12
492.963	319.12
493.18	324.12
493.398	316.12
493.615	337.12
493.833	339.12
494.05	335.12
494.268	319.12
494.485	320.12
494.703	296.12
494.92	302.12
495.138	308.12
495.355	312.12
495.573	320.12
495.79	310.12
496.008	315.12
496.225	320.12
496.442	328.12
496.66	308.12
496.877	296.12
497.094	303.12
497.312	318.12
497.529	314.12
497.746	328.12
497.963	324.12
498.181	314.12
498.398	337.12
498.615	313.12
498.832	348.12
499.049	327.12
499.267	365.12
499.484	362.12
499.701	371.12
499.918	384.12
500.135	389.12
500.352	417.12
500.569	412.12
500.786	420.12
501.003	402.12
501.22	400.12
501.437	383.12
501.654	389.12
501.871	374.12
502.088	376.12
502.305	359.12
502.522	361.12
