Data from 1966.PennyLincolnUp.Lamp.En5.5.200Scan.071719.P1._HRD10591_14-13-03-913.txt Node
Date: Thu Jul 18 14:13:03 EDT 2019
User: cochatt
Spectrometer: HR+D1059
Trigger mode: 1
Integration Time (sec): 1.000000E-1
Scans to average: 1
Electric dark correction enabled: true
Nonlinearity correction enabled: false
Boxcar width: 0
XAxis mode: Wavelengths
Number of Pixels in Spectrum: 2048
>>>>>Begin Spectral Data<<<<<
223.165	-5.94
223.4	-5.94
223.635	-5.94
223.869	-8.94
224.104	-25.94
224.338	-8.94
224.573	-25.94
224.808	-16.94
225.042	-5.94
225.277	3.06
225.511	-2.94
225.746	2.06
225.98	16.06
226.215	11.06
226.449	14.06
226.683	17.06
226.918	19.06
227.152	19.06
227.387	21.06
227.621	49.06
227.856	40.06
228.09	61.06
228.324	39.06
228.559	52.06
228.793	54.06
229.027	65.06
229.262	63.06
229.496	90.06
229.73	84.06
229.964	99.06
230.199	89.06
230.433	81.06
230.667	89.06
230.901	92.06
231.136	86.06
231.37	93.06
231.604	92.06
231.838	70.06
232.072	87.06
232.306	92.06
232.541	88.06
232.775	97.06
233.009	90.06
233.243	78.06
233.477	77.06
233.711	88.06
233.945	86.06
234.179	96.06
234.413	98.06
234.647	89.06
234.881	87.06
235.115	86.06
235.349	86.06
235.583	100.06
235.817	90.06
236.051	97.06
236.285	87.06
236.519	90.06
236.753	97.06
236.987	103.06
237.221	105.06
237.455	128.06
237.689	129.06
237.922	95.06
238.156	85.06
238.39	86.06
238.624	87.06
238.858	93.06
239.091	83.06
239.325	98.06
239.559	97.06
239.793	85.06
240.027	97.06
240.26	97.06
240.494	112.06
240.728	91.06
240.961	104.06
241.195	88.06
241.429	97.06
241.662	89.06
241.896	98.06
242.13	90.06
242.363	118.06
242.597	94.06
242.83	96.06
243.064	91.06
243.298	97.06
243.531	109.06
243.765	98.06
243.998	96.06
244.232	95.06
244.465	97.06
244.699	78.06
244.932	85.06
245.166	92.06
245.399	90.06
245.633	100.06
245.866	99.06
246.099	95.06
246.333	93.06
246.566	110.06
246.8	95.06
247.033	99.06
247.266	96.06
247.5	113.06
247.733	121.06
247.966	104.06
248.2	107.06
248.433	109.06
248.666	96.06
248.899	120.06
249.133	115.06
249.366	127.06
249.599	131.06
249.832	110.06
250.066	127.06
250.299	119.06
250.532	110.06
250.765	140.06
250.998	144.06
251.231	128.06
251.465	139.06
251.698	112.06
251.931	125.06
252.164	125.06
252.397	110.06
252.63	129.06
252.863	131.06
253.096	132.06
253.329	127.06
253.562	142.06
253.795	151.06
254.028	126.06
254.261	125.06
254.494	121.06
254.727	137.06
254.96	165.06
255.193	148.06
255.426	154.06
255.659	128.06
255.892	119.06
256.124	126.06
256.357	132.06
256.59	131.06
256.823	122.06
257.056	147.06
257.289	123.06
257.521	125.06
257.754	137.06
257.987	137.06
258.22	132.06
258.452	122.06
258.685	121.06
258.918	125.06
259.151	115.06
259.383	119.06
259.616	127.06
259.849	134.06
260.081	134.06
260.314	145.06
260.547	144.06
260.779	151.06
261.012	135.06
261.244	117.06
261.477	121.06
261.71	134.06
261.942	137.06
262.175	134.06
262.407	141.06
262.64	135.06
262.872	125.06
263.105	127.06
263.337	139.06
263.57	145.06
263.802	134.06
264.035	125.06
264.267	134.06
264.499	133.06
264.732	135.06
264.964	120.06
265.197	127.06
265.429	127.06
265.661	107.06
265.894	118.06
266.126	117.06
266.358	122.06
266.591	117.06
266.823	135.06
267.055	138.06
267.287	121.06
267.52	139.06
267.752	135.06
267.984	139.06
268.216	131.06
268.448	118.06
268.681	145.06
268.913	136.06
269.145	149.06
269.377	154.06
269.609	158.06
269.841	147.06
270.073	158.06
270.306	176.06
270.538	155.06
270.77	171.06
271.002	178.06
271.234	173.06
271.466	169.06
271.698	181.06
271.93	160.06
272.162	171.06
272.394	184.06
272.626	172.06
272.858	157.06
273.09	164.06
273.322	151.06
273.553	155.06
273.785	153.06
274.017	141.06
274.249	155.06
274.481	162.06
274.713	157.06
274.945	148.06
275.176	155.06
275.408	153.06
275.64	145.06
275.872	140.06
276.104	145.06
276.335	154.06
276.567	135.06
276.799	168.06
277.031	179.06
277.262	197.06
277.494	182.06
277.726	164.06
277.957	176.06
278.189	159.06
278.421	159.06
278.652	158.06
278.884	151.06
279.115	153.06
279.347	156.06
279.579	154.06
279.81	145.06
280.042	145.06
280.273	159.06
280.505	163.06
280.736	150.06
280.968	136.06
281.199	162.06
281.431	135.06
281.662	161.06
281.894	159.06
282.125	164.06
282.356	162.06
282.588	165.06
282.819	183.06
283.051	146.06
283.282	147.06
283.513	148.06
283.745	156.06
283.976	161.06
284.207	149.06
284.439	145.06
284.67	152.06
284.901	155.06
285.132	157.06
285.364	151.06
285.595	145.06
285.826	162.06
286.057	146.06
286.288	156.06
286.52	165.06
286.751	159.06
286.982	138.06
287.213	149.06
287.444	168.06
287.675	163.06
287.906	165.06
288.138	166.06
288.369	177.06
288.6	165.06
288.831	175.06
289.062	155.06
289.293	157.06
289.524	137.06
289.755	159.06
289.986	168.06
290.217	162.06
290.448	157.06
290.679	153.06
290.91	138.06
291.141	149.06
291.371	172.06
291.602	161.06
291.833	168.06
292.064	165.06
292.295	158.06
292.526	167.06
292.757	161.06
292.987	145.06
293.218	169.06
293.449	167.06
293.68	167.06
293.91	152.06
294.141	173.06
294.372	169.06
294.603	164.06
294.833	165.06
295.064	160.06
295.295	162.06
295.525	173.06
295.756	161.06
295.987	162.06
296.217	167.06
296.448	173.06
296.679	165.06
296.909	157.06
297.14	165.06
297.37	166.06
297.601	163.06
297.831	166.06
298.062	178.06
298.292	178.06
298.523	162.06
298.753	184.06
298.984	179.06
299.214	176.06
299.445	175.06
299.675	173.06
299.905	175.06
300.136	183.06
300.366	170.06
300.597	187.06
300.827	175.06
301.057	181.06
301.288	194.06
301.518	162.06
301.748	178.06
301.979	164.06
302.209	183.06
302.439	182.06
302.669	164.06
302.9	175.06
303.13	183.06
303.36	175.06
303.59	203.06
303.82	192.06
304.051	199.06
304.281	175.06
304.511	173.06
304.741	189.06
304.971	180.06
305.201	178.06
305.431	179.06
305.661	151.06
305.891	180.06
306.121	166.06
306.352	179.06
306.582	178.06
306.812	174.06
307.042	177.06
307.272	175.06
307.502	183.06
307.731	161.06
307.961	175.06
308.191	183.06
308.421	189.06
308.651	191.06
308.881	189.06
309.111	178.06
309.341	194.06
309.571	175.06
309.8	191.06
310.03	198.06
310.26	195.06
310.49	190.06
310.72	219.06
310.949	205.06
311.179	199.06
311.409	195.06
311.639	195.06
311.868	206.06
312.098	207.06
312.328	218.06
312.557	212.06
312.787	208.06
313.017	212.06
313.246	207.06
313.476	185.06
313.706	183.06
313.935	203.06
314.165	193.06
314.394	203.06
314.624	212.06
314.853	196.06
315.083	182.06
315.312	182.06
315.542	200.06
315.771	183.06
316.001	199.06
316.23	194.06
316.46	196.06
316.689	185.06
316.919	195.06
317.148	205.06
317.377	200.06
317.607	204.06
317.836	201.06
318.065	177.06
318.295	186.06
318.524	201.06
318.753	188.06
318.983	187.06
319.212	187.06
319.441	185.06
319.67	213.06
319.9	189.06
320.129	199.06
320.358	196.06
320.587	211.06
320.816	194.06
321.046	204.06
321.275	217.06
321.504	196.06
321.733	208.06
321.962	200.06
322.191	211.06
322.42	225.06
322.649	210.06
322.878	232.06
323.108	225.06
323.337	264.06
323.566	250.06
323.795	254.06
324.024	276.06
324.253	341.06
324.482	477.06
324.71	693.06
324.939	943.06
325.168	776.06
325.397	411.06
325.626	274.06
325.855	259.06
326.084	230.06
326.313	221.06
326.542	242.06
326.77	263.06
326.999	305.06
327.228	424.06
327.457	622.06
327.686	707.06
327.914	461.06
328.143	330.06
328.372	309.06
328.6	278.06
328.829	252.06
329.058	286.06
329.287	286.06
329.515	249.06
329.744	245.06
329.972	247.06
330.201	265.06
330.43	298.06
330.658	288.06
330.887	310.06
331.115	303.06
331.344	249.06
331.572	257.06
331.801	244.06
332.03	247.06
332.258	233.06
332.486	227.06
332.715	229.06
332.943	222.06
333.172	227.06
333.4	238.06
333.629	248.06
333.857	255.06
334.085	241.06
334.314	256.06
334.542	282.06
334.771	282.06
334.999	266.06
335.227	234.06
335.455	241.06
335.684	237.06
335.912	227.06
336.14	229.06
336.369	221.06
336.597	221.06
336.825	230.06
337.053	215.06
337.281	208.06
337.51	220.06
337.738	230.06
337.966	214.06
338.194	229.06
338.422	220.06
338.65	204.06
338.878	215.06
339.106	213.06
339.334	213.06
339.562	213.06
339.79	210.06
340.018	222.06
340.246	216.06
340.474	218.06
340.702	209.06
340.93	210.06
341.158	205.06
341.386	202.06
341.614	201.06
341.842	227.06
342.07	209.06
342.298	199.06
342.526	216.06
342.754	214.06
342.981	198.06
343.209	207.06
343.437	225.06
343.665	222.06
343.893	217.06
344.12	207.06
344.348	213.06
344.576	212.06
344.804	226.06
345.031	234.06
345.259	223.06
345.487	229.06
345.714	229.06
345.942	206.06
346.17	214.06
346.397	204.06
346.625	221.06
346.853	215.06
347.08	199.06
347.308	207.06
347.535	218.06
347.763	227.06
347.99	211.06
348.218	215.06
348.445	225.06
348.673	219.06
348.9	213.06
349.128	196.06
349.355	203.06
349.583	206.06
349.81	199.06
350.037	200.06
350.265	196.06
350.492	201.06
350.72	199.06
350.947	219.06
351.174	198.06
351.402	212.06
351.629	209.06
351.856	197.06
352.083	202.06
352.311	214.06
352.538	204.06
352.765	221.06
352.992	229.06
353.22	202.06
353.447	209.06
353.674	210.06
353.901	205.06
354.128	207.06
354.355	203.06
354.583	210.06
354.81	196.06
355.037	191.06
355.264	201.06
355.491	202.06
355.718	197.06
355.945	216.06
356.172	195.06
356.399	187.06
356.626	169.06
356.853	181.06
357.08	183.06
357.307	190.06
357.534	176.06
357.761	180.06
357.988	213.06
358.215	192.06
358.441	181.06
358.668	205.06
358.895	189.06
359.122	191.06
359.349	204.06
359.576	223.06
359.802	219.06
360.029	261.06
360.256	248.06
360.483	228.06
360.709	193.06
360.936	229.06
361.163	198.06
361.39	215.06
361.616	214.06
361.843	212.06
362.07	229.06
362.296	201.06
362.523	199.06
362.749	205.06
362.976	207.06
363.203	195.06
363.429	205.06
363.656	197.06
363.882	189.06
364.109	201.06
364.335	193.06
364.562	206.06
364.788	197.06
365.015	202.06
365.241	196.06
365.468	215.06
365.694	197.06
365.92	216.06
366.147	198.06
366.373	194.06
366.599	200.06
366.826	201.06
367.052	219.06
367.278	198.06
367.505	213.06
367.731	200.06
367.957	195.06
368.184	186.06
368.41	195.06
368.636	206.06
368.862	205.06
369.089	212.06
369.315	208.06
369.541	213.06
369.767	190.06
369.993	202.06
370.219	177.06
370.445	192.06
370.672	196.06
370.898	202.06
371.124	200.06
371.35	190.06
371.576	190.06
371.802	209.06
372.028	190.06
372.254	195.06
372.48	207.06
372.706	182.06
372.932	202.06
373.158	196.06
373.384	206.06
373.61	207.06
373.835	197.06
374.061	203.06
374.287	201.06
374.513	197.06
374.739	202.06
374.965	208.06
375.191	201.06
375.416	202.06
375.642	193.06
375.868	204.06
376.094	199.06
376.319	194.06
376.545	191.06
376.771	205.06
376.997	199.06
377.222	189.06
377.448	192.06
377.674	204.06
377.899	207.06
378.125	214.06
378.35	197.06
378.576	197.06
378.802	203.06
379.027	183.06
379.253	200.06
379.478	201.06
379.704	190.06
379.929	196.06
380.155	189.06
380.38	222.06
380.606	203.06
380.831	193.06
381.057	193.06
381.282	196.06
381.507	205.06
381.733	205.06
381.958	199.06
382.184	214.06
382.409	213.06
382.634	212.06
382.86	189.06
383.085	197.06
383.31	202.06
383.535	206.06
383.761	213.06
383.986	200.06
384.211	209.06
384.436	209.06
384.662	209.06
384.887	203.06
385.112	202.06
385.337	212.06
385.562	195.06
385.787	210.06
386.013	200.06
386.238	226.06
386.463	214.06
386.688	231.06
386.913	209.06
387.138	212.06
387.363	208.06
387.588	214.06
387.813	219.06
388.038	214.06
388.263	201.06
388.488	217.06
388.713	213.06
388.938	216.06
389.163	194.06
389.387	209.06
389.612	216.06
389.837	213.06
390.062	211.06
390.287	225.06
390.512	212.06
390.736	200.06
390.961	202.06
391.186	213.06
391.411	208.06
391.636	219.06
391.86	222.06
392.085	222.06
392.31	198.06
392.534	202.06
392.759	200.06
392.984	212.06
393.208	222.06
393.433	219.06
393.658	231.06
393.882	216.06
394.107	203.06
394.331	214.06
394.556	205.06
394.78	207.06
395.005	194.06
395.229	218.06
395.454	218.06
395.678	213.06
395.903	229.06
396.127	235.06
396.352	239.06
396.576	208.06
396.801	209.06
397.025	230.06
397.249	210.06
397.474	229.06
397.698	213.06
397.922	236.06
398.147	231.06
398.371	231.06
398.595	230.06
398.82	235.06
399.044	214.06
399.268	250.06
399.492	260.06
399.717	273.06
399.941	298.06
400.165	309.06
400.389	311.06
400.613	260.06
400.837	265.06
401.062	237.06
401.286	260.06
401.51	244.06
401.734	234.06
401.958	244.06
402.182	226.06
402.406	270.06
402.63	255.06
402.854	238.06
403.078	234.06
403.302	247.06
403.526	259.06
403.75	257.06
403.974	259.06
404.198	254.06
404.422	247.06
404.645	269.06
404.869	273.06
405.093	272.06
405.317	290.06
405.541	293.06
405.765	257.06
405.988	270.06
406.212	282.06
406.436	275.06
406.66	287.06
406.883	276.06
407.107	278.06
407.331	305.06
407.555	309.06
407.778	324.06
408.002	282.06
408.226	278.06
408.449	264.06
408.673	262.06
408.896	278.06
409.12	311.06
409.344	293.06
409.567	258.06
409.791	262.06
410.014	235.06
410.238	241.06
410.461	249.06
410.685	252.06
410.908	242.06
411.132	289.06
411.355	282.06
411.578	273.06
411.802	255.06
412.025	232.06
412.249	264.06
412.472	249.06
412.695	286.06
412.919	272.06
413.142	271.06
413.365	241.06
413.589	242.06
413.812	250.06
414.035	246.06
414.258	233.06
414.482	237.06
414.705	254.06
414.928	234.06
415.151	232.06
415.374	235.06
415.597	239.06
415.821	262.06
416.044	248.06
416.267	257.06
416.49	228.06
416.713	246.06
416.936	233.06
417.159	225.06
417.382	270.06
417.605	243.06
417.828	251.06
418.051	261.06
418.274	253.06
418.497	236.06
418.72	218.06
418.943	242.06
419.166	242.06
419.389	248.06
419.611	255.06
419.834	257.06
420.057	267.06
420.28	274.06
420.503	254.06
420.726	246.06
420.948	249.06
421.171	275.06
421.394	289.06
421.617	259.06
421.839	251.06
422.062	248.06
422.285	243.06
422.507	281.06
422.73	316.06
422.953	303.06
423.175	278.06
423.398	256.06
423.621	265.06
423.843	262.06
424.066	263.06
424.288	265.06
424.511	269.06
424.733	282.06
424.956	329.06
425.178	306.06
425.401	304.06
425.623	331.06
425.846	272.06
426.068	248.06
426.291	260.06
426.513	268.06
426.735	281.06
426.958	266.06
427.18	304.06
427.402	347.06
427.625	414.06
427.847	359.06
428.069	291.06
428.292	282.06
428.514	247.06
428.736	245.06
428.958	237.06
429.181	233.06
429.403	245.06
429.625	249.06
429.847	264.06
430.069	293.06
430.292	293.06
430.514	259.06
430.736	241.06
430.958	238.06
431.18	216.06
431.402	235.06
431.624	229.06
431.846	233.06
432.068	222.06
432.29	235.06
432.512	221.06
432.734	236.06
432.956	237.06
433.178	237.06
433.4	240.06
433.622	256.06
433.844	230.06
434.066	229.06
434.287	220.06
434.509	243.06
434.731	257.06
434.953	240.06
435.175	267.06
435.397	269.06
435.618	275.06
435.84	307.06
436.062	322.06
436.284	334.06
436.505	285.06
436.727	266.06
436.949	258.06
437.17	251.06
437.392	227.06
437.614	255.06
437.835	268.06
438.057	301.06
438.278	342.06
438.5	350.06
438.721	350.06
438.943	338.06
439.165	284.06
439.386	269.06
439.608	282.06
439.829	268.06
440.05	281.06
440.272	285.06
440.493	294.06
440.715	258.06
440.936	257.06
441.158	240.06
441.379	253.06
441.6	273.06
441.822	265.06
442.043	298.06
442.264	326.06
442.486	316.06
442.707	296.06
442.928	286.06
443.149	281.06
443.371	295.06
443.592	315.06
443.813	325.06
444.034	355.06
444.255	317.06
444.476	263.06
444.698	283.06
444.919	251.06
445.14	350.06
445.361	319.06
445.582	301.06
445.803	306.06
446.024	367.06
446.245	367.06
446.466	316.06
446.687	283.06
446.908	261.06
447.129	249.06
447.35	231.06
447.571	244.06
447.792	243.06
448.013	239.06
448.234	241.06
448.455	290.06
448.675	326.06
448.896	368.06
449.117	298.06
449.338	293.06
449.559	358.06
449.779	387.06
450	317.06
450.221	273.06
450.442	238.06
450.662	239.06
450.883	241.06
451.104	258.06
451.324	245.06
451.545	232.06
451.766	230.06
451.986	225.06
452.207	213.06
452.428	221.06
452.648	242.06
452.869	234.06
453.089	245.06
453.31	257.06
453.53	209.06
453.751	230.06
453.971	235.06
454.192	239.06
454.412	218.06
454.633	237.06
454.853	222.06
455.073	233.06
455.294	217.06
455.514	265.06
455.734	270.06
455.955	229.06
456.175	213.06
456.395	220.06
456.616	212.06
456.836	199.06
457.056	203.06
457.276	211.06
457.497	228.06
457.717	203.06
457.937	209.06
458.157	211.06
458.377	238.06
458.598	239.06
458.818	260.06
459.038	317.06
459.258	289.06
459.478	253.06
459.698	246.06
459.918	218.06
460.138	243.06
460.358	226.06
460.578	234.06
460.798	235.06
461.018	246.06
461.238	249.06
461.458	235.06
461.678	234.06
461.898	260.06
462.118	245.06
462.338	260.06
462.558	258.06
462.777	245.06
462.997	255.06
463.217	255.06
463.437	263.06
463.657	278.06
463.876	266.06
464.096	267.06
464.316	257.06
464.536	272.06
464.755	259.06
464.975	257.06
465.195	290.06
465.414	316.06
465.634	276.06
465.854	258.06
466.073	254.06
466.293	246.06
466.512	233.06
466.732	240.06
466.951	221.06
467.171	208.06
467.391	234.06
467.61	246.06
467.829	241.06
468.049	236.06
468.268	264.06
468.488	234.06
468.707	229.06
468.927	220.06
469.146	232.06
469.365	232.06
469.585	239.06
469.804	235.06
470.023	239.06
470.243	234.06
470.462	239.06
470.681	241.06
470.901	251.06
471.12	239.06
471.339	232.06
471.558	214.06
471.777	239.06
471.997	223.06
472.216	251.06
472.435	269.06
472.654	252.06
472.873	235.06
473.092	234.06
473.311	249.06
473.53	244.06
473.749	241.06
473.968	257.06
474.187	323.06
474.406	307.06
474.625	261.06
474.844	243.06
475.063	229.06
475.282	240.06
475.501	233.06
475.72	249.06
475.939	228.06
476.158	232.06
476.377	225.06
476.596	232.06
476.814	238.06
477.033	264.06
477.252	249.06
477.471	238.06
477.69	260.06
477.908	242.06
478.127	274.06
478.346	239.06
478.564	255.06
478.783	243.06
479.002	265.06
479.22	244.06
479.439	270.06
479.658	289.06
479.876	278.06
480.095	272.06
480.313	296.06
480.532	276.06
480.751	269.06
480.969	299.06
481.188	328.06
481.406	387.06
481.624	298.06
481.843	264.06
482.061	261.06
482.28	266.06
482.498	261.06
482.717	279.06
482.935	267.06
483.153	255.06
483.372	260.06
483.59	261.06
483.808	263.06
484.027	270.06
484.245	272.06
484.463	274.06
484.681	266.06
484.9	287.06
485.118	274.06
485.336	279.06
485.554	271.06
485.772	265.06
485.99	275.06
486.209	293.06
486.427	299.06
486.645	267.06
486.863	302.06
487.081	292.06
487.299	301.06
487.517	295.06
487.735	278.06
487.953	271.06
488.171	310.06
488.389	295.06
488.607	275.06
488.825	285.06
489.043	294.06
489.261	305.06
489.479	312.06
489.696	294.06
489.914	281.06
490.132	295.06
490.35	288.06
490.568	298.06
490.786	310.06
491.003	325.06
491.221	329.06
491.439	327.06
491.657	321.06
491.874	336.06
492.092	330.06
492.31	342.06
492.527	325.06
492.745	353.06
492.963	333.06
493.18	358.06
493.398	351.06
493.615	331.06
493.833	344.06
494.05	336.06
494.268	350.06
494.485	345.06
494.703	332.06
494.92	350.06
495.138	321.06
495.355	328.06
495.573	333.06
495.79	334.06
496.008	353.06
496.225	338.06
496.442	334.06
496.66	339.06
496.877	352.06
497.094	341.06
497.312	335.06
497.529	349.06
497.746	343.06
497.963	354.06
498.181	376.06
498.398	367.06
498.615	355.06
498.832	370.06
499.049	361.06
499.267	377.06
499.484	383.06
499.701	388.06
499.918	411.06
500.135	429.06
500.352	465.06
500.569	453.06
500.786	457.06
501.003	430.06
501.22	426.06
501.437	415.06
501.654	427.06
501.871	417.06
502.088	393.06
502.305	358.06
502.522	367.06
502.739	360.06
502.956	343.06
