Data from 1966.PennyLincolnUp.Lamp.En5.5.200Scan.071719.P1.Scan2.head_HRD10591_14-16-30-034.txt Node
Date: Thu Jul 18 14:16:30 EDT 2019
User: cochatt
Spectrometer: HR+D1059
Trigger mode: 1
Integration Time (sec): 1.000000E-1
Scans to average: 1
Electric dark correction enabled: true
Nonlinearity correction enabled: false
Boxcar width: 0
XAxis mode: Wavelengths
Number of Pixels in Spectrum: 2048
>>>>>Begin Spectral Data<<<<<
223.165	1.94
223.4	1.94
223.635	1.94
223.869	-20.06
224.104	-28.06
224.338	-10.06
224.573	-7.06
224.808	-16.06
225.042	-8.06
225.277	-16.06
225.511	-12.06
225.746	7.94
225.98	3.94
226.215	21.94
226.449	14.94
226.683	13.94
226.918	25.94
227.152	26.94
227.387	35.94
227.621	36.94
227.856	43.94
228.09	45.94
228.324	59.94
228.559	44.94
228.793	55.94
229.027	83.94
229.262	90.94
229.496	101.94
229.73	117.94
229.964	115.94
230.199	105.94
230.433	101.94
230.667	111.94
230.901	93.94
231.136	104.94
231.37	101.94
231.604	100.94
231.838	111.94
232.072	96.94
232.306	91.94
232.541	103.94
232.775	97.94
233.009	108.94
233.243	126.94
233.477	126.94
233.711	111.94
233.945	115.94
234.179	112.94
234.413	116.94
234.647	113.94
234.881	104.94
235.115	96.94
235.349	117.94
235.583	113.94
235.817	131.94
236.051	104.94
236.285	116.94
236.519	125.94
236.753	112.94
236.987	126.94
237.221	145.94
237.455	187.94
237.689	155.94
237.922	127.94
238.156	124.94
238.39	113.94
238.624	116.94
238.858	125.94
239.091	110.94
239.325	124.94
239.559	124.94
239.793	126.94
240.027	123.94
240.26	110.94
240.494	140.94
240.728	139.94
240.961	138.94
241.195	122.94
241.429	111.94
241.662	130.94
241.896	129.94
242.13	128.94
242.363	127.94
242.597	132.94
242.83	139.94
243.064	133.94
243.298	136.94
243.531	143.94
243.765	118.94
243.998	133.94
244.232	135.94
244.465	141.94
244.699	154.94
244.932	145.94
245.166	132.94
245.399	128.94
245.633	131.94
245.866	137.94
246.099	149.94
246.333	143.94
246.566	141.94
246.8	130.94
247.033	147.94
247.266	145.94
247.5	151.94
247.733	150.94
247.966	159.94
248.2	141.94
248.433	167.94
248.666	140.94
248.899	163.94
249.133	164.94
249.366	186.94
249.599	180.94
249.832	157.94
250.066	163.94
250.299	157.94
250.532	163.94
250.765	163.94
250.998	183.94
251.231	196.94
251.465	189.94
251.698	173.94
251.931	192.94
252.164	177.94
252.397	175.94
252.63	172.94
252.863	179.94
253.096	172.94
253.329	197.94
253.562	181.94
253.795	201.94
254.028	173.94
254.261	191.94
254.494	190.94
254.727	207.94
254.96	224.94
255.193	230.94
255.426	198.94
255.659	197.94
255.892	191.94
256.124	185.94
256.357	196.94
256.59	187.94
256.823	175.94
257.056	187.94
257.289	188.94
257.521	179.94
257.754	174.94
257.987	203.94
258.22	189.94
258.452	199.94
258.685	202.94
258.918	182.94
259.151	184.94
259.383	191.94
259.616	196.94
259.849	187.94
260.081	209.94
260.314	220.94
260.547	224.94
260.779	182.94
261.012	212.94
261.244	217.94
261.477	197.94
261.71	207.94
261.942	205.94
262.175	199.94
262.407	199.94
262.64	198.94
262.872	186.94
263.105	165.94
263.337	189.94
263.57	180.94
263.802	202.94
264.035	195.94
264.267	191.94
264.499	188.94
264.732	199.94
264.964	213.94
265.197	196.94
265.429	198.94
265.661	174.94
265.894	182.94
266.126	196.94
266.358	211.94
266.591	206.94
266.823	187.94
267.055	204.94
267.287	207.94
267.52	210.94
267.752	213.94
267.984	198.94
268.216	197.94
268.448	184.94
268.681	209.94
268.913	224.94
269.145	224.94
269.377	237.94
269.609	237.94
269.841	238.94
270.073	215.94
270.306	231.94
270.538	260.94
270.77	243.94
271.002	252.94
271.234	237.94
271.466	274.94
271.698	264.94
271.93	263.94
272.162	248.94
272.394	256.94
272.626	250.94
272.858	259.94
273.09	250.94
273.322	238.94
273.553	229.94
273.785	239.94
274.017	233.94
274.249	237.94
274.481	235.94
274.713	238.94
274.945	234.94
275.176	234.94
275.408	243.94
275.64	228.94
275.872	228.94
276.104	235.94
276.335	219.94
276.567	233.94
276.799	236.94
277.031	259.94
277.262	257.94
277.494	268.94
277.726	241.94
277.957	255.94
278.189	226.94
278.421	238.94
278.652	251.94
278.884	231.94
279.115	243.94
279.347	247.94
279.579	230.94
279.81	253.94
280.042	256.94
280.273	236.94
280.505	234.94
280.736	246.94
280.968	240.94
281.199	248.94
281.431	233.94
281.662	245.94
281.894	235.94
282.125	245.94
282.356	247.94
282.588	265.94
282.819	263.94
283.051	249.94
283.282	248.94
283.513	249.94
283.745	242.94
283.976	243.94
284.207	247.94
284.439	245.94
284.67	255.94
284.901	242.94
285.132	249.94
285.364	238.94
285.595	234.94
285.826	244.94
286.057	249.94
286.288	252.94
286.52	225.94
286.751	245.94
286.982	242.94
287.213	235.94
287.444	256.94
287.675	251.94
287.906	275.94
288.138	262.94
288.369	268.94
288.6	289.94
288.831	262.94
289.062	272.94
289.293	260.94
289.524	255.94
289.755	267.94
289.986	254.94
290.217	268.94
290.448	269.94
290.679	249.94
290.91	266.94
291.141	265.94
291.371	282.94
291.602	262.94
291.833	252.94
292.064	267.94
292.295	265.94
292.526	264.94
292.757	263.94
292.987	242.94
293.218	263.94
293.449	269.94
293.68	265.94
293.91	267.94
294.141	263.94
294.372	264.94
294.603	264.94
294.833	280.94
295.064	271.94
295.295	287.94
295.525	279.94
295.756	274.94
295.987	252.94
296.217	281.94
296.448	288.94
296.679	266.94
296.909	272.94
297.14	263.94
297.37	262.94
297.601	269.94
297.831	283.94
298.062	255.94
298.292	284.94
298.523	276.94
298.753	256.94
298.984	253.94
299.214	266.94
299.445	279.94
299.675	279.94
299.905	278.94
300.136	266.94
300.366	283.94
300.597	280.94
300.827	277.94
301.057	276.94
301.288	295.94
301.518	292.94
301.748	285.94
301.979	304.94
302.209	297.94
302.439	296.94
302.669	300.94
302.9	293.94
303.13	303.94
303.36	308.94
303.59	294.94
303.82	291.94
304.051	305.94
304.281	305.94
304.511	313.94
304.741	295.94
304.971	286.94
305.201	312.94
305.431	291.94
305.661	296.94
305.891	281.94
306.121	285.94
306.352	308.94
306.582	329.94
306.812	300.94
307.042	304.94
307.272	292.94
307.502	295.94
307.731	309.94
307.961	298.94
308.191	300.94
308.421	299.94
308.651	285.94
308.881	293.94
309.111	302.94
309.341	312.94
309.571	310.94
309.8	310.94
310.03	286.94
310.26	329.94
310.49	316.94
310.72	323.94
310.949	347.94
311.179	335.94
311.409	345.94
311.639	324.94
311.868	333.94
312.098	332.94
312.328	321.94
312.557	323.94
312.787	332.94
313.017	353.94
313.246	335.94
313.476	310.94
313.706	340.94
313.935	332.94
314.165	342.94
314.394	334.94
314.624	324.94
314.853	337.94
315.083	327.94
315.312	324.94
315.542	309.94
315.771	317.94
316.001	337.94
316.23	325.94
316.46	341.94
316.689	327.94
316.919	329.94
317.148	350.94
317.377	340.94
317.607	356.94
317.836	332.94
318.065	352.94
318.295	341.94
318.524	361.94
318.753	332.94
318.983	341.94
319.212	346.94
319.441	334.94
319.67	325.94
319.9	336.94
320.129	344.94
320.358	326.94
320.587	341.94
320.816	329.94
321.046	337.94
321.275	347.94
321.504	344.94
321.733	329.94
321.962	346.94
322.191	357.94
322.42	351.94
322.649	375.94
322.878	369.94
323.108	371.94
323.337	386.94
323.566	400.94
323.795	410.94
324.024	438.94
324.253	507.94
324.482	674.94
324.71	1044.94
324.939	1511.94
325.168	1308.94
325.397	669.94
325.626	475.94
325.855	413.94
326.084	410.94
326.313	387.94
326.542	381.94
326.77	428.94
326.999	485.94
327.228	625.94
327.457	938.94
327.686	1161.94
327.914	761.94
328.143	526.94
328.372	455.94
328.6	451.94
328.829	430.94
329.058	444.94
329.287	460.94
329.515	417.94
329.744	424.94
329.972	407.94
330.201	409.94
330.43	432.94
330.658	467.94
330.887	459.94
331.115	456.94
331.344	422.94
331.572	417.94
331.801	400.94
332.03	422.94
332.258	409.94
332.486	408.94
332.715	398.94
332.943	408.94
333.172	415.94
333.4	391.94
333.629	408.94
333.857	412.94
334.085	408.94
334.314	415.94
334.542	427.94
334.771	464.94
334.999	455.94
335.227	430.94
335.455	421.94
335.684	404.94
335.912	415.94
336.14	382.94
336.369	401.94
336.597	405.94
336.825	401.94
337.053	430.94
337.281	396.94
337.51	393.94
337.738	400.94
337.966	393.94
338.194	389.94
338.422	399.94
338.65	405.94
338.878	402.94
339.106	376.94
339.334	385.94
339.562	382.94
339.79	375.94
340.018	403.94
340.246	395.94
340.474	388.94
340.702	409.94
340.93	382.94
341.158	373.94
341.386	393.94
341.614	391.94
341.842	393.94
342.07	374.94
342.298	391.94
342.526	374.94
342.754	369.94
342.981	379.94
343.209	382.94
343.437	386.94
343.665	387.94
343.893	409.94
344.12	415.94
344.348	397.94
344.576	415.94
344.804	412.94
345.031	399.94
345.259	397.94
345.487	404.94
345.714	375.94
345.942	384.94
346.17	383.94
346.397	379.94
346.625	355.94
346.853	371.94
347.08	354.94
347.308	373.94
347.535	371.94
347.763	390.94
347.99	393.94
348.218	379.94
348.445	383.94
348.673	358.94
348.9	383.94
349.128	373.94
349.355	346.94
349.583	358.94
349.81	362.94
350.037	365.94
350.265	372.94
350.492	377.94
350.72	371.94
350.947	386.94
351.174	394.94
351.402	392.94
351.629	382.94
351.856	368.94
352.083	379.94
352.311	381.94
352.538	380.94
352.765	376.94
352.992	387.94
353.22	376.94
353.447	382.94
353.674	358.94
353.901	378.94
354.128	362.94
354.355	369.94
354.583	381.94
354.81	367.94
355.037	362.94
355.264	357.94
355.491	368.94
355.718	357.94
355.945	365.94
356.172	372.94
356.399	355.94
356.626	356.94
356.853	363.94
357.08	369.94
357.307	374.94
357.534	350.94
357.761	360.94
357.988	381.94
358.215	363.94
358.441	377.94
358.668	387.94
358.895	378.94
359.122	379.94
359.349	375.94
359.576	375.94
359.802	401.94
360.029	399.94
360.256	401.94
360.483	387.94
360.709	382.94
360.936	387.94
361.163	371.94
361.39	366.94
361.616	388.94
361.843	395.94
362.07	367.94
362.296	395.94
362.523	391.94
362.749	393.94
362.976	376.94
363.203	383.94
363.429	383.94
363.656	384.94
363.882	372.94
364.109	378.94
364.335	396.94
364.562	384.94
364.788	383.94
365.015	367.94
365.241	376.94
365.468	373.94
365.694	375.94
365.92	371.94
366.147	384.94
366.373	393.94
366.599	390.94
366.826	372.94
367.052	376.94
367.278	380.94
367.505	377.94
367.731	396.94
367.957	372.94
368.184	393.94
368.41	395.94
368.636	386.94
368.862	417.94
369.089	393.94
369.315	405.94
369.541	386.94
369.767	379.94
369.993	361.94
370.219	374.94
370.445	395.94
370.672	393.94
370.898	391.94
371.124	378.94
371.35	387.94
371.576	371.94
371.802	380.94
372.028	369.94
372.254	374.94
372.48	391.94
372.706	408.94
372.932	417.94
373.158	401.94
373.384	384.94
373.61	379.94
373.835	391.94
374.061	394.94
374.287	394.94
374.513	408.94
374.739	401.94
374.965	423.94
375.191	395.94
375.416	398.94
375.642	412.94
375.868	384.94
376.094	387.94
376.319	383.94
376.545	374.94
376.771	388.94
376.997	389.94
377.222	402.94
377.448	375.94
377.674	394.94
377.899	384.94
378.125	396.94
378.35	380.94
378.576	384.94
378.802	393.94
379.027	374.94
379.253	377.94
379.478	373.94
379.704	382.94
379.929	376.94
380.155	405.94
380.38	390.94
380.606	392.94
380.831	378.94
381.057	414.94
381.282	399.94
381.507	380.94
381.733	417.94
381.958	412.94
382.184	407.94
382.409	412.94
382.634	383.94
382.86	395.94
383.085	431.94
383.31	408.94
383.535	409.94
383.761	424.94
383.986	412.94
384.211	419.94
384.436	430.94
384.662	433.94
384.887	451.94
385.112	409.94
385.337	440.94
385.562	430.94
385.787	432.94
386.013	468.94
386.238	445.94
386.463	464.94
386.688	437.94
386.913	445.94
387.138	444.94
387.363	452.94
387.588	439.94
387.813	441.94
388.038	454.94
388.263	461.94
388.488	439.94
388.713	449.94
388.938	456.94
389.163	414.94
389.387	439.94
389.612	448.94
389.837	430.94
390.062	424.94
390.287	443.94
390.512	421.94
390.736	431.94
390.961	438.94
391.186	460.94
391.411	462.94
391.636	436.94
391.86	457.94
392.085	461.94
392.31	473.94
392.534	457.94
392.759	462.94
392.984	464.94
393.208	467.94
393.433	553.94
393.658	539.94
393.882	481.94
394.107	453.94
394.331	445.94
394.556	460.94
394.78	446.94
395.005	460.94
395.229	449.94
395.454	471.94
395.678	448.94
395.903	464.94
396.127	497.94
396.352	494.94
396.576	495.94
396.801	480.94
397.025	511.94
397.249	484.94
397.474	482.94
397.698	481.94
397.922	484.94
398.147	486.94
398.371	518.94
398.595	483.94
398.82	503.94
399.044	527.94
399.268	545.94
399.492	567.94
399.717	590.94
399.941	606.94
400.165	632.94
400.389	610.94
400.613	565.94
400.837	568.94
401.062	533.94
401.286	516.94
401.51	526.94
401.734	492.94
401.958	503.94
402.182	487.94
402.406	519.94
402.63	503.94
402.854	527.94
403.078	500.94
403.302	528.94
403.526	524.94
403.75	519.94
403.974	515.94
404.198	519.94
404.422	519.94
404.645	525.94
404.869	541.94
405.093	526.94
405.317	590.94
405.541	625.94
405.765	564.94
405.988	578.94
406.212	526.94
406.436	576.94
406.66	570.94
406.883	560.94
407.107	584.94
407.331	634.94
407.555	680.94
407.778	678.94
408.002	621.94
408.226	589.94
408.449	572.94
408.673	556.94
408.896	592.94
409.12	639.94
409.344	613.94
409.567	539.94
409.791	559.94
410.014	521.94
410.238	539.94
410.461	537.94
410.685	542.94
410.908	550.94
411.132	567.94
411.355	581.94
411.578	565.94
411.802	541.94
412.025	523.94
412.249	529.94
412.472	544.94
412.695	585.94
412.919	560.94
413.142	515.94
413.365	504.94
413.589	509.94
413.812	504.94
414.035	497.94
414.258	528.94
414.482	495.94
414.705	507.94
414.928	504.94
415.151	531.94
415.374	493.94
415.597	509.94
415.821	508.94
416.044	496.94
416.267	482.94
416.49	497.94
416.713	510.94
416.936	500.94
417.159	488.94
417.382	492.94
417.605	492.94
417.828	516.94
418.051	510.94
418.274	538.94
418.497	491.94
418.72	516.94
418.943	492.94
419.166	536.94
419.389	557.94
419.611	553.94
419.834	529.94
420.057	510.94
420.28	535.94
420.503	529.94
420.726	512.94
420.948	505.94
421.171	540.94
421.394	595.94
421.617	528.94
421.839	512.94
422.062	513.94
422.285	529.94
422.507	591.94
422.73	637.94
422.953	656.94
423.175	576.94
423.398	545.94
423.621	521.94
423.843	542.94
424.066	550.94
424.288	503.94
424.511	567.94
424.733	612.94
424.956	681.94
425.178	644.94
425.401	630.94
425.623	673.94
425.846	582.94
426.068	535.94
426.291	527.94
426.513	535.94
426.735	531.94
426.958	586.94
427.18	647.94
427.402	711.94
427.625	848.94
427.847	708.94
428.069	624.94
428.292	543.94
428.514	554.94
428.736	539.94
428.958	536.94
429.181	494.94
429.403	507.94
429.625	518.94
429.847	530.94
430.069	583.94
430.292	601.94
430.514	516.94
430.736	488.94
430.958	484.94
431.18	489.94
431.402	478.94
431.624	477.94
431.846	476.94
432.068	496.94
432.29	475.94
432.512	476.94
432.734	496.94
432.956	504.94
433.178	494.94
433.4	501.94
433.622	505.94
433.844	507.94
434.066	478.94
434.287	504.94
434.509	477.94
434.731	497.94
434.953	508.94
435.175	530.94
435.397	523.94
435.618	529.94
435.84	565.94
436.062	645.94
436.284	707.94
436.505	628.94
436.727	560.94
436.949	517.94
437.17	528.94
437.392	484.94
437.614	510.94
437.835	551.94
438.057	599.94
438.278	678.94
438.5	699.94
438.721	757.94
438.943	735.94
439.165	599.94
439.386	556.94
439.608	527.94
439.829	529.94
440.05	561.94
440.272	606.94
440.493	563.94
440.715	525.94
440.936	509.94
441.158	501.94
441.379	520.94
441.6	524.94
441.822	540.94
442.043	574.94
442.264	637.94
442.486	656.94
442.707	586.94
442.928	540.94
443.149	567.94
443.371	574.94
443.592	605.94
443.813	680.94
444.034	739.94
444.255	632.94
444.476	587.94
444.698	560.94
444.919	566.94
445.14	643.94
445.361	606.94
445.582	589.94
445.803	611.94
446.024	708.94
446.245	725.94
446.466	657.94
446.687	564.94
446.908	549.94
447.129	506.94
447.35	522.94
447.571	502.94
447.792	496.94
448.013	492.94
448.234	508.94
448.455	533.94
448.675	640.94
448.896	751.94
449.117	633.94
449.338	631.94
449.559	704.94
449.779	804.94
450	617.94
450.221	539.94
450.442	503.94
450.662	493.94
450.883	466.94
451.104	494.94
451.324	484.94
451.545	469.94
451.766	455.94
451.986	442.94
452.207	456.94
452.428	437.94
452.648	469.94
452.869	422.94
453.089	455.94
453.31	472.94
453.53	437.94
453.751	430.94
453.971	442.94
454.192	453.94
454.412	437.94
454.633	437.94
454.853	454.94
455.073	453.94
455.294	481.94
455.514	549.94
455.734	529.94
455.955	448.94
456.175	448.94
456.395	438.94
456.616	424.94
456.836	435.94
457.056	447.94
457.276	425.94
457.497	431.94
457.717	430.94
457.937	445.94
458.157	451.94
458.377	458.94
458.598	469.94
458.818	485.94
459.038	561.94
459.258	571.94
459.478	528.94
459.698	485.94
459.918	493.94
460.138	475.94
460.358	509.94
460.578	508.94
460.798	492.94
461.018	517.94
461.238	503.94
461.458	516.94
461.678	517.94
461.898	530.94
462.118	506.94
462.338	516.94
462.558	521.94
462.777	528.94
462.997	555.94
463.217	576.94
463.437	568.94
463.657	571.94
463.876	528.94
464.096	553.94
464.316	558.94
464.536	563.94
464.755	569.94
464.975	550.94
465.195	567.94
465.414	576.94
465.634	542.94
465.854	512.94
466.073	507.94
466.293	478.94
466.512	485.94
466.732	491.94
466.951	482.94
467.171	469.94
467.391	456.94
467.61	482.94
467.829	485.94
468.049	491.94
468.268	462.94
468.488	461.94
468.707	447.94
468.927	452.94
469.146	480.94
469.365	455.94
469.585	479.94
469.804	476.94
470.023	480.94
470.243	491.94
470.462	480.94
470.681	488.94
470.901	479.94
471.12	487.94
471.339	480.94
471.558	460.94
471.777	489.94
471.997	488.94
472.216	490.94
472.435	513.94
472.654	496.94
472.873	477.94
473.092	471.94
473.311	464.94
473.53	504.94
473.749	481.94
473.968	513.94
474.187	585.94
474.406	582.94
474.625	543.94
474.844	479.94
475.063	495.94
475.282	477.94
475.501	479.94
475.72	483.94
475.939	506.94
476.158	501.94
476.377	484.94
476.596	517.94
476.814	497.94
477.033	529.94
477.252	507.94
477.471	520.94
477.69	513.94
477.908	531.94
478.127	557.94
478.346	539.94
478.564	542.94
478.783	546.94
479.002	557.94
479.22	552.94
479.439	568.94
479.658	569.94
479.876	571.94
480.095	579.94
480.313	594.94
480.532	602.94
480.751	576.94
480.969	590.94
481.188	613.94
481.406	627.94
481.624	593.94
481.843	591.94
482.061	568.94
482.28	579.94
482.498	571.94
482.717	586.94
482.935	554.94
483.153	593.94
483.372	573.94
483.59	573.94
483.808	553.94
484.027	556.94
484.245	580.94
484.463	574.94
484.681	584.94
484.9	593.94
485.118	600.94
485.336	591.94
485.554	570.94
485.772	604.94
485.99	590.94
486.209	595.94
486.427	587.94
486.645	605.94
486.863	599.94
487.081	605.94
487.299	589.94
487.517	609.94
487.735	608.94
487.953	616.94
488.171	612.94
488.389	588.94
488.607	594.94
488.825	599.94
489.043	613.94
489.261	601.94
489.479	614.94
489.696	604.94
489.914	597.94
490.132	606.94
490.35	630.94
490.568	621.94
490.786	619.94
491.003	648.94
491.221	656.94
491.439	664.94
491.657	673.94
491.874	630.94
492.092	660.94
492.31	648.94
492.527	699.94
492.745	677.94
492.963	699.94
493.18	697.94
493.398	665.94
493.615	669.94
493.833	696.94
494.05	707.94
494.268	688.94
494.485	684.94
494.703	672.94
494.92	703.94
495.138	702.94
495.355	696.94
495.573	709.94
495.79	708.94
496.008	705.94
496.225	684.94
496.442	701.94
496.66	704.94
496.877	736.94
497.094	736.94
497.312	740.94
497.529	727.94
497.746	752.94
497.963	732.94
498.181	781.94
498.398	791.94
498.615	794.94
498.832	824.94
499.049	863.94
499.267	878.94
499.484	891.94
499.701	925.94
499.918	953.94
500.135	1014.94
500.352	1055.94
500.569	1071.94
500.786	1107.94
501.003	1054.94
501.22	1031.94
501.437	993.94
501.654	963.94
501.871	940.94
