Data from 1966.PennyLincolnUp.Lamp.En5.5.200Scan.071719.P1.Scan2.head_HRD10591_14-19-10-246.txt Node
Date: Thu Jul 18 14:19:10 EDT 2019
User: cochatt
Spectrometer: HR+D1059
Trigger mode: 1
Integration Time (sec): 1.000000E-1
Scans to average: 1
Electric dark correction enabled: true
Nonlinearity correction enabled: false
Boxcar width: 0
XAxis mode: Wavelengths
Number of Pixels in Spectrum: 2048
>>>>>Begin Spectral Data<<<<<
223.165	-11.69
223.4	-11.69
223.635	-11.69
223.869	-24.69
224.104	-25.69
224.338	-18.69
224.573	-6.69
224.808	-4.69
225.042	-5.69
225.277	-5.69
225.511	-7.69
225.746	-0.69
225.98	1.31
226.215	20.31
226.449	19.31
226.683	9.31
226.918	25.31
227.152	36.31
227.387	38.31
227.621	26.31
227.856	45.31
228.09	51.31
228.324	45.31
228.559	46.31
228.793	60.31
229.027	98.31
229.262	112.31
229.496	118.31
229.73	135.31
229.964	156.31
230.199	127.31
230.433	103.31
230.667	136.31
230.901	107.31
231.136	123.31
231.37	116.31
231.604	123.31
231.838	126.31
232.072	112.31
232.306	105.31
232.541	113.31
232.775	118.31
233.009	135.31
233.243	132.31
233.477	121.31
233.711	130.31
233.945	123.31
234.179	123.31
234.413	118.31
234.647	124.31
234.881	119.31
235.115	111.31
235.349	113.31
235.583	106.31
235.817	143.31
236.051	133.31
236.285	120.31
236.519	124.31
236.753	140.31
236.987	154.31
237.221	189.31
237.455	231.31
237.689	195.31
237.922	133.31
238.156	138.31
238.39	124.31
238.624	124.31
238.858	151.31
239.091	135.31
239.325	127.31
239.559	133.31
239.793	129.31
240.027	144.31
240.26	168.31
240.494	158.31
240.728	155.31
240.961	156.31
241.195	169.31
241.429	136.31
241.662	137.31
241.896	134.31
242.13	139.31
242.363	134.31
242.597	157.31
242.83	160.31
243.064	132.31
243.298	145.31
243.531	146.31
243.765	139.31
243.998	135.31
244.232	135.31
244.465	143.31
244.699	148.31
244.932	154.31
245.166	144.31
245.399	144.31
245.633	157.31
245.866	158.31
246.099	166.31
246.333	146.31
246.566	138.31
246.8	151.31
247.033	146.31
247.266	159.31
247.5	167.31
247.733	158.31
247.966	171.31
248.2	172.31
248.433	182.31
248.666	179.31
248.899	201.31
249.133	192.31
249.366	206.31
249.599	199.31
249.832	187.31
250.066	205.31
250.299	183.31
250.532	193.31
250.765	207.31
250.998	227.31
251.231	224.31
251.465	222.31
251.698	205.31
251.931	206.31
252.164	212.31
252.397	180.31
252.63	220.31
252.863	221.31
253.096	217.31
253.329	238.31
253.562	220.31
253.795	224.31
254.028	238.31
254.261	223.31
254.494	223.31
254.727	277.31
254.96	292.31
255.193	279.31
255.426	254.31
255.659	247.31
255.892	249.31
256.124	244.31
256.357	254.31
256.59	228.31
256.823	228.31
257.056	220.31
257.289	217.31
257.521	220.31
257.754	214.31
257.987	200.31
258.22	225.31
258.452	229.31
258.685	204.31
258.918	215.31
259.151	222.31
259.383	231.31
259.616	220.31
259.849	236.31
260.081	243.31
260.314	251.31
260.547	265.31
260.779	253.31
261.012	248.31
261.244	237.31
261.477	209.31
261.71	221.31
261.942	231.31
262.175	253.31
262.407	219.31
262.64	214.31
262.872	223.31
263.105	208.31
263.337	228.31
263.57	221.31
263.802	216.31
264.035	220.31
264.267	227.31
264.499	215.31
264.732	223.31
264.964	223.31
265.197	224.31
265.429	224.31
265.661	217.31
265.894	223.31
266.126	230.31
266.358	233.31
266.591	231.31
266.823	235.31
267.055	226.31
267.287	259.31
267.52	232.31
267.752	222.31
267.984	231.31
268.216	256.31
268.448	249.31
268.681	254.31
268.913	243.31
269.145	273.31
269.377	285.31
269.609	305.31
269.841	266.31
270.073	273.31
270.306	291.31
270.538	321.31
270.77	324.31
271.002	311.31
271.234	291.31
271.466	308.31
271.698	326.31
271.93	327.31
272.162	318.31
272.394	310.31
272.626	327.31
272.858	276.31
273.09	300.31
273.322	281.31
273.553	267.31
273.785	267.31
274.017	260.31
274.249	277.31
274.481	253.31
274.713	256.31
274.945	280.31
275.176	290.31
275.408	271.31
275.64	284.31
275.872	269.31
276.104	277.31
276.335	275.31
276.567	293.31
276.799	289.31
277.031	314.31
277.262	325.31
277.494	349.31
277.726	302.31
277.957	291.31
278.189	281.31
278.421	303.31
278.652	287.31
278.884	302.31
279.115	285.31
279.347	285.31
279.579	269.31
279.81	270.31
280.042	287.31
280.273	296.31
280.505	296.31
280.736	277.31
280.968	279.31
281.199	278.31
281.431	290.31
281.662	297.31
281.894	295.31
282.125	283.31
282.356	291.31
282.588	325.31
282.819	307.31
283.051	276.31
283.282	287.31
283.513	307.31
283.745	276.31
283.976	292.31
284.207	295.31
284.439	283.31
284.67	308.31
284.901	299.31
285.132	303.31
285.364	271.31
285.595	297.31
285.826	292.31
286.057	292.31
286.288	293.31
286.52	295.31
286.751	305.31
286.982	293.31
287.213	272.31
287.444	315.31
287.675	302.31
287.906	313.31
288.138	309.31
288.369	302.31
288.6	311.31
288.831	319.31
289.062	309.31
289.293	314.31
289.524	294.31
289.755	286.31
289.986	311.31
290.217	295.31
290.448	296.31
290.679	301.31
290.91	287.31
291.141	297.31
291.371	302.31
291.602	309.31
291.833	294.31
292.064	309.31
292.295	300.31
292.526	293.31
292.757	292.31
292.987	293.31
293.218	301.31
293.449	296.31
293.68	294.31
293.91	300.31
294.141	316.31
294.372	299.31
294.603	301.31
294.833	320.31
295.064	314.31
295.295	325.31
295.525	302.31
295.756	311.31
295.987	311.31
296.217	335.31
296.448	343.31
296.679	313.31
296.909	309.31
297.14	299.31
297.37	307.31
297.601	317.31
297.831	307.31
298.062	295.31
298.292	296.31
298.523	317.31
298.753	316.31
298.984	326.31
299.214	321.31
299.445	319.31
299.675	309.31
299.905	325.31
300.136	331.31
300.366	331.31
300.597	348.31
300.827	336.31
301.057	337.31
301.288	353.31
301.518	327.31
301.748	347.31
301.979	337.31
302.209	345.31
302.439	344.31
302.669	345.31
302.9	355.31
303.13	344.31
303.36	349.31
303.59	372.31
303.82	351.31
304.051	361.31
304.281	332.31
304.511	344.31
304.741	348.31
304.971	356.31
305.201	346.31
305.431	320.31
305.661	327.31
305.891	338.31
306.121	341.31
306.352	352.31
306.582	356.31
306.812	351.31
307.042	336.31
307.272	328.31
307.502	352.31
307.731	356.31
307.961	357.31
308.191	343.31
308.421	356.31
308.651	337.31
308.881	342.31
309.111	372.31
309.341	363.31
309.571	351.31
309.8	369.31
310.03	367.31
310.26	384.31
310.49	367.31
310.72	387.31
310.949	405.31
311.179	414.31
311.409	383.31
311.639	396.31
311.868	403.31
312.098	400.31
312.328	402.31
312.557	425.31
312.787	431.31
313.017	425.31
313.246	397.31
313.476	383.31
313.706	395.31
313.935	402.31
314.165	407.31
314.394	433.31
314.624	417.31
314.853	409.31
315.083	412.31
315.312	374.31
315.542	387.31
315.771	391.31
316.001	382.31
316.23	404.31
316.46	385.31
316.689	385.31
316.919	392.31
317.148	411.31
317.377	389.31
317.607	377.31
317.836	391.31
318.065	391.31
318.295	401.31
318.524	383.31
318.753	396.31
318.983	402.31
319.212	393.31
319.441	407.31
319.67	412.31
319.9	409.31
320.129	389.31
320.358	383.31
320.587	396.31
320.816	422.31
321.046	401.31
321.275	409.31
321.504	420.31
321.733	429.31
321.962	437.31
322.191	449.31
322.42	445.31
322.649	468.31
322.878	487.31
323.108	475.31
323.337	505.31
323.566	508.31
323.795	542.31
324.024	580.31
324.253	699.31
324.482	954.31
324.71	1509.31
324.939	2281.31
325.168	1993.31
325.397	985.31
325.626	686.31
325.855	561.31
326.084	529.31
326.313	535.31
326.542	519.31
326.77	582.31
326.999	630.31
327.228	889.31
327.457	1421.31
327.686	1728.31
327.914	1107.31
328.143	733.31
328.372	654.31
328.6	613.31
328.829	572.31
329.058	585.31
329.287	593.31
329.515	555.31
329.744	537.31
329.972	519.31
330.201	556.31
330.43	586.31
330.658	595.31
330.887	630.31
331.115	617.31
331.344	532.31
331.572	528.31
331.801	517.31
332.03	518.31
332.258	507.31
332.486	496.31
332.715	470.31
332.943	484.31
333.172	463.31
333.4	483.31
333.629	486.31
333.857	504.31
334.085	505.31
334.314	523.31
334.542	547.31
334.771	589.31
334.999	542.31
335.227	523.31
335.455	475.31
335.684	500.31
335.912	491.31
336.14	464.31
336.369	484.31
336.597	469.31
336.825	500.31
337.053	499.31
337.281	473.31
337.51	479.31
337.738	459.31
337.966	475.31
338.194	460.31
338.422	448.31
338.65	465.31
338.878	463.31
339.106	478.31
339.334	452.31
339.562	467.31
339.79	446.31
340.018	469.31
340.246	466.31
340.474	472.31
340.702	455.31
340.93	462.31
341.158	452.31
341.386	440.31
341.614	460.31
341.842	457.31
342.07	450.31
342.298	459.31
342.526	448.31
342.754	447.31
342.981	455.31
343.209	440.31
343.437	443.31
343.665	443.31
343.893	466.31
344.12	469.31
344.348	466.31
344.576	473.31
344.804	469.31
345.031	472.31
345.259	476.31
345.487	455.31
345.714	479.31
345.942	474.31
346.17	462.31
346.397	446.31
346.625	439.31
346.853	444.31
347.08	443.31
347.308	443.31
347.535	467.31
347.763	470.31
347.99	447.31
348.218	462.31
348.445	457.31
348.673	459.31
348.9	446.31
349.128	432.31
349.355	439.31
349.583	440.31
349.81	429.31
350.037	449.31
350.265	437.31
350.492	431.31
350.72	454.31
350.947	435.31
351.174	463.31
351.402	487.31
351.629	467.31
351.856	441.31
352.083	465.31
352.311	459.31
352.538	476.31
352.765	471.31
352.992	457.31
353.22	432.31
353.447	456.31
353.674	448.31
353.901	420.31
354.128	406.31
354.355	428.31
354.583	417.31
354.81	424.31
355.037	427.31
355.264	416.31
355.491	430.31
355.718	436.31
355.945	398.31
356.172	435.31
356.399	421.31
356.626	433.31
356.853	410.31
357.08	419.31
357.307	444.31
357.534	425.31
357.761	430.31
357.988	440.31
358.215	426.31
358.441	419.31
358.668	419.31
358.895	446.31
359.122	417.31
359.349	437.31
359.576	431.31
359.802	488.31
360.029	496.31
360.256	497.31
360.483	492.31
360.709	473.31
360.936	451.31
361.163	439.31
361.39	446.31
361.616	447.31
361.843	440.31
362.07	436.31
362.296	442.31
362.523	453.31
362.749	436.31
362.976	452.31
363.203	426.31
363.429	431.31
363.656	452.31
363.882	444.31
364.109	449.31
364.335	423.31
364.562	442.31
364.788	467.31
365.015	444.31
365.241	435.31
365.468	433.31
365.694	442.31
365.92	431.31
366.147	431.31
366.373	459.31
366.599	446.31
366.826	427.31
367.052	419.31
367.278	452.31
367.505	431.31
367.731	438.31
367.957	446.31
368.184	455.31
368.41	447.31
368.636	464.31
368.862	472.31
369.089	458.31
369.315	442.31
369.541	464.31
369.767	445.31
369.993	431.31
370.219	427.31
370.445	449.31
370.672	456.31
370.898	453.31
371.124	464.31
371.35	440.31
371.576	455.31
371.802	441.31
372.028	433.31
372.254	441.31
372.48	460.31
372.706	453.31
372.932	447.31
373.158	436.31
373.384	431.31
373.61	445.31
373.835	451.31
374.061	427.31
374.287	451.31
374.513	458.31
374.739	452.31
374.965	449.31
375.191	467.31
375.416	461.31
375.642	471.31
375.868	467.31
376.094	450.31
376.319	468.31
376.545	452.31
376.771	448.31
376.997	437.31
377.222	443.31
377.448	432.31
377.674	439.31
377.899	429.31
378.125	459.31
378.35	427.31
378.576	433.31
378.802	450.31
379.027	431.31
379.253	450.31
379.478	440.31
379.704	445.31
379.929	453.31
380.155	449.31
380.38	454.31
380.606	448.31
380.831	455.31
381.057	449.31
381.282	464.31
381.507	458.31
381.733	430.31
381.958	433.31
382.184	443.31
382.409	456.31
382.634	451.31
382.86	449.31
383.085	456.31
383.31	453.31
383.535	470.31
383.761	441.31
383.986	475.31
384.211	472.31
384.436	483.31
384.662	490.31
384.887	479.31
385.112	460.31
385.337	481.31
385.562	477.31
385.787	495.31
386.013	495.31
386.238	499.31
386.463	492.31
386.688	492.31
386.913	489.31
387.138	480.31
387.363	496.31
387.588	499.31
387.813	490.31
388.038	492.31
388.263	491.31
388.488	480.31
388.713	507.31
388.938	495.31
389.163	482.31
389.387	488.31
389.612	509.31
389.837	495.31
390.062	488.31
390.287	500.31
390.512	474.31
390.736	500.31
390.961	499.31
391.186	492.31
391.411	513.31
391.636	499.31
391.86	478.31
392.085	517.31
392.31	503.31
392.534	525.31
392.759	523.31
392.984	489.31
393.208	487.31
393.433	502.31
393.658	488.31
393.882	504.31
394.107	490.31
394.331	503.31
394.556	495.31
394.78	508.31
395.005	519.31
395.229	527.31
395.454	515.31
395.678	535.31
395.903	541.31
396.127	547.31
396.352	552.31
396.576	527.31
396.801	529.31
397.025	504.31
397.249	513.31
397.474	526.31
397.698	527.31
397.922	551.31
398.147	557.31
398.371	570.31
398.595	571.31
398.82	563.31
399.044	584.31
399.268	601.31
399.492	624.31
399.717	653.31
399.941	693.31
400.165	692.31
400.389	718.31
400.613	650.31
400.837	590.31
401.062	592.31
401.286	581.31
401.51	599.31
401.734	585.31
401.958	589.31
402.182	587.31
402.406	590.31
402.63	599.31
402.854	603.31
403.078	575.31
403.302	587.31
403.526	628.31
403.75	609.31
403.974	592.31
404.198	592.31
404.422	617.31
404.645	617.31
404.869	604.31
405.093	666.31
405.317	694.31
405.541	743.31
405.765	643.31
405.988	616.31
406.212	645.31
406.436	635.31
406.66	676.31
406.883	625.31
407.107	683.31
407.331	732.31
407.555	806.31
407.778	801.31
408.002	727.31
408.226	701.31
408.449	663.31
408.673	642.31
408.896	690.31
409.12	722.31
409.344	686.31
409.567	628.31
409.791	620.31
410.014	584.31
410.238	592.31
410.461	609.31
410.685	631.31
410.908	642.31
411.132	665.31
411.355	729.31
411.578	669.31
411.802	602.31
412.025	600.31
412.249	634.31
412.472	647.31
412.695	708.31
412.919	662.31
413.142	624.31
413.365	590.31
413.589	591.31
413.812	580.31
414.035	573.31
414.258	594.31
414.482	559.31
414.705	578.31
414.928	560.31
415.151	572.31
415.374	574.31
415.597	577.31
415.821	568.31
416.044	567.31
416.267	563.31
416.49	560.31
416.713	580.31
416.936	579.31
417.159	581.31
417.382	558.31
417.605	567.31
417.828	619.31
418.051	578.31
418.274	589.31
418.497	576.31
418.72	549.31
418.943	567.31
419.166	589.31
419.389	601.31
419.611	625.31
419.834	623.31
420.057	590.31
420.28	610.31
420.503	605.31
420.726	607.31
420.948	599.31
421.171	639.31
421.394	693.31
421.617	633.31
421.839	612.31
422.062	597.31
422.285	613.31
422.507	669.31
422.73	757.31
422.953	731.31
423.175	643.31
423.398	639.31
423.621	616.31
423.843	663.31
424.066	669.31
424.288	639.31
424.511	664.31
424.733	724.31
424.956	821.31
425.178	765.31
425.401	758.31
425.623	791.31
425.846	683.31
426.068	637.31
426.291	645.31
426.513	653.31
426.735	646.31
426.958	699.31
427.18	784.31
427.402	912.31
427.625	1009.31
427.847	897.31
428.069	789.31
428.292	689.31
428.514	629.31
428.736	637.31
428.958	622.31
429.181	607.31
429.403	585.31
429.625	588.31
429.847	670.31
430.069	709.31
430.292	705.31
430.514	633.31
430.736	589.31
430.958	580.31
431.18	577.31
431.402	570.31
431.624	572.31
431.846	553.31
432.068	570.31
432.29	554.31
432.512	594.31
432.734	574.31
432.956	565.31
433.178	592.31
433.4	587.31
433.622	574.31
433.844	571.31
434.066	547.31
434.287	568.31
434.509	569.31
434.731	561.31
434.953	611.31
435.175	586.31
435.397	638.31
435.618	657.31
435.84	701.31
436.062	798.31
436.284	868.31
436.505	724.31
436.727	657.31
436.949	612.31
437.17	601.31
437.392	592.31
437.614	613.31
437.835	641.31
438.057	725.31
438.278	896.31
438.5	865.31
438.721	945.31
438.943	917.31
439.165	714.31
439.386	657.31
439.608	654.31
439.829	626.31
440.05	684.31
440.272	746.31
440.493	706.31
440.715	624.31
440.936	615.31
441.158	585.31
441.379	592.31
441.6	599.31
441.822	590.31
442.043	668.31
442.264	803.31
442.486	845.31
442.707	722.31
442.928	643.31
443.149	664.31
443.371	680.31
443.592	701.31
443.813	826.31
444.034	919.31
444.255	725.31
444.476	668.31
444.698	657.31
444.919	621.31
445.14	727.31
445.361	696.31
445.582	704.31
445.803	752.31
446.024	914.31
446.245	887.31
446.466	804.31
446.687	693.31
446.908	651.31
447.129	613.31
447.35	585.31
447.571	592.31
447.792	588.31
448.013	575.31
448.234	617.31
448.455	677.31
448.675	803.31
448.896	933.31
449.117	787.31
449.338	735.31
449.559	838.31
449.779	997.31
450	775.31
450.221	648.31
450.442	610.31
450.662	594.31
450.883	575.31
451.104	611.31
451.324	577.31
451.545	558.31
451.766	540.31
451.986	551.31
452.207	530.31
452.428	511.31
452.648	535.31
452.869	532.31
453.089	530.31
453.31	555.31
453.53	548.31
453.751	541.31
453.971	515.31
454.192	535.31
454.412	512.31
454.633	538.31
454.853	527.31
455.073	517.31
455.294	553.31
455.514	657.31
455.734	618.31
455.955	527.31
456.175	496.31
456.395	504.31
456.616	486.31
456.836	503.31
457.056	470.31
457.276	479.31
457.497	512.31
457.717	494.31
457.937	515.31
458.157	528.31
458.377	529.31
458.598	529.31
458.818	591.31
459.038	691.31
459.258	698.31
459.478	593.31
459.698	563.31
459.918	573.31
460.138	564.31
460.358	560.31
460.578	583.31
460.798	586.31
461.018	581.31
461.238	574.31
461.458	584.31
461.678	605.31
461.898	569.31
462.118	600.31
462.338	614.31
462.558	609.31
462.777	592.31
462.997	601.31
463.217	639.31
463.437	639.31
463.657	630.31
463.876	623.31
464.096	634.31
464.316	611.31
464.536	606.31
464.755	619.31
464.975	593.31
465.195	650.31
465.414	726.31
465.634	658.31
465.854	595.31
466.073	604.31
466.293	577.31
466.512	568.31
466.732	539.31
466.951	557.31
467.171	543.31
467.391	529.31
467.61	549.31
467.829	563.31
468.049	551.31
468.268	539.31
468.488	531.31
468.707	544.31
468.927	527.31
469.146	540.31
469.365	529.31
469.585	503.31
469.804	544.31
470.023	559.31
470.243	537.31
470.462	558.31
470.681	601.31
470.901	557.31
471.12	559.31
471.339	551.31
471.558	554.31
471.777	556.31
471.997	538.31
472.216	550.31
472.435	603.31
472.654	575.31
472.873	563.31
473.092	535.31
473.311	518.31
473.53	549.31
473.749	550.31
473.968	581.31
474.187	693.31
474.406	722.31
474.625	635.31
474.844	574.31
475.063	559.31
475.282	544.31
475.501	560.31
475.72	576.31
475.939	583.31
476.158	559.31
476.377	555.31
476.596	578.31
476.814	581.31
477.033	581.31
477.252	581.31
477.471	593.31
477.69	592.31
477.908	597.31
478.127	611.31
478.346	615.31
478.564	613.31
478.783	640.31
479.002	628.31
479.22	639.31
479.439	614.31
479.658	683.31
479.876	681.31
480.095	672.31
480.313	701.31
480.532	704.31
480.751	685.31
480.969	701.31
481.188	752.31
481.406	771.31
481.624	701.31
481.843	681.31
482.061	668.31
482.28	643.31
482.498	674.31
482.717	637.31
482.935	651.31
483.153	634.31
483.372	655.31
483.59	661.31
483.808	637.31
484.027	627.31
484.245	636.31
484.463	625.31
484.681	677.31
484.9	673.31
485.118	676.31
485.336	663.31
485.554	686.31
485.772	689.31
485.99	684.31
486.209	663.31
486.427	667.31
486.645	697.31
486.863	703.31
487.081	714.31
487.299	695.31
487.517	685.31
487.735	709.31
487.953	700.31
488.171	710.31
488.389	681.31
488.607	689.31
488.825	684.31
489.043	698.31
489.261	710.31
489.479	716.31
489.696	701.31
489.914	728.31
490.132	707.31
490.35	723.31
490.568	738.31
490.786	740.31
491.003	749.31
491.221	781.31
491.439	780.31
491.657	796.31
491.874	812.31
492.092	823.31
492.31	823.31
492.527	836.31
492.745	801.31
492.963	829.31
493.18	823.31
493.398	835.31
493.615	839.31
493.833	826.31
494.05	807.31
494.268	834.31
494.485	810.31
494.703	843.31
494.92	803.31
495.138	856.31
495.355	815.31
495.573	827.31
495.79	821.31
496.008	847.31
496.225	821.31
496.442	835.31
496.66	848.31
496.877	851.31
497.094	831.31
497.312	829.31
497.529	845.31
497.746	877.31
497.963	873.31
498.181	899.31
498.398	930.31
498.615	937.31
498.832	930.31
499.049	943.31
499.267	982.31
499.484	1022.31
499.701	1074.31
499.918	1095.31
500.135	1115.31
500.352	1214.31
500.569	1188.31
500.786	1197.31
501.003	1189.31
501.22	1145.31
501.437	1115.31
501.654	1087.31
