Data from 1966.PennyLincolnUp.Lamp.En5.5.200Scan.071719.P1._HRD10591_14-12-39-913.txt Node
Date: Thu Jul 18 14:12:39 EDT 2019
User: cochatt
Spectrometer: HR+D1059
Trigger mode: 1
Integration Time (sec): 1.000000E-1
Scans to average: 1
Electric dark correction enabled: true
Nonlinearity correction enabled: false
Boxcar width: 0
XAxis mode: Wavelengths
Number of Pixels in Spectrum: 2048
>>>>>Begin Spectral Data<<<<<
223.165	-6.69
223.4	-6.69
223.635	-6.69
223.869	-19.69
224.104	-21.69
224.338	-11.69
224.573	-18.69
224.808	-10.69
225.042	-4.69
225.277	-3.69
225.511	-0.69
225.746	-4.69
225.98	11.31
226.215	18.31
226.449	18.31
226.683	25.31
226.918	4.31
227.152	25.31
227.387	32.31
227.621	37.31
227.856	43.31
228.09	42.31
228.324	63.31
228.559	64.31
228.793	66.31
229.027	78.31
229.262	78.31
229.496	87.31
229.73	88.31
229.964	95.31
230.199	84.31
230.433	86.31
230.667	78.31
230.901	87.31
231.136	80.31
231.37	106.31
231.604	94.31
231.838	99.31
232.072	100.31
232.306	84.31
232.541	80.31
232.775	100.31
233.009	88.31
233.243	92.31
233.477	89.31
233.711	90.31
233.945	86.31
234.179	93.31
234.413	95.31
234.647	81.31
234.881	101.31
235.115	104.31
235.349	109.31
235.583	95.31
235.817	94.31
236.051	109.31
236.285	96.31
236.519	99.31
236.753	122.31
236.987	120.31
237.221	118.31
237.455	137.31
237.689	122.31
237.922	91.31
238.156	99.31
238.39	92.31
238.624	94.31
238.858	109.31
239.091	73.31
239.325	104.31
239.559	80.31
239.793	95.31
240.027	93.31
240.26	110.31
240.494	100.31
240.728	113.31
240.961	106.31
241.195	100.31
241.429	105.31
241.662	120.31
241.896	94.31
242.13	103.31
242.363	106.31
242.597	104.31
242.83	91.31
243.064	92.31
243.298	100.31
243.531	105.31
243.765	94.31
243.998	103.31
244.232	108.31
244.465	94.31
244.699	111.31
244.932	102.31
245.166	107.31
245.399	111.31
245.633	91.31
245.866	100.31
246.099	102.31
246.333	106.31
246.566	109.31
246.8	115.31
247.033	109.31
247.266	93.31
247.5	105.31
247.733	113.31
247.966	117.31
248.2	104.31
248.433	104.31
248.666	126.31
248.899	134.31
249.133	140.31
249.366	144.31
249.599	138.31
249.832	119.31
250.066	134.31
250.299	112.31
250.532	122.31
250.765	136.31
250.998	141.31
251.231	139.31
251.465	128.31
251.698	123.31
251.931	122.31
252.164	123.31
252.397	117.31
252.63	122.31
252.863	129.31
253.096	144.31
253.329	155.31
253.562	126.31
253.795	112.31
254.028	138.31
254.261	138.31
254.494	147.31
254.727	155.31
254.96	170.31
255.193	137.31
255.426	132.31
255.659	138.31
255.892	151.31
256.124	144.31
256.357	130.31
256.59	127.31
256.823	134.31
257.056	114.31
257.289	131.31
257.521	128.31
257.754	128.31
257.987	124.31
258.22	136.31
258.452	133.31
258.685	133.31
258.918	122.31
259.151	131.31
259.383	136.31
259.616	138.31
259.849	143.31
260.081	142.31
260.314	151.31
260.547	161.31
260.779	133.31
261.012	124.31
261.244	138.31
261.477	139.31
261.71	132.31
261.942	128.31
262.175	144.31
262.407	134.31
262.64	122.31
262.872	132.31
263.105	127.31
263.337	129.31
263.57	137.31
263.802	132.31
264.035	136.31
264.267	128.31
264.499	117.31
264.732	124.31
264.964	129.31
265.197	140.31
265.429	135.31
265.661	122.31
265.894	133.31
266.126	134.31
266.358	137.31
266.591	129.31
266.823	126.31
267.055	132.31
267.287	118.31
267.52	128.31
267.752	140.31
267.984	142.31
268.216	129.31
268.448	136.31
268.681	128.31
268.913	155.31
269.145	158.31
269.377	149.31
269.609	157.31
269.841	157.31
270.073	158.31
270.306	177.31
270.538	182.31
270.77	160.31
271.002	164.31
271.234	159.31
271.466	161.31
271.698	178.31
271.93	185.31
272.162	187.31
272.394	187.31
272.626	165.31
272.858	168.31
273.09	147.31
273.322	161.31
273.553	144.31
273.785	163.31
274.017	142.31
274.249	138.31
274.481	152.31
274.713	160.31
274.945	162.31
275.176	133.31
275.408	138.31
275.64	146.31
275.872	153.31
276.104	169.31
276.335	155.31
276.567	148.31
276.799	155.31
277.031	180.31
277.262	190.31
277.494	186.31
277.726	176.31
277.957	162.31
278.189	155.31
278.421	162.31
278.652	168.31
278.884	154.31
279.115	174.31
279.347	158.31
279.579	153.31
279.81	143.31
280.042	158.31
280.273	147.31
280.505	152.31
280.736	153.31
280.968	156.31
281.199	160.31
281.431	156.31
281.662	148.31
281.894	148.31
282.125	157.31
282.356	156.31
282.588	178.31
282.819	171.31
283.051	163.31
283.282	152.31
283.513	156.31
283.745	185.31
283.976	166.31
284.207	162.31
284.439	165.31
284.67	167.31
284.901	155.31
285.132	160.31
285.364	163.31
285.595	152.31
285.826	156.31
286.057	155.31
286.288	160.31
286.52	164.31
286.751	165.31
286.982	160.31
287.213	140.31
287.444	168.31
287.675	162.31
287.906	163.31
288.138	165.31
288.369	192.31
288.6	162.31
288.831	161.31
289.062	172.31
289.293	167.31
289.524	152.31
289.755	147.31
289.986	153.31
290.217	167.31
290.448	155.31
290.679	154.31
290.91	174.31
291.141	162.31
291.371	164.31
291.602	161.31
291.833	156.31
292.064	157.31
292.295	166.31
292.526	163.31
292.757	175.31
292.987	167.31
293.218	151.31
293.449	154.31
293.68	155.31
293.91	155.31
294.141	166.31
294.372	155.31
294.603	180.31
294.833	176.31
295.064	173.31
295.295	161.31
295.525	169.31
295.756	196.31
295.987	184.31
296.217	185.31
296.448	187.31
296.679	173.31
296.909	161.31
297.14	162.31
297.37	154.31
297.601	168.31
297.831	170.31
298.062	171.31
298.292	153.31
298.523	159.31
298.753	169.31
298.984	162.31
299.214	178.31
299.445	160.31
299.675	176.31
299.905	187.31
300.136	170.31
300.366	169.31
300.597	178.31
300.827	179.31
301.057	173.31
301.288	185.31
301.518	196.31
301.748	185.31
301.979	187.31
302.209	185.31
302.439	177.31
302.669	178.31
302.9	194.31
303.13	174.31
303.36	180.31
303.59	187.31
303.82	193.31
304.051	178.31
304.281	182.31
304.511	174.31
304.741	180.31
304.971	196.31
305.201	197.31
305.431	173.31
305.661	180.31
305.891	173.31
306.121	172.31
306.352	198.31
306.582	189.31
306.812	173.31
307.042	173.31
307.272	189.31
307.502	176.31
307.731	183.31
307.961	196.31
308.191	173.31
308.421	169.31
308.651	186.31
308.881	194.31
309.111	190.31
309.341	176.31
309.571	188.31
309.8	182.31
310.03	189.31
310.26	190.31
310.49	197.31
310.72	188.31
310.949	198.31
311.179	213.31
311.409	207.31
311.639	186.31
311.868	198.31
312.098	195.31
312.328	204.31
312.557	211.31
312.787	209.31
313.017	212.31
313.246	207.31
313.476	203.31
313.706	183.31
313.935	215.31
314.165	195.31
314.394	229.31
314.624	224.31
314.853	191.31
315.083	207.31
315.312	194.31
315.542	207.31
315.771	208.31
316.001	201.31
316.23	201.31
316.46	207.31
316.689	189.31
316.919	198.31
317.148	209.31
317.377	190.31
317.607	200.31
317.836	199.31
318.065	213.31
318.295	216.31
318.524	204.31
318.753	190.31
318.983	197.31
319.212	199.31
319.441	201.31
319.67	209.31
319.9	206.31
320.129	200.31
320.358	203.31
320.587	221.31
320.816	201.31
321.046	213.31
321.275	196.31
321.504	198.31
321.733	216.31
321.962	210.31
322.191	214.31
322.42	223.31
322.649	216.31
322.878	226.31
323.108	226.31
323.337	254.31
323.566	243.31
323.795	255.31
324.024	283.31
324.253	335.31
324.482	471.31
324.71	730.31
324.939	958.31
325.168	796.31
325.397	404.31
325.626	307.31
325.855	262.31
326.084	254.31
326.313	232.31
326.542	245.31
326.77	282.31
326.999	326.31
327.228	447.31
327.457	630.31
327.686	717.31
327.914	468.31
328.143	337.31
328.372	282.31
328.6	277.31
328.829	271.31
329.058	280.31
329.287	290.31
329.515	271.31
329.744	269.31
329.972	249.31
330.201	264.31
330.43	298.31
330.658	301.31
330.887	314.31
331.115	312.31
331.344	263.31
331.572	253.31
331.801	243.31
332.03	244.31
332.258	234.31
332.486	240.31
332.715	224.31
332.943	245.31
333.172	236.31
333.4	234.31
333.629	239.31
333.857	264.31
334.085	255.31
334.314	270.31
334.542	280.31
334.771	290.31
334.999	290.31
335.227	229.31
335.455	238.31
335.684	234.31
335.912	216.31
336.14	223.31
336.369	224.31
336.597	229.31
336.825	241.31
337.053	219.31
337.281	225.31
337.51	229.31
337.738	232.31
337.966	237.31
338.194	234.31
338.422	230.31
338.65	235.31
338.878	222.31
339.106	209.31
339.334	222.31
339.562	223.31
339.79	217.31
340.018	211.31
340.246	232.31
340.474	222.31
340.702	223.31
340.93	202.31
341.158	229.31
341.386	203.31
341.614	240.31
341.842	226.31
342.07	213.31
342.298	225.31
342.526	216.31
342.754	220.31
342.981	207.31
343.209	202.31
343.437	216.31
343.665	210.31
343.893	226.31
344.12	217.31
344.348	218.31
344.576	218.31
344.804	210.31
345.031	214.31
345.259	241.31
345.487	219.31
345.714	219.31
345.942	222.31
346.17	194.31
346.397	202.31
346.625	211.31
346.853	218.31
347.08	210.31
347.308	209.31
347.535	213.31
347.763	212.31
347.99	217.31
348.218	219.31
348.445	229.31
348.673	230.31
348.9	214.31
349.128	210.31
349.355	206.31
349.583	220.31
349.81	205.31
350.037	198.31
350.265	221.31
350.492	221.31
350.72	188.31
350.947	201.31
351.174	227.31
351.402	218.31
351.629	212.31
351.856	221.31
352.083	222.31
352.311	206.31
352.538	210.31
352.765	232.31
352.992	213.31
353.22	207.31
353.447	215.31
353.674	216.31
353.901	222.31
354.128	207.31
354.355	201.31
354.583	214.31
354.81	202.31
355.037	190.31
355.264	209.31
355.491	201.31
355.718	198.31
355.945	199.31
356.172	188.31
356.399	192.31
356.626	188.31
356.853	203.31
357.08	208.31
357.307	211.31
357.534	192.31
357.761	190.31
357.988	196.31
358.215	204.31
358.441	205.31
358.668	205.31
358.895	188.31
359.122	197.31
359.349	222.31
359.576	218.31
359.802	230.31
360.029	234.31
360.256	250.31
360.483	240.31
360.709	217.31
360.936	230.31
361.163	224.31
361.39	217.31
361.616	235.31
361.843	213.31
362.07	213.31
362.296	214.31
362.523	209.31
362.749	198.31
362.976	215.31
363.203	202.31
363.429	206.31
363.656	204.31
363.882	209.31
364.109	191.31
364.335	216.31
364.562	213.31
364.788	200.31
365.015	205.31
365.241	198.31
365.468	195.31
365.694	208.31
365.92	204.31
366.147	212.31
366.373	216.31
366.599	212.31
366.826	182.31
367.052	196.31
367.278	185.31
367.505	199.31
367.731	197.31
367.957	198.31
368.184	200.31
368.41	194.31
368.636	209.31
368.862	216.31
369.089	208.31
369.315	209.31
369.541	203.31
369.767	190.31
369.993	192.31
370.219	196.31
370.445	208.31
370.672	209.31
370.898	186.31
371.124	185.31
371.35	192.31
371.576	206.31
371.802	192.31
372.028	197.31
372.254	208.31
372.48	190.31
372.706	185.31
372.932	202.31
373.158	207.31
373.384	192.31
373.61	219.31
373.835	204.31
374.061	206.31
374.287	218.31
374.513	210.31
374.739	200.31
374.965	199.31
375.191	199.31
375.416	206.31
375.642	193.31
375.868	205.31
376.094	203.31
376.319	218.31
376.545	223.31
376.771	207.31
376.997	196.31
377.222	198.31
377.448	209.31
377.674	206.31
377.899	217.31
378.125	207.31
378.35	188.31
378.576	201.31
378.802	184.31
379.027	213.31
379.253	217.31
379.478	197.31
379.704	201.31
379.929	202.31
380.155	189.31
380.38	183.31
380.606	190.31
380.831	200.31
381.057	200.31
381.282	204.31
381.507	207.31
381.733	212.31
381.958	198.31
382.184	198.31
382.409	215.31
382.634	211.31
382.86	217.31
383.085	213.31
383.31	197.31
383.535	212.31
383.761	205.31
383.986	212.31
384.211	211.31
384.436	205.31
384.662	217.31
384.887	212.31
385.112	203.31
385.337	223.31
385.562	211.31
385.787	223.31
386.013	221.31
386.238	214.31
386.463	219.31
386.688	219.31
386.913	219.31
387.138	212.31
387.363	191.31
387.588	195.31
387.813	226.31
388.038	210.31
388.263	218.31
388.488	227.31
388.713	215.31
388.938	212.31
389.163	210.31
389.387	212.31
389.612	218.31
389.837	223.31
390.062	221.31
390.287	210.31
390.512	237.31
390.736	216.31
390.961	229.31
391.186	212.31
391.411	221.31
391.636	213.31
391.86	214.31
392.085	232.31
392.31	210.31
392.534	228.31
392.759	238.31
392.984	194.31
393.208	229.31
393.433	228.31
393.658	236.31
393.882	213.31
394.107	215.31
394.331	208.31
394.556	222.31
394.78	224.31
395.005	217.31
395.229	204.31
395.454	229.31
395.678	221.31
395.903	233.31
396.127	230.31
396.352	226.31
396.576	236.31
396.801	225.31
397.025	222.31
397.249	219.31
397.474	229.31
397.698	228.31
397.922	252.31
398.147	231.31
398.371	220.31
398.595	237.31
398.82	236.31
399.044	236.31
399.268	266.31
399.492	278.31
399.717	262.31
399.941	296.31
400.165	292.31
400.389	282.31
400.613	272.31
400.837	259.31
401.062	258.31
401.286	246.31
401.51	253.31
401.734	241.31
401.958	255.31
402.182	237.31
402.406	262.31
402.63	254.31
402.854	247.31
403.078	245.31
403.302	246.31
403.526	261.31
403.75	241.31
403.974	246.31
404.198	260.31
404.422	264.31
404.645	268.31
404.869	250.31
405.093	279.31
405.317	283.31
405.541	292.31
405.765	262.31
405.988	272.31
406.212	270.31
406.436	305.31
406.66	297.31
406.883	271.31
407.107	292.31
407.331	302.31
407.555	329.31
407.778	330.31
408.002	291.31
408.226	274.31
408.449	255.31
408.673	281.31
408.896	271.31
409.12	298.31
409.344	293.31
409.567	281.31
409.791	246.31
410.014	248.31
410.238	245.31
410.461	233.31
410.685	261.31
410.908	259.31
411.132	272.31
411.355	295.31
411.578	269.31
411.802	251.31
412.025	245.31
412.249	248.31
412.472	277.31
412.695	268.31
412.919	287.31
413.142	256.31
413.365	244.31
413.589	236.31
413.812	258.31
414.035	232.31
414.258	241.31
414.482	252.31
414.705	246.31
414.928	242.31
415.151	250.31
415.374	243.31
415.597	264.31
415.821	255.31
416.044	245.31
416.267	247.31
416.49	250.31
416.713	243.31
416.936	266.31
417.159	266.31
417.382	245.31
417.605	262.31
417.828	252.31
418.051	273.31
418.274	247.31
418.497	268.31
418.72	234.31
418.943	228.31
419.166	252.31
419.389	269.31
419.611	258.31
419.834	253.31
420.057	255.31
420.28	245.31
420.503	246.31
420.726	264.31
420.948	270.31
421.171	279.31
421.394	292.31
421.617	255.31
421.839	247.31
422.062	256.31
422.285	253.31
422.507	278.31
422.73	319.31
422.953	312.31
423.175	269.31
423.398	257.31
423.621	275.31
423.843	253.31
424.066	286.31
424.288	268.31
424.511	270.31
424.733	304.31
424.956	322.31
425.178	330.31
425.401	310.31
425.623	331.31
425.846	278.31
426.068	267.31
426.291	252.31
426.513	272.31
426.735	296.31
426.958	289.31
427.18	326.31
427.402	382.31
427.625	412.31
427.847	368.31
428.069	328.31
428.292	269.31
428.514	273.31
428.736	249.31
428.958	245.31
429.181	234.31
429.403	229.31
429.625	249.31
429.847	260.31
430.069	295.31
430.292	281.31
430.514	242.31
430.736	252.31
430.958	232.31
431.18	237.31
431.402	233.31
431.624	234.31
431.846	226.31
432.068	245.31
432.29	250.31
432.512	246.31
432.734	225.31
432.956	240.31
433.178	255.31
433.4	254.31
433.622	247.31
433.844	245.31
434.066	250.31
434.287	247.31
434.509	247.31
434.731	253.31
434.953	252.31
435.175	257.31
435.397	279.31
435.618	280.31
435.84	282.31
436.062	319.31
436.284	348.31
436.505	295.31
436.727	268.31
436.949	269.31
437.17	257.31
437.392	247.31
437.614	247.31
437.835	278.31
438.057	311.31
438.278	353.31
438.5	334.31
438.721	357.31
438.943	340.31
439.165	291.31
439.386	282.31
439.608	276.31
439.829	252.31
440.05	293.31
440.272	299.31
440.493	286.31
440.715	276.31
440.936	266.31
441.158	238.31
441.379	244.31
441.6	239.31
441.822	283.31
442.043	291.31
442.264	328.31
442.486	321.31
442.707	298.31
442.928	271.31
443.149	280.31
443.371	306.31
443.592	317.31
443.813	338.31
444.034	361.31
444.255	303.31
444.476	266.31
444.698	268.31
444.919	268.31
445.14	356.31
445.361	312.31
445.582	282.31
445.803	324.31
446.024	380.31
446.245	365.31
446.466	338.31
446.687	285.31
446.908	283.31
447.129	252.31
447.35	235.31
447.571	245.31
447.792	240.31
448.013	248.31
448.234	238.31
448.455	266.31
448.675	323.31
448.896	361.31
449.117	292.31
449.338	300.31
449.559	350.31
449.779	376.31
450	326.31
450.221	266.31
450.442	241.31
450.662	236.31
450.883	253.31
451.104	256.31
451.324	246.31
451.545	233.31
451.766	247.31
451.986	246.31
452.207	223.31
452.428	226.31
452.648	230.31
452.869	233.31
453.089	222.31
453.31	230.31
453.53	235.31
453.751	237.31
453.971	238.31
454.192	219.31
454.412	230.31
454.633	212.31
454.853	230.31
455.073	218.31
455.294	240.31
455.514	249.31
455.734	261.31
455.955	223.31
456.175	235.31
456.395	216.31
456.616	223.31
456.836	217.31
457.056	219.31
457.276	209.31
457.497	212.31
457.717	225.31
457.937	217.31
458.157	226.31
458.377	240.31
458.598	238.31
458.818	279.31
459.038	297.31
459.258	294.31
459.478	253.31
459.698	234.31
459.918	239.31
460.138	252.31
460.358	239.31
460.578	248.31
460.798	235.31
461.018	258.31
461.238	235.31
461.458	224.31
461.678	229.31
461.898	232.31
462.118	236.31
462.338	244.31
462.558	254.31
462.777	264.31
462.997	260.31
463.217	250.31
463.437	271.31
463.657	253.31
463.876	239.31
464.096	252.31
464.316	259.31
464.536	270.31
464.755	254.31
464.975	246.31
465.195	288.31
465.414	337.31
465.634	275.31
465.854	252.31
466.073	267.31
466.293	230.31
466.512	248.31
466.732	237.31
466.951	229.31
467.171	230.31
467.391	238.31
467.61	222.31
467.829	235.31
468.049	246.31
468.268	240.31
468.488	222.31
468.707	230.31
468.927	236.31
469.146	227.31
469.365	220.31
469.585	231.31
469.804	238.31
470.023	244.31
470.243	232.31
470.462	251.31
470.681	242.31
470.901	251.31
471.12	235.31
471.339	226.31
471.558	241.31
471.777	231.31
471.997	223.31
472.216	242.31
472.435	250.31
472.654	260.31
472.873	229.31
473.092	237.31
473.311	224.31
473.53	224.31
473.749	246.31
473.968	258.31
474.187	322.31
474.406	300.31
474.625	268.31
474.844	240.31
475.063	232.31
475.282	223.31
475.501	229.31
475.72	224.31
475.939	248.31
476.158	237.31
476.377	248.31
476.596	247.31
476.814	255.31
477.033	241.31
477.252	264.31
477.471	258.31
477.69	251.31
477.908	231.31
478.127	250.31
478.346	242.31
478.564	264.31
478.783	249.31
479.002	260.31
479.22	262.31
479.439	280.31
479.658	273.31
479.876	280.31
480.095	278.31
480.313	313.31
480.532	300.31
480.751	280.31
480.969	283.31
481.188	334.31
481.406	361.31
481.624	301.31
481.843	273.31
482.061	265.31
482.28	277.31
482.498	264.31
482.717	258.31
482.935	291.31
483.153	278.31
483.372	281.31
483.59	263.31
483.808	271.31
484.027	270.31
484.245	272.31
484.463	268.31
484.681	282.31
484.9	279.31
485.118	280.31
485.336	278.31
485.554	273.31
485.772	256.31
485.99	271.31
486.209	283.31
486.427	286.31
486.645	271.31
486.863	296.31
487.081	284.31
487.299	282.31
487.517	282.31
487.735	282.31
487.953	286.31
488.171	297.31
488.389	292.31
488.607	303.31
488.825	289.31
489.043	280.31
489.261	294.31
489.479	280.31
489.696	292.31
489.914	288.31
490.132	274.31
490.35	317.31
490.568	306.31
490.786	317.31
491.003	339.31
491.221	317.31
491.439	311.31
491.657	312.31
491.874	320.31
492.092	344.31
492.31	342.31
492.527	333.31
492.745	318.31
492.963	331.31
493.18	333.31
493.398	339.31
493.615	334.31
493.833	335.31
494.05	339.31
494.268	332.31
494.485	358.31
494.703	337.31
494.92	360.31
495.138	331.31
495.355	331.31
495.573	338.31
495.79	341.31
496.008	320.31
496.225	350.31
496.442	330.31
496.66	331.31
496.877	313.31
497.094	326.31
497.312	343.31
497.529	348.31
497.746	341.31
497.963	354.31
498.181	344.31
498.398	345.31
498.615	352.31
498.832	359.31
499.049	358.31
499.267	388.31
499.484	359.31
499.701	394.31
499.918	397.31
500.135	423.31
500.352	441.31
500.569	447.31
500.786	445.31
501.003	441.31
501.22	429.31
501.437	422.31
501.654	409.31
501.871	416.31
502.088	401.31
502.305	368.31
502.522	354.31
