Data from 1966.PennyLincolnUp.Lamp.En5.5.200Scan.071719.P1.Scan2.head_HRD10591_14-17-06-082.txt Node
Date: Thu Jul 18 14:17:06 EDT 2019
User: cochatt
Spectrometer: HR+D1059
Trigger mode: 1
Integration Time (sec): 1.000000E-1
Scans to average: 1
Electric dark correction enabled: true
Nonlinearity correction enabled: false
Boxcar width: 0
XAxis mode: Wavelengths
Number of Pixels in Spectrum: 2048
>>>>>Begin Spectral Data<<<<<
223.165	-13.38
223.4	-13.38
223.635	-13.38
223.869	-7.38
224.104	-15.38
224.338	-11.38
224.573	-16.38
224.808	-5.38
225.042	-5.38
225.277	-6.38
225.511	-5.38
225.746	12.62
225.98	1.62
226.215	10.62
226.449	2.62
226.683	7.62
226.918	24.62
227.152	26.62
227.387	28.62
227.621	39.62
227.856	34.62
228.09	38.62
228.324	47.62
228.559	60.62
228.793	63.62
229.027	87.62
229.262	100.62
229.496	108.62
229.73	131.62
229.964	147.62
230.199	134.62
230.433	100.62
230.667	99.62
230.901	120.62
231.136	114.62
231.37	99.62
231.604	130.62
231.838	119.62
232.072	103.62
232.306	122.62
232.541	92.62
232.775	116.62
233.009	124.62
233.243	96.62
233.477	118.62
233.711	112.62
233.945	123.62
234.179	107.62
234.413	121.62
234.647	116.62
234.881	109.62
235.115	107.62
235.349	120.62
235.583	97.62
235.817	104.62
236.051	132.62
236.285	114.62
236.519	134.62
236.753	129.62
236.987	144.62
237.221	188.62
237.455	220.62
237.689	176.62
237.922	146.62
238.156	128.62
238.39	122.62
238.624	121.62
238.858	107.62
239.091	122.62
239.325	120.62
239.559	120.62
239.793	114.62
240.027	134.62
240.26	135.62
240.494	162.62
240.728	151.62
240.961	143.62
241.195	132.62
241.429	132.62
241.662	126.62
241.896	140.62
242.13	129.62
242.363	124.62
242.597	134.62
242.83	131.62
243.064	127.62
243.298	143.62
243.531	133.62
243.765	148.62
243.998	138.62
244.232	138.62
244.465	148.62
244.699	137.62
244.932	141.62
245.166	133.62
245.399	160.62
245.633	138.62
245.866	149.62
246.099	154.62
246.333	159.62
246.566	152.62
246.8	150.62
247.033	151.62
247.266	147.62
247.5	163.62
247.733	173.62
247.966	170.62
248.2	166.62
248.433	164.62
248.666	166.62
248.899	186.62
249.133	186.62
249.366	185.62
249.599	182.62
249.832	176.62
250.066	184.62
250.299	185.62
250.532	179.62
250.765	200.62
250.998	212.62
251.231	224.62
251.465	208.62
251.698	193.62
251.931	170.62
252.164	172.62
252.397	193.62
252.63	180.62
252.863	192.62
253.096	205.62
253.329	230.62
253.562	226.62
253.795	202.62
254.028	224.62
254.261	200.62
254.494	213.62
254.727	230.62
254.96	266.62
255.193	262.62
255.426	251.62
255.659	231.62
255.892	229.62
256.124	224.62
256.357	226.62
256.59	215.62
256.823	208.62
257.056	200.62
257.289	213.62
257.521	198.62
257.754	195.62
257.987	196.62
258.22	216.62
258.452	198.62
258.685	201.62
258.918	205.62
259.151	208.62
259.383	213.62
259.616	196.62
259.849	218.62
260.081	212.62
260.314	230.62
260.547	250.62
260.779	233.62
261.012	227.62
261.244	234.62
261.477	220.62
261.71	215.62
261.942	214.62
262.175	221.62
262.407	224.62
262.64	199.62
262.872	222.62
263.105	208.62
263.337	202.62
263.57	194.62
263.802	195.62
264.035	199.62
264.267	210.62
264.499	209.62
264.732	226.62
264.964	202.62
265.197	206.62
265.429	213.62
265.661	199.62
265.894	220.62
266.126	207.62
266.358	216.62
266.591	212.62
266.823	223.62
267.055	215.62
267.287	232.62
267.52	222.62
267.752	213.62
267.984	204.62
268.216	226.62
268.448	243.62
268.681	230.62
268.913	234.62
269.145	250.62
269.377	271.62
269.609	240.62
269.841	260.62
270.073	257.62
270.306	266.62
270.538	289.62
270.77	297.62
271.002	279.62
271.234	270.62
271.466	289.62
271.698	295.62
271.93	284.62
272.162	294.62
272.394	306.62
272.626	295.62
272.858	266.62
273.09	282.62
273.322	259.62
273.553	251.62
273.785	245.62
274.017	254.62
274.249	270.62
274.481	260.62
274.713	261.62
274.945	253.62
275.176	261.62
275.408	262.62
275.64	248.62
275.872	275.62
276.104	264.62
276.335	258.62
276.567	258.62
276.799	275.62
277.031	272.62
277.262	291.62
277.494	307.62
277.726	284.62
277.957	302.62
278.189	281.62
278.421	280.62
278.652	271.62
278.884	244.62
279.115	242.62
279.347	270.62
279.579	261.62
279.81	264.62
280.042	267.62
280.273	263.62
280.505	250.62
280.736	265.62
280.968	259.62
281.199	267.62
281.431	259.62
281.662	269.62
281.894	263.62
282.125	258.62
282.356	258.62
282.588	298.62
282.819	301.62
283.051	287.62
283.282	289.62
283.513	283.62
283.745	268.62
283.976	272.62
284.207	277.62
284.439	268.62
284.67	262.62
284.901	266.62
285.132	280.62
285.364	262.62
285.595	276.62
285.826	278.62
286.057	275.62
286.288	277.62
286.52	262.62
286.751	256.62
286.982	272.62
287.213	283.62
287.444	276.62
287.675	276.62
287.906	286.62
288.138	286.62
288.369	296.62
288.6	298.62
288.831	292.62
289.062	302.62
289.293	284.62
289.524	304.62
289.755	292.62
289.986	278.62
290.217	290.62
290.448	285.62
290.679	287.62
290.91	270.62
291.141	276.62
291.371	271.62
291.602	280.62
291.833	277.62
292.064	295.62
292.295	274.62
292.526	280.62
292.757	276.62
292.987	280.62
293.218	278.62
293.449	283.62
293.68	273.62
293.91	287.62
294.141	293.62
294.372	272.62
294.603	279.62
294.833	285.62
295.064	301.62
295.295	303.62
295.525	288.62
295.756	287.62
295.987	317.62
296.217	320.62
296.448	309.62
296.679	322.62
296.909	295.62
297.14	286.62
297.37	312.62
297.601	281.62
297.831	283.62
298.062	296.62
298.292	293.62
298.523	287.62
298.753	306.62
298.984	304.62
299.214	306.62
299.445	321.62
299.675	314.62
299.905	308.62
300.136	320.62
300.366	304.62
300.597	307.62
300.827	307.62
301.057	328.62
301.288	325.62
301.518	341.62
301.748	313.62
301.979	307.62
302.209	311.62
302.439	312.62
302.669	311.62
302.9	320.62
303.13	322.62
303.36	312.62
303.59	329.62
303.82	319.62
304.051	327.62
304.281	315.62
304.511	323.62
304.741	300.62
304.971	328.62
305.201	319.62
305.431	318.62
305.661	325.62
305.891	326.62
306.121	342.62
306.352	322.62
306.582	327.62
306.812	323.62
307.042	322.62
307.272	329.62
307.502	322.62
307.731	326.62
307.961	318.62
308.191	328.62
308.421	333.62
308.651	327.62
308.881	343.62
309.111	328.62
309.341	334.62
309.571	341.62
309.8	335.62
310.03	334.62
310.26	363.62
310.49	361.62
310.72	370.62
310.949	365.62
311.179	370.62
311.409	381.62
311.639	357.62
311.868	347.62
312.098	343.62
312.328	364.62
312.557	380.62
312.787	390.62
313.017	365.62
313.246	376.62
313.476	370.62
313.706	367.62
313.935	376.62
314.165	380.62
314.394	375.62
314.624	377.62
314.853	358.62
315.083	360.62
315.312	368.62
315.542	377.62
315.771	368.62
316.001	382.62
316.23	361.62
316.46	377.62
316.689	378.62
316.919	361.62
317.148	362.62
317.377	380.62
317.607	384.62
317.836	370.62
318.065	368.62
318.295	352.62
318.524	365.62
318.753	350.62
318.983	372.62
319.212	380.62
319.441	382.62
319.67	390.62
319.9	352.62
320.129	378.62
320.358	364.62
320.587	358.62
320.816	376.62
321.046	376.62
321.275	383.62
321.504	410.62
321.733	382.62
321.962	388.62
322.191	409.62
322.42	412.62
322.649	419.62
322.878	404.62
323.108	432.62
323.337	459.62
323.566	462.62
323.795	484.62
324.024	514.62
324.253	594.62
324.482	820.62
324.71	1300.62
324.939	1927.62
325.168	1662.62
325.397	825.62
325.626	570.62
325.855	502.62
326.084	465.62
326.313	461.62
326.542	467.62
326.77	486.62
326.999	577.62
327.228	770.62
327.457	1166.62
327.686	1433.62
327.914	939.62
328.143	640.62
328.372	573.62
328.6	518.62
328.829	510.62
329.058	536.62
329.287	552.62
329.515	510.62
329.744	475.62
329.972	470.62
330.201	481.62
330.43	531.62
330.658	551.62
330.887	538.62
331.115	534.62
331.344	478.62
331.572	471.62
331.801	480.62
332.03	453.62
332.258	468.62
332.486	434.62
332.715	413.62
332.943	427.62
333.172	452.62
333.4	448.62
333.629	463.62
333.857	476.62
334.085	474.62
334.314	499.62
334.542	550.62
334.771	538.62
334.999	516.62
335.227	470.62
335.455	444.62
335.684	433.62
335.912	448.62
336.14	436.62
336.369	475.62
336.597	452.62
336.825	458.62
337.053	442.62
337.281	429.62
337.51	420.62
337.738	423.62
337.966	422.62
338.194	448.62
338.422	454.62
338.65	452.62
338.878	438.62
339.106	416.62
339.334	421.62
339.562	446.62
339.79	415.62
340.018	423.62
340.246	420.62
340.474	408.62
340.702	440.62
340.93	432.62
341.158	412.62
341.386	430.62
341.614	414.62
341.842	441.62
342.07	427.62
342.298	399.62
342.526	407.62
342.754	423.62
342.981	435.62
343.209	425.62
343.437	444.62
343.665	431.62
343.893	440.62
344.12	450.62
344.348	460.62
344.576	446.62
344.804	454.62
345.031	460.62
345.259	435.62
345.487	451.62
345.714	413.62
345.942	434.62
346.17	407.62
346.397	418.62
346.625	431.62
346.853	429.62
347.08	415.62
347.308	415.62
347.535	423.62
347.763	446.62
347.99	420.62
348.218	422.62
348.445	434.62
348.673	430.62
348.9	431.62
349.128	415.62
349.355	391.62
349.583	404.62
349.81	397.62
350.037	394.62
350.265	401.62
350.492	404.62
350.72	398.62
350.947	414.62
351.174	416.62
351.402	436.62
351.629	444.62
351.856	423.62
352.083	418.62
352.311	414.62
352.538	425.62
352.765	416.62
352.992	413.62
353.22	412.62
353.447	405.62
353.674	417.62
353.901	418.62
354.128	398.62
354.355	398.62
354.583	402.62
354.81	397.62
355.037	395.62
355.264	380.62
355.491	389.62
355.718	391.62
355.945	383.62
356.172	392.62
356.399	407.62
356.626	391.62
356.853	392.62
357.08	389.62
357.307	399.62
357.534	367.62
357.761	410.62
357.988	392.62
358.215	419.62
358.441	396.62
358.668	396.62
358.895	395.62
359.122	412.62
359.349	418.62
359.576	424.62
359.802	450.62
360.029	463.62
360.256	461.62
360.483	452.62
360.709	410.62
360.936	423.62
361.163	393.62
361.39	431.62
361.616	431.62
361.843	411.62
362.07	424.62
362.296	452.62
362.523	412.62
362.749	412.62
362.976	427.62
363.203	431.62
363.429	395.62
363.656	396.62
363.882	410.62
364.109	418.62
364.335	414.62
364.562	410.62
364.788	404.62
365.015	406.62
365.241	414.62
365.468	415.62
365.694	422.62
365.92	419.62
366.147	400.62
366.373	416.62
366.599	392.62
366.826	404.62
367.052	405.62
367.278	418.62
367.505	413.62
367.731	430.62
367.957	414.62
368.184	419.62
368.41	420.62
368.636	414.62
368.862	409.62
369.089	433.62
369.315	415.62
369.541	413.62
369.767	434.62
369.993	418.62
370.219	412.62
370.445	428.62
370.672	428.62
370.898	415.62
371.124	426.62
371.35	430.62
371.576	422.62
371.802	427.62
372.028	410.62
372.254	417.62
372.48	408.62
372.706	436.62
372.932	452.62
373.158	429.62
373.384	416.62
373.61	426.62
373.835	425.62
374.061	445.62
374.287	426.62
374.513	422.62
374.739	420.62
374.965	416.62
375.191	441.62
375.416	430.62
375.642	430.62
375.868	424.62
376.094	422.62
376.319	411.62
376.545	414.62
376.771	429.62
376.997	434.62
377.222	434.62
377.448	432.62
377.674	442.62
377.899	410.62
378.125	425.62
378.35	409.62
378.576	405.62
378.802	421.62
379.027	428.62
379.253	410.62
379.478	412.62
379.704	426.62
379.929	446.62
380.155	415.62
380.38	420.62
380.606	422.62
380.831	428.62
381.057	420.62
381.282	409.62
381.507	447.62
381.733	430.62
381.958	425.62
382.184	431.62
382.409	441.62
382.634	418.62
382.86	447.62
383.085	440.62
383.31	442.62
383.535	459.62
383.761	448.62
383.986	442.62
384.211	441.62
384.436	464.62
384.662	457.62
384.887	461.62
385.112	448.62
385.337	458.62
385.562	474.62
385.787	448.62
386.013	494.62
386.238	468.62
386.463	475.62
386.688	473.62
386.913	477.62
387.138	474.62
387.363	459.62
387.588	469.62
387.813	457.62
388.038	467.62
388.263	470.62
388.488	498.62
388.713	474.62
388.938	490.62
389.163	483.62
389.387	467.62
389.612	464.62
389.837	463.62
390.062	456.62
390.287	461.62
390.512	472.62
390.736	480.62
390.961	472.62
391.186	475.62
391.411	479.62
391.636	485.62
391.86	491.62
392.085	484.62
392.31	496.62
392.534	497.62
392.759	495.62
392.984	486.62
393.208	486.62
393.433	491.62
393.658	487.62
393.882	468.62
394.107	483.62
394.331	463.62
394.556	482.62
394.78	494.62
395.005	493.62
395.229	479.62
395.454	502.62
395.678	484.62
395.903	516.62
396.127	504.62
396.352	534.62
396.576	491.62
396.801	518.62
397.025	533.62
397.249	523.62
397.474	526.62
397.698	487.62
397.922	516.62
398.147	521.62
398.371	522.62
398.595	546.62
398.82	543.62
399.044	557.62
399.268	588.62
399.492	614.62
399.717	654.62
399.941	676.62
400.165	678.62
400.389	675.62
400.613	614.62
400.837	588.62
401.062	572.62
401.286	581.62
401.51	559.62
401.734	568.62
401.958	543.62
402.182	542.62
402.406	582.62
402.63	566.62
402.854	578.62
403.078	574.62
403.302	575.62
403.526	611.62
403.75	574.62
403.974	555.62
404.198	552.62
404.422	569.62
404.645	558.62
404.869	588.62
405.093	609.62
405.317	654.62
405.541	678.62
405.765	632.62
405.988	625.62
406.212	598.62
406.436	618.62
406.66	638.62
406.883	628.62
407.107	638.62
407.331	683.62
407.555	741.62
407.778	747.62
408.002	700.62
408.226	669.62
408.449	623.62
408.673	605.62
408.896	674.62
409.12	717.62
409.344	657.62
409.567	580.62
409.791	589.62
410.014	578.62
410.238	589.62
410.461	598.62
410.685	578.62
410.908	609.62
411.132	607.62
411.355	606.62
411.578	617.62
411.802	594.62
412.025	589.62
412.249	584.62
412.472	608.62
412.695	621.62
412.919	626.62
413.142	586.62
413.365	597.62
413.589	551.62
413.812	552.62
414.035	558.62
414.258	560.62
414.482	538.62
414.705	550.62
414.928	552.62
415.151	537.62
415.374	539.62
415.597	534.62
415.821	550.62
416.044	551.62
416.267	547.62
416.49	534.62
416.713	536.62
416.936	538.62
417.159	533.62
417.382	549.62
417.605	553.62
417.828	560.62
418.051	560.62
418.274	552.62
418.497	551.62
418.72	542.62
418.943	528.62
419.166	573.62
419.389	603.62
419.611	595.62
419.834	583.62
420.057	586.62
420.28	572.62
420.503	587.62
420.726	559.62
420.948	573.62
421.171	629.62
421.394	644.62
421.617	582.62
421.839	540.62
422.062	565.62
422.285	592.62
422.507	640.62
422.73	708.62
422.953	687.62
423.175	618.62
423.398	588.62
423.621	564.62
423.843	597.62
424.066	598.62
424.288	603.62
424.511	626.62
424.733	652.62
424.956	754.62
425.178	743.62
425.401	716.62
425.623	732.62
425.846	632.62
426.068	611.62
426.291	591.62
426.513	602.62
426.735	605.62
426.958	638.62
427.18	722.62
427.402	872.62
427.625	958.62
427.847	816.62
428.069	701.62
428.292	644.62
428.514	592.62
428.736	582.62
428.958	567.62
429.181	550.62
429.403	557.62
429.625	564.62
429.847	578.62
430.069	692.62
430.292	648.62
430.514	584.62
430.736	552.62
430.958	548.62
431.18	550.62
431.402	554.62
431.624	512.62
431.846	532.62
432.068	522.62
432.29	526.62
432.512	543.62
432.734	542.62
432.956	554.62
433.178	548.62
433.4	555.62
433.622	545.62
433.844	539.62
434.066	542.62
434.287	526.62
434.509	546.62
434.731	555.62
434.953	574.62
435.175	555.62
435.397	605.62
435.618	606.62
435.84	634.62
436.062	723.62
436.284	807.62
436.505	661.62
436.727	617.62
436.949	602.62
437.17	586.62
437.392	550.62
437.614	590.62
437.835	606.62
438.057	706.62
438.278	798.62
438.5	780.62
438.721	874.62
438.943	844.62
439.165	670.62
439.386	619.62
439.608	602.62
439.829	600.62
440.05	600.62
440.272	674.62
440.493	621.62
440.715	587.62
440.936	586.62
441.158	548.62
441.379	569.62
441.6	577.62
441.822	600.62
442.043	645.62
442.264	730.62
442.486	738.62
442.707	668.62
442.928	640.62
443.149	619.62
443.371	635.62
443.592	665.62
443.813	745.62
444.034	852.62
444.255	692.62
444.476	644.62
444.698	630.62
444.919	615.62
445.14	710.62
445.361	662.62
445.582	649.62
445.803	699.62
446.024	809.62
446.245	795.62
446.466	740.62
446.687	630.62
446.908	609.62
447.129	574.62
447.35	557.62
447.571	552.62
447.792	532.62
448.013	543.62
448.234	570.62
448.455	622.62
448.675	717.62
448.896	856.62
449.117	717.62
449.338	670.62
449.559	806.62
449.779	919.62
450	728.62
450.221	595.62
450.442	580.62
450.662	526.62
450.883	529.62
451.104	548.62
451.324	540.62
451.545	524.62
451.766	498.62
451.986	502.62
452.207	500.62
452.428	510.62
452.648	505.62
452.869	493.62
453.089	501.62
453.31	518.62
453.53	506.62
453.751	488.62
453.971	482.62
454.192	516.62
454.412	501.62
454.633	493.62
454.853	501.62
455.073	494.62
455.294	516.62
455.514	566.62
455.734	567.62
455.955	511.62
456.175	479.62
456.395	442.62
456.616	471.62
456.836	463.62
457.056	495.62
457.276	463.62
457.497	482.62
457.717	469.62
457.937	491.62
458.157	481.62
458.377	498.62
458.598	499.62
458.818	578.62
459.038	626.62
459.258	650.62
459.478	579.62
459.698	542.62
459.918	552.62
460.138	540.62
460.358	543.62
460.578	537.62
460.798	542.62
461.018	554.62
461.238	572.62
461.458	552.62
461.678	544.62
461.898	550.62
462.118	578.62
462.338	563.62
462.558	575.62
462.777	569.62
462.997	601.62
463.217	612.62
463.437	612.62
463.657	615.62
463.876	580.62
464.096	574.62
464.316	580.62
464.536	610.62
464.755	607.62
464.975	588.62
465.195	607.62
465.414	664.62
465.634	616.62
465.854	591.62
466.073	592.62
466.293	553.62
466.512	527.62
466.732	501.62
466.951	518.62
467.171	514.62
467.391	527.62
467.61	519.62
467.829	535.62
468.049	530.62
468.268	514.62
468.488	505.62
468.707	501.62
468.927	483.62
469.146	492.62
469.365	516.62
469.585	496.62
469.804	498.62
470.023	526.62
470.243	516.62
470.462	544.62
470.681	543.62
470.901	541.62
471.12	532.62
471.339	519.62
471.558	514.62
471.777	515.62
471.997	505.62
472.216	498.62
472.435	542.62
472.654	528.62
472.873	517.62
473.092	506.62
473.311	523.62
473.53	519.62
473.749	533.62
473.968	562.62
474.187	676.62
474.406	694.62
474.625	581.62
474.844	527.62
475.063	549.62
475.282	531.62
475.501	534.62
475.72	543.62
475.939	548.62
476.158	534.62
476.377	534.62
476.596	542.62
476.814	570.62
477.033	584.62
477.252	558.62
477.471	577.62
477.69	573.62
477.908	567.62
478.127	556.62
478.346	568.62
478.564	579.62
478.783	579.62
479.002	599.62
479.22	590.62
479.439	615.62
479.658	628.62
479.876	646.62
480.095	614.62
480.313	667.62
480.532	675.62
480.751	663.62
480.969	646.62
481.188	698.62
481.406	738.62
481.624	648.62
481.843	640.62
482.061	630.62
482.28	633.62
482.498	619.62
482.717	616.62
482.935	624.62
483.153	617.62
483.372	624.62
483.59	619.62
483.808	620.62
484.027	620.62
484.245	615.62
484.463	618.62
484.681	632.62
484.9	615.62
485.118	644.62
485.336	638.62
485.554	636.62
485.772	637.62
485.99	657.62
486.209	652.62
486.427	653.62
486.645	637.62
486.863	651.62
487.081	670.62
487.299	683.62
487.517	658.62
487.735	690.62
487.953	685.62
488.171	642.62
488.389	656.62
488.607	645.62
488.825	666.62
489.043	664.62
489.261	686.62
489.479	671.62
489.696	659.62
489.914	661.62
490.132	686.62
490.35	677.62
490.568	711.62
490.786	710.62
491.003	700.62
491.221	701.62
491.439	729.62
491.657	736.62
491.874	738.62
492.092	740.62
492.31	751.62
492.527	732.62
492.745	739.62
492.963	773.62
493.18	768.62
493.398	776.62
493.615	763.62
493.833	768.62
494.05	761.62
494.268	778.62
494.485	798.62
494.703	781.62
494.92	764.62
495.138	759.62
495.355	770.62
495.573	802.62
495.79	793.62
496.008	795.62
496.225	784.62
496.442	744.62
496.66	791.62
496.877	773.62
497.094	781.62
497.312	791.62
497.529	792.62
497.746	812.62
497.963	834.62
498.181	856.62
498.398	856.62
498.615	839.62
498.832	894.62
499.049	934.62
499.267	955.62
499.484	968.62
499.701	1030.62
499.918	1068.62
500.135	1086.62
500.352	1124.62
500.569	1149.62
500.786	1164.62
501.003	1170.62
501.22	1136.62
501.437	1070.62
501.654	1028.62
