Data from 1966.PennyLincolnUp.Lamp.En5.5.200Scan.071719.P1._HRD10591_14-14-33-916.txt Node
Date: Thu Jul 18 14:14:33 EDT 2019
User: cochatt
Spectrometer: HR+D1059
Trigger mode: 1
Integration Time (sec): 1.000000E-1
Scans to average: 1
Electric dark correction enabled: true
Nonlinearity correction enabled: false
Boxcar width: 0
XAxis mode: Wavelengths
Number of Pixels in Spectrum: 2048
>>>>>Begin Spectral Data<<<<<
223.165	-31.56
223.4	-31.56
223.635	-31.56
223.869	-19.56
224.104	-14.56
224.338	-20.56
224.573	-5.56
224.808	-6.56
225.042	-0.56
225.277	-3.56
225.511	1.44
225.746	4.44
225.98	8.44
226.215	12.44
226.449	14.44
226.683	13.44
226.918	21.44
227.152	26.44
227.387	30.44
227.621	41.44
227.856	45.44
228.09	38.44
228.324	43.44
228.559	63.44
228.793	66.44
229.027	83.44
229.262	96.44
229.496	95.44
229.73	107.44
229.964	118.44
230.199	94.44
230.433	91.44
230.667	87.44
230.901	99.44
231.136	89.44
231.37	80.44
231.604	104.44
231.838	92.44
232.072	103.44
232.306	90.44
232.541	97.44
232.775	96.44
233.009	81.44
233.243	92.44
233.477	92.44
233.711	97.44
233.945	89.44
234.179	116.44
234.413	88.44
234.647	100.44
234.881	99.44
235.115	86.44
235.349	102.44
235.583	107.44
235.817	96.44
236.051	103.44
236.285	117.44
236.519	104.44
236.753	105.44
236.987	95.44
237.221	127.44
237.455	154.44
237.689	112.44
237.922	97.44
238.156	98.44
238.39	109.44
238.624	82.44
238.858	95.44
239.091	101.44
239.325	96.44
239.559	104.44
239.793	92.44
240.027	88.44
240.26	86.44
240.494	117.44
240.728	109.44
240.961	114.44
241.195	101.44
241.429	103.44
241.662	112.44
241.896	109.44
242.13	88.44
242.363	96.44
242.597	98.44
242.83	102.44
243.064	109.44
243.298	105.44
243.531	105.44
243.765	92.44
243.998	94.44
244.232	113.44
244.465	108.44
244.699	113.44
244.932	103.44
245.166	114.44
245.399	112.44
245.633	94.44
245.866	119.44
246.099	108.44
246.333	113.44
246.566	99.44
246.8	118.44
247.033	101.44
247.266	106.44
247.5	118.44
247.733	101.44
247.966	118.44
248.2	116.44
248.433	122.44
248.666	120.44
248.899	125.44
249.133	128.44
249.366	142.44
249.599	132.44
249.832	126.44
250.066	120.44
250.299	113.44
250.532	109.44
250.765	132.44
250.998	153.44
251.231	146.44
251.465	141.44
251.698	136.44
251.931	134.44
252.164	137.44
252.397	121.44
252.63	126.44
252.863	129.44
253.096	141.44
253.329	148.44
253.562	148.44
253.795	152.44
254.028	136.44
254.261	136.44
254.494	139.44
254.727	173.44
254.96	185.44
255.193	172.44
255.426	165.44
255.659	148.44
255.892	156.44
256.124	157.44
256.357	149.44
256.59	147.44
256.823	145.44
257.056	135.44
257.289	139.44
257.521	138.44
257.754	143.44
257.987	131.44
258.22	139.44
258.452	137.44
258.685	122.44
258.918	131.44
259.151	137.44
259.383	127.44
259.616	147.44
259.849	144.44
260.081	136.44
260.314	146.44
260.547	158.44
260.779	152.44
261.012	148.44
261.244	146.44
261.477	150.44
261.71	142.44
261.942	136.44
262.175	153.44
262.407	146.44
262.64	137.44
262.872	143.44
263.105	129.44
263.337	134.44
263.57	139.44
263.802	141.44
264.035	135.44
264.267	147.44
264.499	132.44
264.732	128.44
264.964	134.44
265.197	139.44
265.429	133.44
265.661	133.44
265.894	135.44
266.126	148.44
266.358	140.44
266.591	143.44
266.823	152.44
267.055	145.44
267.287	132.44
267.52	144.44
267.752	145.44
267.984	141.44
268.216	142.44
268.448	154.44
268.681	139.44
268.913	167.44
269.145	177.44
269.377	164.44
269.609	160.44
269.841	159.44
270.073	161.44
270.306	174.44
270.538	191.44
270.77	198.44
271.002	170.44
271.234	173.44
271.466	178.44
271.698	184.44
271.93	189.44
272.162	186.44
272.394	181.44
272.626	194.44
272.858	168.44
273.09	174.44
273.322	160.44
273.553	168.44
273.785	167.44
274.017	153.44
274.249	152.44
274.481	151.44
274.713	157.44
274.945	160.44
275.176	166.44
275.408	171.44
275.64	145.44
275.872	168.44
276.104	160.44
276.335	157.44
276.567	168.44
276.799	175.44
277.031	187.44
277.262	212.44
277.494	192.44
277.726	170.44
277.957	166.44
278.189	169.44
278.421	162.44
278.652	166.44
278.884	182.44
279.115	156.44
279.347	157.44
279.579	162.44
279.81	158.44
280.042	156.44
280.273	180.44
280.505	188.44
280.736	178.44
280.968	156.44
281.199	160.44
281.431	173.44
281.662	152.44
281.894	169.44
282.125	162.44
282.356	169.44
282.588	185.44
282.819	190.44
283.051	166.44
283.282	146.44
283.513	164.44
283.745	162.44
283.976	169.44
284.207	177.44
284.439	161.44
284.67	175.44
284.901	158.44
285.132	142.44
285.364	168.44
285.595	145.44
285.826	166.44
286.057	174.44
286.288	171.44
286.52	168.44
286.751	165.44
286.982	163.44
287.213	158.44
287.444	188.44
287.675	159.44
287.906	191.44
288.138	171.44
288.369	191.44
288.6	182.44
288.831	178.44
289.062	170.44
289.293	173.44
289.524	173.44
289.755	188.44
289.986	167.44
290.217	180.44
290.448	170.44
290.679	168.44
290.91	182.44
291.141	164.44
291.371	176.44
291.602	164.44
291.833	177.44
292.064	164.44
292.295	168.44
292.526	169.44
292.757	171.44
292.987	177.44
293.218	184.44
293.449	180.44
293.68	177.44
293.91	182.44
294.141	184.44
294.372	178.44
294.603	186.44
294.833	167.44
295.064	176.44
295.295	174.44
295.525	177.44
295.756	188.44
295.987	197.44
296.217	187.44
296.448	207.44
296.679	172.44
296.909	173.44
297.14	169.44
297.37	174.44
297.601	163.44
297.831	161.44
298.062	173.44
298.292	174.44
298.523	169.44
298.753	182.44
298.984	185.44
299.214	168.44
299.445	182.44
299.675	194.44
299.905	183.44
300.136	188.44
300.366	195.44
300.597	177.44
300.827	184.44
301.057	177.44
301.288	204.44
301.518	192.44
301.748	192.44
301.979	190.44
302.209	188.44
302.439	180.44
302.669	192.44
302.9	220.44
303.13	199.44
303.36	201.44
303.59	198.44
303.82	188.44
304.051	192.44
304.281	179.44
304.511	186.44
304.741	192.44
304.971	198.44
305.201	188.44
305.431	192.44
305.661	182.44
305.891	191.44
306.121	194.44
306.352	183.44
306.582	190.44
306.812	197.44
307.042	193.44
307.272	180.44
307.502	172.44
307.731	196.44
307.961	183.44
308.191	182.44
308.421	177.44
308.651	183.44
308.881	202.44
309.111	209.44
309.341	188.44
309.571	204.44
309.8	202.44
310.03	204.44
310.26	209.44
310.49	208.44
310.72	224.44
310.949	218.44
311.179	228.44
311.409	222.44
311.639	203.44
311.868	216.44
312.098	216.44
312.328	222.44
312.557	205.44
312.787	230.44
313.017	216.44
313.246	218.44
313.476	216.44
313.706	205.44
313.935	217.44
314.165	219.44
314.394	227.44
314.624	224.44
314.853	221.44
315.083	216.44
315.312	216.44
315.542	215.44
315.771	220.44
316.001	200.44
316.23	208.44
316.46	204.44
316.689	203.44
316.919	207.44
317.148	207.44
317.377	222.44
317.607	224.44
317.836	215.44
318.065	212.44
318.295	198.44
318.524	208.44
318.753	212.44
318.983	205.44
319.212	206.44
319.441	212.44
319.67	214.44
319.9	217.44
320.129	210.44
320.358	213.44
320.587	205.44
320.816	210.44
321.046	210.44
321.275	199.44
321.504	236.44
321.733	223.44
321.962	213.44
322.191	204.44
322.42	209.44
322.649	238.44
322.878	244.44
323.108	231.44
323.337	266.44
323.566	249.44
323.795	280.44
324.024	304.44
324.253	368.44
324.482	540.44
324.71	809.44
324.939	1058.44
325.168	851.44
325.397	448.44
325.626	313.44
325.855	276.44
326.084	276.44
326.313	275.44
326.542	277.44
326.77	296.44
326.999	344.44
327.228	449.44
327.457	697.44
327.686	803.44
327.914	516.44
328.143	366.44
328.372	333.44
328.6	302.44
328.829	302.44
329.058	315.44
329.287	326.44
329.515	317.44
329.744	285.44
329.972	274.44
330.201	294.44
330.43	312.44
330.658	337.44
330.887	339.44
331.115	332.44
331.344	288.44
331.572	270.44
331.801	252.44
332.03	249.44
332.258	266.44
332.486	254.44
332.715	233.44
332.943	250.44
333.172	259.44
333.4	260.44
333.629	270.44
333.857	269.44
334.085	291.44
334.314	292.44
334.542	310.44
334.771	314.44
334.999	288.44
335.227	254.44
335.455	241.44
335.684	238.44
335.912	250.44
336.14	248.44
336.369	246.44
336.597	250.44
336.825	233.44
337.053	240.44
337.281	235.44
337.51	223.44
337.738	249.44
337.966	230.44
338.194	235.44
338.422	238.44
338.65	235.44
338.878	233.44
339.106	244.44
339.334	230.44
339.562	237.44
339.79	235.44
340.018	230.44
340.246	238.44
340.474	223.44
340.702	209.44
340.93	242.44
341.158	246.44
341.386	230.44
341.614	245.44
341.842	235.44
342.07	223.44
342.298	233.44
342.526	224.44
342.754	222.44
342.981	219.44
343.209	222.44
343.437	208.44
343.665	229.44
343.893	230.44
344.12	223.44
344.348	230.44
344.576	246.44
344.804	237.44
345.031	236.44
345.259	241.44
345.487	231.44
345.714	234.44
345.942	222.44
346.17	222.44
346.397	222.44
346.625	218.44
346.853	212.44
347.08	239.44
347.308	244.44
347.535	244.44
347.763	228.44
347.99	216.44
348.218	200.44
348.445	217.44
348.673	218.44
348.9	219.44
349.128	225.44
349.355	206.44
349.583	220.44
349.81	213.44
350.037	215.44
350.265	202.44
350.492	213.44
350.72	226.44
350.947	223.44
351.174	230.44
351.402	214.44
351.629	221.44
351.856	220.44
352.083	226.44
352.311	233.44
352.538	234.44
352.765	222.44
352.992	244.44
353.22	230.44
353.447	221.44
353.674	229.44
353.901	214.44
354.128	199.44
354.355	206.44
354.583	224.44
354.81	198.44
355.037	225.44
355.264	215.44
355.491	223.44
355.718	193.44
355.945	198.44
356.172	201.44
356.399	200.44
356.626	204.44
356.853	210.44
357.08	211.44
357.307	210.44
357.534	196.44
357.761	207.44
357.988	207.44
358.215	219.44
358.441	200.44
358.668	210.44
358.895	209.44
359.122	202.44
359.349	210.44
359.576	232.44
359.802	232.44
360.029	246.44
360.256	244.44
360.483	254.44
360.709	218.44
360.936	236.44
361.163	228.44
361.39	237.44
361.616	234.44
361.843	231.44
362.07	229.44
362.296	220.44
362.523	217.44
362.749	223.44
362.976	225.44
363.203	213.44
363.429	206.44
363.656	214.44
363.882	221.44
364.109	219.44
364.335	217.44
364.562	212.44
364.788	213.44
365.015	210.44
365.241	219.44
365.468	219.44
365.694	225.44
365.92	238.44
366.147	220.44
366.373	218.44
366.599	205.44
366.826	210.44
367.052	214.44
367.278	203.44
367.505	214.44
367.731	200.44
367.957	215.44
368.184	202.44
368.41	215.44
368.636	211.44
368.862	233.44
369.089	220.44
369.315	214.44
369.541	208.44
369.767	214.44
369.993	225.44
370.219	212.44
370.445	189.44
370.672	219.44
370.898	220.44
371.124	213.44
371.35	210.44
371.576	202.44
371.802	209.44
372.028	214.44
372.254	205.44
372.48	193.44
372.706	215.44
372.932	211.44
373.158	201.44
373.384	208.44
373.61	220.44
373.835	227.44
374.061	211.44
374.287	205.44
374.513	236.44
374.739	227.44
374.965	222.44
375.191	224.44
375.416	216.44
375.642	220.44
375.868	201.44
376.094	214.44
376.319	207.44
376.545	209.44
376.771	223.44
376.997	205.44
377.222	196.44
377.448	205.44
377.674	219.44
377.899	202.44
378.125	199.44
378.35	207.44
378.576	200.44
378.802	194.44
379.027	193.44
379.253	222.44
379.478	216.44
379.704	202.44
379.929	223.44
380.155	204.44
380.38	206.44
380.606	207.44
380.831	201.44
381.057	217.44
381.282	204.44
381.507	218.44
381.733	228.44
381.958	222.44
382.184	210.44
382.409	219.44
382.634	216.44
382.86	205.44
383.085	208.44
383.31	186.44
383.535	215.44
383.761	213.44
383.986	217.44
384.211	218.44
384.436	233.44
384.662	231.44
384.887	223.44
385.112	211.44
385.337	221.44
385.562	228.44
385.787	230.44
386.013	229.44
386.238	236.44
386.463	244.44
386.688	231.44
386.913	223.44
387.138	216.44
387.363	235.44
387.588	217.44
387.813	227.44
388.038	223.44
388.263	226.44
388.488	224.44
388.713	219.44
388.938	231.44
389.163	219.44
389.387	224.44
389.612	209.44
389.837	214.44
390.062	229.44
390.287	207.44
390.512	232.44
390.736	226.44
390.961	207.44
391.186	224.44
391.411	221.44
391.636	231.44
391.86	220.44
392.085	214.44
392.31	224.44
392.534	223.44
392.759	238.44
392.984	231.44
393.208	229.44
393.433	249.44
393.658	220.44
393.882	223.44
394.107	210.44
394.331	217.44
394.556	225.44
394.78	233.44
395.005	241.44
395.229	227.44
395.454	234.44
395.678	244.44
395.903	238.44
396.127	234.44
396.352	221.44
396.576	245.44
396.801	219.44
397.025	241.44
397.249	234.44
397.474	226.44
397.698	246.44
397.922	234.44
398.147	264.44
398.371	240.44
398.595	235.44
398.82	235.44
399.044	257.44
399.268	253.44
399.492	288.44
399.717	291.44
399.941	301.44
400.165	311.44
400.389	289.44
400.613	278.44
400.837	265.44
401.062	242.44
401.286	275.44
401.51	244.44
401.734	262.44
401.958	248.44
402.182	245.44
402.406	271.44
402.63	271.44
402.854	247.44
403.078	260.44
403.302	264.44
403.526	281.44
403.75	255.44
403.974	266.44
404.198	261.44
404.422	276.44
404.645	279.44
404.869	247.44
405.093	272.44
405.317	283.44
405.541	309.44
405.765	285.44
405.988	286.44
406.212	288.44
406.436	289.44
406.66	302.44
406.883	287.44
407.107	284.44
407.331	314.44
407.555	336.44
407.778	341.44
408.002	298.44
408.226	290.44
408.449	293.44
408.673	254.44
408.896	281.44
409.12	295.44
409.344	300.44
409.567	257.44
409.791	268.44
410.014	274.44
410.238	255.44
410.461	248.44
410.685	265.44
410.908	264.44
411.132	281.44
411.355	285.44
411.578	294.44
411.802	261.44
412.025	280.44
412.249	257.44
412.472	278.44
412.695	306.44
412.919	282.44
413.142	274.44
413.365	259.44
413.589	264.44
413.812	265.44
414.035	251.44
414.258	250.44
414.482	264.44
414.705	263.44
414.928	248.44
415.151	264.44
415.374	248.44
415.597	239.44
415.821	249.44
416.044	248.44
416.267	229.44
416.49	266.44
416.713	248.44
416.936	251.44
417.159	257.44
417.382	262.44
417.605	258.44
417.828	265.44
418.051	272.44
418.274	264.44
418.497	249.44
418.72	279.44
418.943	260.44
419.166	260.44
419.389	275.44
419.611	256.44
419.834	264.44
420.057	280.44
420.28	260.44
420.503	261.44
420.726	278.44
420.948	263.44
421.171	313.44
421.394	302.44
421.617	264.44
421.839	254.44
422.062	260.44
422.285	266.44
422.507	291.44
422.73	329.44
422.953	310.44
423.175	284.44
423.398	270.44
423.621	270.44
423.843	279.44
424.066	267.44
424.288	273.44
424.511	267.44
424.733	325.44
424.956	336.44
425.178	332.44
425.401	325.44
425.623	327.44
425.846	296.44
426.068	274.44
426.291	280.44
426.513	277.44
426.735	286.44
426.958	299.44
427.18	324.44
427.402	382.44
427.625	413.44
427.847	375.44
428.069	323.44
428.292	271.44
428.514	263.44
428.736	265.44
428.958	275.44
429.181	260.44
429.403	252.44
429.625	234.44
429.847	284.44
430.069	311.44
430.292	296.44
430.514	271.44
430.736	250.44
430.958	250.44
431.18	263.44
431.402	252.44
431.624	239.44
431.846	244.44
432.068	233.44
432.29	254.44
432.512	254.44
432.734	268.44
432.956	262.44
433.178	248.44
433.4	251.44
433.622	247.44
433.844	238.44
434.066	251.44
434.287	254.44
434.509	246.44
434.731	250.44
434.953	261.44
435.175	268.44
435.397	289.44
435.618	274.44
435.84	305.44
436.062	345.44
436.284	363.44
436.505	289.44
436.727	276.44
436.949	273.44
437.17	260.44
437.392	246.44
437.614	278.44
437.835	280.44
438.057	334.44
438.278	375.44
438.5	353.44
438.721	391.44
438.943	361.44
439.165	306.44
439.386	273.44
439.608	282.44
439.829	269.44
440.05	299.44
440.272	317.44
440.493	297.44
440.715	291.44
440.936	279.44
441.158	271.44
441.379	265.44
441.6	272.44
441.822	292.44
442.043	292.44
442.264	337.44
442.486	351.44
442.707	302.44
442.928	278.44
443.149	284.44
443.371	308.44
443.592	316.44
443.813	330.44
444.034	377.44
444.255	327.44
444.476	284.44
444.698	288.44
444.919	277.44
445.14	373.44
445.361	310.44
445.582	317.44
445.803	340.44
446.024	357.44
446.245	378.44
446.466	328.44
446.687	287.44
446.908	292.44
447.129	276.44
447.35	265.44
447.571	244.44
447.792	267.44
448.013	267.44
448.234	272.44
448.455	285.44
448.675	358.44
448.896	390.44
449.117	317.44
449.338	332.44
449.559	353.44
449.779	384.44
450	340.44
450.221	276.44
450.442	255.44
450.662	260.44
450.883	276.44
451.104	285.44
451.324	264.44
451.545	233.44
451.766	235.44
451.986	238.44
452.207	235.44
452.428	234.44
452.648	249.44
452.869	260.44
453.089	241.44
453.31	253.44
453.53	235.44
453.751	244.44
453.971	246.44
454.192	253.44
454.412	245.44
454.633	242.44
454.853	235.44
455.073	223.44
455.294	239.44
455.514	268.44
455.734	272.44
455.955	228.44
456.175	229.44
456.395	216.44
456.616	242.44
456.836	227.44
457.056	210.44
457.276	205.44
457.497	214.44
457.717	215.44
457.937	222.44
458.157	234.44
458.377	230.44
458.598	237.44
458.818	299.44
459.038	313.44
459.258	330.44
459.478	272.44
459.698	253.44
459.918	239.44
460.138	247.44
460.358	264.44
460.578	244.44
460.798	250.44
461.018	245.44
461.238	246.44
461.458	237.44
461.678	242.44
461.898	263.44
462.118	248.44
462.338	262.44
462.558	249.44
462.777	274.44
462.997	256.44
463.217	265.44
463.437	277.44
463.657	263.44
463.876	269.44
464.096	276.44
464.316	264.44
464.536	273.44
464.755	270.44
464.975	274.44
465.195	331.44
465.414	353.44
465.634	295.44
465.854	277.44
466.073	254.44
466.293	248.44
466.512	223.44
466.732	230.44
466.951	240.44
467.171	245.44
467.391	225.44
467.61	244.44
467.829	274.44
468.049	255.44
468.268	251.44
468.488	238.44
468.707	226.44
468.927	233.44
469.146	233.44
469.365	248.44
469.585	227.44
469.804	239.44
470.023	244.44
470.243	244.44
470.462	249.44
470.681	266.44
470.901	258.44
471.12	239.44
471.339	246.44
471.558	232.44
471.777	226.44
471.997	237.44
472.216	236.44
472.435	289.44
472.654	260.44
472.873	266.44
473.092	234.44
473.311	235.44
473.53	242.44
473.749	249.44
473.968	267.44
474.187	327.44
474.406	325.44
474.625	274.44
474.844	263.44
475.063	230.44
475.282	247.44
475.501	236.44
475.72	238.44
475.939	254.44
476.158	260.44
476.377	254.44
476.596	248.44
476.814	269.44
477.033	259.44
477.252	261.44
477.471	244.44
477.69	258.44
477.908	266.44
478.127	267.44
478.346	260.44
478.564	268.44
478.783	269.44
479.002	269.44
479.22	265.44
479.439	269.44
479.658	281.44
479.876	297.44
480.095	294.44
480.313	308.44
480.532	299.44
480.751	287.44
480.969	310.44
481.188	363.44
481.406	384.44
481.624	316.44
481.843	305.44
482.061	268.44
482.28	268.44
482.498	273.44
482.717	278.44
482.935	279.44
483.153	276.44
483.372	280.44
483.59	281.44
483.808	269.44
484.027	283.44
484.245	282.44
484.463	288.44
484.681	300.44
484.9	273.44
485.118	276.44
485.336	294.44
485.554	272.44
485.772	272.44
485.99	302.44
486.209	284.44
486.427	304.44
486.645	310.44
486.863	290.44
487.081	282.44
487.299	302.44
487.517	281.44
487.735	299.44
487.953	305.44
488.171	298.44
488.389	290.44
488.607	302.44
488.825	301.44
489.043	301.44
489.261	297.44
489.479	270.44
489.696	292.44
489.914	295.44
490.132	317.44
490.35	299.44
490.568	315.44
490.786	310.44
491.003	334.44
491.221	336.44
491.439	345.44
491.657	336.44
491.874	367.44
492.092	343.44
492.31	345.44
492.527	352.44
492.745	342.44
492.963	356.44
493.18	362.44
493.398	359.44
493.615	376.44
493.833	359.44
494.05	350.44
494.268	343.44
494.485	335.44
494.703	355.44
494.92	358.44
495.138	346.44
495.355	346.44
495.573	359.44
495.79	357.44
496.008	350.44
496.225	352.44
496.442	342.44
496.66	357.44
496.877	327.44
497.094	342.44
497.312	366.44
497.529	345.44
497.746	358.44
497.963	366.44
498.181	350.44
498.398	382.44
498.615	380.44
498.832	386.44
499.049	385.44
499.267	382.44
499.484	380.44
499.701	419.44
499.918	428.44
500.135	441.44
500.352	470.44
500.569	472.44
500.786	476.44
501.003	460.44
501.22	463.44
501.437	440.44
501.654	428.44
501.871	443.44
502.088	408.44
502.305	395.44
502.522	382.44
