Data from 1966.PennyLincolnUp.Lamp.En5.5.200Scan.071719.P1.Scan2.head_HRD10591_14-19-33-277.txt Node
Date: Thu Jul 18 14:19:33 EDT 2019
User: cochatt
Spectrometer: HR+D1059
Trigger mode: 1
Integration Time (sec): 1.000000E-1
Scans to average: 1
Electric dark correction enabled: true
Nonlinearity correction enabled: false
Boxcar width: 0
XAxis mode: Wavelengths
Number of Pixels in Spectrum: 2048
>>>>>Begin Spectral Data<<<<<
223.165	-7.31
223.4	-7.31
223.635	-7.31
223.869	-9.31
224.104	-6.31
224.338	-15.31
224.573	-21.31
224.808	-13.31
225.042	-21.31
225.277	-0.31
225.511	-5.31
225.746	-10.31
225.98	10.69
226.215	20.69
226.449	23.69
226.683	13.69
226.918	16.69
227.152	24.69
227.387	37.69
227.621	46.69
227.856	46.69
228.09	32.69
228.324	37.69
228.559	57.69
228.793	63.69
229.027	92.69
229.262	115.69
229.496	120.69
229.73	137.69
229.964	161.69
230.199	128.69
230.433	122.69
230.667	117.69
230.901	116.69
231.136	123.69
231.37	106.69
231.604	112.69
231.838	120.69
232.072	110.69
232.306	115.69
232.541	116.69
232.775	134.69
233.009	125.69
233.243	122.69
233.477	119.69
233.711	111.69
233.945	109.69
234.179	127.69
234.413	111.69
234.647	124.69
234.881	114.69
235.115	116.69
235.349	116.69
235.583	117.69
235.817	114.69
236.051	130.69
236.285	131.69
236.519	116.69
236.753	129.69
236.987	142.69
237.221	184.69
237.455	237.69
237.689	190.69
237.922	140.69
238.156	142.69
238.39	141.69
238.624	133.69
238.858	124.69
239.091	131.69
239.325	128.69
239.559	149.69
239.793	125.69
240.027	142.69
240.26	151.69
240.494	154.69
240.728	154.69
240.961	157.69
241.195	153.69
241.429	140.69
241.662	132.69
241.896	125.69
242.13	157.69
242.363	135.69
242.597	144.69
242.83	148.69
243.064	148.69
243.298	128.69
243.531	145.69
243.765	161.69
243.998	148.69
244.232	135.69
244.465	152.69
244.699	156.69
244.932	142.69
245.166	155.69
245.399	151.69
245.633	137.69
245.866	150.69
246.099	156.69
246.333	156.69
246.566	147.69
246.8	148.69
247.033	150.69
247.266	162.69
247.5	171.69
247.733	173.69
247.966	166.69
248.2	159.69
248.433	176.69
248.666	181.69
248.899	188.69
249.133	202.69
249.366	231.69
249.599	222.69
249.832	182.69
250.066	196.69
250.299	198.69
250.532	193.69
250.765	208.69
250.998	231.69
251.231	239.69
251.465	232.69
251.698	210.69
251.931	199.69
252.164	188.69
252.397	206.69
252.63	208.69
252.863	211.69
253.096	215.69
253.329	231.69
253.562	238.69
253.795	220.69
254.028	220.69
254.261	243.69
254.494	222.69
254.727	269.69
254.96	293.69
255.193	279.69
255.426	267.69
255.659	240.69
255.892	235.69
256.124	228.69
256.357	258.69
256.59	229.69
256.823	214.69
257.056	227.69
257.289	222.69
257.521	217.69
257.754	237.69
257.987	218.69
258.22	214.69
258.452	211.69
258.685	238.69
258.918	226.69
259.151	229.69
259.383	226.69
259.616	209.69
259.849	227.69
260.081	231.69
260.314	252.69
260.547	284.69
260.779	263.69
261.012	245.69
261.244	226.69
261.477	235.69
261.71	232.69
261.942	231.69
262.175	235.69
262.407	234.69
262.64	223.69
262.872	240.69
263.105	225.69
263.337	228.69
263.57	221.69
263.802	232.69
264.035	220.69
264.267	225.69
264.499	238.69
264.732	242.69
264.964	218.69
265.197	220.69
265.429	230.69
265.661	228.69
265.894	220.69
266.126	238.69
266.358	221.69
266.591	246.69
266.823	230.69
267.055	232.69
267.287	251.69
267.52	238.69
267.752	222.69
267.984	231.69
268.216	224.69
268.448	230.69
268.681	227.69
268.913	242.69
269.145	276.69
269.377	269.69
269.609	264.69
269.841	266.69
270.073	279.69
270.306	295.69
270.538	326.69
270.77	322.69
271.002	322.69
271.234	295.69
271.466	300.69
271.698	322.69
271.93	336.69
272.162	315.69
272.394	312.69
272.626	306.69
272.858	287.69
273.09	286.69
273.322	292.69
273.553	274.69
273.785	276.69
274.017	272.69
274.249	277.69
274.481	273.69
274.713	288.69
274.945	290.69
275.176	278.69
275.408	285.69
275.64	278.69
275.872	266.69
276.104	272.69
276.335	271.69
276.567	296.69
276.799	318.69
277.031	324.69
277.262	353.69
277.494	335.69
277.726	308.69
277.957	310.69
278.189	298.69
278.421	296.69
278.652	263.69
278.884	282.69
279.115	286.69
279.347	265.69
279.579	272.69
279.81	254.69
280.042	285.69
280.273	270.69
280.505	270.69
280.736	282.69
280.968	274.69
281.199	276.69
281.431	283.69
281.662	284.69
281.894	279.69
282.125	294.69
282.356	271.69
282.588	304.69
282.819	343.69
283.051	288.69
283.282	293.69
283.513	290.69
283.745	301.69
283.976	285.69
284.207	300.69
284.439	285.69
284.67	276.69
284.901	304.69
285.132	299.69
285.364	295.69
285.595	284.69
285.826	282.69
286.057	298.69
286.288	288.69
286.52	294.69
286.751	294.69
286.982	310.69
287.213	296.69
287.444	306.69
287.675	302.69
287.906	287.69
288.138	319.69
288.369	328.69
288.6	310.69
288.831	320.69
289.062	297.69
289.293	310.69
289.524	295.69
289.755	306.69
289.986	295.69
290.217	320.69
290.448	316.69
290.679	296.69
290.91	297.69
291.141	300.69
291.371	297.69
291.602	315.69
291.833	298.69
292.064	309.69
292.295	301.69
292.526	326.69
292.757	300.69
292.987	306.69
293.218	314.69
293.449	301.69
293.68	298.69
293.91	314.69
294.141	303.69
294.372	317.69
294.603	304.69
294.833	310.69
295.064	303.69
295.295	299.69
295.525	282.69
295.756	317.69
295.987	320.69
296.217	354.69
296.448	347.69
296.679	338.69
296.909	299.69
297.14	320.69
297.37	316.69
297.601	332.69
297.831	319.69
298.062	309.69
298.292	319.69
298.523	324.69
298.753	315.69
298.984	336.69
299.214	334.69
299.445	330.69
299.675	329.69
299.905	324.69
300.136	344.69
300.366	312.69
300.597	306.69
300.827	316.69
301.057	337.69
301.288	359.69
301.518	342.69
301.748	348.69
301.979	352.69
302.209	339.69
302.439	349.69
302.669	352.69
302.9	355.69
303.13	335.69
303.36	344.69
303.59	348.69
303.82	337.69
304.051	346.69
304.281	344.69
304.511	355.69
304.741	325.69
304.971	342.69
305.201	347.69
305.431	346.69
305.661	336.69
305.891	349.69
306.121	352.69
306.352	334.69
306.582	358.69
306.812	337.69
307.042	352.69
307.272	363.69
307.502	348.69
307.731	365.69
307.961	360.69
308.191	351.69
308.421	347.69
308.651	360.69
308.881	376.69
309.111	366.69
309.341	353.69
309.571	371.69
309.8	376.69
310.03	389.69
310.26	425.69
310.49	390.69
310.72	389.69
310.949	410.69
311.179	426.69
311.409	414.69
311.639	406.69
311.868	398.69
312.098	386.69
312.328	395.69
312.557	399.69
312.787	448.69
313.017	405.69
313.246	410.69
313.476	387.69
313.706	383.69
313.935	410.69
314.165	374.69
314.394	414.69
314.624	382.69
314.853	396.69
315.083	417.69
315.312	396.69
315.542	408.69
315.771	392.69
316.001	395.69
316.23	392.69
316.46	388.69
316.689	405.69
316.919	406.69
317.148	396.69
317.377	388.69
317.607	393.69
317.836	401.69
318.065	404.69
318.295	410.69
318.524	398.69
318.753	387.69
318.983	396.69
319.212	406.69
319.441	417.69
319.67	411.69
319.9	409.69
320.129	383.69
320.358	388.69
320.587	399.69
320.816	409.69
321.046	412.69
321.275	432.69
321.504	408.69
321.733	401.69
321.962	424.69
322.191	452.69
322.42	454.69
322.649	463.69
322.878	459.69
323.108	482.69
323.337	506.69
323.566	526.69
323.795	572.69
324.024	600.69
324.253	698.69
324.482	1003.69
324.71	1522.69
324.939	2327.69
325.168	2017.69
325.397	990.69
325.626	666.69
325.855	583.69
326.084	554.69
326.313	512.69
326.542	520.69
326.77	563.69
326.999	678.69
327.228	913.69
327.457	1392.69
327.686	1741.69
327.914	1139.69
328.143	724.69
328.372	634.69
328.6	619.69
328.829	566.69
329.058	607.69
329.287	609.69
329.515	562.69
329.744	559.69
329.972	538.69
330.201	546.69
330.43	603.69
330.658	632.69
330.887	646.69
331.115	627.69
331.344	557.69
331.572	520.69
331.801	515.69
332.03	506.69
332.258	528.69
332.486	484.69
332.715	479.69
332.943	484.69
333.172	471.69
333.4	498.69
333.629	503.69
333.857	520.69
334.085	525.69
334.314	554.69
334.542	611.69
334.771	594.69
334.999	543.69
335.227	514.69
335.455	506.69
335.684	474.69
335.912	479.69
336.14	497.69
336.369	482.69
336.597	490.69
336.825	465.69
337.053	464.69
337.281	466.69
337.51	464.69
337.738	460.69
337.966	477.69
338.194	480.69
338.422	476.69
338.65	467.69
338.878	463.69
339.106	454.69
339.334	462.69
339.562	469.69
339.79	453.69
340.018	469.69
340.246	467.69
340.474	451.69
340.702	470.69
340.93	461.69
341.158	450.69
341.386	452.69
341.614	462.69
341.842	430.69
342.07	465.69
342.298	458.69
342.526	457.69
342.754	462.69
342.981	451.69
343.209	433.69
343.437	451.69
343.665	487.69
343.893	480.69
344.12	478.69
344.348	513.69
344.576	465.69
344.804	507.69
345.031	478.69
345.259	495.69
345.487	471.69
345.714	482.69
345.942	458.69
346.17	467.69
346.397	431.69
346.625	451.69
346.853	452.69
347.08	462.69
347.308	448.69
347.535	472.69
347.763	468.69
347.99	468.69
348.218	470.69
348.445	472.69
348.673	462.69
348.9	446.69
349.128	450.69
349.355	443.69
349.583	424.69
349.81	448.69
350.037	422.69
350.265	444.69
350.492	404.69
350.72	438.69
350.947	444.69
351.174	422.69
351.402	463.69
351.629	465.69
351.856	455.69
352.083	439.69
352.311	463.69
352.538	460.69
352.765	464.69
352.992	468.69
353.22	446.69
353.447	453.69
353.674	432.69
353.901	432.69
354.128	418.69
354.355	424.69
354.583	439.69
354.81	425.69
355.037	445.69
355.264	420.69
355.491	419.69
355.718	429.69
355.945	425.69
356.172	422.69
356.399	437.69
356.626	430.69
356.853	413.69
357.08	439.69
357.307	409.69
357.534	441.69
357.761	445.69
357.988	430.69
358.215	422.69
358.441	431.69
358.668	445.69
358.895	439.69
359.122	427.69
359.349	447.69
359.576	450.69
359.802	471.69
360.029	496.69
360.256	516.69
360.483	474.69
360.709	458.69
360.936	476.69
361.163	443.69
361.39	445.69
361.616	451.69
361.843	441.69
362.07	463.69
362.296	463.69
362.523	467.69
362.749	462.69
362.976	455.69
363.203	427.69
363.429	454.69
363.656	453.69
363.882	437.69
364.109	449.69
364.335	427.69
364.562	462.69
364.788	438.69
365.015	447.69
365.241	453.69
365.468	435.69
365.694	446.69
365.92	441.69
366.147	434.69
366.373	447.69
366.599	436.69
366.826	459.69
367.052	425.69
367.278	451.69
367.505	442.69
367.731	452.69
367.957	428.69
368.184	446.69
368.41	452.69
368.636	440.69
368.862	455.69
369.089	459.69
369.315	441.69
369.541	448.69
369.767	457.69
369.993	450.69
370.219	454.69
370.445	458.69
370.672	442.69
370.898	411.69
371.124	458.69
371.35	427.69
371.576	452.69
371.802	453.69
372.028	444.69
372.254	450.69
372.48	451.69
372.706	439.69
372.932	480.69
373.158	463.69
373.384	459.69
373.61	453.69
373.835	470.69
374.061	452.69
374.287	454.69
374.513	454.69
374.739	452.69
374.965	463.69
375.191	456.69
375.416	468.69
375.642	450.69
375.868	434.69
376.094	463.69
376.319	457.69
376.545	460.69
376.771	420.69
376.997	447.69
377.222	444.69
377.448	435.69
377.674	462.69
377.899	432.69
378.125	455.69
378.35	434.69
378.576	429.69
378.802	434.69
379.027	470.69
379.253	436.69
379.478	456.69
379.704	452.69
379.929	443.69
380.155	453.69
380.38	446.69
380.606	468.69
380.831	452.69
381.057	448.69
381.282	440.69
381.507	445.69
381.733	467.69
381.958	451.69
382.184	470.69
382.409	470.69
382.634	485.69
382.86	446.69
383.085	456.69
383.31	472.69
383.535	468.69
383.761	477.69
383.986	467.69
384.211	492.69
384.436	483.69
384.662	500.69
384.887	485.69
385.112	480.69
385.337	491.69
385.562	472.69
385.787	490.69
386.013	518.69
386.238	511.69
386.463	490.69
386.688	500.69
386.913	494.69
387.138	491.69
387.363	502.69
387.588	492.69
387.813	490.69
388.038	503.69
388.263	498.69
388.488	514.69
388.713	523.69
388.938	512.69
389.163	518.69
389.387	513.69
389.612	506.69
389.837	510.69
390.062	495.69
390.287	490.69
390.512	521.69
390.736	528.69
390.961	503.69
391.186	512.69
391.411	488.69
391.636	507.69
391.86	520.69
392.085	504.69
392.31	558.69
392.534	528.69
392.759	536.69
392.984	518.69
393.208	504.69
393.433	499.69
393.658	523.69
393.882	511.69
394.107	494.69
394.331	511.69
394.556	523.69
394.78	512.69
395.005	491.69
395.229	522.69
395.454	525.69
395.678	519.69
395.903	562.69
396.127	574.69
396.352	542.69
396.576	544.69
396.801	536.69
397.025	521.69
397.249	520.69
397.474	524.69
397.698	535.69
397.922	560.69
398.147	587.69
398.371	552.69
398.595	556.69
398.82	552.69
399.044	573.69
399.268	598.69
399.492	644.69
399.717	674.69
399.941	697.69
400.165	731.69
400.389	750.69
400.613	676.69
400.837	616.69
401.062	591.69
401.286	590.69
401.51	602.69
401.734	572.69
401.958	568.69
402.182	591.69
402.406	603.69
402.63	611.69
402.854	596.69
403.078	570.69
403.302	606.69
403.526	627.69
403.75	606.69
403.974	600.69
404.198	595.69
404.422	607.69
404.645	630.69
404.869	622.69
405.093	657.69
405.317	708.69
405.541	751.69
405.765	668.69
405.988	666.69
406.212	653.69
406.436	646.69
406.66	662.69
406.883	634.69
407.107	684.69
407.331	704.69
407.555	815.69
407.778	803.69
408.002	747.69
408.226	693.69
408.449	652.69
408.673	681.69
408.896	674.69
409.12	739.69
409.344	713.69
409.567	629.69
409.791	623.69
410.014	614.69
410.238	630.69
410.461	600.69
410.685	614.69
410.908	625.69
411.132	670.69
411.355	709.69
411.578	688.69
411.802	615.69
412.025	628.69
412.249	612.69
412.472	648.69
412.695	694.69
412.919	707.69
413.142	620.69
413.365	613.69
413.589	586.69
413.812	600.69
414.035	600.69
414.258	584.69
414.482	585.69
414.705	564.69
414.928	578.69
415.151	592.69
415.374	567.69
415.597	568.69
415.821	583.69
416.044	590.69
416.267	572.69
416.49	593.69
416.713	549.69
416.936	574.69
417.159	575.69
417.382	563.69
417.605	582.69
417.828	587.69
418.051	595.69
418.274	593.69
418.497	571.69
418.72	583.69
418.943	576.69
419.166	605.69
419.389	608.69
419.611	607.69
419.834	610.69
420.057	600.69
420.28	601.69
420.503	609.69
420.726	599.69
420.948	620.69
421.171	676.69
421.394	718.69
421.617	650.69
421.839	595.69
422.062	606.69
422.285	603.69
422.507	679.69
422.73	775.69
422.953	729.69
423.175	679.69
423.398	621.69
423.621	631.69
423.843	646.69
424.066	656.69
424.288	634.69
424.511	661.69
424.733	718.69
424.956	822.69
425.178	775.69
425.401	759.69
425.623	815.69
425.846	710.69
426.068	654.69
426.291	644.69
426.513	632.69
426.735	663.69
426.958	702.69
427.18	800.69
427.402	906.69
427.625	1034.69
427.847	879.69
428.069	774.69
428.292	719.69
428.514	644.69
428.736	630.69
428.958	600.69
429.181	594.69
429.403	577.69
429.625	612.69
429.847	646.69
430.069	710.69
430.292	729.69
430.514	628.69
430.736	604.69
430.958	582.69
431.18	568.69
431.402	566.69
431.624	580.69
431.846	562.69
432.068	574.69
432.29	600.69
432.512	572.69
432.734	562.69
432.956	574.69
433.178	591.69
433.4	614.69
433.622	564.69
433.844	560.69
434.066	588.69
434.287	552.69
434.509	583.69
434.731	605.69
434.953	586.69
435.175	628.69
435.397	628.69
435.618	653.69
435.84	677.69
436.062	802.69
436.284	897.69
436.505	713.69
436.727	657.69
436.949	630.69
437.17	617.69
437.392	587.69
437.614	617.69
437.835	662.69
438.057	732.69
438.278	860.69
438.5	867.69
438.721	959.69
438.943	917.69
439.165	743.69
439.386	682.69
439.608	674.69
439.829	653.69
440.05	678.69
440.272	744.69
440.493	678.69
440.715	672.69
440.936	629.69
441.158	608.69
441.379	615.69
441.6	618.69
441.822	624.69
442.043	670.69
442.264	783.69
442.486	838.69
442.707	715.69
442.928	671.69
443.149	676.69
443.371	694.69
443.592	740.69
443.813	851.69
444.034	933.69
444.255	758.69
444.476	682.69
444.698	666.69
444.919	671.69
445.14	733.69
445.361	733.69
445.582	704.69
445.803	790.69
446.024	888.69
446.245	900.69
446.466	801.69
446.687	681.69
446.908	637.69
447.129	606.69
447.35	614.69
447.571	604.69
447.792	599.69
448.013	599.69
448.234	600.69
448.455	662.69
448.675	787.69
448.896	926.69
449.117	798.69
449.338	741.69
449.559	848.69
449.779	982.69
450	770.69
450.221	669.69
450.442	616.69
450.662	595.69
450.883	595.69
451.104	594.69
451.324	599.69
451.545	555.69
451.766	551.69
451.986	521.69
452.207	521.69
452.428	531.69
452.648	542.69
452.869	557.69
453.089	539.69
453.31	546.69
453.53	526.69
453.751	532.69
453.971	541.69
454.192	564.69
454.412	532.69
454.633	524.69
454.853	526.69
455.073	549.69
455.294	544.69
455.514	628.69
455.734	618.69
455.955	545.69
456.175	501.69
456.395	491.69
456.616	506.69
456.836	514.69
457.056	519.69
457.276	482.69
457.497	499.69
457.717	483.69
457.937	527.69
458.157	509.69
458.377	507.69
458.598	552.69
458.818	587.69
459.038	717.69
459.258	709.69
459.478	613.69
459.698	572.69
459.918	556.69
460.138	574.69
460.358	583.69
460.578	578.69
460.798	576.69
461.018	605.69
461.238	598.69
461.458	582.69
461.678	557.69
461.898	587.69
462.118	591.69
462.338	589.69
462.558	622.69
462.777	610.69
462.997	640.69
463.217	627.69
463.437	663.69
463.657	607.69
463.876	623.69
464.096	626.69
464.316	606.69
464.536	620.69
464.755	648.69
464.975	614.69
465.195	668.69
465.414	727.69
465.634	641.69
465.854	613.69
466.073	595.69
466.293	568.69
466.512	561.69
466.732	552.69
466.951	537.69
467.171	560.69
467.391	554.69
467.61	552.69
467.829	557.69
468.049	566.69
468.268	563.69
468.488	551.69
468.707	537.69
468.927	525.69
469.146	520.69
469.365	532.69
469.585	549.69
469.804	557.69
470.023	547.69
470.243	531.69
470.462	534.69
470.681	584.69
470.901	567.69
471.12	552.69
471.339	546.69
471.558	564.69
471.777	564.69
471.997	551.69
472.216	573.69
472.435	589.69
472.654	588.69
472.873	582.69
473.092	571.69
473.311	544.69
473.53	549.69
473.749	559.69
473.968	614.69
474.187	732.69
474.406	733.69
474.625	614.69
474.844	584.69
475.063	579.69
475.282	556.69
475.501	582.69
475.72	566.69
475.939	583.69
476.158	581.69
476.377	592.69
476.596	589.69
476.814	572.69
477.033	581.69
477.252	589.69
477.471	593.69
477.69	602.69
477.908	586.69
478.127	618.69
478.346	608.69
478.564	623.69
478.783	596.69
479.002	632.69
479.22	616.69
479.439	631.69
479.658	664.69
479.876	674.69
480.095	679.69
480.313	716.69
480.532	683.69
480.751	678.69
480.969	678.69
481.188	755.69
481.406	812.69
481.624	733.69
481.843	700.69
482.061	710.69
482.28	662.69
482.498	651.69
482.717	662.69
482.935	644.69
483.153	658.69
483.372	654.69
483.59	650.69
483.808	644.69
484.027	662.69
484.245	679.69
484.463	660.69
484.681	672.69
484.9	665.69
485.118	676.69
485.336	665.69
485.554	693.69
485.772	684.69
485.99	690.69
486.209	680.69
486.427	657.69
486.645	694.69
486.863	692.69
487.081	714.69
487.299	733.69
487.517	695.69
487.735	724.69
487.953	709.69
488.171	694.69
488.389	695.69
488.607	715.69
488.825	708.69
489.043	718.69
489.261	708.69
489.479	730.69
489.696	732.69
489.914	707.69
490.132	717.69
490.35	745.69
490.568	737.69
490.786	765.69
491.003	780.69
491.221	798.69
491.439	776.69
491.657	799.69
491.874	820.69
492.092	776.69
492.31	813.69
492.527	805.69
492.745	830.69
492.963	843.69
493.18	856.69
493.398	844.69
493.615	833.69
493.833	860.69
494.05	830.69
494.268	858.69
494.485	834.69
494.703	809.69
494.92	834.69
495.138	861.69
495.355	871.69
495.573	845.69
495.79	856.69
496.008	864.69
496.225	841.69
496.442	842.69
496.66	862.69
496.877	837.69
497.094	851.69
497.312	872.69
497.529	874.69
497.746	889.69
497.963	886.69
498.181	931.69
498.398	926.69
498.615	934.69
498.832	934.69
499.049	973.69
499.267	1018.69
499.484	1033.69
499.701	1076.69
499.918	1093.69
500.135	1173.69
500.352	1195.69
500.569	1211.69
500.786	1239.69
501.003	1202.69
501.22	1176.69
501.437	1124.69
501.654	1108.69
