Data from 1966.PennyLincolnUp.Lamp.En5.5.200Scan.071719.P1._HRD10591_14-13-33-914.txt Node
Date: Thu Jul 18 14:13:33 EDT 2019
User: cochatt
Spectrometer: HR+D1059
Trigger mode: 1
Integration Time (sec): 1.000000E-1
Scans to average: 1
Electric dark correction enabled: true
Nonlinearity correction enabled: false
Boxcar width: 0
XAxis mode: Wavelengths
Number of Pixels in Spectrum: 2048
>>>>>Begin Spectral Data<<<<<
223.165	-7.38
223.4	-7.38
223.635	-7.38
223.869	-23.38
224.104	-9.38
224.338	-8.38
224.573	-20.38
224.808	-7.38
225.042	-3.38
225.277	3.62
225.511	-3.38
225.746	-2.38
225.98	-8.38
226.215	14.62
226.449	5.62
226.683	18.62
226.918	20.62
227.152	30.62
227.387	33.62
227.621	31.62
227.856	40.62
228.09	46.62
228.324	55.62
228.559	60.62
228.793	54.62
229.027	70.62
229.262	94.62
229.496	83.62
229.73	98.62
229.964	105.62
230.199	81.62
230.433	93.62
230.667	89.62
230.901	86.62
231.136	103.62
231.37	103.62
231.604	83.62
231.838	104.62
232.072	90.62
232.306	95.62
232.541	92.62
232.775	103.62
233.009	107.62
233.243	89.62
233.477	124.62
233.711	87.62
233.945	95.62
234.179	98.62
234.413	91.62
234.647	111.62
234.881	93.62
235.115	92.62
235.349	87.62
235.583	89.62
235.817	98.62
236.051	89.62
236.285	101.62
236.519	112.62
236.753	107.62
236.987	108.62
237.221	119.62
237.455	129.62
237.689	131.62
237.922	99.62
238.156	106.62
238.39	104.62
238.624	95.62
238.858	105.62
239.091	110.62
239.325	101.62
239.559	102.62
239.793	98.62
240.027	112.62
240.26	92.62
240.494	126.62
240.728	111.62
240.961	106.62
241.195	103.62
241.429	102.62
241.662	103.62
241.896	102.62
242.13	98.62
242.363	117.62
242.597	95.62
242.83	106.62
243.064	93.62
243.298	107.62
243.531	99.62
243.765	102.62
243.998	110.62
244.232	108.62
244.465	103.62
244.699	109.62
244.932	105.62
245.166	122.62
245.399	127.62
245.633	108.62
245.866	113.62
246.099	118.62
246.333	113.62
246.566	125.62
246.8	110.62
247.033	109.62
247.266	104.62
247.5	109.62
247.733	107.62
247.966	119.62
248.2	120.62
248.433	110.62
248.666	124.62
248.899	121.62
249.133	129.62
249.366	133.62
249.599	124.62
249.832	143.62
250.066	127.62
250.299	122.62
250.532	128.62
250.765	153.62
250.998	143.62
251.231	143.62
251.465	135.62
251.698	127.62
251.931	133.62
252.164	122.62
252.397	145.62
252.63	135.62
252.863	129.62
253.096	145.62
253.329	144.62
253.562	130.62
253.795	139.62
254.028	139.62
254.261	143.62
254.494	144.62
254.727	162.62
254.96	164.62
255.193	168.62
255.426	139.62
255.659	144.62
255.892	152.62
256.124	151.62
256.357	134.62
256.59	160.62
256.823	139.62
257.056	136.62
257.289	134.62
257.521	140.62
257.754	133.62
257.987	121.62
258.22	137.62
258.452	141.62
258.685	140.62
258.918	128.62
259.151	149.62
259.383	136.62
259.616	139.62
259.849	133.62
260.081	150.62
260.314	151.62
260.547	150.62
260.779	155.62
261.012	135.62
261.244	133.62
261.477	147.62
261.71	129.62
261.942	145.62
262.175	163.62
262.407	143.62
262.64	154.62
262.872	132.62
263.105	142.62
263.337	154.62
263.57	139.62
263.802	135.62
264.035	117.62
264.267	128.62
264.499	130.62
264.732	141.62
264.964	127.62
265.197	132.62
265.429	135.62
265.661	134.62
265.894	136.62
266.126	133.62
266.358	143.62
266.591	147.62
266.823	143.62
267.055	136.62
267.287	153.62
267.52	127.62
267.752	151.62
267.984	132.62
268.216	136.62
268.448	146.62
268.681	137.62
268.913	142.62
269.145	166.62
269.377	173.62
269.609	157.62
269.841	159.62
270.073	141.62
270.306	177.62
270.538	188.62
270.77	174.62
271.002	168.62
271.234	162.62
271.466	186.62
271.698	192.62
271.93	195.62
272.162	185.62
272.394	181.62
272.626	178.62
272.858	178.62
273.09	160.62
273.322	166.62
273.553	148.62
273.785	165.62
274.017	174.62
274.249	151.62
274.481	160.62
274.713	175.62
274.945	170.62
275.176	184.62
275.408	161.62
275.64	167.62
275.872	168.62
276.104	178.62
276.335	170.62
276.567	182.62
276.799	159.62
277.031	183.62
277.262	188.62
277.494	185.62
277.726	164.62
277.957	162.62
278.189	171.62
278.421	159.62
278.652	160.62
278.884	157.62
279.115	160.62
279.347	161.62
279.579	153.62
279.81	165.62
280.042	171.62
280.273	160.62
280.505	168.62
280.736	172.62
280.968	159.62
281.199	160.62
281.431	157.62
281.662	170.62
281.894	170.62
282.125	163.62
282.356	179.62
282.588	173.62
282.819	179.62
283.051	146.62
283.282	167.62
283.513	165.62
283.745	169.62
283.976	166.62
284.207	170.62
284.439	186.62
284.67	166.62
284.901	163.62
285.132	153.62
285.364	146.62
285.595	153.62
285.826	178.62
286.057	171.62
286.288	167.62
286.52	174.62
286.751	173.62
286.982	175.62
287.213	163.62
287.444	182.62
287.675	174.62
287.906	171.62
288.138	179.62
288.369	163.62
288.6	162.62
288.831	189.62
289.062	164.62
289.293	174.62
289.524	171.62
289.755	161.62
289.986	162.62
290.217	160.62
290.448	160.62
290.679	167.62
290.91	164.62
291.141	169.62
291.371	175.62
291.602	185.62
291.833	154.62
292.064	165.62
292.295	165.62
292.526	172.62
292.757	183.62
292.987	157.62
293.218	161.62
293.449	173.62
293.68	176.62
293.91	159.62
294.141	171.62
294.372	165.62
294.603	172.62
294.833	182.62
295.064	170.62
295.295	177.62
295.525	175.62
295.756	183.62
295.987	199.62
296.217	169.62
296.448	203.62
296.679	187.62
296.909	173.62
297.14	171.62
297.37	169.62
297.601	175.62
297.831	189.62
298.062	171.62
298.292	178.62
298.523	188.62
298.753	197.62
298.984	166.62
299.214	174.62
299.445	183.62
299.675	190.62
299.905	186.62
300.136	192.62
300.366	182.62
300.597	189.62
300.827	185.62
301.057	192.62
301.288	187.62
301.518	181.62
301.748	179.62
301.979	178.62
302.209	183.62
302.439	193.62
302.669	186.62
302.9	171.62
303.13	195.62
303.36	176.62
303.59	191.62
303.82	189.62
304.051	190.62
304.281	182.62
304.511	175.62
304.741	177.62
304.971	181.62
305.201	193.62
305.431	177.62
305.661	183.62
305.891	179.62
306.121	181.62
306.352	190.62
306.582	197.62
306.812	194.62
307.042	202.62
307.272	176.62
307.502	189.62
307.731	173.62
307.961	203.62
308.191	169.62
308.421	171.62
308.651	186.62
308.881	187.62
309.111	197.62
309.341	178.62
309.571	192.62
309.8	218.62
310.03	209.62
310.26	203.62
310.49	211.62
310.72	188.62
310.949	200.62
311.179	225.62
311.409	202.62
311.639	207.62
311.868	198.62
312.098	199.62
312.328	218.62
312.557	223.62
312.787	231.62
313.017	223.62
313.246	216.62
313.476	196.62
313.706	199.62
313.935	197.62
314.165	191.62
314.394	208.62
314.624	215.62
314.853	222.62
315.083	210.62
315.312	205.62
315.542	207.62
315.771	219.62
316.001	199.62
316.23	209.62
316.46	199.62
316.689	208.62
316.919	221.62
317.148	215.62
317.377	214.62
317.607	233.62
317.836	206.62
318.065	196.62
318.295	208.62
318.524	205.62
318.753	186.62
318.983	199.62
319.212	206.62
319.441	202.62
319.67	214.62
319.9	202.62
320.129	222.62
320.358	208.62
320.587	188.62
320.816	227.62
321.046	208.62
321.275	231.62
321.504	214.62
321.733	208.62
321.962	213.62
322.191	208.62
322.42	228.62
322.649	229.62
322.878	255.62
323.108	255.62
323.337	252.62
323.566	251.62
323.795	276.62
324.024	287.62
324.253	359.62
324.482	493.62
324.71	733.62
324.939	992.62
325.168	786.62
325.397	425.62
325.626	309.62
325.855	265.62
326.084	263.62
326.313	243.62
326.542	248.62
326.77	279.62
326.999	317.62
327.228	450.62
327.457	645.62
327.686	742.62
327.914	464.62
328.143	331.62
328.372	309.62
328.6	295.62
328.829	275.62
329.058	304.62
329.287	316.62
329.515	296.62
329.744	270.62
329.972	274.62
330.201	300.62
330.43	309.62
330.658	318.62
330.887	343.62
331.115	311.62
331.344	265.62
331.572	265.62
331.801	247.62
332.03	277.62
332.258	250.62
332.486	236.62
332.715	222.62
332.943	242.62
333.172	221.62
333.4	239.62
333.629	262.62
333.857	267.62
334.085	261.62
334.314	256.62
334.542	301.62
334.771	307.62
334.999	278.62
335.227	261.62
335.455	255.62
335.684	254.62
335.912	233.62
336.14	245.62
336.369	234.62
336.597	246.62
336.825	255.62
337.053	237.62
337.281	232.62
337.51	240.62
337.738	243.62
337.966	237.62
338.194	231.62
338.422	235.62
338.65	250.62
338.878	253.62
339.106	253.62
339.334	231.62
339.562	235.62
339.79	230.62
340.018	234.62
340.246	230.62
340.474	220.62
340.702	239.62
340.93	225.62
341.158	229.62
341.386	225.62
341.614	233.62
341.842	239.62
342.07	226.62
342.298	228.62
342.526	223.62
342.754	225.62
342.981	204.62
343.209	214.62
343.437	234.62
343.665	226.62
343.893	235.62
344.12	242.62
344.348	240.62
344.576	215.62
344.804	212.62
345.031	230.62
345.259	247.62
345.487	239.62
345.714	232.62
345.942	227.62
346.17	210.62
346.397	224.62
346.625	220.62
346.853	221.62
347.08	218.62
347.308	202.62
347.535	226.62
347.763	208.62
347.99	217.62
348.218	221.62
348.445	219.62
348.673	217.62
348.9	215.62
349.128	208.62
349.355	228.62
349.583	210.62
349.81	214.62
350.037	216.62
350.265	208.62
350.492	217.62
350.72	201.62
350.947	224.62
351.174	234.62
351.402	240.62
351.629	231.62
351.856	234.62
352.083	221.62
352.311	250.62
352.538	233.62
352.765	240.62
352.992	229.62
353.22	211.62
353.447	216.62
353.674	222.62
353.901	221.62
354.128	210.62
354.355	202.62
354.583	201.62
354.81	226.62
355.037	228.62
355.264	206.62
355.491	217.62
355.718	217.62
355.945	194.62
356.172	196.62
356.399	207.62
356.626	209.62
356.853	198.62
357.08	201.62
357.307	215.62
357.534	206.62
357.761	200.62
357.988	207.62
358.215	206.62
358.441	215.62
358.668	205.62
358.895	209.62
359.122	212.62
359.349	204.62
359.576	221.62
359.802	224.62
360.029	235.62
360.256	262.62
360.483	234.62
360.709	222.62
360.936	219.62
361.163	222.62
361.39	215.62
361.616	230.62
361.843	218.62
362.07	210.62
362.296	219.62
362.523	210.62
362.749	213.62
362.976	223.62
363.203	234.62
363.429	221.62
363.656	211.62
363.882	193.62
364.109	206.62
364.335	197.62
364.562	199.62
364.788	223.62
365.015	213.62
365.241	209.62
365.468	227.62
365.694	218.62
365.92	197.62
366.147	217.62
366.373	211.62
366.599	201.62
366.826	199.62
367.052	194.62
367.278	195.62
367.505	205.62
367.731	216.62
367.957	213.62
368.184	222.62
368.41	210.62
368.636	226.62
368.862	219.62
369.089	225.62
369.315	197.62
369.541	219.62
369.767	211.62
369.993	204.62
370.219	215.62
370.445	222.62
370.672	214.62
370.898	194.62
371.124	228.62
371.35	210.62
371.576	211.62
371.802	202.62
372.028	213.62
372.254	210.62
372.48	213.62
372.706	219.62
372.932	213.62
373.158	192.62
373.384	200.62
373.61	193.62
373.835	209.62
374.061	206.62
374.287	218.62
374.513	239.62
374.739	209.62
374.965	211.62
375.191	200.62
375.416	213.62
375.642	215.62
375.868	221.62
376.094	217.62
376.319	207.62
376.545	215.62
376.771	202.62
376.997	211.62
377.222	205.62
377.448	192.62
377.674	218.62
377.899	202.62
378.125	207.62
378.35	209.62
378.576	202.62
378.802	194.62
379.027	212.62
379.253	197.62
379.478	222.62
379.704	206.62
379.929	214.62
380.155	204.62
380.38	200.62
380.606	210.62
380.831	206.62
381.057	235.62
381.282	206.62
381.507	218.62
381.733	198.62
381.958	217.62
382.184	208.62
382.409	207.62
382.634	190.62
382.86	221.62
383.085	228.62
383.31	220.62
383.535	210.62
383.761	227.62
383.986	242.62
384.211	229.62
384.436	226.62
384.662	229.62
384.887	219.62
385.112	210.62
385.337	217.62
385.562	225.62
385.787	214.62
386.013	217.62
386.238	233.62
386.463	235.62
386.688	236.62
386.913	235.62
387.138	226.62
387.363	237.62
387.588	239.62
387.813	210.62
388.038	213.62
388.263	221.62
388.488	221.62
388.713	217.62
388.938	239.62
389.163	214.62
389.387	238.62
389.612	234.62
389.837	209.62
390.062	209.62
390.287	234.62
390.512	212.62
390.736	227.62
390.961	212.62
391.186	215.62
391.411	217.62
391.636	234.62
391.86	226.62
392.085	229.62
392.31	230.62
392.534	238.62
392.759	210.62
392.984	226.62
393.208	232.62
393.433	220.62
393.658	239.62
393.882	212.62
394.107	231.62
394.331	229.62
394.556	230.62
394.78	211.62
395.005	223.62
395.229	223.62
395.454	216.62
395.678	217.62
395.903	232.62
396.127	256.62
396.352	249.62
396.576	242.62
396.801	233.62
397.025	230.62
397.249	241.62
397.474	247.62
397.698	225.62
397.922	234.62
398.147	246.62
398.371	261.62
398.595	247.62
398.82	251.62
399.044	253.62
399.268	271.62
399.492	264.62
399.717	286.62
399.941	309.62
400.165	310.62
400.389	324.62
400.613	282.62
400.837	256.62
401.062	254.62
401.286	240.62
401.51	259.62
401.734	270.62
401.958	252.62
402.182	245.62
402.406	262.62
402.63	251.62
402.854	255.62
403.078	254.62
403.302	254.62
403.526	251.62
403.75	277.62
403.974	267.62
404.198	256.62
404.422	263.62
404.645	273.62
404.869	272.62
405.093	272.62
405.317	286.62
405.541	313.62
405.765	285.62
405.988	281.62
406.212	282.62
406.436	299.62
406.66	303.62
406.883	274.62
407.107	285.62
407.331	296.62
407.555	326.62
407.778	348.62
408.002	325.62
408.226	291.62
408.449	287.62
408.673	288.62
408.896	296.62
409.12	306.62
409.344	290.62
409.567	253.62
409.791	255.62
410.014	254.62
410.238	250.62
410.461	259.62
410.685	261.62
410.908	279.62
411.132	273.62
411.355	294.62
411.578	295.62
411.802	258.62
412.025	270.62
412.249	270.62
412.472	289.62
412.695	296.62
412.919	290.62
413.142	254.62
413.365	247.62
413.589	238.62
413.812	247.62
414.035	238.62
414.258	264.62
414.482	252.62
414.705	253.62
414.928	232.62
415.151	237.62
415.374	237.62
415.597	241.62
415.821	267.62
416.044	264.62
416.267	267.62
416.49	242.62
416.713	231.62
416.936	247.62
417.159	245.62
417.382	256.62
417.605	254.62
417.828	274.62
418.051	265.62
418.274	249.62
418.497	264.62
418.72	262.62
418.943	262.62
419.166	271.62
419.389	272.62
419.611	251.62
419.834	266.62
420.057	272.62
420.28	288.62
420.503	256.62
420.726	268.62
420.948	272.62
421.171	290.62
421.394	297.62
421.617	282.62
421.839	251.62
422.062	265.62
422.285	271.62
422.507	304.62
422.73	313.62
422.953	299.62
423.175	265.62
423.398	272.62
423.621	289.62
423.843	296.62
424.066	279.62
424.288	271.62
424.511	278.62
424.733	304.62
424.956	331.62
425.178	327.62
425.401	322.62
425.623	333.62
425.846	289.62
426.068	285.62
426.291	258.62
426.513	265.62
426.735	271.62
426.958	282.62
427.18	329.62
427.402	407.62
427.625	408.62
427.847	353.62
428.069	329.62
428.292	283.62
428.514	255.62
428.736	263.62
428.958	269.62
429.181	247.62
429.403	271.62
429.625	261.62
429.847	271.62
430.069	309.62
430.292	307.62
430.514	249.62
430.736	245.62
430.958	250.62
431.18	252.62
431.402	242.62
431.624	246.62
431.846	236.62
432.068	238.62
432.29	235.62
432.512	257.62
432.734	257.62
432.956	263.62
433.178	248.62
433.4	263.62
433.622	259.62
433.844	265.62
434.066	245.62
434.287	238.62
434.509	243.62
434.731	257.62
434.953	263.62
435.175	266.62
435.397	278.62
435.618	277.62
435.84	287.62
436.062	341.62
436.284	352.62
436.505	299.62
436.727	266.62
436.949	269.62
437.17	257.62
437.392	255.62
437.614	259.62
437.835	286.62
438.057	318.62
438.278	367.62
438.5	352.62
438.721	396.62
438.943	363.62
439.165	307.62
439.386	289.62
439.608	285.62
439.829	263.62
440.05	287.62
440.272	315.62
440.493	290.62
440.715	282.62
440.936	276.62
441.158	264.62
441.379	254.62
441.6	256.62
441.822	277.62
442.043	305.62
442.264	344.62
442.486	352.62
442.707	300.62
442.928	282.62
443.149	276.62
443.371	302.62
443.592	330.62
443.813	336.62
444.034	364.62
444.255	291.62
444.476	280.62
444.698	261.62
444.919	273.62
445.14	361.62
445.361	320.62
445.582	288.62
445.803	330.62
446.024	378.62
446.245	378.62
446.466	325.62
446.687	269.62
446.908	287.62
447.129	281.62
447.35	268.62
447.571	261.62
447.792	242.62
448.013	257.62
448.234	269.62
448.455	274.62
448.675	333.62
448.896	378.62
449.117	324.62
449.338	289.62
449.559	363.62
449.779	385.62
450	330.62
450.221	272.62
450.442	253.62
450.662	259.62
450.883	257.62
451.104	275.62
451.324	262.62
451.545	250.62
451.766	255.62
451.986	231.62
452.207	219.62
452.428	231.62
452.648	243.62
452.869	231.62
453.089	248.62
453.31	245.62
453.53	237.62
453.751	221.62
453.971	263.62
454.192	251.62
454.412	236.62
454.633	237.62
454.853	235.62
455.073	234.62
455.294	251.62
455.514	288.62
455.734	269.62
455.955	247.62
456.175	250.62
456.395	219.62
456.616	231.62
456.836	217.62
457.056	220.62
457.276	219.62
457.497	220.62
457.717	224.62
457.937	207.62
458.157	236.62
458.377	245.62
458.598	255.62
458.818	285.62
459.038	313.62
459.258	305.62
459.478	268.62
459.698	256.62
459.918	244.62
460.138	233.62
460.358	239.62
460.578	261.62
460.798	248.62
461.018	272.62
461.238	239.62
461.458	249.62
461.678	256.62
461.898	247.62
462.118	261.62
462.338	275.62
462.558	258.62
462.777	257.62
462.997	266.62
463.217	259.62
463.437	282.62
463.657	285.62
463.876	245.62
464.096	265.62
464.316	275.62
464.536	273.62
464.755	265.62
464.975	275.62
465.195	332.62
465.414	336.62
465.634	272.62
465.854	259.62
466.073	263.62
466.293	230.62
466.512	239.62
466.732	247.62
466.951	240.62
467.171	230.62
467.391	221.62
467.61	264.62
467.829	271.62
468.049	252.62
468.268	254.62
468.488	232.62
468.707	243.62
468.927	239.62
469.146	234.62
469.365	234.62
469.585	232.62
469.804	251.62
470.023	261.62
470.243	254.62
470.462	255.62
470.681	242.62
470.901	255.62
471.12	245.62
471.339	245.62
471.558	237.62
471.777	256.62
471.997	236.62
472.216	241.62
472.435	270.62
472.654	271.62
472.873	246.62
473.092	254.62
473.311	229.62
473.53	241.62
473.749	249.62
473.968	275.62
474.187	319.62
474.406	310.62
474.625	273.62
474.844	263.62
475.063	247.62
475.282	235.62
475.501	232.62
475.72	235.62
475.939	240.62
476.158	251.62
476.377	247.62
476.596	251.62
476.814	251.62
477.033	249.62
477.252	264.62
477.471	260.62
477.69	236.62
477.908	264.62
478.127	265.62
478.346	264.62
478.564	276.62
478.783	253.62
479.002	267.62
479.22	262.62
479.439	279.62
479.658	289.62
479.876	301.62
480.095	277.62
480.313	306.62
480.532	307.62
480.751	281.62
480.969	322.62
481.188	354.62
481.406	379.62
481.624	313.62
481.843	285.62
482.061	286.62
482.28	281.62
482.498	292.62
482.717	296.62
482.935	271.62
483.153	269.62
483.372	282.62
483.59	273.62
483.808	271.62
484.027	267.62
484.245	271.62
484.463	272.62
484.681	289.62
484.9	294.62
485.118	288.62
485.336	272.62
485.554	297.62
485.772	276.62
485.99	294.62
486.209	300.62
486.427	301.62
486.645	297.62
486.863	319.62
487.081	289.62
487.299	299.62
487.517	301.62
487.735	293.62
487.953	296.62
488.171	295.62
488.389	290.62
488.607	318.62
488.825	301.62
489.043	281.62
489.261	290.62
489.479	289.62
489.696	304.62
489.914	310.62
490.132	301.62
490.35	293.62
490.568	304.62
490.786	329.62
491.003	325.62
491.221	339.62
491.439	331.62
491.657	346.62
491.874	346.62
492.092	353.62
492.31	366.62
492.527	337.62
492.745	345.62
492.963	343.62
493.18	351.62
493.398	365.62
493.615	373.62
493.833	351.62
494.05	376.62
494.268	355.62
494.485	356.62
494.703	354.62
494.92	335.62
495.138	345.62
495.355	339.62
495.573	329.62
495.79	346.62
496.008	328.62
496.225	338.62
496.442	321.62
496.66	351.62
496.877	336.62
497.094	357.62
497.312	364.62
497.529	374.62
497.746	359.62
497.963	352.62
498.181	377.62
498.398	373.62
498.615	362.62
498.832	373.62
499.049	397.62
499.267	401.62
499.484	422.62
499.701	422.62
499.918	420.62
500.135	447.62
500.352	479.62
500.569	474.62
500.786	443.62
501.003	474.62
501.22	442.62
501.437	453.62
501.654	428.62
501.871	429.62
502.088	393.62
502.305	395.62
502.522	370.62
