Data from 1966.PennyLincolnUp.Lamp.En5.5.200Scan.071719.P1.Scan2.head_HRD10591_14-18-41-207.txt Node
Date: Thu Jul 18 14:18:41 EDT 2019
User: cochatt
Spectrometer: HR+D1059
Trigger mode: 1
Integration Time (sec): 1.000000E-1
Scans to average: 1
Electric dark correction enabled: true
Nonlinearity correction enabled: false
Boxcar width: 0
XAxis mode: Wavelengths
Number of Pixels in Spectrum: 2048
>>>>>Begin Spectral Data<<<<<
223.165	-6.5
223.4	-6.5
223.635	-6.5
223.869	-19.5
224.104	-24.5
224.338	-7.5
224.573	-10.5
224.808	-8.5
225.042	-4.5
225.277	5.5
225.511	4.5
225.746	-3.5
225.98	-1.5
226.215	3.5
226.449	14.5
226.683	13.5
226.918	21.5
227.152	23.5
227.387	39.5
227.621	30.5
227.856	45.5
228.09	46.5
228.324	40.5
228.559	53.5
228.793	72.5
229.027	97.5
229.262	113.5
229.496	110.5
229.73	144.5
229.964	156.5
230.199	131.5
230.433	100.5
230.667	127.5
230.901	109.5
231.136	117.5
231.37	110.5
231.604	115.5
231.838	103.5
232.072	121.5
232.306	112.5
232.541	113.5
232.775	105.5
233.009	112.5
233.243	120.5
233.477	115.5
233.711	119.5
233.945	104.5
234.179	119.5
234.413	124.5
234.647	125.5
234.881	132.5
235.115	126.5
235.349	125.5
235.583	119.5
235.817	127.5
236.051	144.5
236.285	134.5
236.519	124.5
236.753	133.5
236.987	149.5
237.221	193.5
237.455	234.5
237.689	201.5
237.922	157.5
238.156	128.5
238.39	143.5
238.624	131.5
238.858	132.5
239.091	126.5
239.325	125.5
239.559	134.5
239.793	140.5
240.027	146.5
240.26	140.5
240.494	158.5
240.728	154.5
240.961	160.5
241.195	155.5
241.429	139.5
241.662	137.5
241.896	136.5
242.13	141.5
242.363	141.5
242.597	134.5
242.83	151.5
243.064	154.5
243.298	136.5
243.531	131.5
243.765	144.5
243.998	133.5
244.232	145.5
244.465	146.5
244.699	157.5
244.932	152.5
245.166	143.5
245.399	145.5
245.633	142.5
245.866	138.5
246.099	140.5
246.333	125.5
246.566	158.5
246.8	141.5
247.033	159.5
247.266	171.5
247.5	160.5
247.733	168.5
247.966	195.5
248.2	190.5
248.433	173.5
248.666	166.5
248.899	200.5
249.133	198.5
249.366	218.5
249.599	204.5
249.832	189.5
250.066	177.5
250.299	190.5
250.532	195.5
250.765	203.5
250.998	229.5
251.231	234.5
251.465	218.5
251.698	206.5
251.931	206.5
252.164	203.5
252.397	209.5
252.63	196.5
252.863	213.5
253.096	212.5
253.329	220.5
253.562	227.5
253.795	234.5
254.028	221.5
254.261	221.5
254.494	215.5
254.727	258.5
254.96	299.5
255.193	276.5
255.426	254.5
255.659	231.5
255.892	242.5
256.124	230.5
256.357	255.5
256.59	259.5
256.823	225.5
257.056	221.5
257.289	225.5
257.521	225.5
257.754	223.5
257.987	221.5
258.22	206.5
258.452	225.5
258.685	204.5
258.918	201.5
259.151	215.5
259.383	232.5
259.616	222.5
259.849	229.5
260.081	250.5
260.314	266.5
260.547	270.5
260.779	237.5
261.012	233.5
261.244	247.5
261.477	226.5
261.71	223.5
261.942	249.5
262.175	231.5
262.407	229.5
262.64	217.5
262.872	211.5
263.105	231.5
263.337	210.5
263.57	220.5
263.802	219.5
264.035	232.5
264.267	214.5
264.499	217.5
264.732	207.5
264.964	213.5
265.197	208.5
265.429	212.5
265.661	231.5
265.894	221.5
266.126	218.5
266.358	223.5
266.591	216.5
266.823	225.5
267.055	240.5
267.287	232.5
267.52	232.5
267.752	240.5
267.984	240.5
268.216	232.5
268.448	228.5
268.681	234.5
268.913	254.5
269.145	274.5
269.377	269.5
269.609	272.5
269.841	309.5
270.073	286.5
270.306	287.5
270.538	317.5
270.77	326.5
271.002	308.5
271.234	296.5
271.466	303.5
271.698	321.5
271.93	310.5
272.162	312.5
272.394	305.5
272.626	309.5
272.858	281.5
273.09	302.5
273.322	280.5
273.553	277.5
273.785	278.5
274.017	275.5
274.249	278.5
274.481	263.5
274.713	276.5
274.945	273.5
275.176	274.5
275.408	282.5
275.64	295.5
275.872	271.5
276.104	263.5
276.335	267.5
276.567	280.5
276.799	290.5
277.031	316.5
277.262	319.5
277.494	328.5
277.726	324.5
277.957	301.5
278.189	278.5
278.421	295.5
278.652	271.5
278.884	281.5
279.115	261.5
279.347	256.5
279.579	281.5
279.81	279.5
280.042	273.5
280.273	280.5
280.505	292.5
280.736	281.5
280.968	270.5
281.199	256.5
281.431	266.5
281.662	297.5
281.894	290.5
282.125	287.5
282.356	293.5
282.588	301.5
282.819	302.5
283.051	293.5
283.282	274.5
283.513	271.5
283.745	284.5
283.976	301.5
284.207	278.5
284.439	293.5
284.67	300.5
284.901	286.5
285.132	278.5
285.364	273.5
285.595	291.5
285.826	293.5
286.057	300.5
286.288	284.5
286.52	292.5
286.751	270.5
286.982	281.5
287.213	287.5
287.444	299.5
287.675	298.5
287.906	292.5
288.138	298.5
288.369	302.5
288.6	310.5
288.831	303.5
289.062	326.5
289.293	304.5
289.524	304.5
289.755	297.5
289.986	288.5
290.217	297.5
290.448	286.5
290.679	299.5
290.91	292.5
291.141	309.5
291.371	286.5
291.602	289.5
291.833	281.5
292.064	299.5
292.295	292.5
292.526	303.5
292.757	301.5
292.987	297.5
293.218	309.5
293.449	301.5
293.68	289.5
293.91	313.5
294.141	302.5
294.372	307.5
294.603	303.5
294.833	301.5
295.064	314.5
295.295	310.5
295.525	297.5
295.756	301.5
295.987	319.5
296.217	325.5
296.448	327.5
296.679	321.5
296.909	304.5
297.14	325.5
297.37	314.5
297.601	317.5
297.831	307.5
298.062	287.5
298.292	325.5
298.523	319.5
298.753	309.5
298.984	337.5
299.214	320.5
299.445	327.5
299.675	332.5
299.905	330.5
300.136	332.5
300.366	302.5
300.597	315.5
300.827	337.5
301.057	325.5
301.288	334.5
301.518	325.5
301.748	322.5
301.979	343.5
302.209	340.5
302.439	334.5
302.669	350.5
302.9	330.5
303.13	334.5
303.36	341.5
303.59	343.5
303.82	346.5
304.051	343.5
304.281	348.5
304.511	329.5
304.741	342.5
304.971	338.5
305.201	323.5
305.431	328.5
305.661	359.5
305.891	327.5
306.121	348.5
306.352	363.5
306.582	360.5
306.812	357.5
307.042	358.5
307.272	335.5
307.502	352.5
307.731	352.5
307.961	341.5
308.191	331.5
308.421	317.5
308.651	349.5
308.881	365.5
309.111	359.5
309.341	351.5
309.571	364.5
309.8	375.5
310.03	367.5
310.26	386.5
310.49	379.5
310.72	390.5
310.949	405.5
311.179	419.5
311.409	392.5
311.639	398.5
311.868	400.5
312.098	397.5
312.328	395.5
312.557	390.5
312.787	420.5
313.017	411.5
313.246	401.5
313.476	385.5
313.706	386.5
313.935	377.5
314.165	407.5
314.394	401.5
314.624	401.5
314.853	393.5
315.083	394.5
315.312	396.5
315.542	383.5
315.771	364.5
316.001	370.5
316.23	363.5
316.46	386.5
316.689	385.5
316.919	403.5
317.148	399.5
317.377	398.5
317.607	388.5
317.836	396.5
318.065	396.5
318.295	381.5
318.524	384.5
318.753	399.5
318.983	376.5
319.212	389.5
319.441	411.5
319.67	378.5
319.9	416.5
320.129	404.5
320.358	394.5
320.587	405.5
320.816	407.5
321.046	407.5
321.275	431.5
321.504	421.5
321.733	406.5
321.962	411.5
322.191	435.5
322.42	448.5
322.649	469.5
322.878	470.5
323.108	465.5
323.337	491.5
323.566	512.5
323.795	537.5
324.024	582.5
324.253	687.5
324.482	991.5
324.71	1566.5
324.939	2318.5
325.168	2021.5
325.397	978.5
325.626	634.5
325.855	559.5
326.084	515.5
326.313	488.5
326.542	510.5
326.77	570.5
326.999	623.5
327.228	926.5
327.457	1413.5
327.686	1733.5
327.914	1138.5
328.143	712.5
328.372	640.5
328.6	605.5
328.829	593.5
329.058	601.5
329.287	598.5
329.515	557.5
329.744	521.5
329.972	508.5
330.201	541.5
330.43	602.5
330.658	616.5
330.887	647.5
331.115	622.5
331.344	554.5
331.572	514.5
331.801	508.5
332.03	519.5
332.258	505.5
332.486	482.5
332.715	479.5
332.943	467.5
333.172	464.5
333.4	474.5
333.629	501.5
333.857	505.5
334.085	507.5
334.314	547.5
334.542	578.5
334.771	583.5
334.999	555.5
335.227	508.5
335.455	497.5
335.684	472.5
335.912	473.5
336.14	459.5
336.369	464.5
336.597	482.5
336.825	479.5
337.053	467.5
337.281	462.5
337.51	463.5
337.738	476.5
337.966	466.5
338.194	484.5
338.422	480.5
338.65	465.5
338.878	461.5
339.106	451.5
339.334	453.5
339.562	438.5
339.79	459.5
340.018	452.5
340.246	465.5
340.474	456.5
340.702	456.5
340.93	467.5
341.158	471.5
341.386	452.5
341.614	466.5
341.842	472.5
342.07	425.5
342.298	443.5
342.526	418.5
342.754	459.5
342.981	436.5
343.209	440.5
343.437	453.5
343.665	441.5
343.893	446.5
344.12	467.5
344.348	451.5
344.576	472.5
344.804	441.5
345.031	466.5
345.259	481.5
345.487	473.5
345.714	441.5
345.942	441.5
346.17	439.5
346.397	448.5
346.625	434.5
346.853	463.5
347.08	451.5
347.308	463.5
347.535	457.5
347.763	453.5
347.99	452.5
348.218	461.5
348.445	452.5
348.673	445.5
348.9	456.5
349.128	440.5
349.355	424.5
349.583	435.5
349.81	430.5
350.037	432.5
350.265	431.5
350.492	415.5
350.72	440.5
350.947	438.5
351.174	440.5
351.402	445.5
351.629	451.5
351.856	453.5
352.083	460.5
352.311	436.5
352.538	449.5
352.765	461.5
352.992	465.5
353.22	439.5
353.447	429.5
353.674	447.5
353.901	453.5
354.128	424.5
354.355	444.5
354.583	414.5
354.81	431.5
355.037	417.5
355.264	417.5
355.491	413.5
355.718	413.5
355.945	419.5
356.172	412.5
356.399	408.5
356.626	411.5
356.853	414.5
357.08	421.5
357.307	405.5
357.534	425.5
357.761	431.5
357.988	419.5
358.215	428.5
358.441	402.5
358.668	424.5
358.895	436.5
359.122	411.5
359.349	438.5
359.576	439.5
359.802	455.5
360.029	491.5
360.256	504.5
360.483	485.5
360.709	448.5
360.936	460.5
361.163	448.5
361.39	447.5
361.616	451.5
361.843	454.5
362.07	440.5
362.296	428.5
362.523	437.5
362.749	428.5
362.976	439.5
363.203	441.5
363.429	428.5
363.656	457.5
363.882	450.5
364.109	441.5
364.335	416.5
364.562	437.5
364.788	419.5
365.015	420.5
365.241	428.5
365.468	459.5
365.694	449.5
365.92	440.5
366.147	432.5
366.373	411.5
366.599	437.5
366.826	411.5
367.052	431.5
367.278	422.5
367.505	428.5
367.731	434.5
367.957	432.5
368.184	443.5
368.41	441.5
368.636	457.5
368.862	433.5
369.089	455.5
369.315	449.5
369.541	413.5
369.767	446.5
369.993	450.5
370.219	424.5
370.445	452.5
370.672	443.5
370.898	426.5
371.124	427.5
371.35	444.5
371.576	445.5
371.802	442.5
372.028	440.5
372.254	423.5
372.48	435.5
372.706	413.5
372.932	433.5
373.158	424.5
373.384	432.5
373.61	456.5
373.835	438.5
374.061	441.5
374.287	442.5
374.513	451.5
374.739	444.5
374.965	444.5
375.191	452.5
375.416	437.5
375.642	444.5
375.868	446.5
376.094	447.5
376.319	439.5
376.545	441.5
376.771	407.5
376.997	440.5
377.222	459.5
377.448	426.5
377.674	440.5
377.899	428.5
378.125	418.5
378.35	419.5
378.576	408.5
378.802	432.5
379.027	432.5
379.253	428.5
379.478	441.5
379.704	432.5
379.929	431.5
380.155	440.5
380.38	429.5
380.606	435.5
380.831	435.5
381.057	463.5
381.282	446.5
381.507	445.5
381.733	443.5
381.958	410.5
382.184	448.5
382.409	469.5
382.634	451.5
382.86	454.5
383.085	443.5
383.31	459.5
383.535	457.5
383.761	464.5
383.986	455.5
384.211	439.5
384.436	476.5
384.662	463.5
384.887	496.5
385.112	461.5
385.337	474.5
385.562	509.5
385.787	476.5
386.013	488.5
386.238	490.5
386.463	483.5
386.688	501.5
386.913	465.5
387.138	480.5
387.363	478.5
387.588	472.5
387.813	497.5
388.038	495.5
388.263	470.5
388.488	489.5
388.713	471.5
388.938	485.5
389.163	504.5
389.387	492.5
389.612	481.5
389.837	488.5
390.062	500.5
390.287	481.5
390.512	472.5
390.736	499.5
390.961	495.5
391.186	505.5
391.411	505.5
391.636	500.5
391.86	506.5
392.085	517.5
392.31	501.5
392.534	491.5
392.759	522.5
392.984	487.5
393.208	489.5
393.433	495.5
393.658	513.5
393.882	488.5
394.107	499.5
394.331	504.5
394.556	511.5
394.78	484.5
395.005	513.5
395.229	480.5
395.454	517.5
395.678	531.5
395.903	527.5
396.127	545.5
396.352	542.5
396.576	529.5
396.801	523.5
397.025	535.5
397.249	516.5
397.474	533.5
397.698	532.5
397.922	536.5
398.147	548.5
398.371	559.5
398.595	553.5
398.82	560.5
399.044	575.5
399.268	600.5
399.492	629.5
399.717	637.5
399.941	693.5
400.165	713.5
400.389	711.5
400.613	664.5
400.837	607.5
401.062	591.5
401.286	589.5
401.51	560.5
401.734	566.5
401.958	577.5
402.182	598.5
402.406	588.5
402.63	607.5
402.854	587.5
403.078	577.5
403.302	601.5
403.526	602.5
403.75	588.5
403.974	594.5
404.198	581.5
404.422	604.5
404.645	608.5
404.869	630.5
405.093	652.5
405.317	696.5
405.541	723.5
405.765	671.5
405.988	611.5
406.212	630.5
406.436	635.5
406.66	647.5
406.883	631.5
407.107	694.5
407.331	718.5
407.555	792.5
407.778	777.5
408.002	732.5
408.226	656.5
408.449	631.5
408.673	645.5
408.896	658.5
409.12	722.5
409.344	685.5
409.567	631.5
409.791	613.5
410.014	599.5
410.238	577.5
410.461	604.5
410.685	601.5
410.908	635.5
411.132	645.5
411.355	689.5
411.578	649.5
411.802	593.5
412.025	587.5
412.249	614.5
412.472	614.5
412.695	677.5
412.919	664.5
413.142	610.5
413.365	607.5
413.589	587.5
413.812	587.5
414.035	551.5
414.258	561.5
414.482	573.5
414.705	574.5
414.928	541.5
415.151	573.5
415.374	593.5
415.597	575.5
415.821	563.5
416.044	561.5
416.267	576.5
416.49	566.5
416.713	570.5
416.936	554.5
417.159	561.5
417.382	560.5
417.605	556.5
417.828	564.5
418.051	584.5
418.274	591.5
418.497	554.5
418.72	571.5
418.943	533.5
419.166	602.5
419.389	603.5
419.611	618.5
419.834	591.5
420.057	606.5
420.28	591.5
420.503	576.5
420.726	565.5
420.948	624.5
421.171	646.5
421.394	667.5
421.617	598.5
421.839	597.5
422.062	582.5
422.285	618.5
422.507	663.5
422.73	766.5
422.953	731.5
423.175	616.5
423.398	604.5
423.621	608.5
423.843	611.5
424.066	623.5
424.288	619.5
424.511	631.5
424.733	691.5
424.956	826.5
425.178	788.5
425.401	764.5
425.623	788.5
425.846	671.5
426.068	639.5
426.291	630.5
426.513	621.5
426.735	639.5
426.958	678.5
427.18	775.5
427.402	936.5
427.625	1043.5
427.847	862.5
428.069	769.5
428.292	665.5
428.514	624.5
428.736	597.5
428.958	614.5
429.181	581.5
429.403	565.5
429.625	597.5
429.847	619.5
430.069	710.5
430.292	721.5
430.514	615.5
430.736	592.5
430.958	563.5
431.18	548.5
431.402	554.5
431.624	534.5
431.846	553.5
432.068	567.5
432.29	553.5
432.512	566.5
432.734	573.5
432.956	561.5
433.178	589.5
433.4	566.5
433.622	547.5
433.844	555.5
434.066	553.5
434.287	557.5
434.509	566.5
434.731	581.5
434.953	580.5
435.175	614.5
435.397	630.5
435.618	635.5
435.84	679.5
436.062	781.5
436.284	855.5
436.505	706.5
436.727	662.5
436.949	596.5
437.17	598.5
437.392	597.5
437.614	609.5
437.835	648.5
438.057	730.5
438.278	854.5
438.5	865.5
438.721	967.5
438.943	907.5
439.165	719.5
439.386	633.5
439.608	657.5
439.829	657.5
440.05	639.5
440.272	736.5
440.493	701.5
440.715	617.5
440.936	600.5
441.158	599.5
441.379	607.5
441.6	629.5
441.822	627.5
442.043	671.5
442.264	743.5
442.486	831.5
442.707	699.5
442.928	651.5
443.149	657.5
443.371	686.5
443.592	741.5
443.813	824.5
444.034	899.5
444.255	740.5
444.476	659.5
444.698	671.5
444.919	645.5
445.14	755.5
445.361	691.5
445.582	703.5
445.803	759.5
446.024	861.5
446.245	868.5
446.466	793.5
446.687	665.5
446.908	617.5
447.129	592.5
447.35	577.5
447.571	576.5
447.792	572.5
448.013	571.5
448.234	597.5
448.455	657.5
448.675	780.5
448.896	899.5
449.117	785.5
449.338	746.5
449.559	864.5
449.779	966.5
450	789.5
450.221	633.5
450.442	581.5
450.662	571.5
450.883	575.5
451.104	607.5
451.324	585.5
451.545	552.5
451.766	539.5
451.986	513.5
452.207	521.5
452.428	519.5
452.648	500.5
452.869	510.5
453.089	543.5
453.31	544.5
453.53	542.5
453.751	500.5
453.971	531.5
454.192	538.5
454.412	530.5
454.633	523.5
454.853	533.5
455.073	506.5
455.294	552.5
455.514	660.5
455.734	579.5
455.955	515.5
456.175	524.5
456.395	507.5
456.616	490.5
456.836	488.5
457.056	487.5
457.276	475.5
457.497	501.5
457.717	490.5
457.937	502.5
458.157	505.5
458.377	515.5
458.598	542.5
458.818	599.5
459.038	672.5
459.258	689.5
459.478	595.5
459.698	547.5
459.918	568.5
460.138	559.5
460.358	567.5
460.578	588.5
460.798	570.5
461.018	567.5
461.238	561.5
461.458	567.5
461.678	555.5
461.898	575.5
462.118	549.5
462.338	565.5
462.558	594.5
462.777	622.5
462.997	609.5
463.217	621.5
463.437	638.5
463.657	592.5
463.876	619.5
464.096	608.5
464.316	606.5
464.536	597.5
464.755	584.5
464.975	624.5
465.195	661.5
465.414	721.5
465.634	654.5
465.854	581.5
466.073	552.5
466.293	541.5
466.512	539.5
466.732	532.5
466.951	534.5
467.171	514.5
467.391	547.5
467.61	529.5
467.829	570.5
468.049	556.5
468.268	561.5
468.488	549.5
468.707	516.5
468.927	518.5
469.146	529.5
469.365	529.5
469.585	524.5
469.804	523.5
470.023	558.5
470.243	543.5
470.462	551.5
470.681	574.5
470.901	569.5
471.12	553.5
471.339	529.5
471.558	552.5
471.777	557.5
471.997	537.5
472.216	557.5
472.435	606.5
472.654	569.5
472.873	560.5
473.092	552.5
473.311	523.5
473.53	552.5
473.749	539.5
473.968	601.5
474.187	691.5
474.406	753.5
474.625	615.5
474.844	563.5
475.063	544.5
475.282	552.5
475.501	553.5
475.72	548.5
475.939	554.5
476.158	567.5
476.377	545.5
476.596	573.5
476.814	572.5
477.033	598.5
477.252	579.5
477.471	592.5
477.69	601.5
477.908	596.5
478.127	613.5
478.346	588.5
478.564	621.5
478.783	619.5
479.002	620.5
479.22	622.5
479.439	649.5
479.658	669.5
479.876	659.5
480.095	669.5
480.313	710.5
480.532	684.5
480.751	681.5
480.969	675.5
481.188	771.5
481.406	796.5
481.624	721.5
481.843	684.5
482.061	661.5
482.28	645.5
482.498	627.5
482.717	631.5
482.935	627.5
483.153	633.5
483.372	643.5
483.59	627.5
483.808	647.5
484.027	634.5
484.245	649.5
484.463	649.5
484.681	651.5
484.9	658.5
485.118	647.5
485.336	662.5
485.554	657.5
485.772	674.5
485.99	663.5
486.209	676.5
486.427	655.5
486.645	700.5
486.863	709.5
487.081	668.5
487.299	677.5
487.517	687.5
487.735	681.5
487.953	707.5
488.171	685.5
488.389	687.5
488.607	666.5
488.825	692.5
489.043	699.5
489.261	692.5
489.479	680.5
489.696	717.5
489.914	720.5
490.132	697.5
490.35	690.5
490.568	727.5
490.786	737.5
491.003	745.5
491.221	756.5
491.439	782.5
491.657	777.5
491.874	822.5
492.092	792.5
492.31	798.5
492.527	832.5
492.745	816.5
492.963	800.5
493.18	821.5
493.398	825.5
493.615	817.5
493.833	825.5
494.05	793.5
494.268	848.5
494.485	819.5
494.703	811.5
494.92	824.5
495.138	833.5
495.355	829.5
495.573	806.5
495.79	825.5
496.008	823.5
496.225	831.5
496.442	812.5
496.66	824.5
496.877	841.5
497.094	838.5
497.312	859.5
497.529	858.5
497.746	874.5
497.963	874.5
498.181	924.5
498.398	906.5
498.615	925.5
498.832	922.5
499.049	965.5
499.267	961.5
499.484	1003.5
499.701	1055.5
499.918	1069.5
500.135	1141.5
500.352	1167.5
500.569	1172.5
500.786	1196.5
501.003	1165.5
501.22	1139.5
501.437	1098.5
501.654	1120.5
501.871	1045.5
502.088	1006.5
502.305	974.5
502.522	973.5
502.739	930.5
502.956	891.5
503.172	874.5
503.389	859.5
503.606	858.5
503.823	853.5
504.04	836.5
504.256	844.5
504.473	823.5
504.69	833.5
504.907	812.5
505.123	812.5
505.34	813.5
505.557	796.5
505.773	821.5
505.99	800.5
506.207	791.5
506.423	792.5
506.64	791.5
506.856	781.5
507.073	781.5
507.289	775.5
507.506	774.5
507.722	780.5
507.939	803.5
508.155	773.5
508.372	742.5
508.588	729.5
508.805	721.5
509.021	764.5
509.238	742.5
509.454	776.5
509.67	757.5
509.887	739.5
510.103	732.5
510.319	730.5
510.536	842.5
510.752	1319.5
510.968	1089.5
511.184	779.5
511.401	736.5
511.617	700.5
511.833	713.5
512.049	693.5
512.265	691.5
512.481	696.5
512.698	671.5
512.914	713.5
513.13	718.5
513.346	685.5
513.562	683.5
513.778	700.5
513.994	694.5
514.21	709.5
514.426	723.5
514.642	784.5
514.858	787.5
515.074	828.5
515.29	971.5
515.506	1376.5
515.721	1177.5
515.937	850.5
516.153	759.5
516.369	743.5
516.585	712.5
516.801	720.5
517.016	723.5
517.232	735.5
517.448	727.5
517.664	740.5
517.879	717.5
518.095	728.5
518.311	726.5
518.527	715.5
518.742	742.5
518.958	722.5
519.173	717.5
519.389	699.5
519.605	703.5
