Data from 1966.PennyLincolnUp.Lamp.En5.5.200Scan.071719.P1.Scan2.head_HRD10591_14-17-40-126.txt Node
Date: Thu Jul 18 14:17:40 EDT 2019
User: cochatt
Spectrometer: HR+D1059
Trigger mode: 1
Integration Time (sec): 1.000000E-1
Scans to average: 1
Electric dark correction enabled: true
Nonlinearity correction enabled: false
Boxcar width: 0
XAxis mode: Wavelengths
Number of Pixels in Spectrum: 2048
>>>>>Begin Spectral Data<<<<<
223.165	-17.06
223.4	-17.06
223.635	-17.06
223.869	-26.06
224.104	-8.06
224.338	-10.06
224.573	-18.06
224.808	-2.06
225.042	-4.06
225.277	-16.06
225.511	-5.06
225.746	-3.06
225.98	7.94
226.215	5.94
226.449	15.94
226.683	35.94
226.918	24.94
227.152	18.94
227.387	33.94
227.621	35.94
227.856	48.94
228.09	52.94
228.324	53.94
228.559	55.94
228.793	75.94
229.027	105.94
229.262	115.94
229.496	127.94
229.73	119.94
229.964	150.94
230.199	138.94
230.433	120.94
230.667	112.94
230.901	117.94
231.136	115.94
231.37	108.94
231.604	121.94
231.838	129.94
232.072	120.94
232.306	121.94
232.541	107.94
232.775	121.94
233.009	124.94
233.243	130.94
233.477	125.94
233.711	117.94
233.945	117.94
234.179	122.94
234.413	121.94
234.647	113.94
234.881	115.94
235.115	118.94
235.349	131.94
235.583	127.94
235.817	122.94
236.051	131.94
236.285	126.94
236.519	123.94
236.753	131.94
236.987	132.94
237.221	182.94
237.455	231.94
237.689	179.94
237.922	143.94
238.156	121.94
238.39	127.94
238.624	123.94
238.858	128.94
239.091	130.94
239.325	119.94
239.559	120.94
239.793	121.94
240.027	146.94
240.26	148.94
240.494	150.94
240.728	156.94
240.961	148.94
241.195	150.94
241.429	140.94
241.662	128.94
241.896	129.94
242.13	128.94
242.363	126.94
242.597	130.94
242.83	149.94
243.064	155.94
243.298	125.94
243.531	157.94
243.765	127.94
243.998	163.94
244.232	147.94
244.465	152.94
244.699	155.94
244.932	156.94
245.166	143.94
245.399	150.94
245.633	145.94
245.866	148.94
246.099	144.94
246.333	147.94
246.566	153.94
246.8	144.94
247.033	160.94
247.266	150.94
247.5	184.94
247.733	156.94
247.966	175.94
248.2	185.94
248.433	167.94
248.666	160.94
248.899	192.94
249.133	204.94
249.366	210.94
249.599	197.94
249.832	172.94
250.066	173.94
250.299	185.94
250.532	195.94
250.765	207.94
250.998	225.94
251.231	219.94
251.465	199.94
251.698	219.94
251.931	199.94
252.164	193.94
252.397	222.94
252.63	192.94
252.863	215.94
253.096	201.94
253.329	210.94
253.562	236.94
253.795	202.94
254.028	191.94
254.261	229.94
254.494	226.94
254.727	250.94
254.96	274.94
255.193	273.94
255.426	256.94
255.659	231.94
255.892	228.94
256.124	230.94
256.357	229.94
256.59	225.94
256.823	208.94
257.056	217.94
257.289	213.94
257.521	207.94
257.754	221.94
257.987	206.94
258.22	220.94
258.452	197.94
258.685	203.94
258.918	208.94
259.151	209.94
259.383	207.94
259.616	216.94
259.849	224.94
260.081	231.94
260.314	250.94
260.547	259.94
260.779	248.94
261.012	244.94
261.244	230.94
261.477	227.94
261.71	243.94
261.942	216.94
262.175	243.94
262.407	228.94
262.64	206.94
262.872	214.94
263.105	215.94
263.337	216.94
263.57	198.94
263.802	198.94
264.035	214.94
264.267	217.94
264.499	204.94
264.732	228.94
264.964	218.94
265.197	214.94
265.429	208.94
265.661	191.94
265.894	218.94
266.126	207.94
266.358	236.94
266.591	226.94
266.823	213.94
267.055	217.94
267.287	238.94
267.52	226.94
267.752	233.94
267.984	219.94
268.216	239.94
268.448	219.94
268.681	224.94
268.913	248.94
269.145	256.94
269.377	271.94
269.609	282.94
269.841	264.94
270.073	265.94
270.306	285.94
270.538	303.94
270.77	310.94
271.002	317.94
271.234	276.94
271.466	295.94
271.698	299.94
271.93	296.94
272.162	312.94
272.394	303.94
272.626	279.94
272.858	281.94
273.09	286.94
273.322	273.94
273.553	258.94
273.785	252.94
274.017	217.94
274.249	267.94
274.481	251.94
274.713	270.94
274.945	262.94
275.176	264.94
275.408	254.94
275.64	262.94
275.872	256.94
276.104	267.94
276.335	267.94
276.567	265.94
276.799	281.94
277.031	293.94
277.262	309.94
277.494	318.94
277.726	310.94
277.957	309.94
278.189	285.94
278.421	277.94
278.652	268.94
278.884	255.94
279.115	260.94
279.347	267.94
279.579	267.94
279.81	269.94
280.042	273.94
280.273	281.94
280.505	264.94
280.736	265.94
280.968	266.94
281.199	271.94
281.431	276.94
281.662	253.94
281.894	244.94
282.125	273.94
282.356	291.94
282.588	308.94
282.819	270.94
283.051	296.94
283.282	259.94
283.513	278.94
283.745	264.94
283.976	287.94
284.207	279.94
284.439	280.94
284.67	291.94
284.901	272.94
285.132	287.94
285.364	283.94
285.595	278.94
285.826	268.94
286.057	278.94
286.288	288.94
286.52	281.94
286.751	271.94
286.982	283.94
287.213	276.94
287.444	284.94
287.675	315.94
287.906	319.94
288.138	303.94
288.369	303.94
288.6	300.94
288.831	298.94
289.062	283.94
289.293	290.94
289.524	270.94
289.755	272.94
289.986	290.94
290.217	295.94
290.448	287.94
290.679	277.94
290.91	277.94
291.141	282.94
291.371	310.94
291.602	291.94
291.833	288.94
292.064	284.94
292.295	303.94
292.526	280.94
292.757	285.94
292.987	280.94
293.218	295.94
293.449	289.94
293.68	307.94
293.91	308.94
294.141	287.94
294.372	292.94
294.603	296.94
294.833	282.94
295.064	280.94
295.295	298.94
295.525	307.94
295.756	305.94
295.987	300.94
296.217	319.94
296.448	335.94
296.679	310.94
296.909	319.94
297.14	298.94
297.37	294.94
297.601	276.94
297.831	288.94
298.062	311.94
298.292	298.94
298.523	320.94
298.753	312.94
298.984	313.94
299.214	298.94
299.445	309.94
299.675	315.94
299.905	309.94
300.136	307.94
300.366	308.94
300.597	323.94
300.827	311.94
301.057	311.94
301.288	334.94
301.518	314.94
301.748	332.94
301.979	323.94
302.209	321.94
302.439	314.94
302.669	326.94
302.9	332.94
303.13	321.94
303.36	323.94
303.59	322.94
303.82	337.94
304.051	338.94
304.281	336.94
304.511	334.94
304.741	332.94
304.971	320.94
305.201	315.94
305.431	316.94
305.661	354.94
305.891	338.94
306.121	320.94
306.352	327.94
306.582	342.94
306.812	337.94
307.042	345.94
307.272	335.94
307.502	331.94
307.731	340.94
307.961	333.94
308.191	342.94
308.421	322.94
308.651	337.94
308.881	327.94
309.111	331.94
309.341	351.94
309.571	336.94
309.8	337.94
310.03	369.94
310.26	354.94
310.49	367.94
310.72	376.94
310.949	379.94
311.179	382.94
311.409	398.94
311.639	355.94
311.868	374.94
312.098	384.94
312.328	380.94
312.557	378.94
312.787	416.94
313.017	409.94
313.246	394.94
313.476	387.94
313.706	395.94
313.935	372.94
314.165	393.94
314.394	389.94
314.624	392.94
314.853	382.94
315.083	395.94
315.312	378.94
315.542	377.94
315.771	376.94
316.001	361.94
316.23	368.94
316.46	377.94
316.689	379.94
316.919	381.94
317.148	398.94
317.377	387.94
317.607	387.94
317.836	376.94
318.065	379.94
318.295	383.94
318.524	369.94
318.753	385.94
318.983	361.94
319.212	359.94
319.441	383.94
319.67	384.94
319.9	363.94
320.129	360.94
320.358	384.94
320.587	390.94
320.816	411.94
321.046	385.94
321.275	388.94
321.504	383.94
321.733	396.94
321.962	414.94
322.191	412.94
322.42	427.94
322.649	431.94
322.878	423.94
323.108	457.94
323.337	463.94
323.566	474.94
323.795	523.94
324.024	567.94
324.253	631.94
324.482	904.94
324.71	1434.94
324.939	2093.94
325.168	1832.94
325.397	936.94
325.626	612.94
325.855	550.94
326.084	489.94
326.313	487.94
326.542	499.94
326.77	505.94
326.999	617.94
327.228	847.94
327.457	1305.94
327.686	1596.94
327.914	1047.94
328.143	678.94
328.372	596.94
328.6	554.94
328.829	559.94
329.058	554.94
329.287	559.94
329.515	542.94
329.744	503.94
329.972	520.94
330.201	508.94
330.43	561.94
330.658	564.94
330.887	572.94
331.115	590.94
331.344	533.94
331.572	508.94
331.801	505.94
332.03	482.94
332.258	455.94
332.486	470.94
332.715	455.94
332.943	447.94
333.172	441.94
333.4	456.94
333.629	483.94
333.857	484.94
334.085	492.94
334.314	499.94
334.542	545.94
334.771	550.94
334.999	514.94
335.227	472.94
335.455	476.94
335.684	449.94
335.912	459.94
336.14	438.94
336.369	435.94
336.597	458.94
336.825	467.94
337.053	466.94
337.281	448.94
337.51	452.94
337.738	430.94
337.966	442.94
338.194	441.94
338.422	439.94
338.65	458.94
338.878	445.94
339.106	443.94
339.334	438.94
339.562	428.94
339.79	409.94
340.018	422.94
340.246	447.94
340.474	431.94
340.702	445.94
340.93	441.94
341.158	439.94
341.386	408.94
341.614	432.94
341.842	449.94
342.07	453.94
342.298	417.94
342.526	413.94
342.754	427.94
342.981	415.94
343.209	426.94
343.437	437.94
343.665	441.94
343.893	431.94
344.12	454.94
344.348	447.94
344.576	440.94
344.804	456.94
345.031	435.94
345.259	456.94
345.487	448.94
345.714	441.94
345.942	428.94
346.17	447.94
346.397	429.94
346.625	412.94
346.853	420.94
347.08	432.94
347.308	451.94
347.535	433.94
347.763	425.94
347.99	439.94
348.218	440.94
348.445	447.94
348.673	447.94
348.9	427.94
349.128	405.94
349.355	424.94
349.583	416.94
349.81	420.94
350.037	416.94
350.265	428.94
350.492	399.94
350.72	404.94
350.947	403.94
351.174	416.94
351.402	424.94
351.629	430.94
351.856	438.94
352.083	424.94
352.311	435.94
352.538	442.94
352.765	472.94
352.992	464.94
353.22	453.94
353.447	423.94
353.674	419.94
353.901	409.94
354.128	393.94
354.355	406.94
354.583	387.94
354.81	403.94
355.037	426.94
355.264	410.94
355.491	406.94
355.718	397.94
355.945	397.94
356.172	411.94
356.399	403.94
356.626	392.94
356.853	399.94
357.08	411.94
357.307	395.94
357.534	401.94
357.761	400.94
357.988	403.94
358.215	416.94
358.441	387.94
358.668	411.94
358.895	406.94
359.122	411.94
359.349	437.94
359.576	424.94
359.802	452.94
360.029	457.94
360.256	483.94
360.483	470.94
360.709	438.94
360.936	443.94
361.163	441.94
361.39	429.94
361.616	425.94
361.843	424.94
362.07	425.94
362.296	453.94
362.523	420.94
362.749	412.94
362.976	440.94
363.203	431.94
363.429	409.94
363.656	410.94
363.882	410.94
364.109	420.94
364.335	418.94
364.562	446.94
364.788	408.94
365.015	424.94
365.241	416.94
365.468	416.94
365.694	436.94
365.92	431.94
366.147	399.94
366.373	425.94
366.599	421.94
366.826	407.94
367.052	434.94
367.278	407.94
367.505	425.94
367.731	427.94
367.957	414.94
368.184	438.94
368.41	427.94
368.636	453.94
368.862	460.94
369.089	435.94
369.315	411.94
369.541	424.94
369.767	412.94
369.993	416.94
370.219	431.94
370.445	435.94
370.672	431.94
370.898	426.94
371.124	425.94
371.35	429.94
371.576	416.94
371.802	417.94
372.028	417.94
372.254	438.94
372.48	422.94
372.706	433.94
372.932	447.94
373.158	454.94
373.384	427.94
373.61	440.94
373.835	420.94
374.061	419.94
374.287	439.94
374.513	443.94
374.739	447.94
374.965	436.94
375.191	426.94
375.416	433.94
375.642	440.94
375.868	447.94
376.094	417.94
376.319	415.94
376.545	412.94
376.771	440.94
376.997	441.94
377.222	426.94
377.448	437.94
377.674	415.94
377.899	430.94
378.125	430.94
378.35	424.94
378.576	427.94
378.802	423.94
379.027	442.94
379.253	446.94
379.478	435.94
379.704	445.94
379.929	420.94
380.155	422.94
380.38	436.94
380.606	414.94
380.831	419.94
381.057	429.94
381.282	423.94
381.507	435.94
381.733	430.94
381.958	436.94
382.184	425.94
382.409	443.94
382.634	421.94
382.86	439.94
383.085	407.94
383.31	451.94
383.535	427.94
383.761	441.94
383.986	441.94
384.211	445.94
384.436	449.94
384.662	464.94
384.887	459.94
385.112	452.94
385.337	471.94
385.562	460.94
385.787	466.94
386.013	473.94
386.238	487.94
386.463	469.94
386.688	497.94
386.913	461.94
387.138	467.94
387.363	449.94
387.588	477.94
387.813	483.94
388.038	462.94
388.263	492.94
388.488	475.94
388.713	486.94
388.938	476.94
389.163	491.94
389.387	465.94
389.612	454.94
389.837	473.94
390.062	464.94
390.287	453.94
390.512	460.94
390.736	480.94
390.961	499.94
391.186	449.94
391.411	464.94
391.636	478.94
391.86	505.94
392.085	488.94
392.31	495.94
392.534	487.94
392.759	496.94
392.984	480.94
393.208	494.94
393.433	485.94
393.658	482.94
393.882	468.94
394.107	486.94
394.331	481.94
394.556	488.94
394.78	479.94
395.005	511.94
395.229	467.94
395.454	495.94
395.678	479.94
395.903	519.94
396.127	548.94
396.352	511.94
396.576	489.94
396.801	497.94
397.025	523.94
397.249	515.94
397.474	509.94
397.698	523.94
397.922	534.94
398.147	531.94
398.371	549.94
398.595	515.94
398.82	522.94
399.044	547.94
399.268	576.94
399.492	588.94
399.717	624.94
399.941	657.94
400.165	674.94
400.389	689.94
400.613	649.94
400.837	603.94
401.062	593.94
401.286	553.94
401.51	556.94
401.734	535.94
401.958	546.94
402.182	551.94
402.406	571.94
402.63	572.94
402.854	550.94
403.078	537.94
403.302	564.94
403.526	585.94
403.75	559.94
403.974	549.94
404.198	554.94
404.422	593.94
404.645	591.94
404.869	588.94
405.093	620.94
405.317	660.94
405.541	708.94
405.765	633.94
405.988	605.94
406.212	621.94
406.436	630.94
406.66	631.94
406.883	624.94
407.107	649.94
407.331	685.94
407.555	743.94
407.778	741.94
408.002	703.94
408.226	667.94
408.449	651.94
408.673	639.94
408.896	669.94
409.12	698.94
409.344	659.94
409.567	600.94
409.791	601.94
410.014	591.94
410.238	553.94
410.461	574.94
410.685	589.94
410.908	607.94
411.132	635.94
411.355	656.94
411.578	617.94
411.802	607.94
412.025	573.94
412.249	567.94
412.472	598.94
412.695	665.94
412.919	649.94
413.142	608.94
413.365	583.94
413.589	562.94
413.812	555.94
414.035	536.94
414.258	550.94
414.482	558.94
414.705	548.94
414.928	537.94
415.151	555.94
415.374	561.94
415.597	519.94
415.821	530.94
416.044	550.94
416.267	568.94
416.49	527.94
416.713	543.94
416.936	566.94
417.159	530.94
417.382	545.94
417.605	527.94
417.828	528.94
418.051	553.94
418.274	577.94
418.497	552.94
418.72	529.94
418.943	541.94
419.166	554.94
419.389	599.94
419.611	571.94
419.834	584.94
420.057	573.94
420.28	556.94
420.503	579.94
420.726	555.94
420.948	579.94
421.171	635.94
421.394	642.94
421.617	603.94
421.839	563.94
422.062	579.94
422.285	577.94
422.507	635.94
422.73	704.94
422.953	702.94
423.175	620.94
423.398	618.94
423.621	607.94
423.843	611.94
424.066	610.94
424.288	614.94
424.511	619.94
424.733	687.94
424.956	788.94
425.178	725.94
425.401	735.94
425.623	755.94
425.846	665.94
426.068	605.94
426.291	569.94
426.513	593.94
426.735	616.94
426.958	691.94
427.18	755.94
427.402	856.94
427.625	981.94
427.847	816.94
428.069	731.94
428.292	646.94
428.514	610.94
428.736	591.94
428.958	574.94
429.181	551.94
429.403	564.94
429.625	571.94
429.847	595.94
430.069	665.94
430.292	689.94
430.514	571.94
430.736	574.94
430.958	556.94
431.18	532.94
431.402	518.94
431.624	515.94
431.846	556.94
432.068	536.94
432.29	559.94
432.512	541.94
432.734	553.94
432.956	552.94
433.178	563.94
433.4	535.94
433.622	543.94
433.844	553.94
434.066	535.94
434.287	535.94
434.509	556.94
434.731	548.94
434.953	581.94
435.175	576.94
435.397	616.94
435.618	589.94
435.84	659.94
436.062	757.94
436.284	811.94
436.505	700.94
436.727	625.94
436.949	575.94
437.17	591.94
437.392	574.94
437.614	599.94
437.835	593.94
438.057	714.94
438.278	804.94
438.5	802.94
438.721	888.94
438.943	886.94
439.165	657.94
439.386	622.94
439.608	617.94
439.829	609.94
440.05	629.94
440.272	663.94
440.493	640.94
440.715	638.94
440.936	600.94
441.158	560.94
441.379	592.94
441.6	592.94
441.822	599.94
442.043	661.94
442.264	731.94
442.486	759.94
442.707	674.94
442.928	630.94
443.149	616.94
443.371	657.94
443.592	685.94
443.813	784.94
444.034	872.94
444.255	726.94
444.476	631.94
444.698	586.94
444.919	617.94
445.14	711.94
445.361	649.94
445.582	671.94
445.803	742.94
446.024	857.94
446.245	849.94
446.466	745.94
446.687	649.94
446.908	628.94
447.129	583.94
447.35	586.94
447.571	568.94
447.792	556.94
448.013	560.94
448.234	554.94
448.455	647.94
448.675	757.94
448.896	894.94
449.117	741.94
449.338	680.94
449.559	799.94
449.779	905.94
450	737.94
450.221	615.94
450.442	573.94
450.662	546.94
450.883	566.94
451.104	551.94
451.324	555.94
451.545	544.94
451.766	517.94
451.986	495.94
452.207	482.94
452.428	494.94
452.648	520.94
452.869	509.94
453.089	517.94
453.31	536.94
453.53	527.94
453.751	491.94
453.971	521.94
454.192	532.94
454.412	527.94
454.633	496.94
454.853	491.94
455.073	511.94
455.294	535.94
455.514	567.94
455.734	579.94
455.955	486.94
456.175	473.94
456.395	474.94
456.616	480.94
456.836	485.94
457.056	469.94
457.276	460.94
457.497	474.94
457.717	484.94
457.937	479.94
458.157	496.94
458.377	501.94
458.598	505.94
458.818	588.94
459.038	631.94
459.258	677.94
459.478	588.94
459.698	542.94
459.918	503.94
460.138	552.94
460.358	537.94
460.578	575.94
460.798	556.94
461.018	559.94
461.238	551.94
461.458	541.94
461.678	541.94
461.898	550.94
462.118	551.94
462.338	568.94
462.558	570.94
462.777	590.94
462.997	598.94
463.217	600.94
463.437	620.94
463.657	601.94
463.876	593.94
464.096	584.94
464.316	582.94
464.536	602.94
464.755	591.94
464.975	599.94
465.195	637.94
465.414	676.94
465.634	628.94
465.854	588.94
466.073	534.94
466.293	545.94
466.512	527.94
466.732	508.94
466.951	531.94
467.171	535.94
467.391	525.94
467.61	537.94
467.829	534.94
468.049	528.94
468.268	550.94
468.488	517.94
468.707	496.94
468.927	491.94
469.146	506.94
469.365	517.94
469.585	511.94
469.804	517.94
470.023	506.94
470.243	527.94
470.462	532.94
470.681	521.94
470.901	553.94
471.12	530.94
471.339	551.94
471.558	543.94
471.777	542.94
471.997	490.94
472.216	517.94
472.435	569.94
472.654	545.94
472.873	519.94
473.092	543.94
473.311	507.94
473.53	522.94
473.749	538.94
473.968	554.94
474.187	684.94
474.406	712.94
474.625	560.94
474.844	544.94
475.063	533.94
475.282	531.94
475.501	497.94
475.72	523.94
475.939	537.94
476.158	556.94
476.377	570.94
476.596	573.94
476.814	569.94
477.033	577.94
477.252	563.94
477.471	559.94
477.69	571.94
477.908	569.94
478.127	582.94
478.346	572.94
478.564	618.94
478.783	616.94
479.002	605.94
479.22	619.94
479.439	629.94
479.658	624.94
479.876	633.94
480.095	647.94
480.313	674.94
480.532	678.94
480.751	649.94
480.969	656.94
481.188	677.94
481.406	739.94
481.624	665.94
481.843	632.94
482.061	614.94
482.28	636.94
482.498	616.94
482.717	601.94
482.935	623.94
483.153	629.94
483.372	607.94
483.59	607.94
483.808	608.94
484.027	616.94
484.245	606.94
484.463	593.94
484.681	633.94
484.9	635.94
485.118	656.94
485.336	663.94
485.554	649.94
485.772	653.94
485.99	644.94
486.209	638.94
486.427	666.94
486.645	660.94
486.863	684.94
487.081	670.94
487.299	668.94
487.517	655.94
487.735	647.94
487.953	646.94
488.171	686.94
488.389	657.94
488.607	687.94
488.825	665.94
489.043	686.94
489.261	685.94
489.479	670.94
489.696	683.94
489.914	691.94
490.132	683.94
490.35	701.94
490.568	697.94
490.786	692.94
491.003	720.94
491.221	732.94
491.439	779.94
491.657	752.94
491.874	754.94
492.092	767.94
492.31	744.94
492.527	765.94
492.745	775.94
492.963	747.94
493.18	761.94
493.398	789.94
493.615	784.94
493.833	773.94
494.05	801.94
494.268	783.94
494.485	759.94
494.703	786.94
494.92	775.94
495.138	787.94
495.355	797.94
495.573	785.94
495.79	791.94
496.008	824.94
496.225	778.94
496.442	779.94
496.66	805.94
496.877	805.94
497.094	778.94
497.312	791.94
497.529	825.94
497.746	830.94
497.963	812.94
498.181	878.94
498.398	855.94
498.615	863.94
498.832	932.94
499.049	926.94
499.267	943.94
499.484	1005.94
499.701	1011.94
499.918	1033.94
500.135	1136.94
500.352	1181.94
500.569	1177.94
500.786	1157.94
501.003	1144.94
501.22	1088.94
501.437	1093.94
501.654	1037.94
