Data from 1966.PennyLincolnUp.Lamp.En5.5.200Scan.071719.P1.Scan2.head_HRD10591_14-18-05-160.txt Node
Date: Thu Jul 18 14:18:05 EDT 2019
User: cochatt
Spectrometer: HR+D1059
Trigger mode: 1
Integration Time (sec): 1.000000E-1
Scans to average: 1
Electric dark correction enabled: true
Nonlinearity correction enabled: false
Boxcar width: 0
XAxis mode: Wavelengths
Number of Pixels in Spectrum: 2048
>>>>>Begin Spectral Data<<<<<
223.165	-18.25
223.4	-18.25
223.635	-18.25
223.869	2.75
224.104	-15.25
224.338	-12.25
224.573	-21.25
224.808	-5.25
225.042	3.75
225.277	-13.25
225.511	4.75
225.746	-7.25
225.98	2.75
226.215	11.75
226.449	-1.25
226.683	31.75
226.918	14.75
227.152	21.75
227.387	23.75
227.621	44.75
227.856	41.75
228.09	45.75
228.324	44.75
228.559	61.75
228.793	62.75
229.027	103.75
229.262	114.75
229.496	115.75
229.73	126.75
229.964	156.75
230.199	131.75
230.433	116.75
230.667	110.75
230.901	101.75
231.136	122.75
231.37	104.75
231.604	119.75
231.838	119.75
232.072	116.75
232.306	108.75
232.541	124.75
232.775	114.75
233.009	108.75
233.243	127.75
233.477	120.75
233.711	106.75
233.945	119.75
234.179	132.75
234.413	123.75
234.647	118.75
234.881	117.75
235.115	109.75
235.349	125.75
235.583	121.75
235.817	125.75
236.051	134.75
236.285	128.75
236.519	112.75
236.753	119.75
236.987	157.75
237.221	192.75
237.455	228.75
237.689	200.75
237.922	148.75
238.156	150.75
238.39	145.75
238.624	129.75
238.858	121.75
239.091	134.75
239.325	122.75
239.559	120.75
239.793	124.75
240.027	138.75
240.26	128.75
240.494	154.75
240.728	159.75
240.961	155.75
241.195	162.75
241.429	141.75
241.662	142.75
241.896	134.75
242.13	145.75
242.363	127.75
242.597	144.75
242.83	144.75
243.064	137.75
243.298	154.75
243.531	135.75
243.765	136.75
243.998	145.75
244.232	148.75
244.465	140.75
244.699	146.75
244.932	164.75
245.166	150.75
245.399	148.75
245.633	149.75
245.866	148.75
246.099	143.75
246.333	163.75
246.566	142.75
246.8	152.75
247.033	166.75
247.266	184.75
247.5	170.75
247.733	174.75
247.966	157.75
248.2	160.75
248.433	162.75
248.666	191.75
248.899	169.75
249.133	202.75
249.366	202.75
249.599	195.75
249.832	182.75
250.066	188.75
250.299	202.75
250.532	205.75
250.765	221.75
250.998	232.75
251.231	223.75
251.465	213.75
251.698	195.75
251.931	205.75
252.164	223.75
252.397	205.75
252.63	201.75
252.863	197.75
253.096	213.75
253.329	238.75
253.562	235.75
253.795	226.75
254.028	213.75
254.261	213.75
254.494	230.75
254.727	246.75
254.96	271.75
255.193	276.75
255.426	246.75
255.659	237.75
255.892	229.75
256.124	232.75
256.357	232.75
256.59	221.75
256.823	202.75
257.056	213.75
257.289	204.75
257.521	212.75
257.754	222.75
257.987	200.75
258.22	195.75
258.452	212.75
258.685	209.75
258.918	213.75
259.151	205.75
259.383	228.75
259.616	213.75
259.849	221.75
260.081	227.75
260.314	249.75
260.547	258.75
260.779	235.75
261.012	235.75
261.244	239.75
261.477	224.75
261.71	224.75
261.942	229.75
262.175	223.75
262.407	233.75
262.64	218.75
262.872	227.75
263.105	212.75
263.337	215.75
263.57	231.75
263.802	221.75
264.035	215.75
264.267	210.75
264.499	219.75
264.732	207.75
264.964	209.75
265.197	211.75
265.429	220.75
265.661	224.75
265.894	218.75
266.126	222.75
266.358	210.75
266.591	232.75
266.823	232.75
267.055	240.75
267.287	244.75
267.52	233.75
267.752	217.75
267.984	234.75
268.216	210.75
268.448	235.75
268.681	243.75
268.913	261.75
269.145	277.75
269.377	264.75
269.609	271.75
269.841	267.75
270.073	245.75
270.306	302.75
270.538	325.75
270.77	314.75
271.002	284.75
271.234	296.75
271.466	290.75
271.698	319.75
271.93	300.75
272.162	330.75
272.394	302.75
272.626	312.75
272.858	306.75
273.09	287.75
273.322	269.75
273.553	267.75
273.785	256.75
274.017	251.75
274.249	277.75
274.481	267.75
274.713	266.75
274.945	266.75
275.176	268.75
275.408	282.75
275.64	273.75
275.872	261.75
276.104	286.75
276.335	263.75
276.567	280.75
276.799	275.75
277.031	316.75
277.262	323.75
277.494	308.75
277.726	309.75
277.957	274.75
278.189	277.75
278.421	299.75
278.652	292.75
278.884	269.75
279.115	263.75
279.347	267.75
279.579	275.75
279.81	283.75
280.042	268.75
280.273	274.75
280.505	282.75
280.736	272.75
280.968	271.75
281.199	258.75
281.431	252.75
281.662	260.75
281.894	280.75
282.125	281.75
282.356	300.75
282.588	304.75
282.819	322.75
283.051	286.75
283.282	277.75
283.513	296.75
283.745	280.75
283.976	278.75
284.207	301.75
284.439	289.75
284.67	292.75
284.901	286.75
285.132	292.75
285.364	285.75
285.595	282.75
285.826	294.75
286.057	299.75
286.288	275.75
286.52	291.75
286.751	289.75
286.982	298.75
287.213	261.75
287.444	295.75
287.675	293.75
287.906	291.75
288.138	297.75
288.369	286.75
288.6	315.75
288.831	306.75
289.062	314.75
289.293	293.75
289.524	287.75
289.755	276.75
289.986	312.75
290.217	290.75
290.448	286.75
290.679	300.75
290.91	291.75
291.141	286.75
291.371	285.75
291.602	304.75
291.833	302.75
292.064	302.75
292.295	276.75
292.526	293.75
292.757	306.75
292.987	279.75
293.218	309.75
293.449	316.75
293.68	275.75
293.91	314.75
294.141	303.75
294.372	291.75
294.603	323.75
294.833	291.75
295.064	310.75
295.295	296.75
295.525	307.75
295.756	312.75
295.987	326.75
296.217	317.75
296.448	317.75
296.679	307.75
296.909	310.75
297.14	297.75
297.37	319.75
297.601	324.75
297.831	310.75
298.062	303.75
298.292	311.75
298.523	315.75
298.753	283.75
298.984	292.75
299.214	312.75
299.445	308.75
299.675	326.75
299.905	328.75
300.136	327.75
300.366	304.75
300.597	306.75
300.827	314.75
301.057	329.75
301.288	332.75
301.518	318.75
301.748	327.75
301.979	327.75
302.209	336.75
302.439	354.75
302.669	337.75
302.9	336.75
303.13	325.75
303.36	343.75
303.59	325.75
303.82	336.75
304.051	338.75
304.281	323.75
304.511	340.75
304.741	337.75
304.971	331.75
305.201	313.75
305.431	331.75
305.661	331.75
305.891	318.75
306.121	338.75
306.352	352.75
306.582	344.75
306.812	354.75
307.042	344.75
307.272	330.75
307.502	343.75
307.731	359.75
307.961	347.75
308.191	341.75
308.421	349.75
308.651	350.75
308.881	350.75
309.111	342.75
309.341	347.75
309.571	353.75
309.8	356.75
310.03	366.75
310.26	371.75
310.49	378.75
310.72	403.75
310.949	367.75
311.179	408.75
311.409	376.75
311.639	405.75
311.868	378.75
312.098	374.75
312.328	378.75
312.557	402.75
312.787	404.75
313.017	416.75
313.246	381.75
313.476	375.75
313.706	369.75
313.935	390.75
314.165	403.75
314.394	402.75
314.624	389.75
314.853	403.75
315.083	383.75
315.312	374.75
315.542	385.75
315.771	389.75
316.001	373.75
316.23	386.75
316.46	380.75
316.689	401.75
316.919	401.75
317.148	384.75
317.377	386.75
317.607	412.75
317.836	388.75
318.065	381.75
318.295	405.75
318.524	389.75
318.753	398.75
318.983	391.75
319.212	388.75
319.441	392.75
319.67	410.75
319.9	393.75
320.129	384.75
320.358	394.75
320.587	394.75
320.816	394.75
321.046	419.75
321.275	400.75
321.504	405.75
321.733	386.75
321.962	404.75
322.191	429.75
322.42	448.75
322.649	432.75
322.878	462.75
323.108	456.75
323.337	463.75
323.566	494.75
323.795	479.75
324.024	559.75
324.253	671.75
324.482	910.75
324.71	1477.75
324.939	2154.75
325.168	1846.75
325.397	945.75
325.626	642.75
325.855	541.75
326.084	498.75
326.313	482.75
326.542	488.75
326.77	538.75
326.999	606.75
327.228	839.75
327.457	1316.75
327.686	1636.75
327.914	1081.75
328.143	701.75
328.372	619.75
328.6	572.75
328.829	555.75
329.058	571.75
329.287	570.75
329.515	545.75
329.744	529.75
329.972	516.75
330.201	549.75
330.43	562.75
330.658	610.75
330.887	611.75
331.115	595.75
331.344	530.75
331.572	493.75
331.801	483.75
332.03	488.75
332.258	469.75
332.486	463.75
332.715	458.75
332.943	460.75
333.172	481.75
333.4	462.75
333.629	456.75
333.857	495.75
334.085	524.75
334.314	540.75
334.542	568.75
334.771	555.75
334.999	508.75
335.227	492.75
335.455	475.75
335.684	466.75
335.912	477.75
336.14	455.75
336.369	455.75
336.597	493.75
336.825	478.75
337.053	463.75
337.281	452.75
337.51	461.75
337.738	447.75
337.966	455.75
338.194	468.75
338.422	457.75
338.65	449.75
338.878	462.75
339.106	455.75
339.334	443.75
339.562	426.75
339.79	462.75
340.018	461.75
340.246	436.75
340.474	458.75
340.702	443.75
340.93	445.75
341.158	429.75
341.386	460.75
341.614	447.75
341.842	447.75
342.07	453.75
342.298	423.75
342.526	437.75
342.754	436.75
342.981	446.75
343.209	454.75
343.437	444.75
343.665	445.75
343.893	445.75
344.12	473.75
344.348	490.75
344.576	463.75
344.804	451.75
345.031	444.75
345.259	468.75
345.487	473.75
345.714	479.75
345.942	426.75
346.17	446.75
346.397	450.75
346.625	430.75
346.853	440.75
347.08	420.75
347.308	438.75
347.535	441.75
347.763	456.75
347.99	447.75
348.218	457.75
348.445	447.75
348.673	458.75
348.9	427.75
349.128	444.75
349.355	429.75
349.583	401.75
349.81	428.75
350.037	421.75
350.265	435.75
350.492	436.75
350.72	411.75
350.947	441.75
351.174	455.75
351.402	418.75
351.629	439.75
351.856	442.75
352.083	456.75
352.311	470.75
352.538	455.75
352.765	453.75
352.992	428.75
353.22	430.75
353.447	458.75
353.674	426.75
353.901	423.75
354.128	436.75
354.355	434.75
354.583	409.75
354.81	413.75
355.037	408.75
355.264	398.75
355.491	422.75
355.718	416.75
355.945	399.75
356.172	412.75
356.399	399.75
356.626	413.75
356.853	440.75
357.08	414.75
357.307	389.75
357.534	413.75
357.761	419.75
357.988	401.75
358.215	400.75
358.441	402.75
358.668	424.75
358.895	424.75
359.122	441.75
359.349	420.75
359.576	429.75
359.802	464.75
360.029	467.75
360.256	498.75
360.483	471.75
360.709	455.75
360.936	453.75
361.163	436.75
361.39	445.75
361.616	465.75
361.843	430.75
362.07	436.75
362.296	429.75
362.523	415.75
362.749	471.75
362.976	452.75
363.203	423.75
363.429	441.75
363.656	429.75
363.882	425.75
364.109	450.75
364.335	413.75
364.562	428.75
364.788	415.75
365.015	422.75
365.241	450.75
365.468	426.75
365.694	443.75
365.92	450.75
366.147	444.75
366.373	421.75
366.599	416.75
366.826	442.75
367.052	428.75
367.278	437.75
367.505	420.75
367.731	411.75
367.957	431.75
368.184	442.75
368.41	454.75
368.636	435.75
368.862	454.75
369.089	449.75
369.315	430.75
369.541	432.75
369.767	426.75
369.993	431.75
370.219	440.75
370.445	429.75
370.672	429.75
370.898	431.75
371.124	435.75
371.35	415.75
371.576	428.75
371.802	431.75
372.028	428.75
372.254	437.75
372.48	433.75
372.706	448.75
372.932	434.75
373.158	446.75
373.384	434.75
373.61	420.75
373.835	436.75
374.061	438.75
374.287	457.75
374.513	445.75
374.739	441.75
374.965	439.75
375.191	467.75
375.416	447.75
375.642	421.75
375.868	453.75
376.094	424.75
376.319	453.75
376.545	453.75
376.771	443.75
376.997	430.75
377.222	452.75
377.448	428.75
377.674	443.75
377.899	400.75
378.125	410.75
378.35	434.75
378.576	444.75
378.802	447.75
379.027	452.75
379.253	418.75
379.478	452.75
379.704	435.75
379.929	429.75
380.155	432.75
380.38	444.75
380.606	425.75
380.831	443.75
381.057	449.75
381.282	450.75
381.507	436.75
381.733	457.75
381.958	448.75
382.184	460.75
382.409	458.75
382.634	453.75
382.86	464.75
383.085	438.75
383.31	449.75
383.535	461.75
383.761	448.75
383.986	466.75
384.211	452.75
384.436	469.75
384.662	468.75
384.887	470.75
385.112	476.75
385.337	471.75
385.562	484.75
385.787	487.75
386.013	484.75
386.238	490.75
386.463	480.75
386.688	486.75
386.913	486.75
387.138	466.75
387.363	462.75
387.588	464.75
387.813	484.75
388.038	484.75
388.263	487.75
388.488	477.75
388.713	507.75
388.938	500.75
389.163	507.75
389.387	502.75
389.612	486.75
389.837	479.75
390.062	471.75
390.287	472.75
390.512	496.75
390.736	464.75
390.961	485.75
391.186	495.75
391.411	480.75
391.636	490.75
391.86	514.75
392.085	504.75
392.31	510.75
392.534	491.75
392.759	499.75
392.984	486.75
393.208	485.75
393.433	497.75
393.658	498.75
393.882	491.75
394.107	491.75
394.331	504.75
394.556	498.75
394.78	505.75
395.005	524.75
395.229	513.75
395.454	504.75
395.678	512.75
395.903	526.75
396.127	544.75
396.352	545.75
396.576	523.75
396.801	526.75
397.025	508.75
397.249	519.75
397.474	519.75
397.698	523.75
397.922	552.75
398.147	556.75
398.371	549.75
398.595	549.75
398.82	550.75
399.044	562.75
399.268	597.75
399.492	642.75
399.717	638.75
399.941	679.75
400.165	694.75
400.389	693.75
400.613	672.75
400.837	598.75
401.062	592.75
401.286	605.75
401.51	583.75
401.734	566.75
401.958	582.75
402.182	558.75
402.406	598.75
402.63	606.75
402.854	571.75
403.078	562.75
403.302	593.75
403.526	575.75
403.75	605.75
403.974	592.75
404.198	575.75
404.422	605.75
404.645	599.75
404.869	603.75
405.093	613.75
405.317	674.75
405.541	701.75
405.765	648.75
405.988	605.75
406.212	622.75
406.436	654.75
406.66	665.75
406.883	628.75
407.107	636.75
407.331	700.75
407.555	781.75
407.778	770.75
408.002	714.75
408.226	670.75
408.449	649.75
408.673	646.75
408.896	667.75
409.12	723.75
409.344	694.75
409.567	601.75
409.791	590.75
410.014	597.75
410.238	607.75
410.461	587.75
410.685	614.75
410.908	619.75
411.132	652.75
411.355	659.75
411.578	641.75
411.802	590.75
412.025	604.75
412.249	613.75
412.472	629.75
412.695	678.75
412.919	664.75
413.142	591.75
413.365	605.75
413.589	595.75
413.812	571.75
414.035	580.75
414.258	572.75
414.482	551.75
414.705	582.75
414.928	560.75
415.151	567.75
415.374	574.75
415.597	586.75
415.821	551.75
416.044	538.75
416.267	556.75
416.49	550.75
416.713	563.75
416.936	578.75
417.159	549.75
417.382	554.75
417.605	561.75
417.828	579.75
418.051	567.75
418.274	570.75
418.497	561.75
418.72	546.75
418.943	581.75
419.166	580.75
419.389	607.75
419.611	615.75
419.834	591.75
420.057	604.75
420.28	584.75
420.503	578.75
420.726	567.75
420.948	586.75
421.171	642.75
421.394	677.75
421.617	616.75
421.839	587.75
422.062	588.75
422.285	607.75
422.507	642.75
422.73	738.75
422.953	698.75
423.175	648.75
423.398	613.75
423.621	590.75
423.843	611.75
424.066	623.75
424.288	637.75
424.511	651.75
424.733	696.75
424.956	782.75
425.178	728.75
425.401	754.75
425.623	788.75
425.846	683.75
426.068	613.75
426.291	621.75
426.513	590.75
426.735	623.75
426.958	660.75
427.18	748.75
427.402	886.75
427.625	990.75
427.847	845.75
428.069	757.75
428.292	677.75
428.514	606.75
428.736	608.75
428.958	611.75
429.181	592.75
429.403	584.75
429.625	572.75
429.847	611.75
430.069	677.75
430.292	676.75
430.514	598.75
430.736	597.75
430.958	575.75
431.18	556.75
431.402	550.75
431.624	534.75
431.846	543.75
432.068	546.75
432.29	554.75
432.512	541.75
432.734	560.75
432.956	560.75
433.178	559.75
433.4	564.75
433.622	568.75
433.844	556.75
434.066	566.75
434.287	570.75
434.509	564.75
434.731	566.75
434.953	563.75
435.175	577.75
435.397	618.75
435.618	627.75
435.84	658.75
436.062	756.75
436.284	834.75
436.505	697.75
436.727	656.75
436.949	606.75
437.17	597.75
437.392	577.75
437.614	598.75
437.835	604.75
438.057	746.75
438.278	823.75
438.5	842.75
438.721	904.75
438.943	895.75
439.165	667.75
439.386	652.75
439.608	626.75
439.829	602.75
440.05	664.75
440.272	698.75
440.493	649.75
440.715	605.75
440.936	581.75
441.158	578.75
441.379	592.75
441.6	607.75
441.822	624.75
442.043	653.75
442.264	760.75
442.486	796.75
442.707	667.75
442.928	638.75
443.149	636.75
443.371	657.75
443.592	725.75
443.813	834.75
444.034	902.75
444.255	716.75
444.476	660.75
444.698	640.75
444.919	630.75
445.14	763.75
445.361	698.75
445.582	661.75
445.803	758.75
446.024	867.75
446.245	846.75
446.466	786.75
446.687	666.75
446.908	627.75
447.129	594.75
447.35	556.75
447.571	581.75
447.792	564.75
448.013	572.75
448.234	594.75
448.455	635.75
448.675	761.75
448.896	882.75
449.117	747.75
449.338	716.75
449.559	841.75
449.779	940.75
450	748.75
450.221	624.75
450.442	582.75
450.662	565.75
450.883	565.75
451.104	582.75
451.324	562.75
451.545	543.75
451.766	549.75
451.986	507.75
452.207	534.75
452.428	501.75
452.648	524.75
452.869	514.75
453.089	527.75
453.31	524.75
453.53	517.75
453.751	502.75
453.971	502.75
454.192	553.75
454.412	537.75
454.633	517.75
454.853	516.75
455.073	509.75
455.294	543.75
455.514	618.75
455.734	592.75
455.955	529.75
456.175	497.75
456.395	495.75
456.616	506.75
456.836	491.75
457.056	484.75
457.276	495.75
457.497	502.75
457.717	499.75
457.937	503.75
458.157	503.75
458.377	520.75
458.598	543.75
458.818	588.75
459.038	687.75
459.258	676.75
459.478	620.75
459.698	562.75
459.918	534.75
460.138	548.75
460.358	537.75
460.578	563.75
460.798	569.75
461.018	571.75
461.238	546.75
461.458	557.75
461.678	568.75
461.898	564.75
462.118	568.75
462.338	600.75
462.558	596.75
462.777	598.75
462.997	604.75
463.217	644.75
463.437	632.75
463.657	619.75
463.876	604.75
464.096	607.75
464.316	583.75
464.536	616.75
464.755	599.75
464.975	622.75
465.195	631.75
465.414	696.75
465.634	638.75
465.854	592.75
466.073	575.75
466.293	568.75
466.512	544.75
466.732	534.75
466.951	542.75
467.171	510.75
467.391	534.75
467.61	531.75
467.829	572.75
468.049	538.75
468.268	548.75
468.488	572.75
468.707	546.75
468.927	515.75
469.146	518.75
469.365	527.75
469.585	517.75
469.804	538.75
470.023	564.75
470.243	556.75
470.462	542.75
470.681	568.75
470.901	565.75
471.12	558.75
471.339	552.75
471.558	535.75
471.777	545.75
471.997	528.75
472.216	562.75
472.435	581.75
472.654	572.75
472.873	543.75
473.092	531.75
473.311	520.75
473.53	539.75
473.749	563.75
473.968	595.75
474.187	701.75
474.406	728.75
474.625	602.75
474.844	542.75
475.063	552.75
475.282	532.75
475.501	540.75
475.72	575.75
475.939	563.75
476.158	562.75
476.377	555.75
476.596	556.75
476.814	576.75
477.033	582.75
477.252	579.75
477.471	572.75
477.69	578.75
477.908	602.75
478.127	590.75
478.346	584.75
478.564	605.75
478.783	592.75
479.002	618.75
479.22	605.75
479.439	628.75
479.658	658.75
479.876	651.75
480.095	680.75
480.313	686.75
480.532	690.75
480.751	662.75
480.969	668.75
481.188	709.75
481.406	780.75
481.624	712.75
481.843	670.75
482.061	645.75
482.28	655.75
482.498	621.75
482.717	636.75
482.935	630.75
483.153	640.75
483.372	644.75
483.59	635.75
483.808	636.75
484.027	650.75
484.245	642.75
484.463	631.75
484.681	683.75
484.9	628.75
485.118	680.75
485.336	656.75
485.554	661.75
485.772	663.75
485.99	660.75
486.209	657.75
486.427	660.75
486.645	671.75
486.863	700.75
487.081	679.75
487.299	690.75
487.517	698.75
487.735	676.75
487.953	651.75
488.171	683.75
488.389	693.75
488.607	686.75
488.825	688.75
489.043	666.75
489.261	697.75
489.479	685.75
489.696	683.75
489.914	692.75
490.132	712.75
490.35	715.75
490.568	708.75
490.786	723.75
491.003	736.75
491.221	767.75
491.439	776.75
491.657	783.75
491.874	802.75
492.092	786.75
492.31	797.75
492.527	776.75
492.745	799.75
492.963	810.75
493.18	781.75
493.398	798.75
493.615	786.75
493.833	814.75
494.05	824.75
494.268	806.75
494.485	785.75
494.703	797.75
494.92	811.75
495.138	797.75
495.355	812.75
495.573	810.75
495.79	814.75
496.008	830.75
496.225	816.75
496.442	839.75
496.66	827.75
496.877	812.75
497.094	835.75
497.312	839.75
497.529	835.75
497.746	867.75
497.963	855.75
498.181	887.75
498.398	902.75
498.615	901.75
498.832	930.75
499.049	943.75
499.267	973.75
499.484	1001.75
499.701	1031.75
499.918	1077.75
500.135	1144.75
500.352	1188.75
500.569	1205.75
500.786	1226.75
501.003	1158.75
501.22	1150.75
501.437	1123.75
501.654	1070.75
