Data from 1966.PennyLincolnUp.Lamp.En5.5.200Scan.071719.P1._HRD10591_14-12-19-913.txt Node
Date: Thu Jul 18 14:12:19 EDT 2019
User: cochatt
Spectrometer: HR+D1059
Trigger mode: 1
Integration Time (sec): 1.000000E-1
Scans to average: 1
Electric dark correction enabled: true
Nonlinearity correction enabled: false
Boxcar width: 0
XAxis mode: Wavelengths
Number of Pixels in Spectrum: 2048
>>>>>Begin Spectral Data<<<<<
223.165	-16.75
223.4	-16.75
223.635	-16.75
223.869	-26.75
224.104	-23.75
224.338	-19.75
224.573	-0.75
224.808	-14.75
225.042	-8.75
225.277	-4.75
225.511	-7.75
225.746	9.25
225.98	-1.75
226.215	8.25
226.449	19.25
226.683	27.25
226.918	31.25
227.152	30.25
227.387	29.25
227.621	36.25
227.856	25.25
228.09	55.25
228.324	34.25
228.559	54.25
228.793	61.25
229.027	66.25
229.262	69.25
229.496	90.25
229.73	92.25
229.964	102.25
230.199	99.25
230.433	84.25
230.667	78.25
230.901	85.25
231.136	91.25
231.37	87.25
231.604	86.25
231.838	91.25
232.072	85.25
232.306	92.25
232.541	106.25
232.775	96.25
233.009	85.25
233.243	95.25
233.477	102.25
233.711	91.25
233.945	97.25
234.179	93.25
234.413	88.25
234.647	89.25
234.881	103.25
235.115	104.25
235.349	105.25
235.583	86.25
235.817	94.25
236.051	93.25
236.285	96.25
236.519	92.25
236.753	108.25
236.987	102.25
237.221	121.25
237.455	123.25
237.689	125.25
237.922	104.25
238.156	101.25
238.39	97.25
238.624	87.25
238.858	101.25
239.091	82.25
239.325	95.25
239.559	96.25
239.793	90.25
240.027	86.25
240.26	87.25
240.494	108.25
240.728	105.25
240.961	113.25
241.195	105.25
241.429	89.25
241.662	102.25
241.896	99.25
242.13	102.25
242.363	99.25
242.597	87.25
242.83	94.25
243.064	89.25
243.298	93.25
243.531	102.25
243.765	88.25
243.998	94.25
244.232	100.25
244.465	116.25
244.699	92.25
244.932	113.25
245.166	102.25
245.399	104.25
245.633	103.25
245.866	98.25
246.099	97.25
246.333	92.25
246.566	88.25
246.8	97.25
247.033	112.25
247.266	120.25
247.5	122.25
247.733	112.25
247.966	109.25
248.2	107.25
248.433	104.25
248.666	103.25
248.899	118.25
249.133	117.25
249.366	124.25
249.599	121.25
249.832	121.25
250.066	119.25
250.299	116.25
250.532	106.25
250.765	115.25
250.998	124.25
251.231	135.25
251.465	119.25
251.698	120.25
251.931	110.25
252.164	106.25
252.397	123.25
252.63	119.25
252.863	137.25
253.096	126.25
253.329	138.25
253.562	125.25
253.795	116.25
254.028	111.25
254.261	128.25
254.494	129.25
254.727	149.25
254.96	150.25
255.193	159.25
255.426	138.25
255.659	132.25
255.892	125.25
256.124	127.25
256.357	125.25
256.59	128.25
256.823	117.25
257.056	123.25
257.289	125.25
257.521	125.25
257.754	126.25
257.987	121.25
258.22	130.25
258.452	119.25
258.685	119.25
258.918	121.25
259.151	122.25
259.383	138.25
259.616	130.25
259.849	124.25
260.081	131.25
260.314	141.25
260.547	143.25
260.779	132.25
261.012	133.25
261.244	130.25
261.477	131.25
261.71	128.25
261.942	138.25
262.175	148.25
262.407	132.25
262.64	121.25
262.872	125.25
263.105	130.25
263.337	133.25
263.57	128.25
263.802	119.25
264.035	117.25
264.267	124.25
264.499	131.25
264.732	128.25
264.964	131.25
265.197	138.25
265.429	123.25
265.661	125.25
265.894	132.25
266.126	142.25
266.358	140.25
266.591	143.25
266.823	141.25
267.055	132.25
267.287	145.25
267.52	140.25
267.752	135.25
267.984	138.25
268.216	135.25
268.448	135.25
268.681	135.25
268.913	147.25
269.145	155.25
269.377	152.25
269.609	142.25
269.841	161.25
270.073	151.25
270.306	167.25
270.538	159.25
270.77	165.25
271.002	155.25
271.234	163.25
271.466	168.25
271.698	159.25
271.93	162.25
272.162	174.25
272.394	165.25
272.626	144.25
272.858	161.25
273.09	145.25
273.322	155.25
273.553	149.25
273.785	148.25
274.017	133.25
274.249	146.25
274.481	135.25
274.713	144.25
274.945	145.25
275.176	161.25
275.408	148.25
275.64	145.25
275.872	146.25
276.104	143.25
276.335	137.25
276.567	146.25
276.799	153.25
277.031	180.25
277.262	168.25
277.494	176.25
277.726	159.25
277.957	141.25
278.189	147.25
278.421	136.25
278.652	137.25
278.884	152.25
279.115	147.25
279.347	161.25
279.579	156.25
279.81	168.25
280.042	151.25
280.273	145.25
280.505	154.25
280.736	148.25
280.968	159.25
281.199	154.25
281.431	153.25
281.662	156.25
281.894	152.25
282.125	151.25
282.356	149.25
282.588	157.25
282.819	160.25
283.051	168.25
283.282	157.25
283.513	168.25
283.745	148.25
283.976	163.25
284.207	164.25
284.439	157.25
284.67	156.25
284.901	155.25
285.132	155.25
285.364	142.25
285.595	150.25
285.826	159.25
286.057	167.25
286.288	137.25
286.52	159.25
286.751	145.25
286.982	158.25
287.213	154.25
287.444	146.25
287.675	158.25
287.906	159.25
288.138	171.25
288.369	149.25
288.6	154.25
288.831	149.25
289.062	152.25
289.293	162.25
289.524	163.25
289.755	140.25
289.986	153.25
290.217	153.25
290.448	155.25
290.679	153.25
290.91	165.25
291.141	153.25
291.371	157.25
291.602	177.25
291.833	171.25
292.064	149.25
292.295	175.25
292.526	159.25
292.757	153.25
292.987	155.25
293.218	135.25
293.449	164.25
293.68	157.25
293.91	167.25
294.141	154.25
294.372	161.25
294.603	152.25
294.833	147.25
295.064	153.25
295.295	164.25
295.525	161.25
295.756	166.25
295.987	156.25
296.217	171.25
296.448	181.25
296.679	167.25
296.909	158.25
297.14	170.25
297.37	159.25
297.601	166.25
297.831	158.25
298.062	173.25
298.292	180.25
298.523	165.25
298.753	149.25
298.984	166.25
299.214	170.25
299.445	158.25
299.675	163.25
299.905	166.25
300.136	169.25
300.366	167.25
300.597	171.25
300.827	169.25
301.057	174.25
301.288	183.25
301.518	173.25
301.748	179.25
301.979	170.25
302.209	161.25
302.439	168.25
302.669	168.25
302.9	169.25
303.13	180.25
303.36	195.25
303.59	171.25
303.82	175.25
304.051	183.25
304.281	183.25
304.511	190.25
304.741	182.25
304.971	161.25
305.201	164.25
305.431	153.25
305.661	172.25
305.891	152.25
306.121	174.25
306.352	163.25
306.582	184.25
306.812	185.25
307.042	174.25
307.272	169.25
307.502	167.25
307.731	172.25
307.961	172.25
308.191	179.25
308.421	180.25
308.651	180.25
308.881	185.25
309.111	180.25
309.341	173.25
309.571	167.25
309.8	173.25
310.03	193.25
310.26	186.25
310.49	173.25
310.72	194.25
310.949	196.25
311.179	181.25
311.409	185.25
311.639	199.25
311.868	177.25
312.098	187.25
312.328	200.25
312.557	219.25
312.787	195.25
313.017	209.25
313.246	200.25
313.476	202.25
313.706	182.25
313.935	193.25
314.165	188.25
314.394	191.25
314.624	202.25
314.853	193.25
315.083	189.25
315.312	205.25
315.542	190.25
315.771	196.25
316.001	190.25
316.23	193.25
316.46	188.25
316.689	193.25
316.919	179.25
317.148	201.25
317.377	215.25
317.607	188.25
317.836	199.25
318.065	199.25
318.295	200.25
318.524	185.25
318.753	187.25
318.983	180.25
319.212	179.25
319.441	184.25
319.67	202.25
319.9	171.25
320.129	188.25
320.358	196.25
320.587	193.25
320.816	192.25
321.046	191.25
321.275	217.25
321.504	186.25
321.733	188.25
321.962	198.25
322.191	203.25
322.42	201.25
322.649	215.25
322.878	236.25
323.108	226.25
323.337	228.25
323.566	226.25
323.795	246.25
324.024	263.25
324.253	325.25
324.482	466.25
324.71	687.25
324.939	942.25
325.168	756.25
325.397	397.25
325.626	273.25
325.855	223.25
326.084	220.25
326.313	230.25
326.542	236.25
326.77	241.25
326.999	303.25
327.228	428.25
327.457	615.25
327.686	690.25
327.914	457.25
328.143	300.25
328.372	275.25
328.6	282.25
328.829	272.25
329.058	281.25
329.287	286.25
329.515	262.25
329.744	230.25
329.972	233.25
330.201	248.25
330.43	270.25
330.658	295.25
330.887	299.25
331.115	277.25
331.344	263.25
331.572	243.25
331.801	251.25
332.03	223.25
332.258	233.25
332.486	219.25
332.715	223.25
332.943	218.25
333.172	227.25
333.4	203.25
333.629	238.25
333.857	232.25
334.085	233.25
334.314	255.25
334.542	260.25
334.771	275.25
334.999	250.25
335.227	227.25
335.455	230.25
335.684	209.25
335.912	224.25
336.14	201.25
336.369	219.25
336.597	233.25
336.825	223.25
337.053	227.25
337.281	209.25
337.51	213.25
337.738	197.25
337.966	205.25
338.194	204.25
338.422	213.25
338.65	209.25
338.878	227.25
339.106	215.25
339.334	227.25
339.562	214.25
339.79	218.25
340.018	198.25
340.246	227.25
340.474	203.25
340.702	216.25
340.93	223.25
341.158	198.25
341.386	200.25
341.614	205.25
341.842	214.25
342.07	219.25
342.298	209.25
342.526	215.25
342.754	204.25
342.981	205.25
343.209	204.25
343.437	201.25
343.665	188.25
343.893	190.25
344.12	192.25
344.348	219.25
344.576	211.25
344.804	212.25
345.031	213.25
345.259	212.25
345.487	220.25
345.714	213.25
345.942	197.25
346.17	209.25
346.397	205.25
346.625	201.25
346.853	206.25
347.08	202.25
347.308	195.25
347.535	208.25
347.763	211.25
347.99	201.25
348.218	195.25
348.445	208.25
348.673	197.25
348.9	196.25
349.128	194.25
349.355	207.25
349.583	200.25
349.81	188.25
350.037	198.25
350.265	212.25
350.492	200.25
350.72	185.25
350.947	213.25
351.174	205.25
351.402	209.25
351.629	204.25
351.856	209.25
352.083	213.25
352.311	206.25
352.538	222.25
352.765	200.25
352.992	192.25
353.22	206.25
353.447	204.25
353.674	186.25
353.901	189.25
354.128	198.25
354.355	194.25
354.583	188.25
354.81	191.25
355.037	188.25
355.264	181.25
355.491	199.25
355.718	192.25
355.945	197.25
356.172	199.25
356.399	178.25
356.626	177.25
356.853	195.25
357.08	191.25
357.307	192.25
357.534	191.25
357.761	177.25
357.988	193.25
358.215	185.25
358.441	181.25
358.668	191.25
358.895	192.25
359.122	188.25
359.349	191.25
359.576	207.25
359.802	199.25
360.029	234.25
360.256	220.25
360.483	212.25
360.709	188.25
360.936	203.25
361.163	190.25
361.39	198.25
361.616	191.25
361.843	203.25
362.07	178.25
362.296	201.25
362.523	197.25
362.749	185.25
362.976	189.25
363.203	191.25
363.429	199.25
363.656	189.25
363.882	179.25
364.109	193.25
364.335	191.25
364.562	199.25
364.788	189.25
365.015	195.25
365.241	197.25
365.468	207.25
365.694	198.25
365.92	187.25
366.147	197.25
366.373	186.25
366.599	165.25
366.826	187.25
367.052	189.25
367.278	205.25
367.505	184.25
367.731	203.25
367.957	202.25
368.184	200.25
368.41	191.25
368.636	194.25
368.862	200.25
369.089	187.25
369.315	182.25
369.541	173.25
369.767	197.25
369.993	213.25
370.219	204.25
370.445	202.25
370.672	194.25
370.898	208.25
371.124	197.25
371.35	192.25
371.576	190.25
371.802	173.25
372.028	191.25
372.254	187.25
372.48	195.25
372.706	204.25
372.932	191.25
373.158	187.25
373.384	193.25
373.61	205.25
373.835	192.25
374.061	190.25
374.287	203.25
374.513	190.25
374.739	187.25
374.965	192.25
375.191	202.25
375.416	196.25
375.642	205.25
375.868	187.25
376.094	183.25
376.319	196.25
376.545	177.25
376.771	198.25
376.997	193.25
377.222	197.25
377.448	215.25
377.674	171.25
377.899	183.25
378.125	201.25
378.35	179.25
378.576	192.25
378.802	184.25
379.027	201.25
379.253	191.25
379.478	189.25
379.704	181.25
379.929	206.25
380.155	198.25
380.38	172.25
380.606	195.25
380.831	182.25
381.057	182.25
381.282	193.25
381.507	193.25
381.733	203.25
381.958	190.25
382.184	200.25
382.409	172.25
382.634	204.25
382.86	205.25
383.085	215.25
383.31	202.25
383.535	208.25
383.761	204.25
383.986	213.25
384.211	213.25
384.436	197.25
384.662	196.25
384.887	210.25
385.112	216.25
385.337	205.25
385.562	200.25
385.787	206.25
386.013	231.25
386.238	217.25
386.463	210.25
386.688	213.25
386.913	206.25
387.138	221.25
387.363	203.25
387.588	207.25
387.813	202.25
388.038	205.25
388.263	233.25
388.488	214.25
388.713	197.25
388.938	214.25
389.163	208.25
389.387	201.25
389.612	208.25
389.837	209.25
390.062	207.25
390.287	206.25
390.512	206.25
390.736	198.25
390.961	207.25
391.186	205.25
391.411	207.25
391.636	204.25
391.86	203.25
392.085	207.25
392.31	221.25
392.534	211.25
392.759	225.25
392.984	203.25
393.208	223.25
393.433	238.25
393.658	240.25
393.882	209.25
394.107	207.25
394.331	213.25
394.556	215.25
394.78	216.25
395.005	206.25
395.229	219.25
395.454	204.25
395.678	219.25
395.903	219.25
396.127	235.25
396.352	222.25
396.576	234.25
396.801	213.25
397.025	221.25
397.249	235.25
397.474	236.25
397.698	208.25
397.922	235.25
398.147	225.25
398.371	238.25
398.595	230.25
398.82	230.25
399.044	236.25
399.268	247.25
399.492	251.25
399.717	257.25
399.941	277.25
400.165	280.25
400.389	269.25
400.613	251.25
400.837	255.25
401.062	247.25
401.286	224.25
401.51	237.25
401.734	229.25
401.958	224.25
402.182	251.25
402.406	237.25
402.63	238.25
402.854	235.25
403.078	245.25
403.302	240.25
403.526	249.25
403.75	247.25
403.974	233.25
404.198	247.25
404.422	259.25
404.645	247.25
404.869	232.25
405.093	267.25
405.317	287.25
405.541	293.25
405.765	255.25
405.988	243.25
406.212	263.25
406.436	259.25
406.66	268.25
406.883	262.25
407.107	274.25
407.331	273.25
407.555	309.25
407.778	317.25
408.002	271.25
408.226	262.25
408.449	271.25
408.673	255.25
408.896	279.25
409.12	274.25
409.344	289.25
409.567	251.25
409.791	260.25
410.014	252.25
410.238	225.25
410.461	241.25
410.685	247.25
410.908	271.25
411.132	261.25
411.355	263.25
411.578	259.25
411.802	244.25
412.025	239.25
412.249	251.25
412.472	240.25
412.695	269.25
412.919	279.25
413.142	256.25
413.365	243.25
413.589	233.25
413.812	226.25
414.035	234.25
414.258	239.25
414.482	235.25
414.705	229.25
414.928	230.25
415.151	241.25
415.374	237.25
415.597	222.25
415.821	236.25
416.044	228.25
416.267	234.25
416.49	227.25
416.713	256.25
416.936	229.25
417.159	225.25
417.382	233.25
417.605	238.25
417.828	262.25
418.051	245.25
418.274	247.25
418.497	236.25
418.72	219.25
418.943	240.25
419.166	257.25
419.389	235.25
419.611	232.25
419.834	251.25
420.057	242.25
420.28	245.25
420.503	253.25
420.726	228.25
420.948	235.25
421.171	247.25
421.394	286.25
421.617	257.25
421.839	256.25
422.062	248.25
422.285	245.25
422.507	246.25
422.73	292.25
422.953	290.25
423.175	260.25
423.398	252.25
423.621	266.25
423.843	265.25
424.066	257.25
424.288	271.25
424.511	252.25
424.733	275.25
424.956	304.25
425.178	294.25
425.401	302.25
425.623	307.25
425.846	263.25
426.068	250.25
426.291	244.25
426.513	250.25
426.735	267.25
426.958	261.25
427.18	312.25
427.402	361.25
427.625	379.25
427.847	339.25
428.069	297.25
428.292	272.25
428.514	254.25
428.736	249.25
428.958	244.25
429.181	225.25
429.403	245.25
429.625	241.25
429.847	253.25
430.069	277.25
430.292	265.25
430.514	254.25
430.736	235.25
430.958	242.25
431.18	231.25
431.402	213.25
431.624	223.25
431.846	228.25
432.068	212.25
432.29	235.25
432.512	232.25
432.734	235.25
432.956	234.25
433.178	236.25
433.4	227.25
433.622	215.25
433.844	222.25
434.066	228.25
434.287	228.25
434.509	252.25
434.731	237.25
434.953	240.25
435.175	238.25
435.397	253.25
435.618	256.25
435.84	277.25
436.062	308.25
436.284	330.25
436.505	264.25
436.727	247.25
436.949	245.25
437.17	237.25
437.392	231.25
437.614	257.25
437.835	259.25
438.057	291.25
438.278	327.25
438.5	335.25
438.721	355.25
438.943	341.25
439.165	269.25
439.386	255.25
439.608	269.25
439.829	281.25
440.05	262.25
440.272	278.25
440.493	257.25
440.715	247.25
440.936	253.25
441.158	238.25
441.379	238.25
441.6	227.25
441.822	261.25
442.043	271.25
442.264	305.25
442.486	291.25
442.707	266.25
442.928	265.25
443.149	272.25
443.371	268.25
443.592	303.25
443.813	333.25
444.034	346.25
444.255	282.25
444.476	272.25
444.698	249.25
444.919	236.25
445.14	367.25
445.361	317.25
445.582	290.25
445.803	301.25
446.024	355.25
446.245	345.25
446.466	324.25
446.687	265.25
446.908	265.25
447.129	240.25
447.35	240.25
447.571	217.25
447.792	234.25
448.013	238.25
448.234	240.25
448.455	278.25
448.675	325.25
448.896	343.25
449.117	280.25
449.338	283.25
449.559	337.25
449.779	352.25
450	287.25
450.221	233.25
450.442	229.25
450.662	227.25
450.883	228.25
451.104	238.25
451.324	239.25
451.545	231.25
451.766	215.25
451.986	202.25
452.207	223.25
452.428	219.25
452.648	221.25
452.869	211.25
453.089	223.25
453.31	229.25
453.53	233.25
453.751	211.25
453.971	232.25
454.192	224.25
454.412	225.25
454.633	212.25
454.853	218.25
455.073	199.25
455.294	226.25
455.514	266.25
455.734	240.25
455.955	215.25
456.175	192.25
456.395	191.25
456.616	210.25
456.836	211.25
457.056	199.25
457.276	198.25
457.497	195.25
457.717	191.25
457.937	230.25
458.157	202.25
458.377	202.25
458.598	211.25
458.818	238.25
459.038	283.25
459.258	285.25
459.478	235.25
459.698	234.25
459.918	219.25
460.138	220.25
460.358	225.25
460.578	219.25
460.798	244.25
461.018	240.25
461.238	228.25
461.458	230.25
461.678	229.25
461.898	227.25
462.118	247.25
462.338	233.25
462.558	226.25
462.777	233.25
462.997	254.25
463.217	245.25
463.437	254.25
463.657	251.25
463.876	245.25
464.096	237.25
464.316	247.25
464.536	259.25
464.755	238.25
464.975	259.25
465.195	265.25
465.414	292.25
465.634	286.25
465.854	253.25
466.073	219.25
466.293	234.25
466.512	223.25
466.732	207.25
466.951	224.25
467.171	234.25
467.391	216.25
467.61	231.25
467.829	215.25
468.049	213.25
468.268	231.25
468.488	216.25
468.707	224.25
468.927	240.25
469.146	228.25
469.365	212.25
469.585	219.25
469.804	232.25
470.023	223.25
470.243	212.25
470.462	225.25
470.681	253.25
470.901	227.25
471.12	215.25
471.339	244.25
471.558	235.25
471.777	221.25
471.997	222.25
472.216	229.25
472.435	255.25
472.654	247.25
472.873	206.25
473.092	219.25
473.311	221.25
473.53	229.25
473.749	225.25
473.968	227.25
474.187	283.25
474.406	291.25
474.625	235.25
474.844	215.25
475.063	219.25
475.282	222.25
475.501	210.25
475.72	240.25
475.939	225.25
476.158	225.25
476.377	231.25
476.596	236.25
476.814	238.25
477.033	238.25
477.252	248.25
477.471	247.25
477.69	251.25
477.908	246.25
478.127	249.25
478.346	241.25
478.564	257.25
478.783	246.25
479.002	247.25
479.22	257.25
479.439	261.25
479.658	270.25
479.876	263.25
480.095	274.25
480.313	273.25
480.532	279.25
480.751	272.25
480.969	282.25
481.188	316.25
481.406	318.25
481.624	275.25
481.843	268.25
482.061	257.25
482.28	266.25
482.498	259.25
482.717	265.25
482.935	261.25
483.153	261.25
483.372	262.25
483.59	280.25
483.808	253.25
484.027	249.25
484.245	266.25
484.463	275.25
484.681	274.25
484.9	264.25
485.118	263.25
485.336	267.25
485.554	253.25
485.772	274.25
485.99	269.25
486.209	273.25
486.427	278.25
486.645	263.25
486.863	277.25
487.081	287.25
487.299	273.25
487.517	273.25
487.735	265.25
487.953	261.25
488.171	287.25
488.389	263.25
488.607	265.25
488.825	285.25
489.043	275.25
489.261	296.25
489.479	288.25
489.696	275.25
489.914	291.25
490.132	282.25
490.35	295.25
490.568	305.25
490.786	307.25
491.003	300.25
491.221	312.25
491.439	322.25
491.657	299.25
491.874	320.25
492.092	321.25
492.31	319.25
492.527	315.25
492.745	322.25
492.963	322.25
493.18	342.25
493.398	310.25
493.615	335.25
493.833	334.25
494.05	325.25
494.268	310.25
494.485	289.25
494.703	321.25
494.92	314.25
495.138	315.25
495.355	300.25
495.573	325.25
495.79	314.25
496.008	328.25
496.225	321.25
496.442	293.25
496.66	330.25
496.877	309.25
497.094	305.25
497.312	343.25
497.529	325.25
497.746	320.25
497.963	316.25
498.181	344.25
498.398	345.25
498.615	343.25
498.832	357.25
499.049	345.25
499.267	361.25
499.484	379.25
499.701	381.25
499.918	400.25
500.135	413.25
500.352	429.25
500.569	436.25
500.786	432.25
501.003	422.25
501.22	407.25
501.437	406.25
501.654	379.25
501.871	389.25
502.088	372.25
502.305	370.25
502.522	343.25
502.739	328.25
