Data from 1966.PennyLincolnUp.Lamp.En5.5.200Scan.071719.P1.Scan2.head_HRD10591_14-19-11-247.txt Node
Date: Thu Jul 18 14:19:11 EDT 2019
User: cochatt
Spectrometer: HR+D1059
Trigger mode: 1
Integration Time (sec): 1.000000E-1
Scans to average: 1
Electric dark correction enabled: true
Nonlinearity correction enabled: false
Boxcar width: 0
XAxis mode: Wavelengths
Number of Pixels in Spectrum: 2048
>>>>>Begin Spectral Data<<<<<
223.165	-7.44
223.4	-7.44
223.635	-7.44
223.869	-8.44
224.104	-33.44
224.338	-13.44
224.573	-17.44
224.808	-17.44
225.042	-8.44
225.277	-11.44
225.511	-4.44
225.746	16.56
225.98	3.56
226.215	9.56
226.449	19.56
226.683	14.56
226.918	26.56
227.152	31.56
227.387	38.56
227.621	32.56
227.856	43.56
228.09	54.56
228.324	45.56
228.559	47.56
228.793	68.56
229.027	95.56
229.262	103.56
229.496	123.56
229.73	145.56
229.964	152.56
230.199	134.56
230.433	116.56
230.667	114.56
230.901	126.56
231.136	115.56
231.37	117.56
231.604	121.56
231.838	117.56
232.072	116.56
232.306	118.56
232.541	111.56
232.775	121.56
233.009	118.56
233.243	123.56
233.477	111.56
233.711	110.56
233.945	136.56
234.179	128.56
234.413	128.56
234.647	121.56
234.881	133.56
235.115	128.56
235.349	123.56
235.583	125.56
235.817	128.56
236.051	123.56
236.285	132.56
236.519	129.56
236.753	144.56
236.987	160.56
237.221	188.56
237.455	241.56
237.689	201.56
237.922	148.56
238.156	135.56
238.39	136.56
238.624	129.56
238.858	133.56
239.091	135.56
239.325	128.56
239.559	124.56
239.793	137.56
240.027	142.56
240.26	152.56
240.494	157.56
240.728	148.56
240.961	152.56
241.195	163.56
241.429	160.56
241.662	149.56
241.896	148.56
242.13	139.56
242.363	135.56
242.597	139.56
242.83	124.56
243.064	141.56
243.298	139.56
243.531	155.56
243.765	157.56
243.998	148.56
244.232	144.56
244.465	147.56
244.699	149.56
244.932	149.56
245.166	146.56
245.399	145.56
245.633	147.56
245.866	143.56
246.099	150.56
246.333	160.56
246.566	163.56
246.8	161.56
247.033	166.56
247.266	173.56
247.5	179.56
247.733	191.56
247.966	192.56
248.2	183.56
248.433	170.56
248.666	180.56
248.899	189.56
249.133	209.56
249.366	209.56
249.599	220.56
249.832	203.56
250.066	184.56
250.299	203.56
250.532	195.56
250.765	208.56
250.998	224.56
251.231	250.56
251.465	227.56
251.698	232.56
251.931	205.56
252.164	202.56
252.397	214.56
252.63	215.56
252.863	218.56
253.096	216.56
253.329	227.56
253.562	236.56
253.795	224.56
254.028	219.56
254.261	229.56
254.494	247.56
254.727	271.56
254.96	307.56
255.193	276.56
255.426	271.56
255.659	251.56
255.892	247.56
256.124	246.56
256.357	247.56
256.59	240.56
256.823	230.56
257.056	216.56
257.289	224.56
257.521	197.56
257.754	227.56
257.987	215.56
258.22	225.56
258.452	235.56
258.685	193.56
258.918	230.56
259.151	224.56
259.383	225.56
259.616	225.56
259.849	224.56
260.081	246.56
260.314	272.56
260.547	279.56
260.779	252.56
261.012	258.56
261.244	216.56
261.477	227.56
261.71	227.56
261.942	218.56
262.175	222.56
262.407	221.56
262.64	223.56
262.872	204.56
263.105	206.56
263.337	216.56
263.57	225.56
263.802	224.56
264.035	213.56
264.267	226.56
264.499	226.56
264.732	215.56
264.964	226.56
265.197	219.56
265.429	238.56
265.661	214.56
265.894	211.56
266.126	219.56
266.358	228.56
266.591	240.56
266.823	231.56
267.055	236.56
267.287	236.56
267.52	257.56
267.752	239.56
267.984	227.56
268.216	238.56
268.448	244.56
268.681	263.56
268.913	263.56
269.145	273.56
269.377	282.56
269.609	286.56
269.841	288.56
270.073	275.56
270.306	319.56
270.538	319.56
270.77	345.56
271.002	349.56
271.234	309.56
271.466	315.56
271.698	328.56
271.93	319.56
272.162	335.56
272.394	323.56
272.626	313.56
272.858	311.56
273.09	293.56
273.322	281.56
273.553	279.56
273.785	281.56
274.017	256.56
274.249	280.56
274.481	291.56
274.713	271.56
274.945	290.56
275.176	279.56
275.408	280.56
275.64	284.56
275.872	273.56
276.104	282.56
276.335	291.56
276.567	289.56
276.799	293.56
277.031	319.56
277.262	329.56
277.494	343.56
277.726	324.56
277.957	288.56
278.189	291.56
278.421	299.56
278.652	282.56
278.884	287.56
279.115	283.56
279.347	268.56
279.579	285.56
279.81	285.56
280.042	281.56
280.273	270.56
280.505	287.56
280.736	297.56
280.968	277.56
281.199	284.56
281.431	293.56
281.662	288.56
281.894	287.56
282.125	294.56
282.356	307.56
282.588	312.56
282.819	323.56
283.051	258.56
283.282	289.56
283.513	274.56
283.745	275.56
283.976	287.56
284.207	292.56
284.439	303.56
284.67	297.56
284.901	304.56
285.132	293.56
285.364	285.56
285.595	307.56
285.826	287.56
286.057	276.56
286.288	291.56
286.52	292.56
286.751	289.56
286.982	306.56
287.213	284.56
287.444	288.56
287.675	330.56
287.906	294.56
288.138	314.56
288.369	327.56
288.6	305.56
288.831	327.56
289.062	335.56
289.293	320.56
289.524	311.56
289.755	316.56
289.986	316.56
290.217	305.56
290.448	298.56
290.679	291.56
290.91	308.56
291.141	297.56
291.371	300.56
291.602	312.56
291.833	296.56
292.064	286.56
292.295	320.56
292.526	313.56
292.757	289.56
292.987	291.56
293.218	288.56
293.449	314.56
293.68	296.56
293.91	296.56
294.141	308.56
294.372	304.56
294.603	311.56
294.833	304.56
295.064	307.56
295.295	307.56
295.525	300.56
295.756	309.56
295.987	317.56
296.217	328.56
296.448	369.56
296.679	322.56
296.909	325.56
297.14	310.56
297.37	317.56
297.601	335.56
297.831	317.56
298.062	318.56
298.292	313.56
298.523	329.56
298.753	325.56
298.984	332.56
299.214	339.56
299.445	340.56
299.675	340.56
299.905	329.56
300.136	327.56
300.366	327.56
300.597	318.56
300.827	325.56
301.057	331.56
301.288	335.56
301.518	324.56
301.748	339.56
301.979	341.56
302.209	377.56
302.439	339.56
302.669	355.56
302.9	338.56
303.13	343.56
303.36	339.56
303.59	359.56
303.82	351.56
304.051	348.56
304.281	348.56
304.511	346.56
304.741	341.56
304.971	340.56
305.201	358.56
305.431	344.56
305.661	350.56
305.891	356.56
306.121	338.56
306.352	361.56
306.582	348.56
306.812	341.56
307.042	334.56
307.272	342.56
307.502	355.56
307.731	359.56
307.961	324.56
308.191	363.56
308.421	354.56
308.651	345.56
308.881	353.56
309.111	358.56
309.341	362.56
309.571	372.56
309.8	366.56
310.03	381.56
310.26	393.56
310.49	374.56
310.72	392.56
310.949	401.56
311.179	420.56
311.409	403.56
311.639	389.56
311.868	387.56
312.098	416.56
312.328	401.56
312.557	419.56
312.787	428.56
313.017	431.56
313.246	406.56
313.476	376.56
313.706	396.56
313.935	393.56
314.165	425.56
314.394	397.56
314.624	429.56
314.853	405.56
315.083	413.56
315.312	401.56
315.542	399.56
315.771	386.56
316.001	396.56
316.23	387.56
316.46	380.56
316.689	398.56
316.919	419.56
317.148	414.56
317.377	428.56
317.607	430.56
317.836	410.56
318.065	387.56
318.295	395.56
318.524	393.56
318.753	396.56
318.983	397.56
319.212	415.56
319.441	415.56
319.67	408.56
319.9	415.56
320.129	396.56
320.358	395.56
320.587	387.56
320.816	404.56
321.046	411.56
321.275	438.56
321.504	430.56
321.733	432.56
321.962	438.56
322.191	456.56
322.42	452.56
322.649	471.56
322.878	469.56
323.108	469.56
323.337	518.56
323.566	526.56
323.795	541.56
324.024	586.56
324.253	697.56
324.482	975.56
324.71	1546.56
324.939	2338.56
325.168	2024.56
325.397	959.56
325.626	686.56
325.855	569.56
326.084	525.56
326.313	504.56
326.542	524.56
326.77	576.56
326.999	676.56
327.228	903.56
327.457	1364.56
327.686	1759.56
327.914	1139.56
328.143	734.56
328.372	647.56
328.6	609.56
328.829	580.56
329.058	597.56
329.287	608.56
329.515	564.56
329.744	547.56
329.972	536.56
330.201	534.56
330.43	606.56
330.658	621.56
330.887	645.56
331.115	628.56
331.344	549.56
331.572	527.56
331.801	540.56
332.03	511.56
332.258	506.56
332.486	499.56
332.715	479.56
332.943	469.56
333.172	480.56
333.4	503.56
333.629	489.56
333.857	501.56
334.085	530.56
334.314	544.56
334.542	563.56
334.771	607.56
334.999	567.56
335.227	531.56
335.455	493.56
335.684	508.56
335.912	470.56
336.14	491.56
336.369	462.56
336.597	476.56
336.825	488.56
337.053	496.56
337.281	481.56
337.51	474.56
337.738	475.56
337.966	482.56
338.194	471.56
338.422	476.56
338.65	482.56
338.878	467.56
339.106	448.56
339.334	479.56
339.562	474.56
339.79	472.56
340.018	451.56
340.246	470.56
340.474	471.56
340.702	457.56
340.93	473.56
341.158	465.56
341.386	455.56
341.614	475.56
341.842	462.56
342.07	463.56
342.298	461.56
342.526	437.56
342.754	442.56
342.981	446.56
343.209	451.56
343.437	448.56
343.665	451.56
343.893	462.56
344.12	476.56
344.348	488.56
344.576	472.56
344.804	495.56
345.031	491.56
345.259	503.56
345.487	468.56
345.714	474.56
345.942	457.56
346.17	460.56
346.397	463.56
346.625	470.56
346.853	460.56
347.08	449.56
347.308	453.56
347.535	453.56
347.763	456.56
347.99	448.56
348.218	453.56
348.445	469.56
348.673	460.56
348.9	453.56
349.128	453.56
349.355	430.56
349.583	447.56
349.81	434.56
350.037	436.56
350.265	434.56
350.492	436.56
350.72	419.56
350.947	453.56
351.174	466.56
351.402	445.56
351.629	448.56
351.856	438.56
352.083	461.56
352.311	457.56
352.538	468.56
352.765	480.56
352.992	479.56
353.22	461.56
353.447	437.56
353.674	444.56
353.901	430.56
354.128	430.56
354.355	424.56
354.583	426.56
354.81	423.56
355.037	423.56
355.264	419.56
355.491	428.56
355.718	420.56
355.945	422.56
356.172	433.56
356.399	449.56
356.626	405.56
356.853	422.56
357.08	443.56
357.307	431.56
357.534	424.56
357.761	420.56
357.988	426.56
358.215	435.56
358.441	413.56
358.668	415.56
358.895	418.56
359.122	412.56
359.349	447.56
359.576	452.56
359.802	488.56
360.029	510.56
360.256	534.56
360.483	488.56
360.709	448.56
360.936	445.56
361.163	452.56
361.39	466.56
361.616	450.56
361.843	473.56
362.07	462.56
362.296	471.56
362.523	444.56
362.749	437.56
362.976	461.56
363.203	444.56
363.429	427.56
363.656	452.56
363.882	467.56
364.109	432.56
364.335	451.56
364.562	441.56
364.788	442.56
365.015	451.56
365.241	440.56
365.468	454.56
365.694	459.56
365.92	443.56
366.147	428.56
366.373	438.56
366.599	424.56
366.826	443.56
367.052	433.56
367.278	451.56
367.505	440.56
367.731	446.56
367.957	405.56
368.184	436.56
368.41	451.56
368.636	446.56
368.862	457.56
369.089	463.56
369.315	430.56
369.541	460.56
369.767	459.56
369.993	451.56
370.219	435.56
370.445	453.56
370.672	455.56
370.898	433.56
371.124	440.56
371.35	469.56
371.576	451.56
371.802	447.56
372.028	459.56
372.254	451.56
372.48	460.56
372.706	445.56
372.932	445.56
373.158	454.56
373.384	463.56
373.61	446.56
373.835	445.56
374.061	451.56
374.287	461.56
374.513	457.56
374.739	454.56
374.965	450.56
375.191	463.56
375.416	466.56
375.642	440.56
375.868	459.56
376.094	449.56
376.319	433.56
376.545	450.56
376.771	473.56
376.997	435.56
377.222	424.56
377.448	431.56
377.674	457.56
377.899	440.56
378.125	455.56
378.35	453.56
378.576	450.56
378.802	447.56
379.027	442.56
379.253	430.56
379.478	445.56
379.704	438.56
379.929	473.56
380.155	452.56
380.38	466.56
380.606	447.56
380.831	427.56
381.057	424.56
381.282	425.56
381.507	426.56
381.733	458.56
381.958	441.56
382.184	480.56
382.409	436.56
382.634	471.56
382.86	455.56
383.085	457.56
383.31	463.56
383.535	453.56
383.761	469.56
383.986	477.56
384.211	477.56
384.436	481.56
384.662	455.56
384.887	495.56
385.112	465.56
385.337	508.56
385.562	485.56
385.787	489.56
386.013	503.56
386.238	523.56
386.463	485.56
386.688	479.56
386.913	478.56
387.138	465.56
387.363	507.56
387.588	506.56
387.813	481.56
388.038	491.56
388.263	509.56
388.488	494.56
388.713	507.56
388.938	521.56
389.163	483.56
389.387	495.56
389.612	487.56
389.837	486.56
390.062	493.56
390.287	489.56
390.512	486.56
390.736	502.56
390.961	500.56
391.186	481.56
391.411	502.56
391.636	496.56
391.86	530.56
392.085	553.56
392.31	515.56
392.534	499.56
392.759	510.56
392.984	502.56
393.208	528.56
393.433	516.56
393.658	524.56
393.882	521.56
394.107	503.56
394.331	508.56
394.556	511.56
394.78	502.56
395.005	503.56
395.229	516.56
395.454	504.56
395.678	541.56
395.903	538.56
396.127	558.56
396.352	558.56
396.576	514.56
396.801	527.56
397.025	546.56
397.249	517.56
397.474	544.56
397.698	544.56
397.922	529.56
398.147	564.56
398.371	553.56
398.595	555.56
398.82	546.56
399.044	560.56
399.268	601.56
399.492	639.56
399.717	692.56
399.941	705.56
400.165	714.56
400.389	712.56
400.613	672.56
400.837	623.56
401.062	601.56
401.286	599.56
401.51	599.56
401.734	606.56
401.958	584.56
402.182	594.56
402.406	580.56
402.63	592.56
402.854	592.56
403.078	570.56
403.302	599.56
403.526	593.56
403.75	607.56
403.974	616.56
404.198	583.56
404.422	601.56
404.645	624.56
404.869	599.56
405.093	655.56
405.317	676.56
405.541	735.56
405.765	655.56
405.988	646.56
406.212	633.56
406.436	668.56
406.66	671.56
406.883	649.56
407.107	649.56
407.331	756.56
407.555	823.56
407.778	810.56
408.002	711.56
408.226	679.56
408.449	677.56
408.673	648.56
408.896	708.56
409.12	747.56
409.344	713.56
409.567	638.56
409.791	619.56
410.014	611.56
410.238	613.56
410.461	599.56
410.685	624.56
410.908	640.56
411.132	667.56
411.355	725.56
411.578	662.56
411.802	619.56
412.025	615.56
412.249	619.56
412.472	638.56
412.695	685.56
412.919	665.56
413.142	631.56
413.365	627.56
413.589	576.56
413.812	595.56
414.035	583.56
414.258	579.56
414.482	565.56
414.705	586.56
414.928	565.56
415.151	580.56
415.374	572.56
415.597	564.56
415.821	561.56
416.044	593.56
416.267	599.56
416.49	568.56
416.713	564.56
416.936	566.56
417.159	561.56
417.382	591.56
417.605	572.56
417.828	583.56
418.051	606.56
418.274	596.56
418.497	565.56
418.72	571.56
418.943	552.56
419.166	597.56
419.389	635.56
419.611	626.56
419.834	610.56
420.057	616.56
420.28	609.56
420.503	600.56
420.726	589.56
420.948	631.56
421.171	656.56
421.394	693.56
421.617	619.56
421.839	623.56
422.062	619.56
422.285	619.56
422.507	688.56
422.73	763.56
422.953	736.56
423.175	672.56
423.398	613.56
423.621	629.56
423.843	622.56
424.066	651.56
424.288	655.56
424.511	676.56
424.733	726.56
424.956	834.56
425.178	781.56
425.401	779.56
425.623	795.56
425.846	673.56
426.068	664.56
426.291	653.56
426.513	620.56
426.735	675.56
426.958	702.56
427.18	791.56
427.402	958.56
427.625	1021.56
427.847	883.56
428.069	768.56
428.292	693.56
428.514	652.56
428.736	635.56
428.958	609.56
429.181	597.56
429.403	624.56
429.625	612.56
429.847	641.56
430.069	741.56
430.292	738.56
430.514	627.56
430.736	591.56
430.958	585.56
431.18	575.56
431.402	575.56
431.624	553.56
431.846	561.56
432.068	549.56
432.29	549.56
432.512	565.56
432.734	570.56
432.956	587.56
433.178	586.56
433.4	574.56
433.622	569.56
433.844	561.56
434.066	560.56
434.287	567.56
434.509	553.56
434.731	573.56
434.953	604.56
435.175	609.56
435.397	652.56
435.618	637.56
435.84	686.56
436.062	812.56
436.284	872.56
436.505	736.56
436.727	649.56
436.949	614.56
437.17	596.56
437.392	590.56
437.614	630.56
437.835	633.56
438.057	765.56
438.278	841.56
438.5	864.56
438.721	967.56
438.943	919.56
439.165	733.56
439.386	692.56
439.608	659.56
439.829	649.56
440.05	669.56
440.272	703.56
440.493	699.56
440.715	624.56
440.936	607.56
441.158	587.56
441.379	600.56
441.6	602.56
441.822	635.56
442.043	687.56
442.264	786.56
442.486	838.56
442.707	695.56
442.928	665.56
443.149	669.56
443.371	671.56
443.592	727.56
443.813	847.56
444.034	925.56
444.255	779.56
444.476	685.56
444.698	653.56
444.919	674.56
445.14	726.56
445.361	712.56
445.582	710.56
445.803	785.56
446.024	889.56
446.245	895.56
446.466	799.56
446.687	705.56
446.908	654.56
447.129	608.56
447.35	587.56
447.571	598.56
447.792	585.56
448.013	597.56
448.234	610.56
448.455	678.56
448.675	802.56
448.896	927.56
449.117	789.56
449.338	733.56
449.559	858.56
449.779	977.56
450	762.56
450.221	648.56
450.442	585.56
450.662	572.56
450.883	582.56
451.104	607.56
451.324	596.56
451.545	571.56
451.766	556.56
451.986	557.56
452.207	526.56
452.428	521.56
452.648	534.56
452.869	521.56
453.089	529.56
453.31	556.56
453.53	520.56
453.751	528.56
453.971	528.56
454.192	543.56
454.412	552.56
454.633	534.56
454.853	542.56
455.073	523.56
455.294	555.56
455.514	616.56
455.734	638.56
455.955	553.56
456.175	501.56
456.395	503.56
456.616	500.56
456.836	511.56
457.056	510.56
457.276	486.56
457.497	495.56
457.717	485.56
457.937	518.56
458.157	517.56
458.377	511.56
458.598	527.56
458.818	594.56
459.038	692.56
459.258	721.56
459.478	621.56
459.698	595.56
459.918	575.56
460.138	575.56
460.358	545.56
460.578	570.56
460.798	566.56
461.018	586.56
461.238	572.56
461.458	578.56
461.678	576.56
461.898	582.56
462.118	589.56
462.338	603.56
462.558	607.56
462.777	642.56
462.997	627.56
463.217	638.56
463.437	648.56
463.657	645.56
463.876	621.56
464.096	605.56
464.316	619.56
464.536	635.56
464.755	622.56
464.975	631.56
465.195	659.56
465.414	721.56
465.634	629.56
465.854	607.56
466.073	592.56
466.293	575.56
466.512	534.56
466.732	554.56
466.951	558.56
467.171	564.56
467.391	565.56
467.61	577.56
467.829	570.56
468.049	580.56
468.268	582.56
468.488	541.56
468.707	537.56
468.927	522.56
469.146	532.56
469.365	538.56
469.585	536.56
469.804	557.56
470.023	556.56
470.243	552.56
470.462	592.56
470.681	587.56
470.901	568.56
471.12	573.56
471.339	556.56
471.558	572.56
471.777	563.56
471.997	560.56
472.216	550.56
472.435	613.56
472.654	604.56
472.873	556.56
473.092	540.56
473.311	557.56
473.53	560.56
473.749	571.56
473.968	595.56
474.187	716.56
474.406	773.56
474.625	616.56
474.844	579.56
475.063	564.56
475.282	571.56
475.501	569.56
475.72	578.56
475.939	544.56
476.158	574.56
476.377	581.56
476.596	568.56
476.814	605.56
477.033	601.56
477.252	607.56
477.471	605.56
477.69	596.56
477.908	599.56
478.127	636.56
478.346	609.56
478.564	616.56
478.783	635.56
479.002	633.56
479.22	642.56
479.439	644.56
479.658	683.56
479.876	679.56
480.095	659.56
480.313	702.56
480.532	700.56
480.751	687.56
480.969	697.56
481.188	763.56
481.406	797.56
481.624	727.56
481.843	670.56
482.061	689.56
482.28	660.56
482.498	675.56
482.717	637.56
482.935	616.56
483.153	639.56
483.372	633.56
483.59	652.56
483.808	641.56
484.027	678.56
484.245	656.56
484.463	648.56
484.681	668.56
484.9	667.56
485.118	688.56
485.336	676.56
485.554	681.56
485.772	687.56
485.99	665.56
486.209	681.56
486.427	703.56
486.645	687.56
486.863	717.56
487.081	704.56
487.299	716.56
487.517	725.56
487.735	683.56
487.953	697.56
488.171	677.56
488.389	704.56
488.607	699.56
488.825	716.56
489.043	720.56
489.261	696.56
489.479	731.56
489.696	722.56
489.914	726.56
490.132	728.56
490.35	731.56
490.568	755.56
490.786	741.56
491.003	789.56
491.221	776.56
491.439	787.56
491.657	808.56
491.874	808.56
492.092	803.56
492.31	799.56
492.527	806.56
492.745	806.56
492.963	815.56
493.18	828.56
493.398	835.56
493.615	823.56
493.833	870.56
494.05	840.56
494.268	842.56
494.485	839.56
494.703	829.56
494.92	816.56
495.138	839.56
495.355	839.56
495.573	852.56
495.79	833.56
496.008	837.56
496.225	849.56
496.442	830.56
496.66	862.56
496.877	867.56
497.094	856.56
497.312	874.56
497.529	853.56
497.746	911.56
497.963	901.56
498.181	920.56
498.398	925.56
498.615	926.56
498.832	950.56
499.049	974.56
499.267	1012.56
499.484	1033.56
499.701	1061.56
499.918	1071.56
500.135	1159.56
500.352	1199.56
500.569	1199.56
500.786	1215.56
501.003	1238.56
501.22	1167.56
501.437	1165.56
501.654	1108.56
