Data from 1966.PennyLincolnUp.Lamp.En5.5.200Scan.071719.P1.Scan2.head_HRD10591_14-18-33-196.txt Node
Date: Thu Jul 18 14:18:33 EDT 2019
User: cochatt
Spectrometer: HR+D1059
Trigger mode: 1
Integration Time (sec): 1.000000E-1
Scans to average: 1
Electric dark correction enabled: true
Nonlinearity correction enabled: false
Boxcar width: 0
XAxis mode: Wavelengths
Number of Pixels in Spectrum: 2048
>>>>>Begin Spectral Data<<<<<
223.165	-4.62
223.4	-4.62
223.635	-4.62
223.869	-16.62
224.104	-26.62
224.338	-14.62
224.573	-12.62
224.808	-16.62
225.042	-6.62
225.277	0.38
225.511	-9.62
225.746	14.38
225.98	4.38
226.215	16.38
226.449	13.38
226.683	10.38
226.918	29.38
227.152	19.38
227.387	18.38
227.621	25.38
227.856	37.38
228.09	37.38
228.324	46.38
228.559	52.38
228.793	69.38
229.027	92.38
229.262	105.38
229.496	95.38
229.73	121.38
229.964	150.38
230.199	138.38
230.433	106.38
230.667	116.38
230.901	106.38
231.136	118.38
231.37	114.38
231.604	127.38
231.838	112.38
232.072	112.38
232.306	114.38
232.541	126.38
232.775	115.38
233.009	112.38
233.243	123.38
233.477	118.38
233.711	108.38
233.945	122.38
234.179	121.38
234.413	118.38
234.647	111.38
234.881	114.38
235.115	132.38
235.349	111.38
235.583	106.38
235.817	126.38
236.051	112.38
236.285	127.38
236.519	130.38
236.753	131.38
236.987	130.38
237.221	175.38
237.455	236.38
237.689	190.38
237.922	129.38
238.156	135.38
238.39	139.38
238.624	126.38
238.858	131.38
239.091	119.38
239.325	122.38
239.559	127.38
239.793	117.38
240.027	123.38
240.26	134.38
240.494	154.38
240.728	156.38
240.961	162.38
241.195	143.38
241.429	130.38
241.662	136.38
241.896	137.38
242.13	126.38
242.363	119.38
242.597	135.38
242.83	130.38
243.064	136.38
243.298	133.38
243.531	137.38
243.765	151.38
243.998	153.38
244.232	150.38
244.465	143.38
244.699	138.38
244.932	117.38
245.166	151.38
245.399	157.38
245.633	154.38
245.866	161.38
246.099	146.38
246.333	139.38
246.566	159.38
246.8	165.38
247.033	155.38
247.266	150.38
247.5	154.38
247.733	161.38
247.966	146.38
248.2	174.38
248.433	158.38
248.666	183.38
248.899	189.38
249.133	184.38
249.366	200.38
249.599	186.38
249.832	179.38
250.066	181.38
250.299	193.38
250.532	192.38
250.765	206.38
250.998	219.38
251.231	219.38
251.465	210.38
251.698	212.38
251.931	198.38
252.164	187.38
252.397	194.38
252.63	208.38
252.863	199.38
253.096	221.38
253.329	237.38
253.562	209.38
253.795	231.38
254.028	200.38
254.261	207.38
254.494	222.38
254.727	267.38
254.96	294.38
255.193	275.38
255.426	228.38
255.659	219.38
255.892	240.38
256.124	247.38
256.357	261.38
256.59	234.38
256.823	210.38
257.056	214.38
257.289	219.38
257.521	204.38
257.754	219.38
257.987	210.38
258.22	197.38
258.452	202.38
258.685	217.38
258.918	202.38
259.151	207.38
259.383	228.38
259.616	225.38
259.849	229.38
260.081	226.38
260.314	255.38
260.547	260.38
260.779	246.38
261.012	238.38
261.244	219.38
261.477	208.38
261.71	224.38
261.942	215.38
262.175	242.38
262.407	229.38
262.64	223.38
262.872	227.38
263.105	230.38
263.337	203.38
263.57	201.38
263.802	210.38
264.035	222.38
264.267	211.38
264.499	217.38
264.732	214.38
264.964	200.38
265.197	208.38
265.429	231.38
265.661	217.38
265.894	200.38
266.126	217.38
266.358	220.38
266.591	242.38
266.823	223.38
267.055	215.38
267.287	244.38
267.52	227.38
267.752	218.38
267.984	230.38
268.216	230.38
268.448	237.38
268.681	229.38
268.913	249.38
269.145	260.38
269.377	273.38
269.609	276.38
269.841	283.38
270.073	286.38
270.306	300.38
270.538	324.38
270.77	312.38
271.002	312.38
271.234	288.38
271.466	306.38
271.698	299.38
271.93	322.38
272.162	304.38
272.394	310.38
272.626	304.38
272.858	266.38
273.09	266.38
273.322	260.38
273.553	261.38
273.785	257.38
274.017	258.38
274.249	273.38
274.481	255.38
274.713	273.38
274.945	264.38
275.176	258.38
275.408	265.38
275.64	266.38
275.872	262.38
276.104	281.38
276.335	270.38
276.567	287.38
276.799	283.38
277.031	291.38
277.262	306.38
277.494	314.38
277.726	306.38
277.957	295.38
278.189	279.38
278.421	275.38
278.652	278.38
278.884	279.38
279.115	278.38
279.347	274.38
279.579	270.38
279.81	280.38
280.042	249.38
280.273	278.38
280.505	268.38
280.736	264.38
280.968	279.38
281.199	269.38
281.431	268.38
281.662	250.38
281.894	278.38
282.125	270.38
282.356	297.38
282.588	308.38
282.819	315.38
283.051	280.38
283.282	273.38
283.513	282.38
283.745	289.38
283.976	276.38
284.207	287.38
284.439	293.38
284.67	265.38
284.901	278.38
285.132	289.38
285.364	273.38
285.595	294.38
285.826	296.38
286.057	286.38
286.288	288.38
286.52	299.38
286.751	295.38
286.982	293.38
287.213	290.38
287.444	287.38
287.675	279.38
287.906	310.38
288.138	305.38
288.369	298.38
288.6	301.38
288.831	291.38
289.062	312.38
289.293	306.38
289.524	296.38
289.755	282.38
289.986	292.38
290.217	287.38
290.448	300.38
290.679	302.38
290.91	284.38
291.141	306.38
291.371	306.38
291.602	298.38
291.833	306.38
292.064	306.38
292.295	305.38
292.526	292.38
292.757	278.38
292.987	293.38
293.218	287.38
293.449	306.38
293.68	298.38
293.91	297.38
294.141	290.38
294.372	295.38
294.603	303.38
294.833	288.38
295.064	297.38
295.295	300.38
295.525	272.38
295.756	310.38
295.987	308.38
296.217	343.38
296.448	314.38
296.679	307.38
296.909	289.38
297.14	312.38
297.37	316.38
297.601	325.38
297.831	330.38
298.062	307.38
298.292	316.38
298.523	316.38
298.753	307.38
298.984	316.38
299.214	322.38
299.445	315.38
299.675	332.38
299.905	307.38
300.136	317.38
300.366	335.38
300.597	330.38
300.827	320.38
301.057	314.38
301.288	337.38
301.518	334.38
301.748	352.38
301.979	334.38
302.209	318.38
302.439	322.38
302.669	332.38
302.9	345.38
303.13	336.38
303.36	332.38
303.59	346.38
303.82	362.38
304.051	351.38
304.281	340.38
304.511	335.38
304.741	333.38
304.971	331.38
305.201	320.38
305.431	334.38
305.661	337.38
305.891	336.38
306.121	328.38
306.352	352.38
306.582	348.38
306.812	343.38
307.042	350.38
307.272	333.38
307.502	352.38
307.731	343.38
307.961	353.38
308.191	335.38
308.421	345.38
308.651	345.38
308.881	347.38
309.111	324.38
309.341	342.38
309.571	364.38
309.8	385.38
310.03	372.38
310.26	382.38
310.49	383.38
310.72	369.38
310.949	391.38
311.179	402.38
311.409	376.38
311.639	368.38
311.868	379.38
312.098	370.38
312.328	393.38
312.557	396.38
312.787	406.38
313.017	426.38
313.246	402.38
313.476	382.38
313.706	380.38
313.935	398.38
314.165	400.38
314.394	405.38
314.624	394.38
314.853	385.38
315.083	384.38
315.312	384.38
315.542	377.38
315.771	361.38
316.001	379.38
316.23	386.38
316.46	384.38
316.689	385.38
316.919	388.38
317.148	411.38
317.377	399.38
317.607	416.38
317.836	403.38
318.065	387.38
318.295	371.38
318.524	376.38
318.753	387.38
318.983	388.38
319.212	386.38
319.441	380.38
319.67	394.38
319.9	392.38
320.129	396.38
320.358	395.38
320.587	392.38
320.816	383.38
321.046	422.38
321.275	421.38
321.504	402.38
321.733	405.38
321.962	432.38
322.191	420.38
322.42	430.38
322.649	452.38
322.878	456.38
323.108	467.38
323.337	465.38
323.566	490.38
323.795	499.38
324.024	556.38
324.253	672.38
324.482	923.38
324.71	1494.38
324.939	2198.38
325.168	1906.38
325.397	946.38
325.626	646.38
325.855	537.38
326.084	506.38
326.313	486.38
326.542	491.38
326.77	552.38
326.999	614.38
327.228	868.38
327.457	1350.38
327.686	1667.38
327.914	1086.38
328.143	706.38
328.372	621.38
328.6	577.38
328.829	551.38
329.058	599.38
329.287	583.38
329.515	560.38
329.744	517.38
329.972	520.38
330.201	539.38
330.43	587.38
330.658	621.38
330.887	652.38
331.115	590.38
331.344	522.38
331.572	504.38
331.801	510.38
332.03	527.38
332.258	478.38
332.486	468.38
332.715	482.38
332.943	465.38
333.172	454.38
333.4	478.38
333.629	470.38
333.857	516.38
334.085	512.38
334.314	546.38
334.542	565.38
334.771	582.38
334.999	533.38
335.227	496.38
335.455	502.38
335.684	496.38
335.912	461.38
336.14	439.38
336.369	447.38
336.597	466.38
336.825	477.38
337.053	459.38
337.281	452.38
337.51	431.38
337.738	451.38
337.966	457.38
338.194	465.38
338.422	442.38
338.65	452.38
338.878	454.38
339.106	462.38
339.334	454.38
339.562	446.38
339.79	434.38
340.018	447.38
340.246	443.38
340.474	469.38
340.702	455.38
340.93	435.38
341.158	446.38
341.386	423.38
341.614	427.38
341.842	461.38
342.07	445.38
342.298	436.38
342.526	435.38
342.754	458.38
342.981	446.38
343.209	434.38
343.437	445.38
343.665	462.38
343.893	438.38
344.12	456.38
344.348	469.38
344.576	472.38
344.804	471.38
345.031	453.38
345.259	467.38
345.487	452.38
345.714	451.38
345.942	475.38
346.17	457.38
346.397	441.38
346.625	420.38
346.853	462.38
347.08	440.38
347.308	452.38
347.535	448.38
347.763	450.38
347.99	460.38
348.218	459.38
348.445	467.38
348.673	461.38
348.9	427.38
349.128	432.38
349.355	415.38
349.583	420.38
349.81	440.38
350.037	451.38
350.265	431.38
350.492	448.38
350.72	444.38
350.947	430.38
351.174	442.38
351.402	447.38
351.629	456.38
351.856	450.38
352.083	449.38
352.311	459.38
352.538	464.38
352.765	465.38
352.992	460.38
353.22	438.38
353.447	447.38
353.674	439.38
353.901	447.38
354.128	428.38
354.355	412.38
354.583	409.38
354.81	417.38
355.037	432.38
355.264	420.38
355.491	394.38
355.718	417.38
355.945	410.38
356.172	403.38
356.399	395.38
356.626	412.38
356.853	403.38
357.08	419.38
357.307	409.38
357.534	403.38
357.761	411.38
357.988	424.38
358.215	417.38
358.441	416.38
358.668	409.38
358.895	425.38
359.122	420.38
359.349	453.38
359.576	450.38
359.802	470.38
360.029	499.38
360.256	489.38
360.483	478.38
360.709	432.38
360.936	444.38
361.163	438.38
361.39	454.38
361.616	451.38
361.843	459.38
362.07	450.38
362.296	443.38
362.523	446.38
362.749	430.38
362.976	454.38
363.203	426.38
363.429	418.38
363.656	431.38
363.882	432.38
364.109	427.38
364.335	430.38
364.562	422.38
364.788	433.38
365.015	432.38
365.241	411.38
365.468	436.38
365.694	460.38
365.92	435.38
366.147	417.38
366.373	432.38
366.599	442.38
366.826	433.38
367.052	431.38
367.278	436.38
367.505	435.38
367.731	440.38
367.957	440.38
368.184	415.38
368.41	435.38
368.636	457.38
368.862	442.38
369.089	454.38
369.315	436.38
369.541	435.38
369.767	424.38
369.993	435.38
370.219	426.38
370.445	434.38
370.672	436.38
370.898	432.38
371.124	431.38
371.35	423.38
371.576	438.38
371.802	420.38
372.028	435.38
372.254	434.38
372.48	427.38
372.706	402.38
372.932	443.38
373.158	443.38
373.384	427.38
373.61	430.38
373.835	446.38
374.061	438.38
374.287	427.38
374.513	473.38
374.739	448.38
374.965	438.38
375.191	432.38
375.416	455.38
375.642	432.38
375.868	444.38
376.094	433.38
376.319	422.38
376.545	424.38
376.771	423.38
376.997	426.38
377.222	424.38
377.448	431.38
377.674	449.38
377.899	445.38
378.125	437.38
378.35	430.38
378.576	422.38
378.802	418.38
379.027	442.38
379.253	443.38
379.478	413.38
379.704	432.38
379.929	422.38
380.155	427.38
380.38	433.38
380.606	449.38
380.831	434.38
381.057	441.38
381.282	442.38
381.507	435.38
381.733	422.38
381.958	439.38
382.184	455.38
382.409	444.38
382.634	458.38
382.86	454.38
383.085	443.38
383.31	452.38
383.535	450.38
383.761	459.38
383.986	453.38
384.211	460.38
384.436	448.38
384.662	449.38
384.887	478.38
385.112	492.38
385.337	486.38
385.562	477.38
385.787	476.38
386.013	485.38
386.238	479.38
386.463	484.38
386.688	466.38
386.913	474.38
387.138	489.38
387.363	502.38
387.588	495.38
387.813	487.38
388.038	474.38
388.263	469.38
388.488	472.38
388.713	474.38
388.938	506.38
389.163	487.38
389.387	514.38
389.612	489.38
389.837	470.38
390.062	483.38
390.287	489.38
390.512	476.38
390.736	484.38
390.961	491.38
391.186	505.38
391.411	466.38
391.636	496.38
391.86	491.38
392.085	508.38
392.31	479.38
392.534	522.38
392.759	491.38
392.984	500.38
393.208	496.38
393.433	510.38
393.658	515.38
393.882	515.38
394.107	504.38
394.331	514.38
394.556	472.38
394.78	502.38
395.005	489.38
395.229	488.38
395.454	518.38
395.678	538.38
395.903	509.38
396.127	530.38
396.352	550.38
396.576	545.38
396.801	532.38
397.025	528.38
397.249	521.38
397.474	543.38
397.698	541.38
397.922	549.38
398.147	547.38
398.371	561.38
398.595	552.38
398.82	550.38
399.044	579.38
399.268	577.38
399.492	613.38
399.717	649.38
399.941	675.38
400.165	692.38
400.389	724.38
400.613	653.38
400.837	607.38
401.062	572.38
401.286	561.38
401.51	567.38
401.734	593.38
401.958	590.38
402.182	580.38
402.406	590.38
402.63	568.38
402.854	588.38
403.078	578.38
403.302	572.38
403.526	601.38
403.75	577.38
403.974	597.38
404.198	592.38
404.422	596.38
404.645	617.38
404.869	626.38
405.093	637.38
405.317	699.38
405.541	720.38
405.765	634.38
405.988	625.38
406.212	646.38
406.436	644.38
406.66	692.38
406.883	649.38
407.107	665.38
407.331	712.38
407.555	785.38
407.778	763.38
408.002	694.38
408.226	650.38
408.449	644.38
408.673	635.38
408.896	666.38
409.12	734.38
409.344	707.38
409.567	628.38
409.791	627.38
410.014	604.38
410.238	596.38
410.461	602.38
410.685	604.38
410.908	634.38
411.132	661.38
411.355	677.38
411.578	655.38
411.802	587.38
412.025	581.38
412.249	616.38
412.472	620.38
412.695	683.38
412.919	683.38
413.142	597.38
413.365	611.38
413.589	599.38
413.812	560.38
414.035	563.38
414.258	551.38
414.482	568.38
414.705	558.38
414.928	566.38
415.151	564.38
415.374	558.38
415.597	558.38
415.821	544.38
416.044	557.38
416.267	554.38
416.49	555.38
416.713	550.38
416.936	553.38
417.159	549.38
417.382	567.38
417.605	574.38
417.828	571.38
418.051	580.38
418.274	584.38
418.497	573.38
418.72	554.38
418.943	564.38
419.166	578.38
419.389	618.38
419.611	607.38
419.834	595.38
420.057	607.38
420.28	606.38
420.503	575.38
420.726	596.38
420.948	592.38
421.171	653.38
421.394	666.38
421.617	604.38
421.839	603.38
422.062	574.38
422.285	601.38
422.507	651.38
422.73	755.38
422.953	706.38
423.175	642.38
423.398	632.38
423.621	618.38
423.843	619.38
424.066	657.38
424.288	640.38
424.511	667.38
424.733	710.38
424.956	840.38
425.178	781.38
425.401	762.38
425.623	779.38
425.846	666.38
426.068	640.38
426.291	596.38
426.513	603.38
426.735	647.38
426.958	672.38
427.18	775.38
427.402	912.38
427.625	988.38
427.847	894.38
428.069	780.38
428.292	678.38
428.514	608.38
428.736	610.38
428.958	597.38
429.181	583.38
429.403	567.38
429.625	562.38
429.847	646.38
430.069	685.38
430.292	675.38
430.514	616.38
430.736	585.38
430.958	569.38
431.18	564.38
431.402	566.38
431.624	547.38
431.846	536.38
432.068	575.38
432.29	545.38
432.512	570.38
432.734	583.38
432.956	571.38
433.178	558.38
433.4	565.38
433.622	567.38
433.844	532.38
434.066	546.38
434.287	573.38
434.509	565.38
434.731	561.38
434.953	582.38
435.175	588.38
435.397	610.38
435.618	631.38
435.84	658.38
436.062	781.38
436.284	860.38
436.505	729.38
436.727	637.38
436.949	598.38
437.17	603.38
437.392	596.38
437.614	592.38
437.835	638.38
438.057	743.38
438.278	851.38
438.5	861.38
438.721	925.38
438.943	891.38
439.165	715.38
439.386	654.38
439.608	632.38
439.829	618.38
440.05	644.38
440.272	705.38
440.493	651.38
440.715	624.38
440.936	590.38
441.158	578.38
441.379	596.38
441.6	624.38
441.822	619.38
442.043	651.38
442.264	769.38
442.486	808.38
442.707	696.38
442.928	639.38
443.149	639.38
443.371	655.38
443.592	713.38
443.813	841.38
444.034	942.38
444.255	756.38
444.476	647.38
444.698	639.38
444.919	644.38
445.14	742.38
445.361	726.38
445.582	690.38
445.803	726.38
446.024	842.38
446.245	867.38
446.466	806.38
446.687	690.38
446.908	645.38
447.129	613.38
447.35	590.38
447.571	590.38
447.792	582.38
448.013	586.38
448.234	611.38
448.455	645.38
448.675	780.38
448.896	924.38
449.117	775.38
449.338	710.38
449.559	839.38
449.779	961.38
450	770.38
450.221	625.38
450.442	604.38
450.662	570.38
450.883	598.38
451.104	586.38
451.324	554.38
451.545	556.38
451.766	515.38
451.986	529.38
452.207	498.38
452.428	528.38
452.648	512.38
452.869	519.38
453.089	519.38
453.31	516.38
453.53	529.38
453.751	511.38
453.971	515.38
454.192	529.38
454.412	518.38
454.633	522.38
454.853	515.38
455.073	509.38
455.294	543.38
455.514	620.38
455.734	587.38
455.955	523.38
456.175	514.38
456.395	502.38
456.616	456.38
456.836	486.38
457.056	484.38
457.276	484.38
457.497	478.38
457.717	501.38
457.937	502.38
458.157	520.38
458.377	508.38
458.598	550.38
458.818	595.38
459.038	678.38
459.258	735.38
459.478	610.38
459.698	576.38
459.918	557.38
460.138	550.38
460.358	559.38
460.578	548.38
460.798	578.38
461.018	586.38
461.238	579.38
461.458	561.38
461.678	550.38
461.898	568.38
462.118	578.38
462.338	590.38
462.558	568.38
462.777	594.38
462.997	602.38
463.217	642.38
463.437	642.38
463.657	606.38
463.876	592.38
464.096	623.38
464.316	618.38
464.536	606.38
464.755	623.38
464.975	608.38
465.195	625.38
465.414	717.38
465.634	633.38
465.854	624.38
466.073	583.38
466.293	568.38
466.512	534.38
466.732	535.38
466.951	544.38
467.171	547.38
467.391	553.38
467.61	550.38
467.829	560.38
468.049	558.38
468.268	556.38
468.488	539.38
468.707	519.38
468.927	518.38
469.146	521.38
469.365	524.38
469.585	501.38
469.804	532.38
470.023	520.38
470.243	548.38
470.462	552.38
470.681	549.38
470.901	552.38
471.12	512.38
471.339	543.38
471.558	549.38
471.777	552.38
471.997	558.38
472.216	510.38
472.435	579.38
472.654	587.38
472.873	555.38
473.092	555.38
473.311	533.38
473.53	562.38
473.749	566.38
473.968	600.38
474.187	699.38
474.406	723.38
474.625	620.38
474.844	553.38
475.063	523.38
475.282	556.38
475.501	556.38
475.72	563.38
475.939	553.38
476.158	568.38
476.377	584.38
476.596	567.38
476.814	589.38
477.033	571.38
477.252	585.38
477.471	563.38
477.69	588.38
477.908	597.38
478.127	629.38
478.346	588.38
478.564	567.38
478.783	618.38
479.002	628.38
479.22	626.38
479.439	642.38
479.658	649.38
479.876	652.38
480.095	659.38
480.313	698.38
480.532	665.38
480.751	676.38
480.969	711.38
481.188	764.38
481.406	787.38
481.624	698.38
481.843	681.38
482.061	640.38
482.28	648.38
482.498	645.38
482.717	636.38
482.935	636.38
483.153	617.38
483.372	630.38
483.59	638.38
483.808	631.38
484.027	630.38
484.245	647.38
484.463	652.38
484.681	660.38
484.9	657.38
485.118	667.38
485.336	648.38
485.554	675.38
485.772	674.38
485.99	651.38
486.209	681.38
486.427	652.38
486.645	696.38
486.863	686.38
487.081	694.38
487.299	679.38
487.517	681.38
487.735	700.38
487.953	686.38
488.171	670.38
488.389	684.38
488.607	680.38
488.825	704.38
489.043	713.38
489.261	709.38
489.479	716.38
489.696	697.38
489.914	685.38
490.132	731.38
490.35	715.38
490.568	727.38
490.786	753.38
491.003	741.38
491.221	752.38
491.439	772.38
491.657	802.38
491.874	792.38
492.092	808.38
492.31	790.38
492.527	795.38
492.745	786.38
492.963	814.38
493.18	783.38
493.398	819.38
493.615	840.38
493.833	808.38
494.05	856.38
494.268	830.38
494.485	824.38
494.703	804.38
494.92	839.38
495.138	820.38
495.355	808.38
495.573	822.38
495.79	840.38
496.008	822.38
496.225	786.38
496.442	820.38
496.66	834.38
496.877	821.38
497.094	838.38
497.312	845.38
497.529	862.38
497.746	865.38
497.963	896.38
498.181	888.38
498.398	927.38
498.615	935.38
498.832	938.38
499.049	951.38
499.267	986.38
499.484	1020.38
499.701	1068.38
499.918	1076.38
500.135	1127.38
500.352	1170.38
500.569	1180.38
500.786	1193.38
501.003	1199.38
501.22	1162.38
501.437	1143.38
501.654	1056.38
