Data from 1966.PennyLincolnUp.Lamp.En5.5.200Scan.071719.P1._HRD10591_14-14-07-914.txt Node
Date: Thu Jul 18 14:14:07 EDT 2019
User: cochatt
Spectrometer: HR+D1059
Trigger mode: 1
Integration Time (sec): 1.000000E-1
Scans to average: 1
Electric dark correction enabled: true
Nonlinearity correction enabled: false
Boxcar width: 0
XAxis mode: Wavelengths
Number of Pixels in Spectrum: 2048
>>>>>Begin Spectral Data<<<<<
223.165	-17.75
223.4	-17.75
223.635	-17.75
223.869	-20.75
224.104	-15.75
224.338	-3.75
224.573	-15.75
224.808	-4.75
225.042	-4.75
225.277	-7.75
225.511	-17.75
225.746	1.25
225.98	5.25
226.215	-0.75
226.449	25.25
226.683	25.25
226.918	31.25
227.152	21.25
227.387	38.25
227.621	50.25
227.856	40.25
228.09	50.25
228.324	52.25
228.559	63.25
228.793	73.25
229.027	65.25
229.262	76.25
229.496	86.25
229.73	99.25
229.964	117.25
230.199	92.25
230.433	92.25
230.667	93.25
230.901	89.25
231.136	97.25
231.37	96.25
231.604	91.25
231.838	91.25
232.072	104.25
232.306	88.25
232.541	102.25
232.775	92.25
233.009	100.25
233.243	95.25
233.477	92.25
233.711	81.25
233.945	95.25
234.179	96.25
234.413	102.25
234.647	95.25
234.881	108.25
235.115	91.25
235.349	102.25
235.583	103.25
235.817	94.25
236.051	90.25
236.285	99.25
236.519	90.25
236.753	103.25
236.987	111.25
237.221	127.25
237.455	147.25
237.689	120.25
237.922	110.25
238.156	99.25
238.39	107.25
238.624	96.25
238.858	90.25
239.091	96.25
239.325	100.25
239.559	108.25
239.793	106.25
240.027	94.25
240.26	93.25
240.494	128.25
240.728	113.25
240.961	124.25
241.195	117.25
241.429	108.25
241.662	93.25
241.896	108.25
242.13	97.25
242.363	100.25
242.597	115.25
242.83	103.25
243.064	99.25
243.298	105.25
243.531	104.25
243.765	100.25
243.998	94.25
244.232	103.25
244.465	103.25
244.699	103.25
244.932	116.25
245.166	104.25
245.399	110.25
245.633	95.25
245.866	107.25
246.099	120.25
246.333	110.25
246.566	112.25
246.8	115.25
247.033	99.25
247.266	114.25
247.5	117.25
247.733	129.25
247.966	112.25
248.2	119.25
248.433	123.25
248.666	119.25
248.899	136.25
249.133	140.25
249.366	130.25
249.599	125.25
249.832	114.25
250.066	127.25
250.299	126.25
250.532	125.25
250.765	137.25
250.998	149.25
251.231	156.25
251.465	131.25
251.698	128.25
251.931	129.25
252.164	129.25
252.397	128.25
252.63	134.25
252.863	141.25
253.096	144.25
253.329	142.25
253.562	139.25
253.795	145.25
254.028	131.25
254.261	135.25
254.494	136.25
254.727	160.25
254.96	173.25
255.193	154.25
255.426	142.25
255.659	143.25
255.892	151.25
256.124	141.25
256.357	152.25
256.59	138.25
256.823	130.25
257.056	132.25
257.289	141.25
257.521	134.25
257.754	139.25
257.987	126.25
258.22	127.25
258.452	126.25
258.685	145.25
258.918	121.25
259.151	127.25
259.383	140.25
259.616	125.25
259.849	127.25
260.081	151.25
260.314	164.25
260.547	171.25
260.779	165.25
261.012	142.25
261.244	142.25
261.477	134.25
261.71	122.25
261.942	147.25
262.175	149.25
262.407	144.25
262.64	125.25
262.872	138.25
263.105	131.25
263.337	137.25
263.57	131.25
263.802	141.25
264.035	124.25
264.267	135.25
264.499	131.25
264.732	152.25
264.964	129.25
265.197	143.25
265.429	136.25
265.661	114.25
265.894	133.25
266.126	132.25
266.358	143.25
266.591	154.25
266.823	149.25
267.055	146.25
267.287	141.25
267.52	151.25
267.752	147.25
267.984	139.25
268.216	146.25
268.448	130.25
268.681	144.25
268.913	150.25
269.145	155.25
269.377	171.25
269.609	159.25
269.841	157.25
270.073	149.25
270.306	170.25
270.538	176.25
270.77	207.25
271.002	187.25
271.234	184.25
271.466	181.25
271.698	177.25
271.93	186.25
272.162	184.25
272.394	188.25
272.626	174.25
272.858	170.25
273.09	155.25
273.322	152.25
273.553	151.25
273.785	156.25
274.017	148.25
274.249	163.25
274.481	136.25
274.713	152.25
274.945	171.25
275.176	147.25
275.408	166.25
275.64	161.25
275.872	160.25
276.104	153.25
276.335	151.25
276.567	160.25
276.799	184.25
277.031	201.25
277.262	201.25
277.494	179.25
277.726	187.25
277.957	182.25
278.189	165.25
278.421	170.25
278.652	160.25
278.884	172.25
279.115	156.25
279.347	151.25
279.579	149.25
279.81	177.25
280.042	155.25
280.273	177.25
280.505	159.25
280.736	166.25
280.968	176.25
281.199	150.25
281.431	152.25
281.662	167.25
281.894	153.25
282.125	163.25
282.356	172.25
282.588	183.25
282.819	191.25
283.051	169.25
283.282	175.25
283.513	174.25
283.745	163.25
283.976	168.25
284.207	151.25
284.439	175.25
284.67	167.25
284.901	164.25
285.132	165.25
285.364	156.25
285.595	171.25
285.826	183.25
286.057	172.25
286.288	192.25
286.52	170.25
286.751	167.25
286.982	164.25
287.213	153.25
287.444	167.25
287.675	167.25
287.906	194.25
288.138	171.25
288.369	179.25
288.6	169.25
288.831	156.25
289.062	178.25
289.293	166.25
289.524	163.25
289.755	155.25
289.986	173.25
290.217	174.25
290.448	172.25
290.679	175.25
290.91	176.25
291.141	155.25
291.371	160.25
291.602	157.25
291.833	161.25
292.064	170.25
292.295	171.25
292.526	172.25
292.757	184.25
292.987	163.25
293.218	177.25
293.449	175.25
293.68	166.25
293.91	165.25
294.141	164.25
294.372	160.25
294.603	163.25
294.833	157.25
295.064	168.25
295.295	171.25
295.525	177.25
295.756	172.25
295.987	195.25
296.217	197.25
296.448	198.25
296.679	195.25
296.909	161.25
297.14	176.25
297.37	174.25
297.601	169.25
297.831	164.25
298.062	191.25
298.292	161.25
298.523	184.25
298.753	196.25
298.984	173.25
299.214	173.25
299.445	175.25
299.675	155.25
299.905	178.25
300.136	186.25
300.366	179.25
300.597	182.25
300.827	199.25
301.057	175.25
301.288	216.25
301.518	190.25
301.748	174.25
301.979	194.25
302.209	186.25
302.439	187.25
302.669	171.25
302.9	189.25
303.13	194.25
303.36	192.25
303.59	189.25
303.82	196.25
304.051	203.25
304.281	184.25
304.511	188.25
304.741	185.25
304.971	196.25
305.201	181.25
305.431	181.25
305.661	207.25
305.891	183.25
306.121	175.25
306.352	179.25
306.582	201.25
306.812	184.25
307.042	193.25
307.272	192.25
307.502	177.25
307.731	174.25
307.961	207.25
308.191	186.25
308.421	181.25
308.651	187.25
308.881	188.25
309.111	201.25
309.341	188.25
309.571	209.25
309.8	204.25
310.03	208.25
310.26	201.25
310.49	216.25
310.72	231.25
310.949	230.25
311.179	205.25
311.409	220.25
311.639	213.25
311.868	203.25
312.098	205.25
312.328	220.25
312.557	236.25
312.787	238.25
313.017	215.25
313.246	219.25
313.476	204.25
313.706	206.25
313.935	227.25
314.165	216.25
314.394	230.25
314.624	235.25
314.853	212.25
315.083	207.25
315.312	205.25
315.542	203.25
315.771	214.25
316.001	201.25
316.23	205.25
316.46	201.25
316.689	220.25
316.919	220.25
317.148	201.25
317.377	208.25
317.607	214.25
317.836	203.25
318.065	207.25
318.295	209.25
318.524	209.25
318.753	209.25
318.983	189.25
319.212	202.25
319.441	221.25
319.67	204.25
319.9	208.25
320.129	207.25
320.358	199.25
320.587	209.25
320.816	200.25
321.046	223.25
321.275	212.25
321.504	231.25
321.733	208.25
321.962	211.25
322.191	224.25
322.42	253.25
322.649	248.25
322.878	242.25
323.108	236.25
323.337	253.25
323.566	268.25
323.795	263.25
324.024	311.25
324.253	371.25
324.482	517.25
324.71	763.25
324.939	1041.25
325.168	840.25
325.397	445.25
325.626	307.25
325.855	261.25
326.084	256.25
326.313	237.25
326.542	277.25
326.77	295.25
326.999	336.25
327.228	472.25
327.457	702.25
327.686	785.25
327.914	539.25
328.143	368.25
328.372	346.25
328.6	310.25
328.829	287.25
329.058	313.25
329.287	319.25
329.515	284.25
329.744	277.25
329.972	248.25
330.201	280.25
330.43	311.25
330.658	326.25
330.887	357.25
331.115	321.25
331.344	279.25
331.572	282.25
331.801	258.25
332.03	275.25
332.258	256.25
332.486	241.25
332.715	246.25
332.943	229.25
333.172	244.25
333.4	253.25
333.629	236.25
333.857	246.25
334.085	272.25
334.314	285.25
334.542	307.25
334.771	314.25
334.999	272.25
335.227	250.25
335.455	261.25
335.684	243.25
335.912	230.25
336.14	246.25
336.369	245.25
336.597	243.25
336.825	244.25
337.053	224.25
337.281	224.25
337.51	234.25
337.738	222.25
337.966	236.25
338.194	239.25
338.422	233.25
338.65	209.25
338.878	226.25
339.106	224.25
339.334	233.25
339.562	221.25
339.79	229.25
340.018	241.25
340.246	217.25
340.474	236.25
340.702	238.25
340.93	199.25
341.158	230.25
341.386	223.25
341.614	232.25
341.842	224.25
342.07	232.25
342.298	219.25
342.526	209.25
342.754	219.25
342.981	224.25
343.209	226.25
343.437	230.25
343.665	242.25
343.893	215.25
344.12	224.25
344.348	232.25
344.576	237.25
344.804	221.25
345.031	233.25
345.259	251.25
345.487	229.25
345.714	236.25
345.942	222.25
346.17	232.25
346.397	230.25
346.625	221.25
346.853	221.25
347.08	219.25
347.308	232.25
347.535	239.25
347.763	217.25
347.99	240.25
348.218	235.25
348.445	222.25
348.673	227.25
348.9	231.25
349.128	223.25
349.355	209.25
349.583	194.25
349.81	221.25
350.037	211.25
350.265	204.25
350.492	209.25
350.72	219.25
350.947	220.25
351.174	224.25
351.402	238.25
351.629	230.25
351.856	231.25
352.083	218.25
352.311	225.25
352.538	220.25
352.765	223.25
352.992	223.25
353.22	234.25
353.447	212.25
353.674	213.25
353.901	216.25
354.128	216.25
354.355	196.25
354.583	209.25
354.81	213.25
355.037	206.25
355.264	195.25
355.491	207.25
355.718	203.25
355.945	215.25
356.172	200.25
356.399	212.25
356.626	200.25
356.853	199.25
357.08	196.25
357.307	201.25
357.534	204.25
357.761	216.25
357.988	207.25
358.215	213.25
358.441	204.25
358.668	208.25
358.895	215.25
359.122	206.25
359.349	211.25
359.576	223.25
359.802	227.25
360.029	251.25
360.256	246.25
360.483	251.25
360.709	236.25
360.936	221.25
361.163	229.25
361.39	231.25
361.616	232.25
361.843	207.25
362.07	224.25
362.296	217.25
362.523	227.25
362.749	216.25
362.976	218.25
363.203	199.25
363.429	203.25
363.656	215.25
363.882	203.25
364.109	222.25
364.335	200.25
364.562	224.25
364.788	213.25
365.015	213.25
365.241	189.25
365.468	218.25
365.694	213.25
365.92	214.25
366.147	218.25
366.373	211.25
366.599	209.25
366.826	228.25
367.052	208.25
367.278	220.25
367.505	199.25
367.731	220.25
367.957	209.25
368.184	211.25
368.41	212.25
368.636	228.25
368.862	220.25
369.089	215.25
369.315	203.25
369.541	215.25
369.767	214.25
369.993	198.25
370.219	208.25
370.445	208.25
370.672	195.25
370.898	209.25
371.124	204.25
371.35	197.25
371.576	216.25
371.802	221.25
372.028	222.25
372.254	216.25
372.48	192.25
372.706	218.25
372.932	204.25
373.158	217.25
373.384	212.25
373.61	196.25
373.835	214.25
374.061	206.25
374.287	192.25
374.513	212.25
374.739	203.25
374.965	220.25
375.191	208.25
375.416	209.25
375.642	215.25
375.868	213.25
376.094	201.25
376.319	201.25
376.545	204.25
376.771	209.25
376.997	215.25
377.222	212.25
377.448	210.25
377.674	212.25
377.899	208.25
378.125	200.25
378.35	211.25
378.576	207.25
378.802	176.25
379.027	204.25
379.253	189.25
379.478	199.25
379.704	223.25
379.929	209.25
380.155	234.25
380.38	210.25
380.606	213.25
380.831	203.25
381.057	204.25
381.282	223.25
381.507	207.25
381.733	225.25
381.958	199.25
382.184	195.25
382.409	216.25
382.634	214.25
382.86	211.25
383.085	217.25
383.31	214.25
383.535	201.25
383.761	214.25
383.986	206.25
384.211	212.25
384.436	213.25
384.662	224.25
384.887	215.25
385.112	216.25
385.337	209.25
385.562	225.25
385.787	222.25
386.013	219.25
386.238	214.25
386.463	227.25
386.688	225.25
386.913	226.25
387.138	227.25
387.363	219.25
387.588	236.25
387.813	231.25
388.038	221.25
388.263	210.25
388.488	219.25
388.713	221.25
388.938	212.25
389.163	208.25
389.387	232.25
389.612	220.25
389.837	214.25
390.062	220.25
390.287	233.25
390.512	227.25
390.736	226.25
390.961	226.25
391.186	244.25
391.411	231.25
391.636	230.25
391.86	215.25
392.085	227.25
392.31	221.25
392.534	221.25
392.759	224.25
392.984	215.25
393.208	211.25
393.433	221.25
393.658	230.25
393.882	233.25
394.107	228.25
394.331	214.25
394.556	211.25
394.78	201.25
395.005	211.25
395.229	215.25
395.454	217.25
395.678	236.25
395.903	240.25
396.127	244.25
396.352	221.25
396.576	243.25
396.801	223.25
397.025	229.25
397.249	248.25
397.474	234.25
397.698	221.25
397.922	250.25
398.147	229.25
398.371	253.25
398.595	247.25
398.82	237.25
399.044	247.25
399.268	259.25
399.492	283.25
399.717	285.25
399.941	293.25
400.165	292.25
400.389	302.25
400.613	270.25
400.837	264.25
401.062	263.25
401.286	264.25
401.51	251.25
401.734	258.25
401.958	251.25
402.182	241.25
402.406	267.25
402.63	259.25
402.854	248.25
403.078	257.25
403.302	249.25
403.526	265.25
403.75	281.25
403.974	244.25
404.198	262.25
404.422	248.25
404.645	258.25
404.869	268.25
405.093	285.25
405.317	283.25
405.541	297.25
405.765	300.25
405.988	276.25
406.212	294.25
406.436	293.25
406.66	290.25
406.883	303.25
407.107	300.25
407.331	300.25
407.555	335.25
407.778	322.25
408.002	313.25
408.226	281.25
408.449	282.25
408.673	288.25
408.896	300.25
409.12	287.25
409.344	292.25
409.567	271.25
409.791	251.25
410.014	256.25
410.238	252.25
410.461	278.25
410.685	264.25
410.908	286.25
411.132	289.25
411.355	314.25
411.578	275.25
411.802	272.25
412.025	277.25
412.249	247.25
412.472	278.25
412.695	298.25
412.919	299.25
413.142	276.25
413.365	236.25
413.589	246.25
413.812	253.25
414.035	251.25
414.258	224.25
414.482	227.25
414.705	230.25
414.928	246.25
415.151	253.25
415.374	252.25
415.597	237.25
415.821	259.25
416.044	264.25
416.267	257.25
416.49	236.25
416.713	249.25
416.936	226.25
417.159	248.25
417.382	238.25
417.605	255.25
417.828	262.25
418.051	263.25
418.274	247.25
418.497	254.25
418.72	224.25
418.943	251.25
419.166	244.25
419.389	253.25
419.611	255.25
419.834	272.25
420.057	271.25
420.28	269.25
420.503	257.25
420.726	261.25
420.948	267.25
421.171	280.25
421.394	305.25
421.617	248.25
421.839	241.25
422.062	259.25
422.285	272.25
422.507	298.25
422.73	336.25
422.953	305.25
423.175	276.25
423.398	273.25
423.621	290.25
423.843	293.25
424.066	293.25
424.288	292.25
424.511	283.25
424.733	314.25
424.956	351.25
425.178	344.25
425.401	331.25
425.623	323.25
425.846	291.25
426.068	293.25
426.291	270.25
426.513	273.25
426.735	287.25
426.958	286.25
427.18	340.25
427.402	384.25
427.625	410.25
427.847	394.25
428.069	344.25
428.292	275.25
428.514	268.25
428.736	275.25
428.958	281.25
429.181	263.25
429.403	259.25
429.625	254.25
429.847	258.25
430.069	305.25
430.292	317.25
430.514	261.25
430.736	257.25
430.958	259.25
431.18	240.25
431.402	239.25
431.624	245.25
431.846	256.25
432.068	254.25
432.29	254.25
432.512	227.25
432.734	250.25
432.956	257.25
433.178	270.25
433.4	263.25
433.622	260.25
433.844	248.25
434.066	248.25
434.287	244.25
434.509	230.25
434.731	252.25
434.953	239.25
435.175	276.25
435.397	279.25
435.618	273.25
435.84	305.25
436.062	328.25
436.284	364.25
436.505	303.25
436.727	280.25
436.949	270.25
437.17	247.25
437.392	257.25
437.614	272.25
437.835	263.25
438.057	328.25
438.278	386.25
438.5	366.25
438.721	387.25
438.943	357.25
439.165	307.25
439.386	262.25
439.608	275.25
439.829	268.25
440.05	301.25
440.272	310.25
440.493	284.25
440.715	284.25
440.936	269.25
441.158	257.25
441.379	243.25
441.6	283.25
441.822	299.25
442.043	307.25
442.264	332.25
442.486	359.25
442.707	323.25
442.928	296.25
443.149	296.25
443.371	322.25
443.592	313.25
443.813	360.25
444.034	362.25
444.255	323.25
444.476	276.25
444.698	276.25
444.919	271.25
445.14	385.25
445.361	350.25
445.582	299.25
445.803	336.25
446.024	378.25
446.245	375.25
446.466	349.25
446.687	284.25
446.908	296.25
447.129	260.25
447.35	244.25
447.571	260.25
447.792	252.25
448.013	251.25
448.234	265.25
448.455	309.25
448.675	331.25
448.896	392.25
449.117	317.25
449.338	305.25
449.559	353.25
449.779	391.25
450	319.25
450.221	271.25
450.442	248.25
450.662	244.25
450.883	262.25
451.104	262.25
451.324	276.25
451.545	266.25
451.766	249.25
451.986	240.25
452.207	240.25
452.428	243.25
452.648	227.25
452.869	230.25
453.089	235.25
453.31	240.25
453.53	228.25
453.751	220.25
453.971	239.25
454.192	245.25
454.412	257.25
454.633	247.25
454.853	231.25
455.073	231.25
455.294	255.25
455.514	302.25
455.734	259.25
455.955	240.25
456.175	222.25
456.395	210.25
456.616	225.25
456.836	219.25
457.056	208.25
457.276	218.25
457.497	213.25
457.717	230.25
457.937	238.25
458.157	224.25
458.377	234.25
458.598	239.25
458.818	293.25
459.038	323.25
459.258	319.25
459.478	272.25
459.698	247.25
459.918	239.25
460.138	249.25
460.358	248.25
460.578	259.25
460.798	256.25
461.018	251.25
461.238	239.25
461.458	238.25
461.678	272.25
461.898	261.25
462.118	249.25
462.338	255.25
462.558	262.25
462.777	270.25
462.997	262.25
463.217	269.25
463.437	291.25
463.657	259.25
463.876	270.25
464.096	283.25
464.316	275.25
464.536	274.25
464.755	263.25
464.975	287.25
465.195	309.25
465.414	342.25
465.634	307.25
465.854	255.25
466.073	263.25
466.293	247.25
466.512	231.25
466.732	238.25
466.951	232.25
467.171	236.25
467.391	257.25
467.61	263.25
467.829	267.25
468.049	260.25
468.268	261.25
468.488	261.25
468.707	237.25
468.927	231.25
469.146	234.25
469.365	243.25
469.585	232.25
469.804	263.25
470.023	231.25
470.243	223.25
470.462	253.25
470.681	280.25
470.901	235.25
471.12	264.25
471.339	239.25
471.558	234.25
471.777	252.25
471.997	249.25
472.216	248.25
472.435	277.25
472.654	252.25
472.873	231.25
473.092	226.25
473.311	244.25
473.53	240.25
473.749	247.25
473.968	259.25
474.187	321.25
474.406	329.25
474.625	274.25
474.844	249.25
475.063	239.25
475.282	234.25
475.501	263.25
475.72	249.25
475.939	245.25
476.158	249.25
476.377	244.25
476.596	237.25
476.814	256.25
477.033	252.25
477.252	262.25
477.471	263.25
477.69	225.25
477.908	258.25
478.127	252.25
478.346	247.25
478.564	262.25
478.783	270.25
479.002	269.25
479.22	266.25
479.439	277.25
479.658	292.25
479.876	295.25
480.095	311.25
480.313	311.25
480.532	308.25
480.751	315.25
480.969	311.25
481.188	363.25
481.406	392.25
481.624	321.25
481.843	291.25
482.061	301.25
482.28	288.25
482.498	274.25
482.717	283.25
482.935	292.25
483.153	271.25
483.372	279.25
483.59	292.25
483.808	284.25
484.027	277.25
484.245	275.25
484.463	268.25
484.681	289.25
484.9	281.25
485.118	289.25
485.336	276.25
485.554	276.25
485.772	293.25
485.99	284.25
486.209	300.25
486.427	270.25
486.645	291.25
486.863	293.25
487.081	285.25
487.299	311.25
487.517	303.25
487.735	300.25
487.953	292.25
488.171	301.25
488.389	295.25
488.607	308.25
488.825	299.25
489.043	311.25
489.261	302.25
489.479	283.25
489.696	298.25
489.914	317.25
490.132	316.25
490.35	314.25
490.568	320.25
490.786	319.25
491.003	326.25
491.221	329.25
491.439	341.25
491.657	337.25
491.874	346.25
492.092	369.25
492.31	372.25
492.527	349.25
492.745	335.25
492.963	356.25
493.18	355.25
493.398	367.25
493.615	362.25
493.833	359.25
494.05	361.25
494.268	362.25
494.485	345.25
494.703	345.25
494.92	378.25
495.138	345.25
495.355	364.25
495.573	356.25
495.79	350.25
496.008	349.25
496.225	365.25
496.442	347.25
496.66	336.25
496.877	363.25
497.094	331.25
497.312	361.25
497.529	353.25
497.746	347.25
497.963	353.25
498.181	383.25
498.398	374.25
498.615	362.25
498.832	375.25
499.049	367.25
499.267	392.25
499.484	407.25
499.701	413.25
499.918	399.25
500.135	460.25
500.352	456.25
500.569	457.25
500.786	465.25
501.003	479.25
501.22	432.25
501.437	451.25
501.654	435.25
501.871	444.25
502.088	414.25
502.305	371.25
502.522	380.25
