Data from 1966.PennyLincolnUp.Lamp.En5.5.200Scan.071719.P1._HRD10591_14-12-45-914.txt Node
Date: Thu Jul 18 14:12:45 EDT 2019
User: cochatt
Spectrometer: HR+D1059
Trigger mode: 1
Integration Time (sec): 1.000000E-1
Scans to average: 1
Electric dark correction enabled: true
Nonlinearity correction enabled: false
Boxcar width: 0
XAxis mode: Wavelengths
Number of Pixels in Spectrum: 2048
>>>>>Begin Spectral Data<<<<<
223.165	-20.94
223.4	-20.94
223.635	-20.94
223.869	-18.94
224.104	-10.94
224.338	-14.94
224.573	-21.94
224.808	-7.94
225.042	-11.94
225.277	-12.94
225.511	-2.94
225.746	-0.94
225.98	18.06
226.215	10.06
226.449	8.06
226.683	24.06
226.918	34.06
227.152	30.06
227.387	34.06
227.621	35.06
227.856	38.06
228.09	45.06
228.324	51.06
228.559	59.06
228.793	68.06
229.027	72.06
229.262	70.06
229.496	80.06
229.73	97.06
229.964	94.06
230.199	90.06
230.433	90.06
230.667	103.06
230.901	74.06
231.136	82.06
231.37	97.06
231.604	91.06
231.838	102.06
232.072	90.06
232.306	92.06
232.541	74.06
232.775	90.06
233.009	87.06
233.243	113.06
233.477	95.06
233.711	90.06
233.945	90.06
234.179	80.06
234.413	97.06
234.647	79.06
234.881	103.06
235.115	104.06
235.349	101.06
235.583	101.06
235.817	94.06
236.051	84.06
236.285	89.06
236.519	104.06
236.753	92.06
236.987	104.06
237.221	115.06
237.455	120.06
237.689	118.06
237.922	90.06
238.156	98.06
238.39	94.06
238.624	102.06
238.858	84.06
239.091	91.06
239.325	95.06
239.559	86.06
239.793	96.06
240.027	79.06
240.26	103.06
240.494	114.06
240.728	99.06
240.961	115.06
241.195	94.06
241.429	104.06
241.662	90.06
241.896	107.06
242.13	102.06
242.363	100.06
242.597	89.06
242.83	91.06
243.064	104.06
243.298	69.06
243.531	93.06
243.765	105.06
243.998	77.06
244.232	111.06
244.465	117.06
244.699	88.06
244.932	93.06
245.166	107.06
245.399	97.06
245.633	97.06
245.866	105.06
246.099	111.06
246.333	105.06
246.566	94.06
246.8	108.06
247.033	108.06
247.266	110.06
247.5	101.06
247.733	116.06
247.966	113.06
248.2	121.06
248.433	115.06
248.666	113.06
248.899	113.06
249.133	123.06
249.366	130.06
249.599	115.06
249.832	120.06
250.066	115.06
250.299	120.06
250.532	135.06
250.765	133.06
250.998	122.06
251.231	152.06
251.465	137.06
251.698	131.06
251.931	121.06
252.164	113.06
252.397	125.06
252.63	118.06
252.863	124.06
253.096	117.06
253.329	120.06
253.562	129.06
253.795	132.06
254.028	128.06
254.261	130.06
254.494	130.06
254.727	137.06
254.96	154.06
255.193	157.06
255.426	141.06
255.659	142.06
255.892	135.06
256.124	129.06
256.357	128.06
256.59	126.06
256.823	125.06
257.056	129.06
257.289	132.06
257.521	131.06
257.754	123.06
257.987	134.06
258.22	131.06
258.452	132.06
258.685	123.06
258.918	126.06
259.151	143.06
259.383	125.06
259.616	122.06
259.849	134.06
260.081	138.06
260.314	134.06
260.547	137.06
260.779	132.06
261.012	144.06
261.244	122.06
261.477	140.06
261.71	132.06
261.942	127.06
262.175	131.06
262.407	128.06
262.64	140.06
262.872	139.06
263.105	136.06
263.337	137.06
263.57	130.06
263.802	127.06
264.035	135.06
264.267	126.06
264.499	135.06
264.732	123.06
264.964	125.06
265.197	137.06
265.429	130.06
265.661	130.06
265.894	129.06
266.126	129.06
266.358	134.06
266.591	132.06
266.823	126.06
267.055	136.06
267.287	127.06
267.52	118.06
267.752	148.06
267.984	136.06
268.216	125.06
268.448	141.06
268.681	137.06
268.913	135.06
269.145	151.06
269.377	146.06
269.609	153.06
269.841	162.06
270.073	162.06
270.306	168.06
270.538	177.06
270.77	165.06
271.002	177.06
271.234	172.06
271.466	155.06
271.698	166.06
271.93	189.06
272.162	172.06
272.394	186.06
272.626	152.06
272.858	147.06
273.09	161.06
273.322	143.06
273.553	143.06
273.785	153.06
274.017	155.06
274.249	140.06
274.481	138.06
274.713	149.06
274.945	145.06
275.176	152.06
275.408	134.06
275.64	155.06
275.872	161.06
276.104	154.06
276.335	161.06
276.567	153.06
276.799	152.06
277.031	171.06
277.262	169.06
277.494	191.06
277.726	172.06
277.957	147.06
278.189	135.06
278.421	151.06
278.652	146.06
278.884	140.06
279.115	141.06
279.347	162.06
279.579	155.06
279.81	162.06
280.042	147.06
280.273	150.06
280.505	143.06
280.736	147.06
280.968	148.06
281.199	162.06
281.431	143.06
281.662	149.06
281.894	162.06
282.125	156.06
282.356	158.06
282.588	166.06
282.819	155.06
283.051	157.06
283.282	173.06
283.513	149.06
283.745	155.06
283.976	162.06
284.207	143.06
284.439	175.06
284.67	158.06
284.901	163.06
285.132	161.06
285.364	134.06
285.595	165.06
285.826	164.06
286.057	153.06
286.288	157.06
286.52	138.06
286.751	148.06
286.982	155.06
287.213	148.06
287.444	137.06
287.675	143.06
287.906	162.06
288.138	170.06
288.369	173.06
288.6	172.06
288.831	165.06
289.062	165.06
289.293	169.06
289.524	147.06
289.755	149.06
289.986	155.06
290.217	159.06
290.448	181.06
290.679	154.06
290.91	155.06
291.141	167.06
291.371	147.06
291.602	158.06
291.833	151.06
292.064	154.06
292.295	156.06
292.526	154.06
292.757	141.06
292.987	153.06
293.218	159.06
293.449	167.06
293.68	148.06
293.91	149.06
294.141	134.06
294.372	150.06
294.603	167.06
294.833	171.06
295.064	165.06
295.295	147.06
295.525	159.06
295.756	169.06
295.987	169.06
296.217	172.06
296.448	177.06
296.679	180.06
296.909	156.06
297.14	150.06
297.37	166.06
297.601	148.06
297.831	140.06
298.062	163.06
298.292	152.06
298.523	162.06
298.753	155.06
298.984	153.06
299.214	156.06
299.445	171.06
299.675	174.06
299.905	155.06
300.136	192.06
300.366	167.06
300.597	166.06
300.827	172.06
301.057	163.06
301.288	178.06
301.518	177.06
301.748	167.06
301.979	179.06
302.209	179.06
302.439	191.06
302.669	181.06
302.9	168.06
303.13	165.06
303.36	169.06
303.59	167.06
303.82	167.06
304.051	188.06
304.281	172.06
304.511	171.06
304.741	166.06
304.971	185.06
305.201	165.06
305.431	173.06
305.661	170.06
305.891	187.06
306.121	158.06
306.352	172.06
306.582	186.06
306.812	179.06
307.042	171.06
307.272	166.06
307.502	184.06
307.731	190.06
307.961	175.06
308.191	173.06
308.421	178.06
308.651	177.06
308.881	180.06
309.111	186.06
309.341	169.06
309.571	195.06
309.8	177.06
310.03	181.06
310.26	204.06
310.49	174.06
310.72	188.06
310.949	191.06
311.179	201.06
311.409	209.06
311.639	182.06
311.868	174.06
312.098	191.06
312.328	184.06
312.557	200.06
312.787	208.06
313.017	196.06
313.246	193.06
313.476	185.06
313.706	201.06
313.935	192.06
314.165	206.06
314.394	207.06
314.624	205.06
314.853	188.06
315.083	198.06
315.312	179.06
315.542	174.06
315.771	193.06
316.001	188.06
316.23	184.06
316.46	192.06
316.689	197.06
316.919	192.06
317.148	200.06
317.377	188.06
317.607	191.06
317.836	186.06
318.065	179.06
318.295	204.06
318.524	179.06
318.753	179.06
318.983	196.06
319.212	193.06
319.441	179.06
319.67	198.06
319.9	204.06
320.129	203.06
320.358	194.06
320.587	187.06
320.816	198.06
321.046	180.06
321.275	201.06
321.504	187.06
321.733	200.06
321.962	197.06
322.191	205.06
322.42	221.06
322.649	233.06
322.878	227.06
323.108	218.06
323.337	238.06
323.566	214.06
323.795	230.06
324.024	280.06
324.253	321.06
324.482	440.06
324.71	639.06
324.939	894.06
325.168	719.06
325.397	384.06
325.626	259.06
325.855	229.06
326.084	233.06
326.313	241.06
326.542	233.06
326.77	263.06
326.999	315.06
327.228	435.06
327.457	600.06
327.686	683.06
327.914	437.06
328.143	310.06
328.372	305.06
328.6	268.06
328.829	258.06
329.058	259.06
329.287	282.06
329.515	263.06
329.744	245.06
329.972	239.06
330.201	235.06
330.43	265.06
330.658	279.06
330.887	292.06
331.115	287.06
331.344	244.06
331.572	234.06
331.801	249.06
332.03	225.06
332.258	235.06
332.486	236.06
332.715	228.06
332.943	229.06
333.172	217.06
333.4	215.06
333.629	216.06
333.857	222.06
334.085	253.06
334.314	242.06
334.542	267.06
334.771	262.06
334.999	247.06
335.227	233.06
335.455	217.06
335.684	219.06
335.912	210.06
336.14	219.06
336.369	216.06
336.597	219.06
336.825	219.06
337.053	213.06
337.281	222.06
337.51	204.06
337.738	207.06
337.966	210.06
338.194	210.06
338.422	219.06
338.65	201.06
338.878	216.06
339.106	198.06
339.334	201.06
339.562	195.06
339.79	204.06
340.018	217.06
340.246	204.06
340.474	202.06
340.702	231.06
340.93	206.06
341.158	205.06
341.386	215.06
341.614	206.06
341.842	200.06
342.07	198.06
342.298	202.06
342.526	189.06
342.754	201.06
342.981	181.06
343.209	217.06
343.437	196.06
343.665	209.06
343.893	208.06
344.12	216.06
344.348	200.06
344.576	218.06
344.804	215.06
345.031	224.06
345.259	223.06
345.487	209.06
345.714	205.06
345.942	206.06
346.17	190.06
346.397	211.06
346.625	206.06
346.853	204.06
347.08	211.06
347.308	205.06
347.535	226.06
347.763	222.06
347.99	224.06
348.218	194.06
348.445	208.06
348.673	213.06
348.9	217.06
349.128	199.06
349.355	177.06
349.583	192.06
349.81	182.06
350.037	200.06
350.265	203.06
350.492	185.06
350.72	199.06
350.947	181.06
351.174	195.06
351.402	217.06
351.629	203.06
351.856	201.06
352.083	217.06
352.311	220.06
352.538	224.06
352.765	200.06
352.992	207.06
353.22	201.06
353.447	183.06
353.674	204.06
353.901	210.06
354.128	189.06
354.355	170.06
354.583	200.06
354.81	207.06
355.037	193.06
355.264	179.06
355.491	189.06
355.718	194.06
355.945	189.06
356.172	171.06
356.399	190.06
356.626	193.06
356.853	189.06
357.08	180.06
357.307	191.06
357.534	205.06
357.761	191.06
357.988	186.06
358.215	201.06
358.441	183.06
358.668	181.06
358.895	187.06
359.122	182.06
359.349	188.06
359.576	197.06
359.802	195.06
360.029	237.06
360.256	230.06
360.483	197.06
360.709	203.06
360.936	190.06
361.163	205.06
361.39	197.06
361.616	199.06
361.843	215.06
362.07	209.06
362.296	213.06
362.523	205.06
362.749	206.06
362.976	196.06
363.203	189.06
363.429	194.06
363.656	188.06
363.882	195.06
364.109	187.06
364.335	193.06
364.562	190.06
364.788	201.06
365.015	181.06
365.241	188.06
365.468	211.06
365.694	189.06
365.92	207.06
366.147	212.06
366.373	177.06
366.599	211.06
366.826	200.06
367.052	190.06
367.278	205.06
367.505	189.06
367.731	192.06
367.957	185.06
368.184	207.06
368.41	179.06
368.636	197.06
368.862	197.06
369.089	186.06
369.315	183.06
369.541	186.06
369.767	196.06
369.993	198.06
370.219	200.06
370.445	187.06
370.672	197.06
370.898	205.06
371.124	193.06
371.35	203.06
371.576	184.06
371.802	192.06
372.028	197.06
372.254	197.06
372.48	196.06
372.706	197.06
372.932	199.06
373.158	181.06
373.384	197.06
373.61	195.06
373.835	203.06
374.061	184.06
374.287	197.06
374.513	187.06
374.739	176.06
374.965	188.06
375.191	196.06
375.416	188.06
375.642	189.06
375.868	190.06
376.094	191.06
376.319	200.06
376.545	183.06
376.771	187.06
376.997	196.06
377.222	183.06
377.448	189.06
377.674	198.06
377.899	192.06
378.125	177.06
378.35	185.06
378.576	189.06
378.802	188.06
379.027	189.06
379.253	194.06
379.478	207.06
379.704	189.06
379.929	194.06
380.155	187.06
380.38	201.06
380.606	192.06
380.831	211.06
381.057	205.06
381.282	196.06
381.507	195.06
381.733	194.06
381.958	186.06
382.184	193.06
382.409	203.06
382.634	201.06
382.86	196.06
383.085	180.06
383.31	193.06
383.535	184.06
383.761	206.06
383.986	201.06
384.211	191.06
384.436	202.06
384.662	198.06
384.887	202.06
385.112	189.06
385.337	206.06
385.562	175.06
385.787	205.06
386.013	197.06
386.238	197.06
386.463	202.06
386.688	211.06
386.913	209.06
387.138	201.06
387.363	196.06
387.588	195.06
387.813	209.06
388.038	202.06
388.263	217.06
388.488	193.06
388.713	190.06
388.938	215.06
389.163	199.06
389.387	195.06
389.612	203.06
389.837	203.06
390.062	204.06
390.287	200.06
390.512	189.06
390.736	200.06
390.961	193.06
391.186	213.06
391.411	199.06
391.636	210.06
391.86	209.06
392.085	212.06
392.31	208.06
392.534	196.06
392.759	200.06
392.984	194.06
393.208	193.06
393.433	219.06
393.658	227.06
393.882	207.06
394.107	198.06
394.331	200.06
394.556	233.06
394.78	223.06
395.005	195.06
395.229	203.06
395.454	213.06
395.678	215.06
395.903	229.06
396.127	221.06
396.352	218.06
396.576	225.06
396.801	219.06
397.025	202.06
397.249	218.06
397.474	234.06
397.698	235.06
397.922	225.06
398.147	215.06
398.371	224.06
398.595	217.06
398.82	212.06
399.044	228.06
399.268	249.06
399.492	246.06
399.717	261.06
399.941	259.06
400.165	266.06
400.389	257.06
400.613	243.06
400.837	231.06
401.062	235.06
401.286	231.06
401.51	226.06
401.734	221.06
401.958	246.06
402.182	232.06
402.406	264.06
402.63	241.06
402.854	225.06
403.078	225.06
403.302	243.06
403.526	250.06
403.75	248.06
403.974	237.06
404.198	237.06
404.422	248.06
404.645	242.06
404.869	260.06
405.093	251.06
405.317	266.06
405.541	290.06
405.765	261.06
405.988	236.06
406.212	248.06
406.436	272.06
406.66	257.06
406.883	257.06
407.107	279.06
407.331	294.06
407.555	290.06
407.778	305.06
408.002	271.06
408.226	269.06
408.449	253.06
408.673	260.06
408.896	260.06
409.12	263.06
409.344	257.06
409.567	252.06
409.791	247.06
410.014	245.06
410.238	238.06
410.461	223.06
410.685	251.06
410.908	258.06
411.132	267.06
411.355	277.06
411.578	236.06
411.802	234.06
412.025	228.06
412.249	234.06
412.472	249.06
412.695	253.06
412.919	267.06
413.142	237.06
413.365	250.06
413.589	239.06
413.812	228.06
414.035	240.06
414.258	231.06
414.482	234.06
414.705	218.06
414.928	211.06
415.151	243.06
415.374	216.06
415.597	230.06
415.821	231.06
416.044	231.06
416.267	225.06
416.49	233.06
416.713	218.06
416.936	229.06
417.159	209.06
417.382	233.06
417.605	245.06
417.828	244.06
418.051	239.06
418.274	234.06
418.497	247.06
418.72	237.06
418.943	226.06
419.166	244.06
419.389	257.06
419.611	245.06
419.834	232.06
420.057	277.06
420.28	255.06
420.503	234.06
420.726	246.06
420.948	235.06
421.171	251.06
421.394	270.06
421.617	250.06
421.839	237.06
422.062	229.06
422.285	234.06
422.507	282.06
422.73	288.06
422.953	289.06
423.175	229.06
423.398	251.06
423.621	248.06
423.843	259.06
424.066	247.06
424.288	230.06
424.511	273.06
424.733	271.06
424.956	309.06
425.178	290.06
425.401	297.06
425.623	301.06
425.846	259.06
426.068	245.06
426.291	244.06
426.513	240.06
426.735	266.06
426.958	263.06
427.18	297.06
427.402	336.06
427.625	374.06
427.847	327.06
428.069	291.06
428.292	260.06
428.514	248.06
428.736	249.06
428.958	252.06
429.181	236.06
429.403	217.06
429.625	230.06
429.847	262.06
430.069	294.06
430.292	290.06
430.514	246.06
430.736	230.06
430.958	242.06
431.18	234.06
431.402	227.06
431.624	213.06
431.846	211.06
432.068	229.06
432.29	231.06
432.512	233.06
432.734	222.06
432.956	237.06
433.178	236.06
433.4	233.06
433.622	227.06
433.844	237.06
434.066	219.06
434.287	220.06
434.509	241.06
434.731	235.06
434.953	243.06
435.175	241.06
435.397	264.06
435.618	244.06
435.84	262.06
436.062	303.06
436.284	320.06
436.505	279.06
436.727	231.06
436.949	238.06
437.17	233.06
437.392	229.06
437.614	243.06
437.835	274.06
438.057	284.06
438.278	327.06
438.5	312.06
438.721	350.06
438.943	338.06
439.165	272.06
439.386	261.06
439.608	264.06
439.829	250.06
440.05	265.06
440.272	291.06
440.493	264.06
440.715	249.06
440.936	242.06
441.158	247.06
441.379	236.06
441.6	234.06
441.822	256.06
442.043	276.06
442.264	307.06
442.486	325.06
442.707	264.06
442.928	271.06
443.149	267.06
443.371	282.06
443.592	277.06
443.813	301.06
444.034	334.06
444.255	278.06
444.476	255.06
444.698	253.06
444.919	266.06
445.14	345.06
445.361	289.06
445.582	275.06
445.803	299.06
446.024	357.06
446.245	322.06
446.466	295.06
446.687	250.06
446.908	237.06
447.129	241.06
447.35	232.06
447.571	237.06
447.792	229.06
448.013	232.06
448.234	245.06
448.455	285.06
448.675	313.06
448.896	331.06
449.117	284.06
449.338	277.06
449.559	320.06
449.779	373.06
450	293.06
450.221	248.06
450.442	236.06
450.662	226.06
450.883	241.06
451.104	249.06
451.324	227.06
451.545	228.06
451.766	221.06
451.986	210.06
452.207	215.06
452.428	202.06
452.648	217.06
452.869	213.06
453.089	233.06
453.31	225.06
453.53	213.06
453.751	221.06
453.971	232.06
454.192	242.06
454.412	220.06
454.633	213.06
454.853	211.06
455.073	208.06
455.294	220.06
455.514	248.06
455.734	230.06
455.955	207.06
456.175	197.06
456.395	204.06
456.616	196.06
456.836	194.06
457.056	178.06
457.276	187.06
457.497	217.06
457.717	205.06
457.937	224.06
458.157	210.06
458.377	193.06
458.598	213.06
458.818	249.06
459.038	301.06
459.258	285.06
459.478	241.06
459.698	227.06
459.918	222.06
460.138	217.06
460.358	220.06
460.578	218.06
460.798	251.06
461.018	245.06
461.238	219.06
461.458	234.06
461.678	220.06
461.898	230.06
462.118	250.06
462.338	229.06
462.558	245.06
462.777	243.06
462.997	211.06
463.217	247.06
463.437	241.06
463.657	235.06
463.876	235.06
464.096	232.06
464.316	247.06
464.536	247.06
464.755	250.06
464.975	236.06
465.195	279.06
465.414	315.06
465.634	273.06
465.854	225.06
466.073	232.06
466.293	222.06
466.512	230.06
466.732	231.06
466.951	216.06
467.171	217.06
467.391	197.06
467.61	233.06
467.829	237.06
468.049	227.06
468.268	229.06
468.488	221.06
468.707	223.06
468.927	216.06
469.146	210.06
469.365	215.06
469.585	218.06
469.804	228.06
470.023	225.06
470.243	234.06
470.462	227.06
470.681	242.06
470.901	233.06
471.12	242.06
471.339	207.06
471.558	220.06
471.777	228.06
471.997	229.06
472.216	236.06
472.435	254.06
472.654	258.06
472.873	210.06
473.092	237.06
473.311	222.06
473.53	219.06
473.749	214.06
473.968	255.06
474.187	289.06
474.406	278.06
474.625	228.06
474.844	211.06
475.063	214.06
475.282	245.06
475.501	235.06
475.72	242.06
475.939	208.06
476.158	204.06
476.377	217.06
476.596	219.06
476.814	235.06
477.033	225.06
477.252	241.06
477.471	238.06
477.69	247.06
477.908	233.06
478.127	230.06
478.346	230.06
478.564	230.06
478.783	229.06
479.002	259.06
479.22	249.06
479.439	254.06
479.658	271.06
479.876	248.06
480.095	260.06
480.313	271.06
480.532	279.06
480.751	262.06
480.969	269.06
481.188	322.06
481.406	334.06
481.624	285.06
481.843	292.06
482.061	265.06
482.28	252.06
482.498	255.06
482.717	245.06
482.935	249.06
483.153	252.06
483.372	264.06
483.59	266.06
483.808	262.06
484.027	254.06
484.245	245.06
484.463	259.06
484.681	251.06
484.9	253.06
485.118	259.06
485.336	264.06
485.554	270.06
485.772	264.06
485.99	257.06
486.209	261.06
486.427	268.06
486.645	274.06
486.863	285.06
487.081	291.06
487.299	271.06
487.517	268.06
487.735	269.06
487.953	267.06
488.171	263.06
488.389	269.06
488.607	275.06
488.825	279.06
489.043	286.06
489.261	282.06
489.479	265.06
489.696	266.06
489.914	273.06
490.132	281.06
490.35	275.06
490.568	281.06
490.786	307.06
491.003	305.06
491.221	300.06
491.439	303.06
491.657	340.06
491.874	319.06
492.092	297.06
492.31	334.06
492.527	321.06
492.745	315.06
492.963	329.06
493.18	335.06
493.398	334.06
493.615	317.06
493.833	325.06
494.05	329.06
494.268	311.06
494.485	325.06
494.703	311.06
494.92	314.06
495.138	326.06
495.355	322.06
495.573	312.06
495.79	302.06
496.008	319.06
496.225	321.06
496.442	311.06
496.66	301.06
496.877	326.06
497.094	309.06
497.312	332.06
497.529	326.06
497.746	303.06
497.963	307.06
498.181	324.06
498.398	331.06
498.615	341.06
498.832	348.06
499.049	336.06
499.267	375.06
499.484	349.06
499.701	373.06
499.918	391.06
500.135	397.06
500.352	403.06
500.569	414.06
500.786	410.06
501.003	409.06
501.22	406.06
501.437	395.06
501.654	387.06
501.871	386.06
502.088	373.06
502.305	356.06
502.522	319.06
