Data from 1966.PennyLincolnUp.Lamp.En5.5.200Scan.071719.P1._HRD10591_14-12-38-913.txt Node
Date: Thu Jul 18 14:12:38 EDT 2019
User: cochatt
Spectrometer: HR+D1059
Trigger mode: 1
Integration Time (sec): 1.000000E-1
Scans to average: 1
Electric dark correction enabled: true
Nonlinearity correction enabled: false
Boxcar width: 0
XAxis mode: Wavelengths
Number of Pixels in Spectrum: 2048
>>>>>Begin Spectral Data<<<<<
223.165	-29.62
223.4	-29.62
223.635	-29.62
223.869	-15.62
224.104	-26.62
224.338	-8.62
224.573	-18.62
224.808	-0.62
225.042	-3.62
225.277	-2.62
225.511	-7.62
225.746	5.38
225.98	6.38
226.215	0.38
226.449	12.38
226.683	35.38
226.918	24.38
227.152	29.38
227.387	30.38
227.621	26.38
227.856	46.38
228.09	57.38
228.324	40.38
228.559	68.38
228.793	57.38
229.027	77.38
229.262	81.38
229.496	83.38
229.73	97.38
229.964	123.38
230.199	96.38
230.433	82.38
230.667	83.38
230.901	88.38
231.136	104.38
231.37	86.38
231.604	98.38
231.838	106.38
232.072	106.38
232.306	95.38
232.541	100.38
232.775	94.38
233.009	96.38
233.243	76.38
233.477	95.38
233.711	93.38
233.945	102.38
234.179	100.38
234.413	86.38
234.647	98.38
234.881	96.38
235.115	89.38
235.349	93.38
235.583	101.38
235.817	104.38
236.051	116.38
236.285	102.38
236.519	96.38
236.753	96.38
236.987	96.38
237.221	113.38
237.455	147.38
237.689	114.38
237.922	93.38
238.156	92.38
238.39	99.38
238.624	101.38
238.858	105.38
239.091	111.38
239.325	88.38
239.559	88.38
239.793	85.38
240.027	103.38
240.26	90.38
240.494	93.38
240.728	110.38
240.961	103.38
241.195	116.38
241.429	106.38
241.662	97.38
241.896	96.38
242.13	96.38
242.363	96.38
242.597	106.38
242.83	118.38
243.064	111.38
243.298	97.38
243.531	102.38
243.765	100.38
243.998	104.38
244.232	113.38
244.465	103.38
244.699	105.38
244.932	110.38
245.166	106.38
245.399	99.38
245.633	115.38
245.866	103.38
246.099	100.38
246.333	100.38
246.566	104.38
246.8	113.38
247.033	108.38
247.266	113.38
247.5	115.38
247.733	123.38
247.966	131.38
248.2	122.38
248.433	110.38
248.666	112.38
248.899	126.38
249.133	130.38
249.366	129.38
249.599	132.38
249.832	120.38
250.066	118.38
250.299	119.38
250.532	124.38
250.765	132.38
250.998	125.38
251.231	147.38
251.465	138.38
251.698	130.38
251.931	111.38
252.164	120.38
252.397	115.38
252.63	126.38
252.863	132.38
253.096	124.38
253.329	136.38
253.562	141.38
253.795	134.38
254.028	140.38
254.261	136.38
254.494	129.38
254.727	145.38
254.96	174.38
255.193	158.38
255.426	159.38
255.659	140.38
255.892	137.38
256.124	146.38
256.357	138.38
256.59	140.38
256.823	126.38
257.056	138.38
257.289	133.38
257.521	138.38
257.754	135.38
257.987	123.38
258.22	132.38
258.452	145.38
258.685	118.38
258.918	128.38
259.151	145.38
259.383	136.38
259.616	129.38
259.849	142.38
260.081	149.38
260.314	151.38
260.547	147.38
260.779	136.38
261.012	130.38
261.244	120.38
261.477	133.38
261.71	124.38
261.942	135.38
262.175	145.38
262.407	140.38
262.64	122.38
262.872	136.38
263.105	138.38
263.337	130.38
263.57	118.38
263.802	124.38
264.035	116.38
264.267	141.38
264.499	129.38
264.732	127.38
264.964	147.38
265.197	126.38
265.429	130.38
265.661	115.38
265.894	128.38
266.126	124.38
266.358	137.38
266.591	123.38
266.823	128.38
267.055	136.38
267.287	141.38
267.52	145.38
267.752	128.38
267.984	122.38
268.216	130.38
268.448	154.38
268.681	144.38
268.913	141.38
269.145	144.38
269.377	164.38
269.609	154.38
269.841	143.38
270.073	164.38
270.306	162.38
270.538	168.38
270.77	182.38
271.002	177.38
271.234	164.38
271.466	162.38
271.698	167.38
271.93	174.38
272.162	182.38
272.394	160.38
272.626	152.38
272.858	157.38
273.09	153.38
273.322	157.38
273.553	152.38
273.785	156.38
274.017	138.38
274.249	164.38
274.481	149.38
274.713	152.38
274.945	137.38
275.176	159.38
275.408	150.38
275.64	158.38
275.872	149.38
276.104	167.38
276.335	152.38
276.567	161.38
276.799	165.38
277.031	162.38
277.262	184.38
277.494	189.38
277.726	184.38
277.957	167.38
278.189	160.38
278.421	146.38
278.652	150.38
278.884	146.38
279.115	139.38
279.347	163.38
279.579	145.38
279.81	154.38
280.042	155.38
280.273	157.38
280.505	137.38
280.736	162.38
280.968	151.38
281.199	165.38
281.431	151.38
281.662	151.38
281.894	154.38
282.125	162.38
282.356	162.38
282.588	155.38
282.819	178.38
283.051	171.38
283.282	173.38
283.513	149.38
283.745	156.38
283.976	154.38
284.207	164.38
284.439	150.38
284.67	142.38
284.901	168.38
285.132	149.38
285.364	165.38
285.595	153.38
285.826	160.38
286.057	153.38
286.288	159.38
286.52	160.38
286.751	157.38
286.982	159.38
287.213	171.38
287.444	170.38
287.675	170.38
287.906	174.38
288.138	184.38
288.369	157.38
288.6	158.38
288.831	174.38
289.062	157.38
289.293	168.38
289.524	166.38
289.755	164.38
289.986	156.38
290.217	149.38
290.448	152.38
290.679	163.38
290.91	181.38
291.141	164.38
291.371	177.38
291.602	175.38
291.833	158.38
292.064	157.38
292.295	148.38
292.526	161.38
292.757	156.38
292.987	152.38
293.218	161.38
293.449	155.38
293.68	154.38
293.91	160.38
294.141	164.38
294.372	174.38
294.603	174.38
294.833	176.38
295.064	176.38
295.295	176.38
295.525	161.38
295.756	161.38
295.987	164.38
296.217	176.38
296.448	200.38
296.679	167.38
296.909	184.38
297.14	163.38
297.37	156.38
297.601	166.38
297.831	175.38
298.062	170.38
298.292	182.38
298.523	161.38
298.753	175.38
298.984	161.38
299.214	171.38
299.445	176.38
299.675	157.38
299.905	184.38
300.136	170.38
300.366	176.38
300.597	186.38
300.827	182.38
301.057	165.38
301.288	188.38
301.518	170.38
301.748	170.38
301.979	206.38
302.209	175.38
302.439	188.38
302.669	192.38
302.9	190.38
303.13	184.38
303.36	183.38
303.59	182.38
303.82	193.38
304.051	174.38
304.281	179.38
304.511	184.38
304.741	176.38
304.971	186.38
305.201	182.38
305.431	167.38
305.661	182.38
305.891	172.38
306.121	181.38
306.352	172.38
306.582	174.38
306.812	187.38
307.042	189.38
307.272	171.38
307.502	191.38
307.731	194.38
307.961	172.38
308.191	174.38
308.421	172.38
308.651	168.38
308.881	159.38
309.111	173.38
309.341	177.38
309.571	194.38
309.8	184.38
310.03	184.38
310.26	198.38
310.49	194.38
310.72	202.38
310.949	209.38
311.179	216.38
311.409	188.38
311.639	187.38
311.868	207.38
312.098	205.38
312.328	194.38
312.557	209.38
312.787	222.38
313.017	219.38
313.246	202.38
313.476	212.38
313.706	178.38
313.935	199.38
314.165	208.38
314.394	210.38
314.624	210.38
314.853	221.38
315.083	205.38
315.312	193.38
315.542	173.38
315.771	198.38
316.001	186.38
316.23	182.38
316.46	200.38
316.689	198.38
316.919	207.38
317.148	210.38
317.377	203.38
317.607	201.38
317.836	208.38
318.065	200.38
318.295	214.38
318.524	208.38
318.753	197.38
318.983	178.38
319.212	177.38
319.441	195.38
319.67	214.38
319.9	218.38
320.129	212.38
320.358	201.38
320.587	207.38
320.816	199.38
321.046	194.38
321.275	191.38
321.504	206.38
321.733	216.38
321.962	196.38
322.191	220.38
322.42	211.38
322.649	215.38
322.878	226.38
323.108	239.38
323.337	242.38
323.566	251.38
323.795	250.38
324.024	273.38
324.253	315.38
324.482	447.38
324.71	701.38
324.939	906.38
325.168	718.38
325.397	383.38
325.626	272.38
325.855	239.38
326.084	228.38
326.313	235.38
326.542	233.38
326.77	255.38
326.999	302.38
327.228	427.38
327.457	624.38
327.686	680.38
327.914	454.38
328.143	326.38
328.372	314.38
328.6	268.38
328.829	262.38
329.058	282.38
329.287	278.38
329.515	278.38
329.744	248.38
329.972	243.38
330.201	275.38
330.43	282.38
330.658	305.38
330.887	310.38
331.115	320.38
331.344	248.38
331.572	232.38
331.801	230.38
332.03	240.38
332.258	242.38
332.486	232.38
332.715	241.38
332.943	224.38
333.172	225.38
333.4	227.38
333.629	265.38
333.857	233.38
334.085	251.38
334.314	268.38
334.542	304.38
334.771	279.38
334.999	278.38
335.227	229.38
335.455	228.38
335.684	232.38
335.912	245.38
336.14	240.38
336.369	244.38
336.597	223.38
336.825	234.38
337.053	238.38
337.281	231.38
337.51	223.38
337.738	222.38
337.966	209.38
338.194	227.38
338.422	220.38
338.65	216.38
338.878	225.38
339.106	233.38
339.334	213.38
339.562	192.38
339.79	210.38
340.018	219.38
340.246	221.38
340.474	230.38
340.702	231.38
340.93	222.38
341.158	208.38
341.386	222.38
341.614	218.38
341.842	217.38
342.07	231.38
342.298	237.38
342.526	223.38
342.754	216.38
342.981	203.38
343.209	223.38
343.437	222.38
343.665	219.38
343.893	216.38
344.12	230.38
344.348	227.38
344.576	219.38
344.804	232.38
345.031	220.38
345.259	237.38
345.487	214.38
345.714	214.38
345.942	221.38
346.17	214.38
346.397	206.38
346.625	212.38
346.853	210.38
347.08	200.38
347.308	211.38
347.535	213.38
347.763	234.38
347.99	220.38
348.218	221.38
348.445	221.38
348.673	221.38
348.9	196.38
349.128	209.38
349.355	202.38
349.583	209.38
349.81	201.38
350.037	216.38
350.265	206.38
350.492	197.38
350.72	203.38
350.947	199.38
351.174	216.38
351.402	232.38
351.629	221.38
351.856	217.38
352.083	199.38
352.311	208.38
352.538	212.38
352.765	235.38
352.992	209.38
353.22	214.38
353.447	207.38
353.674	213.38
353.901	199.38
354.128	205.38
354.355	190.38
354.583	210.38
354.81	191.38
355.037	188.38
355.264	192.38
355.491	210.38
355.718	209.38
355.945	209.38
356.172	204.38
356.399	196.38
356.626	190.38
356.853	198.38
357.08	182.38
357.307	198.38
357.534	194.38
357.761	205.38
357.988	207.38
358.215	201.38
358.441	197.38
358.668	198.38
358.895	204.38
359.122	207.38
359.349	196.38
359.576	206.38
359.802	224.38
360.029	235.38
360.256	254.38
360.483	223.38
360.709	210.38
360.936	209.38
361.163	208.38
361.39	205.38
361.616	203.38
361.843	211.38
362.07	204.38
362.296	208.38
362.523	214.38
362.749	203.38
362.976	200.38
363.203	214.38
363.429	206.38
363.656	204.38
363.882	202.38
364.109	193.38
364.335	211.38
364.562	201.38
364.788	192.38
365.015	210.38
365.241	215.38
365.468	216.38
365.694	218.38
365.92	210.38
366.147	206.38
366.373	189.38
366.599	191.38
366.826	204.38
367.052	194.38
367.278	198.38
367.505	211.38
367.731	204.38
367.957	190.38
368.184	200.38
368.41	206.38
368.636	216.38
368.862	204.38
369.089	207.38
369.315	197.38
369.541	203.38
369.767	218.38
369.993	202.38
370.219	205.38
370.445	188.38
370.672	210.38
370.898	204.38
371.124	206.38
371.35	202.38
371.576	207.38
371.802	193.38
372.028	201.38
372.254	200.38
372.48	214.38
372.706	213.38
372.932	209.38
373.158	201.38
373.384	206.38
373.61	215.38
373.835	211.38
374.061	185.38
374.287	209.38
374.513	214.38
374.739	208.38
374.965	197.38
375.191	218.38
375.416	216.38
375.642	200.38
375.868	191.38
376.094	203.38
376.319	203.38
376.545	210.38
376.771	196.38
376.997	200.38
377.222	193.38
377.448	213.38
377.674	192.38
377.899	199.38
378.125	188.38
378.35	194.38
378.576	192.38
378.802	190.38
379.027	188.38
379.253	210.38
379.478	190.38
379.704	185.38
379.929	192.38
380.155	210.38
380.38	189.38
380.606	201.38
380.831	185.38
381.057	193.38
381.282	200.38
381.507	192.38
381.733	212.38
381.958	206.38
382.184	203.38
382.409	197.38
382.634	212.38
382.86	202.38
383.085	196.38
383.31	212.38
383.535	208.38
383.761	210.38
383.986	224.38
384.211	227.38
384.436	206.38
384.662	217.38
384.887	217.38
385.112	208.38
385.337	233.38
385.562	200.38
385.787	207.38
386.013	239.38
386.238	217.38
386.463	236.38
386.688	216.38
386.913	213.38
387.138	224.38
387.363	212.38
387.588	210.38
387.813	212.38
388.038	214.38
388.263	230.38
388.488	216.38
388.713	212.38
388.938	204.38
389.163	207.38
389.387	226.38
389.612	207.38
389.837	225.38
390.062	194.38
390.287	224.38
390.512	216.38
390.736	213.38
390.961	202.38
391.186	215.38
391.411	218.38
391.636	219.38
391.86	218.38
392.085	201.38
392.31	217.38
392.534	223.38
392.759	214.38
392.984	203.38
393.208	220.38
393.433	220.38
393.658	238.38
393.882	205.38
394.107	210.38
394.331	205.38
394.556	227.38
394.78	212.38
395.005	232.38
395.229	199.38
395.454	214.38
395.678	222.38
395.903	223.38
396.127	240.38
396.352	231.38
396.576	228.38
396.801	230.38
397.025	217.38
397.249	229.38
397.474	241.38
397.698	212.38
397.922	246.38
398.147	239.38
398.371	240.38
398.595	231.38
398.82	235.38
399.044	247.38
399.268	248.38
399.492	251.38
399.717	269.38
399.941	311.38
400.165	283.38
400.389	293.38
400.613	271.38
400.837	249.38
401.062	248.38
401.286	251.38
401.51	247.38
401.734	245.38
401.958	259.38
402.182	249.38
402.406	251.38
402.63	251.38
402.854	238.38
403.078	246.38
403.302	235.38
403.526	237.38
403.75	263.38
403.974	246.38
404.198	270.38
404.422	246.38
404.645	250.38
404.869	256.38
405.093	277.38
405.317	280.38
405.541	304.38
405.765	264.38
405.988	260.38
406.212	272.38
406.436	288.38
406.66	280.38
406.883	273.38
407.107	277.38
407.331	282.38
407.555	349.38
407.778	322.38
408.002	288.38
408.226	265.38
408.449	273.38
408.673	289.38
408.896	276.38
409.12	289.38
409.344	289.38
409.567	237.38
409.791	272.38
410.014	254.38
410.238	254.38
410.461	262.38
410.685	267.38
410.908	257.38
411.132	284.38
411.355	291.38
411.578	279.38
411.802	257.38
412.025	249.38
412.249	250.38
412.472	264.38
412.695	266.38
412.919	273.38
413.142	269.38
413.365	270.38
413.589	242.38
413.812	241.38
414.035	247.38
414.258	248.38
414.482	251.38
414.705	244.38
414.928	260.38
415.151	241.38
415.374	233.38
415.597	233.38
415.821	250.38
416.044	245.38
416.267	249.38
416.49	233.38
416.713	229.38
416.936	240.38
417.159	258.38
417.382	236.38
417.605	254.38
417.828	237.38
418.051	246.38
418.274	253.38
418.497	260.38
418.72	234.38
418.943	263.38
419.166	249.38
419.389	248.38
419.611	257.38
419.834	258.38
420.057	274.38
420.28	256.38
420.503	250.38
420.726	246.38
420.948	245.38
421.171	275.38
421.394	274.38
421.617	245.38
421.839	258.38
422.062	252.38
422.285	257.38
422.507	292.38
422.73	308.38
422.953	325.38
423.175	260.38
423.398	266.38
423.621	272.38
423.843	273.38
424.066	266.38
424.288	274.38
424.511	266.38
424.733	292.38
424.956	321.38
425.178	302.38
425.401	330.38
425.623	332.38
425.846	282.38
426.068	278.38
426.291	256.38
426.513	255.38
426.735	257.38
426.958	262.38
427.18	319.38
427.402	380.38
427.625	396.38
427.847	335.38
428.069	303.38
428.292	278.38
428.514	260.38
428.736	247.38
428.958	237.38
429.181	232.38
429.403	248.38
429.625	242.38
429.847	264.38
430.069	286.38
430.292	273.38
430.514	251.38
430.736	250.38
430.958	238.38
431.18	231.38
431.402	246.38
431.624	246.38
431.846	240.38
432.068	234.38
432.29	231.38
432.512	252.38
432.734	246.38
432.956	247.38
433.178	264.38
433.4	252.38
433.622	248.38
433.844	238.38
434.066	233.38
434.287	241.38
434.509	226.38
434.731	237.38
434.953	241.38
435.175	265.38
435.397	266.38
435.618	263.38
435.84	280.38
436.062	314.38
436.284	345.38
436.505	293.38
436.727	268.38
436.949	249.38
437.17	248.38
437.392	247.38
437.614	251.38
437.835	274.38
438.057	305.38
438.278	353.38
438.5	339.38
438.721	365.38
438.943	344.38
439.165	290.38
439.386	267.38
439.608	262.38
439.829	255.38
440.05	290.38
440.272	297.38
440.493	278.38
440.715	264.38
440.936	239.38
441.158	260.38
441.379	241.38
441.6	261.38
441.822	262.38
442.043	288.38
442.264	318.38
442.486	319.38
442.707	279.38
442.928	277.38
443.149	264.38
443.371	294.38
443.592	269.38
443.813	323.38
444.034	348.38
444.255	294.38
444.476	262.38
444.698	272.38
444.919	264.38
445.14	342.38
445.361	333.38
445.582	288.38
445.803	301.38
446.024	344.38
446.245	348.38
446.466	340.38
446.687	286.38
446.908	275.38
447.129	257.38
447.35	244.38
447.571	235.38
447.792	256.38
448.013	244.38
448.234	257.38
448.455	272.38
448.675	308.38
448.896	361.38
449.117	306.38
449.338	273.38
449.559	320.38
449.779	373.38
450	294.38
450.221	264.38
450.442	257.38
450.662	239.38
450.883	256.38
451.104	264.38
451.324	233.38
451.545	252.38
451.766	238.38
451.986	226.38
452.207	237.38
452.428	224.38
452.648	211.38
452.869	216.38
453.089	233.38
453.31	230.38
453.53	221.38
453.751	236.38
453.971	216.38
454.192	248.38
454.412	240.38
454.633	222.38
454.853	223.38
455.073	230.38
455.294	234.38
455.514	259.38
455.734	228.38
455.955	229.38
456.175	238.38
456.395	220.38
456.616	201.38
456.836	216.38
457.056	204.38
457.276	202.38
457.497	214.38
457.717	227.38
457.937	217.38
458.157	228.38
458.377	233.38
458.598	233.38
458.818	268.38
459.038	318.38
459.258	297.38
459.478	254.38
459.698	240.38
459.918	232.38
460.138	234.38
460.358	259.38
460.578	238.38
460.798	241.38
461.018	246.38
461.238	256.38
461.458	252.38
461.678	253.38
461.898	230.38
462.118	232.38
462.338	238.38
462.558	269.38
462.777	257.38
462.997	256.38
463.217	262.38
463.437	281.38
463.657	261.38
463.876	263.38
464.096	245.38
464.316	262.38
464.536	251.38
464.755	255.38
464.975	254.38
465.195	273.38
465.414	325.38
465.634	290.38
465.854	257.38
466.073	234.38
466.293	244.38
466.512	219.38
466.732	236.38
466.951	233.38
467.171	244.38
467.391	236.38
467.61	246.38
467.829	242.38
468.049	246.38
468.268	230.38
468.488	224.38
468.707	231.38
468.927	227.38
469.146	218.38
469.365	229.38
469.585	234.38
469.804	234.38
470.023	240.38
470.243	224.38
470.462	242.38
470.681	260.38
470.901	246.38
471.12	249.38
471.339	236.38
471.558	230.38
471.777	233.38
471.997	231.38
472.216	239.38
472.435	251.38
472.654	249.38
472.873	240.38
473.092	228.38
473.311	240.38
473.53	244.38
473.749	246.38
473.968	251.38
474.187	301.38
474.406	312.38
474.625	259.38
474.844	235.38
475.063	233.38
475.282	247.38
475.501	221.38
475.72	228.38
475.939	216.38
476.158	237.38
476.377	224.38
476.596	244.38
476.814	262.38
477.033	245.38
477.252	248.38
477.471	248.38
477.69	265.38
477.908	248.38
478.127	239.38
478.346	240.38
478.564	254.38
478.783	260.38
479.002	268.38
479.22	248.38
479.439	271.38
479.658	278.38
479.876	293.38
480.095	285.38
480.313	295.38
480.532	283.38
480.751	280.38
480.969	272.38
481.188	309.38
481.406	325.38
481.624	296.38
481.843	290.38
482.061	279.38
482.28	262.38
482.498	283.38
482.717	275.38
482.935	275.38
483.153	252.38
483.372	274.38
483.59	280.38
483.808	276.38
484.027	251.38
484.245	270.38
484.463	270.38
484.681	286.38
484.9	274.38
485.118	262.38
485.336	272.38
485.554	270.38
485.772	290.38
485.99	269.38
486.209	288.38
486.427	289.38
486.645	292.38
486.863	297.38
487.081	285.38
487.299	286.38
487.517	284.38
487.735	267.38
487.953	294.38
488.171	275.38
488.389	292.38
488.607	280.38
488.825	268.38
489.043	276.38
489.261	285.38
489.479	291.38
489.696	299.38
489.914	302.38
490.132	298.38
490.35	285.38
490.568	301.38
490.786	295.38
491.003	318.38
491.221	322.38
491.439	334.38
491.657	336.38
491.874	328.38
492.092	325.38
492.31	326.38
492.527	338.38
492.745	342.38
492.963	333.38
493.18	342.38
493.398	334.38
493.615	336.38
493.833	337.38
494.05	354.38
494.268	326.38
494.485	344.38
494.703	342.38
494.92	346.38
495.138	337.38
495.355	334.38
495.573	322.38
495.79	329.38
496.008	329.38
496.225	336.38
496.442	349.38
496.66	305.38
496.877	327.38
497.094	349.38
497.312	333.38
497.529	333.38
497.746	328.38
497.963	336.38
498.181	341.38
498.398	370.38
498.615	353.38
498.832	357.38
499.049	366.38
499.267	380.38
499.484	390.38
499.701	402.38
499.918	402.38
500.135	425.38
500.352	439.38
500.569	432.38
500.786	434.38
501.003	454.38
501.22	436.38
501.437	433.38
501.654	401.38
501.871	427.38
502.088	380.38
502.305	380.38
502.522	358.38
