Data from 1966.PennyLincolnUp.Lamp.En5.5.200Scan.071719.P1._HRD10591_14-13-45-914.txt Node
Date: Thu Jul 18 14:13:45 EDT 2019
User: cochatt
Spectrometer: HR+D1059
Trigger mode: 1
Integration Time (sec): 1.000000E-1
Scans to average: 1
Electric dark correction enabled: true
Nonlinearity correction enabled: false
Boxcar width: 0
XAxis mode: Wavelengths
Number of Pixels in Spectrum: 2048
>>>>>Begin Spectral Data<<<<<
223.165	-1.88
223.4	-1.88
223.635	-1.88
223.869	-16.88
224.104	-18.88
224.338	-11.88
224.573	-10.88
224.808	-14.88
225.042	-0.88
225.277	-17.88
225.511	-8.88
225.746	3.12
225.98	10.12
226.215	7.12
226.449	13.12
226.683	16.12
226.918	21.12
227.152	32.12
227.387	26.12
227.621	42.12
227.856	45.12
228.09	42.12
228.324	39.12
228.559	49.12
228.793	55.12
229.027	75.12
229.262	76.12
229.496	93.12
229.73	97.12
229.964	103.12
230.199	87.12
230.433	72.12
230.667	80.12
230.901	97.12
231.136	83.12
231.37	93.12
231.604	81.12
231.838	79.12
232.072	92.12
232.306	93.12
232.541	88.12
232.775	83.12
233.009	97.12
233.243	74.12
233.477	98.12
233.711	98.12
233.945	92.12
234.179	110.12
234.413	91.12
234.647	100.12
234.881	89.12
235.115	97.12
235.349	99.12
235.583	92.12
235.817	94.12
236.051	94.12
236.285	93.12
236.519	80.12
236.753	93.12
236.987	92.12
237.221	110.12
237.455	132.12
237.689	115.12
237.922	102.12
238.156	102.12
238.39	100.12
238.624	100.12
238.858	93.12
239.091	93.12
239.325	109.12
239.559	105.12
239.793	95.12
240.027	105.12
240.26	111.12
240.494	114.12
240.728	115.12
240.961	101.12
241.195	97.12
241.429	99.12
241.662	88.12
241.896	99.12
242.13	89.12
242.363	96.12
242.597	102.12
242.83	91.12
243.064	103.12
243.298	98.12
243.531	89.12
243.765	106.12
243.998	108.12
244.232	99.12
244.465	100.12
244.699	88.12
244.932	121.12
245.166	110.12
245.399	120.12
245.633	103.12
245.866	110.12
246.099	113.12
246.333	106.12
246.566	105.12
246.8	103.12
247.033	113.12
247.266	101.12
247.5	104.12
247.733	121.12
247.966	106.12
248.2	117.12
248.433	105.12
248.666	115.12
248.899	127.12
249.133	127.12
249.366	129.12
249.599	129.12
249.832	110.12
250.066	106.12
250.299	107.12
250.532	119.12
250.765	129.12
250.998	140.12
251.231	134.12
251.465	130.12
251.698	142.12
251.931	123.12
252.164	126.12
252.397	138.12
252.63	136.12
252.863	135.12
253.096	132.12
253.329	144.12
253.562	143.12
253.795	127.12
254.028	131.12
254.261	117.12
254.494	132.12
254.727	168.12
254.96	160.12
255.193	144.12
255.426	151.12
255.659	140.12
255.892	131.12
256.124	136.12
256.357	153.12
256.59	127.12
256.823	133.12
257.056	138.12
257.289	135.12
257.521	149.12
257.754	130.12
257.987	135.12
258.22	132.12
258.452	129.12
258.685	132.12
258.918	116.12
259.151	141.12
259.383	135.12
259.616	128.12
259.849	124.12
260.081	153.12
260.314	171.12
260.547	172.12
260.779	148.12
261.012	146.12
261.244	142.12
261.477	140.12
261.71	133.12
261.942	145.12
262.175	134.12
262.407	136.12
262.64	140.12
262.872	135.12
263.105	131.12
263.337	152.12
263.57	141.12
263.802	137.12
264.035	130.12
264.267	123.12
264.499	122.12
264.732	136.12
264.964	127.12
265.197	121.12
265.429	134.12
265.661	133.12
265.894	133.12
266.126	130.12
266.358	149.12
266.591	144.12
266.823	138.12
267.055	137.12
267.287	131.12
267.52	140.12
267.752	131.12
267.984	140.12
268.216	145.12
268.448	138.12
268.681	147.12
268.913	152.12
269.145	151.12
269.377	153.12
269.609	157.12
269.841	162.12
270.073	163.12
270.306	182.12
270.538	183.12
270.77	189.12
271.002	179.12
271.234	167.12
271.466	170.12
271.698	193.12
271.93	200.12
272.162	174.12
272.394	190.12
272.626	173.12
272.858	167.12
273.09	158.12
273.322	169.12
273.553	155.12
273.785	150.12
274.017	155.12
274.249	148.12
274.481	157.12
274.713	157.12
274.945	153.12
275.176	158.12
275.408	158.12
275.64	152.12
275.872	151.12
276.104	145.12
276.335	157.12
276.567	157.12
276.799	173.12
277.031	180.12
277.262	203.12
277.494	187.12
277.726	173.12
277.957	160.12
278.189	145.12
278.421	167.12
278.652	158.12
278.884	151.12
279.115	169.12
279.347	159.12
279.579	174.12
279.81	163.12
280.042	162.12
280.273	161.12
280.505	162.12
280.736	149.12
280.968	155.12
281.199	160.12
281.431	150.12
281.662	155.12
281.894	154.12
282.125	161.12
282.356	176.12
282.588	159.12
282.819	184.12
283.051	171.12
283.282	146.12
283.513	155.12
283.745	152.12
283.976	157.12
284.207	164.12
284.439	167.12
284.67	168.12
284.901	169.12
285.132	171.12
285.364	165.12
285.595	165.12
285.826	148.12
286.057	167.12
286.288	170.12
286.52	156.12
286.751	151.12
286.982	164.12
287.213	179.12
287.444	178.12
287.675	167.12
287.906	163.12
288.138	190.12
288.369	151.12
288.6	170.12
288.831	175.12
289.062	155.12
289.293	168.12
289.524	162.12
289.755	149.12
289.986	151.12
290.217	150.12
290.448	162.12
290.679	161.12
290.91	166.12
291.141	155.12
291.371	167.12
291.602	169.12
291.833	153.12
292.064	165.12
292.295	164.12
292.526	163.12
292.757	150.12
292.987	162.12
293.218	161.12
293.449	162.12
293.68	166.12
293.91	163.12
294.141	158.12
294.372	171.12
294.603	170.12
294.833	181.12
295.064	170.12
295.295	179.12
295.525	165.12
295.756	175.12
295.987	194.12
296.217	169.12
296.448	190.12
296.679	184.12
296.909	184.12
297.14	169.12
297.37	178.12
297.601	179.12
297.831	185.12
298.062	168.12
298.292	170.12
298.523	170.12
298.753	178.12
298.984	185.12
299.214	177.12
299.445	155.12
299.675	179.12
299.905	172.12
300.136	168.12
300.366	190.12
300.597	180.12
300.827	174.12
301.057	187.12
301.288	181.12
301.518	191.12
301.748	189.12
301.979	178.12
302.209	198.12
302.439	164.12
302.669	189.12
302.9	181.12
303.13	183.12
303.36	187.12
303.59	194.12
303.82	172.12
304.051	197.12
304.281	180.12
304.511	185.12
304.741	183.12
304.971	179.12
305.201	180.12
305.431	178.12
305.661	185.12
305.891	172.12
306.121	189.12
306.352	188.12
306.582	190.12
306.812	180.12
307.042	189.12
307.272	195.12
307.502	174.12
307.731	182.12
307.961	177.12
308.191	190.12
308.421	183.12
308.651	189.12
308.881	186.12
309.111	183.12
309.341	197.12
309.571	190.12
309.8	207.12
310.03	198.12
310.26	209.12
310.49	187.12
310.72	197.12
310.949	211.12
311.179	209.12
311.409	206.12
311.639	189.12
311.868	213.12
312.098	203.12
312.328	213.12
312.557	208.12
312.787	235.12
313.017	199.12
313.246	206.12
313.476	219.12
313.706	220.12
313.935	210.12
314.165	208.12
314.394	221.12
314.624	211.12
314.853	215.12
315.083	217.12
315.312	206.12
315.542	206.12
315.771	202.12
316.001	200.12
316.23	210.12
316.46	188.12
316.689	201.12
316.919	214.12
317.148	203.12
317.377	207.12
317.607	219.12
317.836	199.12
318.065	207.12
318.295	190.12
318.524	209.12
318.753	200.12
318.983	204.12
319.212	193.12
319.441	220.12
319.67	214.12
319.9	205.12
320.129	188.12
320.358	193.12
320.587	202.12
320.816	209.12
321.046	217.12
321.275	206.12
321.504	198.12
321.733	186.12
321.962	211.12
322.191	220.12
322.42	240.12
322.649	226.12
322.878	233.12
323.108	243.12
323.337	247.12
323.566	270.12
323.795	269.12
324.024	282.12
324.253	350.12
324.482	491.12
324.71	764.12
324.939	1012.12
325.168	839.12
325.397	435.12
325.626	301.12
325.855	271.12
326.084	242.12
326.313	252.12
326.542	263.12
326.77	281.12
326.999	332.12
327.228	451.12
327.457	667.12
327.686	749.12
327.914	483.12
328.143	341.12
328.372	322.12
328.6	301.12
328.829	291.12
329.058	286.12
329.287	308.12
329.515	277.12
329.744	267.12
329.972	277.12
330.201	279.12
330.43	302.12
330.658	322.12
330.887	329.12
331.115	327.12
331.344	269.12
331.572	270.12
331.801	243.12
332.03	255.12
332.258	253.12
332.486	234.12
332.715	238.12
332.943	230.12
333.172	244.12
333.4	244.12
333.629	238.12
333.857	259.12
334.085	267.12
334.314	267.12
334.542	309.12
334.771	316.12
334.999	267.12
335.227	248.12
335.455	222.12
335.684	223.12
335.912	247.12
336.14	223.12
336.369	242.12
336.597	234.12
336.825	223.12
337.053	227.12
337.281	223.12
337.51	225.12
337.738	243.12
337.966	225.12
338.194	245.12
338.422	243.12
338.65	233.12
338.878	230.12
339.106	228.12
339.334	223.12
339.562	226.12
339.79	215.12
340.018	209.12
340.246	221.12
340.474	216.12
340.702	219.12
340.93	221.12
341.158	233.12
341.386	216.12
341.614	231.12
341.842	227.12
342.07	195.12
342.298	219.12
342.526	203.12
342.754	191.12
342.981	194.12
343.209	195.12
343.437	225.12
343.665	211.12
343.893	234.12
344.12	226.12
344.348	232.12
344.576	217.12
344.804	244.12
345.031	232.12
345.259	250.12
345.487	223.12
345.714	219.12
345.942	209.12
346.17	223.12
346.397	206.12
346.625	210.12
346.853	222.12
347.08	227.12
347.308	214.12
347.535	215.12
347.763	200.12
347.99	206.12
348.218	231.12
348.445	230.12
348.673	235.12
348.9	210.12
349.128	215.12
349.355	198.12
349.583	217.12
349.81	205.12
350.037	217.12
350.265	199.12
350.492	214.12
350.72	217.12
350.947	206.12
351.174	218.12
351.402	237.12
351.629	217.12
351.856	237.12
352.083	222.12
352.311	231.12
352.538	233.12
352.765	248.12
352.992	236.12
353.22	206.12
353.447	201.12
353.674	199.12
353.901	213.12
354.128	197.12
354.355	190.12
354.583	208.12
354.81	201.12
355.037	187.12
355.264	215.12
355.491	203.12
355.718	194.12
355.945	203.12
356.172	190.12
356.399	192.12
356.626	189.12
356.853	186.12
357.08	204.12
357.307	199.12
357.534	221.12
357.761	193.12
357.988	207.12
358.215	195.12
358.441	197.12
358.668	205.12
358.895	200.12
359.122	202.12
359.349	214.12
359.576	213.12
359.802	209.12
360.029	251.12
360.256	248.12
360.483	232.12
360.709	207.12
360.936	210.12
361.163	232.12
361.39	225.12
361.616	223.12
361.843	228.12
362.07	215.12
362.296	217.12
362.523	220.12
362.749	212.12
362.976	200.12
363.203	222.12
363.429	215.12
363.656	214.12
363.882	196.12
364.109	217.12
364.335	194.12
364.562	198.12
364.788	196.12
365.015	205.12
365.241	206.12
365.468	217.12
365.694	214.12
365.92	218.12
366.147	207.12
366.373	202.12
366.599	206.12
366.826	209.12
367.052	201.12
367.278	198.12
367.505	184.12
367.731	218.12
367.957	192.12
368.184	202.12
368.41	209.12
368.636	198.12
368.862	198.12
369.089	197.12
369.315	191.12
369.541	199.12
369.767	213.12
369.993	191.12
370.219	206.12
370.445	183.12
370.672	206.12
370.898	220.12
371.124	223.12
371.35	191.12
371.576	195.12
371.802	212.12
372.028	196.12
372.254	211.12
372.48	211.12
372.706	196.12
372.932	205.12
373.158	182.12
373.384	196.12
373.61	203.12
373.835	219.12
374.061	215.12
374.287	203.12
374.513	209.12
374.739	197.12
374.965	209.12
375.191	216.12
375.416	205.12
375.642	199.12
375.868	192.12
376.094	190.12
376.319	190.12
376.545	208.12
376.771	201.12
376.997	185.12
377.222	204.12
377.448	220.12
377.674	201.12
377.899	189.12
378.125	192.12
378.35	190.12
378.576	214.12
378.802	200.12
379.027	205.12
379.253	202.12
379.478	197.12
379.704	205.12
379.929	204.12
380.155	211.12
380.38	189.12
380.606	215.12
380.831	203.12
381.057	194.12
381.282	202.12
381.507	200.12
381.733	202.12
381.958	214.12
382.184	224.12
382.409	214.12
382.634	201.12
382.86	197.12
383.085	191.12
383.31	233.12
383.535	218.12
383.761	209.12
383.986	205.12
384.211	217.12
384.436	211.12
384.662	220.12
384.887	207.12
385.112	199.12
385.337	207.12
385.562	229.12
385.787	213.12
386.013	222.12
386.238	210.12
386.463	204.12
386.688	221.12
386.913	205.12
387.138	214.12
387.363	215.12
387.588	225.12
387.813	203.12
388.038	217.12
388.263	215.12
388.488	214.12
388.713	219.12
388.938	221.12
389.163	224.12
389.387	206.12
389.612	207.12
389.837	232.12
390.062	216.12
390.287	210.12
390.512	211.12
390.736	220.12
390.961	214.12
391.186	225.12
391.411	207.12
391.636	233.12
391.86	229.12
392.085	209.12
392.31	228.12
392.534	209.12
392.759	204.12
392.984	229.12
393.208	221.12
393.433	206.12
393.658	221.12
393.882	203.12
394.107	210.12
394.331	207.12
394.556	221.12
394.78	211.12
395.005	213.12
395.229	215.12
395.454	212.12
395.678	214.12
395.903	242.12
396.127	238.12
396.352	242.12
396.576	219.12
396.801	225.12
397.025	219.12
397.249	224.12
397.474	226.12
397.698	222.12
397.922	235.12
398.147	232.12
398.371	251.12
398.595	234.12
398.82	241.12
399.044	247.12
399.268	257.12
399.492	285.12
399.717	280.12
399.941	276.12
400.165	295.12
400.389	308.12
400.613	293.12
400.837	243.12
401.062	268.12
401.286	259.12
401.51	238.12
401.734	253.12
401.958	250.12
402.182	244.12
402.406	238.12
402.63	257.12
402.854	241.12
403.078	252.12
403.302	261.12
403.526	257.12
403.75	268.12
403.974	261.12
404.198	278.12
404.422	265.12
404.645	262.12
404.869	251.12
405.093	253.12
405.317	283.12
405.541	312.12
405.765	276.12
405.988	277.12
406.212	270.12
406.436	289.12
406.66	293.12
406.883	263.12
407.107	285.12
407.331	305.12
407.555	325.12
407.778	348.12
408.002	298.12
408.226	275.12
408.449	286.12
408.673	279.12
408.896	282.12
409.12	298.12
409.344	276.12
409.567	257.12
409.791	263.12
410.014	265.12
410.238	246.12
410.461	253.12
410.685	236.12
410.908	284.12
411.132	283.12
411.355	271.12
411.578	287.12
411.802	250.12
412.025	255.12
412.249	265.12
412.472	264.12
412.695	290.12
412.919	279.12
413.142	253.12
413.365	242.12
413.589	267.12
413.812	245.12
414.035	242.12
414.258	261.12
414.482	231.12
414.705	243.12
414.928	261.12
415.151	247.12
415.374	235.12
415.597	268.12
415.821	252.12
416.044	246.12
416.267	262.12
416.49	272.12
416.713	245.12
416.936	230.12
417.159	241.12
417.382	249.12
417.605	235.12
417.828	237.12
418.051	248.12
418.274	263.12
418.497	246.12
418.72	254.12
418.943	255.12
419.166	265.12
419.389	277.12
419.611	266.12
419.834	254.12
420.057	263.12
420.28	270.12
420.503	255.12
420.726	273.12
420.948	262.12
421.171	273.12
421.394	294.12
421.617	262.12
421.839	263.12
422.062	242.12
422.285	261.12
422.507	284.12
422.73	312.12
422.953	298.12
423.175	282.12
423.398	241.12
423.621	271.12
423.843	287.12
424.066	273.12
424.288	253.12
424.511	269.12
424.733	281.12
424.956	333.12
425.178	319.12
425.401	319.12
425.623	331.12
425.846	268.12
426.068	272.12
426.291	267.12
426.513	252.12
426.735	268.12
426.958	298.12
427.18	319.12
427.402	385.12
427.625	403.12
427.847	366.12
428.069	298.12
428.292	299.12
428.514	284.12
428.736	252.12
428.958	231.12
429.181	262.12
429.403	249.12
429.625	275.12
429.847	281.12
430.069	289.12
430.292	272.12
430.514	255.12
430.736	247.12
430.958	252.12
431.18	228.12
431.402	234.12
431.624	235.12
431.846	221.12
432.068	211.12
432.29	235.12
432.512	227.12
432.734	238.12
432.956	255.12
433.178	241.12
433.4	237.12
433.622	225.12
433.844	243.12
434.066	245.12
434.287	243.12
434.509	243.12
434.731	249.12
434.953	259.12
435.175	261.12
435.397	272.12
435.618	271.12
435.84	276.12
436.062	328.12
436.284	343.12
436.505	257.12
436.727	266.12
436.949	271.12
437.17	257.12
437.392	234.12
437.614	253.12
437.835	285.12
438.057	307.12
438.278	359.12
438.5	352.12
438.721	378.12
438.943	349.12
439.165	291.12
439.386	293.12
439.608	278.12
439.829	279.12
440.05	284.12
440.272	311.12
440.493	292.12
440.715	270.12
440.936	250.12
441.158	253.12
441.379	249.12
441.6	273.12
441.822	250.12
442.043	276.12
442.264	331.12
442.486	330.12
442.707	293.12
442.928	268.12
443.149	303.12
443.371	302.12
443.592	325.12
443.813	347.12
444.034	360.12
444.255	309.12
444.476	278.12
444.698	285.12
444.919	267.12
445.14	362.12
445.361	321.12
445.582	285.12
445.803	315.12
446.024	364.12
446.245	362.12
446.466	347.12
446.687	279.12
446.908	266.12
447.129	241.12
447.35	226.12
447.571	244.12
447.792	265.12
448.013	249.12
448.234	266.12
448.455	292.12
448.675	335.12
448.896	352.12
449.117	326.12
449.338	300.12
449.559	354.12
449.779	380.12
450	299.12
450.221	274.12
450.442	259.12
450.662	241.12
450.883	246.12
451.104	276.12
451.324	265.12
451.545	233.12
451.766	245.12
451.986	235.12
452.207	231.12
452.428	221.12
452.648	232.12
452.869	226.12
453.089	243.12
453.31	233.12
453.53	230.12
453.751	230.12
453.971	227.12
454.192	248.12
454.412	251.12
454.633	235.12
454.853	219.12
455.073	245.12
455.294	254.12
455.514	270.12
455.734	265.12
455.955	230.12
456.175	218.12
456.395	197.12
456.616	196.12
456.836	206.12
457.056	216.12
457.276	217.12
457.497	221.12
457.717	202.12
457.937	220.12
458.157	209.12
458.377	228.12
458.598	250.12
458.818	286.12
459.038	312.12
459.258	301.12
459.478	256.12
459.698	232.12
459.918	250.12
460.138	233.12
460.358	245.12
460.578	236.12
460.798	244.12
461.018	254.12
461.238	243.12
461.458	212.12
461.678	230.12
461.898	239.12
462.118	255.12
462.338	241.12
462.558	239.12
462.777	239.12
462.997	251.12
463.217	263.12
463.437	253.12
463.657	252.12
463.876	246.12
464.096	238.12
464.316	251.12
464.536	270.12
464.755	267.12
464.975	260.12
465.195	291.12
465.414	337.12
465.634	289.12
465.854	257.12
466.073	230.12
466.293	234.12
466.512	220.12
466.732	231.12
466.951	224.12
467.171	236.12
467.391	225.12
467.61	249.12
467.829	259.12
468.049	253.12
468.268	244.12
468.488	226.12
468.707	233.12
468.927	230.12
469.146	245.12
469.365	229.12
469.585	228.12
469.804	243.12
470.023	245.12
470.243	251.12
470.462	254.12
470.681	243.12
470.901	246.12
471.12	229.12
471.339	242.12
471.558	247.12
471.777	219.12
471.997	235.12
472.216	260.12
472.435	282.12
472.654	253.12
472.873	231.12
473.092	221.12
473.311	225.12
473.53	228.12
473.749	237.12
473.968	254.12
474.187	323.12
474.406	298.12
474.625	254.12
474.844	246.12
475.063	218.12
475.282	228.12
475.501	215.12
475.72	226.12
475.939	257.12
476.158	238.12
476.377	253.12
476.596	206.12
476.814	239.12
477.033	255.12
477.252	241.12
477.471	256.12
477.69	244.12
477.908	233.12
478.127	265.12
478.346	277.12
478.564	249.12
478.783	260.12
479.002	255.12
479.22	267.12
479.439	274.12
479.658	274.12
479.876	280.12
480.095	278.12
480.313	297.12
480.532	303.12
480.751	288.12
480.969	286.12
481.188	347.12
481.406	380.12
481.624	316.12
481.843	274.12
482.061	264.12
482.28	259.12
482.498	263.12
482.717	294.12
482.935	265.12
483.153	282.12
483.372	266.12
483.59	265.12
483.808	265.12
484.027	266.12
484.245	272.12
484.463	281.12
484.681	279.12
484.9	293.12
485.118	285.12
485.336	276.12
485.554	279.12
485.772	274.12
485.99	277.12
486.209	281.12
486.427	290.12
486.645	297.12
486.863	289.12
487.081	302.12
487.299	294.12
487.517	287.12
487.735	298.12
487.953	309.12
488.171	309.12
488.389	280.12
488.607	275.12
488.825	276.12
489.043	300.12
489.261	295.12
489.479	289.12
489.696	293.12
489.914	298.12
490.132	286.12
490.35	302.12
490.568	302.12
490.786	309.12
491.003	317.12
491.221	313.12
491.439	329.12
491.657	337.12
491.874	333.12
492.092	338.12
492.31	331.12
492.527	344.12
492.745	332.12
492.963	336.12
493.18	361.12
493.398	354.12
493.615	339.12
493.833	336.12
494.05	353.12
494.268	349.12
494.485	337.12
494.703	349.12
494.92	331.12
495.138	329.12
495.355	359.12
495.573	330.12
495.79	339.12
496.008	348.12
496.225	333.12
496.442	342.12
496.66	342.12
496.877	334.12
497.094	341.12
497.312	341.12
497.529	370.12
497.746	361.12
497.963	343.12
498.181	367.12
498.398	375.12
498.615	381.12
498.832	357.12
499.049	376.12
499.267	375.12
499.484	390.12
499.701	404.12
499.918	421.12
500.135	413.12
500.352	426.12
500.569	426.12
500.786	451.12
501.003	464.12
501.22	441.12
501.437	417.12
501.654	409.12
501.871	413.12
502.088	407.12
502.305	379.12
502.522	390.12
