Data from 1966.PennyLincolnUp.Lamp.En5.5.200Scan.071719.P1.Scan2.head_HRD10591_14-18-20-179.txt Node
Date: Thu Jul 18 14:18:20 EDT 2019
User: cochatt
Spectrometer: HR+D1059
Trigger mode: 1
Integration Time (sec): 1.000000E-1
Scans to average: 1
Electric dark correction enabled: true
Nonlinearity correction enabled: false
Boxcar width: 0
XAxis mode: Wavelengths
Number of Pixels in Spectrum: 2048
>>>>>Begin Spectral Data<<<<<
223.165	-16.94
223.4	-16.94
223.635	-16.94
223.869	-14.94
224.104	-21.94
224.338	-22.94
224.573	-10.94
224.808	-5.94
225.042	-11.94
225.277	-7.94
225.511	0.06
225.746	1.06
225.98	19.06
226.215	15.06
226.449	7.06
226.683	30.06
226.918	17.06
227.152	24.06
227.387	26.06
227.621	37.06
227.856	52.06
228.09	49.06
228.324	42.06
228.559	52.06
228.793	69.06
229.027	95.06
229.262	104.06
229.496	124.06
229.73	124.06
229.964	164.06
230.199	129.06
230.433	115.06
230.667	121.06
230.901	115.06
231.136	108.06
231.37	107.06
231.604	110.06
231.838	95.06
232.072	102.06
232.306	125.06
232.541	116.06
232.775	125.06
233.009	105.06
233.243	109.06
233.477	103.06
233.711	119.06
233.945	127.06
234.179	109.06
234.413	116.06
234.647	121.06
234.881	117.06
235.115	109.06
235.349	108.06
235.583	131.06
235.817	131.06
236.051	125.06
236.285	134.06
236.519	122.06
236.753	115.06
236.987	152.06
237.221	187.06
237.455	240.06
237.689	185.06
237.922	144.06
238.156	144.06
238.39	129.06
238.624	139.06
238.858	126.06
239.091	120.06
239.325	133.06
239.559	141.06
239.793	133.06
240.027	129.06
240.26	150.06
240.494	144.06
240.728	135.06
240.961	158.06
241.195	151.06
241.429	148.06
241.662	150.06
241.896	135.06
242.13	147.06
242.363	135.06
242.597	144.06
242.83	139.06
243.064	145.06
243.298	149.06
243.531	157.06
243.765	139.06
243.998	149.06
244.232	135.06
244.465	141.06
244.699	163.06
244.932	150.06
245.166	151.06
245.399	129.06
245.633	148.06
245.866	152.06
246.099	154.06
246.333	153.06
246.566	159.06
246.8	142.06
247.033	158.06
247.266	165.06
247.5	167.06
247.733	176.06
247.966	177.06
248.2	186.06
248.433	182.06
248.666	187.06
248.899	176.06
249.133	206.06
249.366	222.06
249.599	202.06
249.832	176.06
250.066	179.06
250.299	181.06
250.532	194.06
250.765	207.06
250.998	220.06
251.231	238.06
251.465	215.06
251.698	223.06
251.931	209.06
252.164	195.06
252.397	195.06
252.63	198.06
252.863	199.06
253.096	235.06
253.329	225.06
253.562	236.06
253.795	223.06
254.028	209.06
254.261	227.06
254.494	221.06
254.727	259.06
254.96	280.06
255.193	277.06
255.426	255.06
255.659	233.06
255.892	246.06
256.124	245.06
256.357	241.06
256.59	236.06
256.823	226.06
257.056	202.06
257.289	221.06
257.521	223.06
257.754	216.06
257.987	224.06
258.22	210.06
258.452	198.06
258.685	213.06
258.918	229.06
259.151	214.06
259.383	223.06
259.616	219.06
259.849	223.06
260.081	247.06
260.314	264.06
260.547	252.06
260.779	231.06
261.012	246.06
261.244	236.06
261.477	225.06
261.71	217.06
261.942	222.06
262.175	246.06
262.407	238.06
262.64	211.06
262.872	211.06
263.105	216.06
263.337	221.06
263.57	232.06
263.802	198.06
264.035	222.06
264.267	221.06
264.499	228.06
264.732	224.06
264.964	218.06
265.197	223.06
265.429	221.06
265.661	220.06
265.894	208.06
266.126	214.06
266.358	232.06
266.591	218.06
266.823	230.06
267.055	244.06
267.287	259.06
267.52	226.06
267.752	235.06
267.984	226.06
268.216	224.06
268.448	244.06
268.681	225.06
268.913	244.06
269.145	274.06
269.377	283.06
269.609	284.06
269.841	260.06
270.073	268.06
270.306	286.06
270.538	300.06
270.77	324.06
271.002	313.06
271.234	285.06
271.466	309.06
271.698	328.06
271.93	327.06
272.162	335.06
272.394	324.06
272.626	301.06
272.858	277.06
273.09	283.06
273.322	278.06
273.553	273.06
273.785	284.06
274.017	263.06
274.249	269.06
274.481	285.06
274.713	273.06
274.945	276.06
275.176	264.06
275.408	263.06
275.64	294.06
275.872	279.06
276.104	280.06
276.335	267.06
276.567	276.06
276.799	299.06
277.031	332.06
277.262	325.06
277.494	319.06
277.726	326.06
277.957	302.06
278.189	297.06
278.421	271.06
278.652	265.06
278.884	266.06
279.115	275.06
279.347	283.06
279.579	267.06
279.81	261.06
280.042	266.06
280.273	260.06
280.505	268.06
280.736	271.06
280.968	286.06
281.199	277.06
281.431	287.06
281.662	277.06
281.894	277.06
282.125	274.06
282.356	294.06
282.588	313.06
282.819	307.06
283.051	283.06
283.282	267.06
283.513	281.06
283.745	283.06
283.976	313.06
284.207	295.06
284.439	294.06
284.67	285.06
284.901	287.06
285.132	287.06
285.364	276.06
285.595	283.06
285.826	279.06
286.057	293.06
286.288	291.06
286.52	294.06
286.751	279.06
286.982	312.06
287.213	267.06
287.444	288.06
287.675	297.06
287.906	288.06
288.138	296.06
288.369	310.06
288.6	315.06
288.831	303.06
289.062	294.06
289.293	303.06
289.524	304.06
289.755	277.06
289.986	310.06
290.217	308.06
290.448	291.06
290.679	298.06
290.91	312.06
291.141	295.06
291.371	317.06
291.602	287.06
291.833	288.06
292.064	282.06
292.295	291.06
292.526	297.06
292.757	300.06
292.987	305.06
293.218	299.06
293.449	323.06
293.68	317.06
293.91	300.06
294.141	313.06
294.372	293.06
294.603	301.06
294.833	290.06
295.064	286.06
295.295	299.06
295.525	309.06
295.756	296.06
295.987	327.06
296.217	333.06
296.448	331.06
296.679	323.06
296.909	299.06
297.14	303.06
297.37	298.06
297.601	303.06
297.831	317.06
298.062	321.06
298.292	311.06
298.523	322.06
298.753	331.06
298.984	321.06
299.214	308.06
299.445	320.06
299.675	338.06
299.905	324.06
300.136	345.06
300.366	329.06
300.597	336.06
300.827	335.06
301.057	320.06
301.288	337.06
301.518	345.06
301.748	328.06
301.979	332.06
302.209	328.06
302.439	335.06
302.669	335.06
302.9	349.06
303.13	326.06
303.36	334.06
303.59	338.06
303.82	337.06
304.051	358.06
304.281	352.06
304.511	328.06
304.741	333.06
304.971	319.06
305.201	330.06
305.431	322.06
305.661	337.06
305.891	327.06
306.121	344.06
306.352	351.06
306.582	347.06
306.812	351.06
307.042	367.06
307.272	342.06
307.502	344.06
307.731	336.06
307.961	351.06
308.191	345.06
308.421	334.06
308.651	336.06
308.881	339.06
309.111	346.06
309.341	341.06
309.571	364.06
309.8	366.06
310.03	384.06
310.26	397.06
310.49	384.06
310.72	388.06
310.949	412.06
311.179	422.06
311.409	401.06
311.639	367.06
311.868	375.06
312.098	395.06
312.328	404.06
312.557	404.06
312.787	428.06
313.017	428.06
313.246	400.06
313.476	402.06
313.706	392.06
313.935	411.06
314.165	387.06
314.394	397.06
314.624	415.06
314.853	405.06
315.083	388.06
315.312	377.06
315.542	382.06
315.771	391.06
316.001	400.06
316.23	367.06
316.46	362.06
316.689	395.06
316.919	393.06
317.148	402.06
317.377	407.06
317.607	393.06
317.836	394.06
318.065	388.06
318.295	385.06
318.524	377.06
318.753	396.06
318.983	392.06
319.212	383.06
319.441	397.06
319.67	391.06
319.9	380.06
320.129	411.06
320.358	386.06
320.587	406.06
320.816	414.06
321.046	404.06
321.275	420.06
321.504	429.06
321.733	407.06
321.962	427.06
322.191	435.06
322.42	434.06
322.649	459.06
322.878	441.06
323.108	459.06
323.337	472.06
323.566	511.06
323.795	533.06
324.024	576.06
324.253	662.06
324.482	959.06
324.71	1511.06
324.939	2247.06
325.168	1969.06
325.397	951.06
325.626	623.06
325.855	579.06
326.084	503.06
326.313	493.06
326.542	522.06
326.77	559.06
326.999	648.06
327.228	891.06
327.457	1366.06
327.686	1717.06
327.914	1071.06
328.143	717.06
328.372	637.06
328.6	598.06
328.829	558.06
329.058	580.06
329.287	581.06
329.515	566.06
329.744	501.06
329.972	515.06
330.201	538.06
330.43	578.06
330.658	609.06
330.887	639.06
331.115	622.06
331.344	537.06
331.572	509.06
331.801	516.06
332.03	505.06
332.258	480.06
332.486	477.06
332.715	475.06
332.943	469.06
333.172	476.06
333.4	478.06
333.629	501.06
333.857	527.06
334.085	519.06
334.314	516.06
334.542	539.06
334.771	560.06
334.999	535.06
335.227	518.06
335.455	497.06
335.684	481.06
335.912	477.06
336.14	470.06
336.369	479.06
336.597	462.06
336.825	492.06
337.053	457.06
337.281	459.06
337.51	463.06
337.738	471.06
337.966	457.06
338.194	473.06
338.422	494.06
338.65	479.06
338.878	454.06
339.106	460.06
339.334	442.06
339.562	472.06
339.79	428.06
340.018	449.06
340.246	443.06
340.474	464.06
340.702	467.06
340.93	456.06
341.158	457.06
341.386	446.06
341.614	467.06
341.842	457.06
342.07	441.06
342.298	435.06
342.526	462.06
342.754	439.06
342.981	451.06
343.209	425.06
343.437	449.06
343.665	439.06
343.893	462.06
344.12	467.06
344.348	476.06
344.576	435.06
344.804	476.06
345.031	473.06
345.259	483.06
345.487	474.06
345.714	454.06
345.942	467.06
346.17	439.06
346.397	445.06
346.625	437.06
346.853	431.06
347.08	445.06
347.308	449.06
347.535	450.06
347.763	455.06
347.99	460.06
348.218	449.06
348.445	455.06
348.673	439.06
348.9	426.06
349.128	434.06
349.355	430.06
349.583	441.06
349.81	411.06
350.037	423.06
350.265	422.06
350.492	408.06
350.72	414.06
350.947	432.06
351.174	440.06
351.402	501.06
351.629	439.06
351.856	453.06
352.083	463.06
352.311	445.06
352.538	476.06
352.765	461.06
352.992	448.06
353.22	459.06
353.447	437.06
353.674	420.06
353.901	429.06
354.128	413.06
354.355	416.06
354.583	414.06
354.81	419.06
355.037	429.06
355.264	410.06
355.491	422.06
355.718	409.06
355.945	410.06
356.172	416.06
356.399	404.06
356.626	414.06
356.853	415.06
357.08	439.06
357.307	414.06
357.534	402.06
357.761	414.06
357.988	423.06
358.215	410.06
358.441	417.06
358.668	419.06
358.895	419.06
359.122	436.06
359.349	430.06
359.576	437.06
359.802	452.06
360.029	488.06
360.256	521.06
360.483	507.06
360.709	448.06
360.936	465.06
361.163	448.06
361.39	436.06
361.616	442.06
361.843	438.06
362.07	406.06
362.296	445.06
362.523	443.06
362.749	459.06
362.976	439.06
363.203	433.06
363.429	416.06
363.656	431.06
363.882	427.06
364.109	434.06
364.335	417.06
364.562	435.06
364.788	447.06
365.015	438.06
365.241	427.06
365.468	446.06
365.694	433.06
365.92	447.06
366.147	427.06
366.373	424.06
366.599	423.06
366.826	402.06
367.052	433.06
367.278	421.06
367.505	449.06
367.731	433.06
367.957	439.06
368.184	435.06
368.41	430.06
368.636	453.06
368.862	447.06
369.089	453.06
369.315	443.06
369.541	444.06
369.767	456.06
369.993	425.06
370.219	433.06
370.445	432.06
370.672	425.06
370.898	420.06
371.124	428.06
371.35	428.06
371.576	445.06
371.802	445.06
372.028	439.06
372.254	442.06
372.48	437.06
372.706	435.06
372.932	444.06
373.158	421.06
373.384	461.06
373.61	443.06
373.835	423.06
374.061	437.06
374.287	445.06
374.513	468.06
374.739	454.06
374.965	456.06
375.191	444.06
375.416	441.06
375.642	425.06
375.868	437.06
376.094	437.06
376.319	433.06
376.545	445.06
376.771	433.06
376.997	433.06
377.222	415.06
377.448	443.06
377.674	435.06
377.899	442.06
378.125	432.06
378.35	439.06
378.576	445.06
378.802	435.06
379.027	430.06
379.253	454.06
379.478	421.06
379.704	432.06
379.929	425.06
380.155	417.06
380.38	425.06
380.606	459.06
380.831	430.06
381.057	446.06
381.282	453.06
381.507	414.06
381.733	448.06
381.958	470.06
382.184	445.06
382.409	453.06
382.634	460.06
382.86	448.06
383.085	450.06
383.31	456.06
383.535	465.06
383.761	456.06
383.986	461.06
384.211	475.06
384.436	484.06
384.662	460.06
384.887	461.06
385.112	479.06
385.337	503.06
385.562	483.06
385.787	477.06
386.013	476.06
386.238	482.06
386.463	496.06
386.688	486.06
386.913	475.06
387.138	483.06
387.363	480.06
387.588	478.06
387.813	511.06
388.038	472.06
388.263	481.06
388.488	480.06
388.713	475.06
388.938	502.06
389.163	503.06
389.387	492.06
389.612	478.06
389.837	473.06
390.062	503.06
390.287	503.06
390.512	484.06
390.736	502.06
390.961	501.06
391.186	486.06
391.411	485.06
391.636	510.06
391.86	520.06
392.085	515.06
392.31	517.06
392.534	493.06
392.759	517.06
392.984	503.06
393.208	491.06
393.433	521.06
393.658	517.06
393.882	485.06
394.107	507.06
394.331	509.06
394.556	503.06
394.78	478.06
395.005	515.06
395.229	478.06
395.454	515.06
395.678	519.06
395.903	525.06
396.127	550.06
396.352	558.06
396.576	515.06
396.801	531.06
397.025	541.06
397.249	515.06
397.474	497.06
397.698	521.06
397.922	570.06
398.147	538.06
398.371	564.06
398.595	575.06
398.82	545.06
399.044	581.06
399.268	589.06
399.492	638.06
399.717	637.06
399.941	665.06
400.165	716.06
400.389	725.06
400.613	661.06
400.837	608.06
401.062	573.06
401.286	560.06
401.51	573.06
401.734	568.06
401.958	566.06
402.182	601.06
402.406	605.06
402.63	591.06
402.854	600.06
403.078	581.06
403.302	591.06
403.526	635.06
403.75	608.06
403.974	590.06
404.198	596.06
404.422	602.06
404.645	624.06
404.869	613.06
405.093	635.06
405.317	669.06
405.541	729.06
405.765	668.06
405.988	601.06
406.212	635.06
406.436	661.06
406.66	662.06
406.883	655.06
407.107	651.06
407.331	716.06
407.555	780.06
407.778	776.06
408.002	744.06
408.226	671.06
408.449	634.06
408.673	661.06
408.896	681.06
409.12	711.06
409.344	671.06
409.567	615.06
409.791	599.06
410.014	596.06
410.238	589.06
410.461	601.06
410.685	629.06
410.908	631.06
411.132	654.06
411.355	674.06
411.578	672.06
411.802	613.06
412.025	583.06
412.249	625.06
412.472	647.06
412.695	672.06
412.919	658.06
413.142	618.06
413.365	608.06
413.589	580.06
413.812	586.06
414.035	571.06
414.258	585.06
414.482	572.06
414.705	579.06
414.928	565.06
415.151	540.06
415.374	541.06
415.597	552.06
415.821	572.06
416.044	571.06
416.267	565.06
416.49	556.06
416.713	567.06
416.936	553.06
417.159	542.06
417.382	562.06
417.605	559.06
417.828	566.06
418.051	587.06
418.274	586.06
418.497	566.06
418.72	567.06
418.943	566.06
419.166	591.06
419.389	618.06
419.611	587.06
419.834	599.06
420.057	590.06
420.28	607.06
420.503	591.06
420.726	603.06
420.948	635.06
421.171	669.06
421.394	687.06
421.617	609.06
421.839	574.06
422.062	585.06
422.285	597.06
422.507	667.06
422.73	747.06
422.953	724.06
423.175	639.06
423.398	624.06
423.621	623.06
423.843	633.06
424.066	635.06
424.288	627.06
424.511	660.06
424.733	715.06
424.956	815.06
425.178	777.06
425.401	745.06
425.623	805.06
425.846	685.06
426.068	619.06
426.291	622.06
426.513	612.06
426.735	642.06
426.958	697.06
427.18	756.06
427.402	921.06
427.625	989.06
427.847	849.06
428.069	769.06
428.292	693.06
428.514	619.06
428.736	585.06
428.958	622.06
429.181	588.06
429.403	565.06
429.625	605.06
429.847	641.06
430.069	714.06
430.292	708.06
430.514	597.06
430.736	581.06
430.958	564.06
431.18	542.06
431.402	569.06
431.624	523.06
431.846	554.06
432.068	532.06
432.29	582.06
432.512	564.06
432.734	578.06
432.956	552.06
433.178	579.06
433.4	553.06
433.622	551.06
433.844	544.06
434.066	541.06
434.287	563.06
434.509	553.06
434.731	563.06
434.953	569.06
435.175	599.06
435.397	635.06
435.618	621.06
435.84	643.06
436.062	783.06
436.284	888.06
436.505	731.06
436.727	655.06
436.949	605.06
437.17	581.06
437.392	570.06
437.614	611.06
437.835	611.06
438.057	731.06
438.278	877.06
438.5	841.06
438.721	928.06
438.943	932.06
439.165	735.06
439.386	639.06
439.608	663.06
439.829	632.06
440.05	668.06
440.272	712.06
440.493	674.06
440.715	639.06
440.936	608.06
441.158	587.06
441.379	590.06
441.6	593.06
441.822	627.06
442.043	679.06
442.264	750.06
442.486	804.06
442.707	689.06
442.928	671.06
443.149	657.06
443.371	676.06
443.592	728.06
443.813	829.06
444.034	889.06
444.255	756.06
444.476	645.06
444.698	661.06
444.919	649.06
445.14	775.06
445.361	735.06
445.582	681.06
445.803	721.06
446.024	894.06
446.245	857.06
446.466	807.06
446.687	675.06
446.908	607.06
447.129	593.06
447.35	604.06
447.571	554.06
447.792	588.06
448.013	586.06
448.234	624.06
448.455	668.06
448.675	791.06
448.896	886.06
449.117	739.06
449.338	720.06
449.559	850.06
449.779	972.06
450	768.06
450.221	629.06
450.442	575.06
450.662	573.06
450.883	573.06
451.104	586.06
451.324	566.06
451.545	553.06
451.766	538.06
451.986	541.06
452.207	503.06
452.428	516.06
452.648	498.06
452.869	533.06
453.089	526.06
453.31	541.06
453.53	507.06
453.751	537.06
453.971	533.06
454.192	547.06
454.412	545.06
454.633	503.06
454.853	522.06
455.073	524.06
455.294	535.06
455.514	618.06
455.734	612.06
455.955	512.06
456.175	513.06
456.395	494.06
456.616	482.06
456.836	483.06
457.056	490.06
457.276	478.06
457.497	503.06
457.717	503.06
457.937	530.06
458.157	540.06
458.377	507.06
458.598	559.06
458.818	601.06
459.038	683.06
459.258	700.06
459.478	611.06
459.698	567.06
459.918	545.06
460.138	568.06
460.358	566.06
460.578	593.06
460.798	589.06
461.018	576.06
461.238	568.06
461.458	569.06
461.678	564.06
461.898	581.06
462.118	574.06
462.338	586.06
462.558	592.06
462.777	610.06
462.997	612.06
463.217	624.06
463.437	633.06
463.657	618.06
463.876	618.06
464.096	612.06
464.316	597.06
464.536	611.06
464.755	612.06
464.975	618.06
465.195	662.06
465.414	727.06
465.634	642.06
465.854	589.06
466.073	586.06
466.293	577.06
466.512	544.06
466.732	549.06
466.951	550.06
467.171	524.06
467.391	545.06
467.61	557.06
467.829	552.06
468.049	541.06
468.268	560.06
468.488	527.06
468.707	518.06
468.927	539.06
469.146	527.06
469.365	541.06
469.585	541.06
469.804	529.06
470.023	547.06
470.243	534.06
470.462	555.06
470.681	563.06
470.901	580.06
471.12	543.06
471.339	547.06
471.558	546.06
471.777	565.06
471.997	539.06
472.216	559.06
472.435	606.06
472.654	571.06
472.873	557.06
473.092	559.06
473.311	557.06
473.53	558.06
473.749	544.06
473.968	581.06
474.187	680.06
474.406	710.06
474.625	605.06
474.844	576.06
475.063	544.06
475.282	576.06
475.501	559.06
475.72	565.06
475.939	561.06
476.158	569.06
476.377	573.06
476.596	571.06
476.814	576.06
477.033	594.06
477.252	588.06
477.471	612.06
477.69	600.06
477.908	608.06
478.127	603.06
478.346	590.06
478.564	617.06
478.783	605.06
479.002	617.06
479.22	644.06
479.439	637.06
479.658	639.06
479.876	660.06
480.095	663.06
480.313	703.06
480.532	688.06
480.751	675.06
480.969	679.06
481.188	736.06
481.406	791.06
481.624	699.06
481.843	658.06
482.061	649.06
482.28	629.06
482.498	641.06
482.717	651.06
482.935	643.06
483.153	654.06
483.372	665.06
483.59	653.06
483.808	651.06
484.027	644.06
484.245	668.06
484.463	641.06
484.681	642.06
484.9	645.06
485.118	651.06
485.336	635.06
485.554	661.06
485.772	665.06
485.99	654.06
486.209	653.06
486.427	667.06
486.645	677.06
486.863	694.06
487.081	675.06
487.299	678.06
487.517	665.06
487.735	669.06
487.953	682.06
488.171	683.06
488.389	705.06
488.607	689.06
488.825	684.06
489.043	679.06
489.261	713.06
489.479	701.06
489.696	716.06
489.914	704.06
490.132	723.06
490.35	713.06
490.568	700.06
490.786	743.06
491.003	737.06
491.221	743.06
491.439	775.06
491.657	785.06
491.874	805.06
492.092	791.06
492.31	788.06
492.527	802.06
492.745	788.06
492.963	818.06
493.18	809.06
493.398	847.06
493.615	827.06
493.833	826.06
494.05	813.06
494.268	821.06
494.485	863.06
494.703	830.06
494.92	805.06
495.138	796.06
495.355	828.06
495.573	817.06
495.79	810.06
496.008	822.06
496.225	811.06
496.442	843.06
496.66	838.06
496.877	833.06
497.094	854.06
497.312	827.06
497.529	841.06
497.746	854.06
497.963	864.06
498.181	879.06
498.398	898.06
498.615	907.06
498.832	929.06
499.049	967.06
499.267	987.06
499.484	996.06
499.701	1063.06
499.918	1099.06
500.135	1114.06
500.352	1155.06
500.569	1189.06
500.786	1221.06
501.003	1183.06
501.22	1137.06
501.437	1111.06
501.654	1065.06
