Data from 1966.PennyLincolnUp.Lamp.En5.5.200Scan.071719.P1.Scan2.head_HRD10591_14-17-08-084.txt Node
Date: Thu Jul 18 14:17:08 EDT 2019
User: cochatt
Spectrometer: HR+D1059
Trigger mode: 1
Integration Time (sec): 1.000000E-1
Scans to average: 1
Electric dark correction enabled: true
Nonlinearity correction enabled: false
Boxcar width: 0
XAxis mode: Wavelengths
Number of Pixels in Spectrum: 2048
>>>>>Begin Spectral Data<<<<<
223.165	-14.81
223.4	-14.81
223.635	-14.81
223.869	-0.81
224.104	-17.81
224.338	-12.81
224.573	-29.81
224.808	-10.81
225.042	-15.81
225.277	-2.81
225.511	-4.81
225.746	3.19
225.98	5.19
226.215	14.19
226.449	13.19
226.683	24.19
226.918	23.19
227.152	27.19
227.387	37.19
227.621	32.19
227.856	50.19
228.09	32.19
228.324	55.19
228.559	51.19
228.793	71.19
229.027	82.19
229.262	76.19
229.496	104.19
229.73	127.19
229.964	139.19
230.199	138.19
230.433	108.19
230.667	101.19
230.901	106.19
231.136	110.19
231.37	98.19
231.604	112.19
231.838	117.19
232.072	108.19
232.306	98.19
232.541	103.19
232.775	105.19
233.009	106.19
233.243	105.19
233.477	127.19
233.711	105.19
233.945	98.19
234.179	101.19
234.413	107.19
234.647	120.19
234.881	116.19
235.115	122.19
235.349	96.19
235.583	110.19
235.817	106.19
236.051	115.19
236.285	115.19
236.519	113.19
236.753	115.19
236.987	135.19
237.221	171.19
237.455	231.19
237.689	179.19
237.922	134.19
238.156	123.19
238.39	113.19
238.624	115.19
238.858	106.19
239.091	115.19
239.325	131.19
239.559	115.19
239.793	121.19
240.027	125.19
240.26	141.19
240.494	135.19
240.728	140.19
240.961	159.19
241.195	143.19
241.429	133.19
241.662	137.19
241.896	139.19
242.13	121.19
242.363	111.19
242.597	129.19
242.83	122.19
243.064	133.19
243.298	131.19
243.531	130.19
243.765	144.19
243.998	129.19
244.232	149.19
244.465	146.19
244.699	123.19
244.932	141.19
245.166	151.19
245.399	148.19
245.633	151.19
245.866	136.19
246.099	138.19
246.333	141.19
246.566	135.19
246.8	140.19
247.033	153.19
247.266	145.19
247.5	148.19
247.733	159.19
247.966	160.19
248.2	148.19
248.433	171.19
248.666	159.19
248.899	189.19
249.133	192.19
249.366	214.19
249.599	179.19
249.832	183.19
250.066	160.19
250.299	175.19
250.532	200.19
250.765	202.19
250.998	187.19
251.231	232.19
251.465	220.19
251.698	207.19
251.931	202.19
252.164	189.19
252.397	194.19
252.63	186.19
252.863	189.19
253.096	207.19
253.329	219.19
253.562	218.19
253.795	208.19
254.028	215.19
254.261	208.19
254.494	207.19
254.727	255.19
254.96	267.19
255.193	273.19
255.426	250.19
255.659	236.19
255.892	220.19
256.124	224.19
256.357	216.19
256.59	212.19
256.823	214.19
257.056	208.19
257.289	204.19
257.521	200.19
257.754	216.19
257.987	192.19
258.22	203.19
258.452	208.19
258.685	217.19
258.918	204.19
259.151	215.19
259.383	217.19
259.616	224.19
259.849	219.19
260.081	215.19
260.314	257.19
260.547	259.19
260.779	235.19
261.012	219.19
261.244	227.19
261.477	206.19
261.71	217.19
261.942	207.19
262.175	217.19
262.407	222.19
262.64	212.19
262.872	216.19
263.105	205.19
263.337	202.19
263.57	212.19
263.802	215.19
264.035	202.19
264.267	226.19
264.499	209.19
264.732	195.19
264.964	202.19
265.197	213.19
265.429	218.19
265.661	203.19
265.894	211.19
266.126	204.19
266.358	214.19
266.591	211.19
266.823	217.19
267.055	220.19
267.287	224.19
267.52	209.19
267.752	221.19
267.984	204.19
268.216	212.19
268.448	223.19
268.681	226.19
268.913	236.19
269.145	236.19
269.377	264.19
269.609	265.19
269.841	263.19
270.073	258.19
270.306	270.19
270.538	298.19
270.77	285.19
271.002	290.19
271.234	280.19
271.466	272.19
271.698	297.19
271.93	273.19
272.162	309.19
272.394	297.19
272.626	294.19
272.858	270.19
273.09	266.19
273.322	244.19
273.553	269.19
273.785	260.19
274.017	251.19
274.249	246.19
274.481	263.19
274.713	244.19
274.945	255.19
275.176	243.19
275.408	281.19
275.64	248.19
275.872	243.19
276.104	250.19
276.335	279.19
276.567	269.19
276.799	257.19
277.031	277.19
277.262	300.19
277.494	289.19
277.726	288.19
277.957	279.19
278.189	247.19
278.421	264.19
278.652	283.19
278.884	266.19
279.115	260.19
279.347	261.19
279.579	245.19
279.81	246.19
280.042	259.19
280.273	266.19
280.505	271.19
280.736	253.19
280.968	261.19
281.199	249.19
281.431	257.19
281.662	266.19
281.894	263.19
282.125	267.19
282.356	274.19
282.588	269.19
282.819	285.19
283.051	276.19
283.282	253.19
283.513	255.19
283.745	265.19
283.976	268.19
284.207	282.19
284.439	290.19
284.67	265.19
284.901	281.19
285.132	274.19
285.364	266.19
285.595	263.19
285.826	281.19
286.057	277.19
286.288	248.19
286.52	268.19
286.751	270.19
286.982	275.19
287.213	276.19
287.444	289.19
287.675	267.19
287.906	275.19
288.138	293.19
288.369	305.19
288.6	287.19
288.831	292.19
289.062	273.19
289.293	293.19
289.524	291.19
289.755	280.19
289.986	274.19
290.217	284.19
290.448	278.19
290.679	299.19
290.91	294.19
291.141	259.19
291.371	282.19
291.602	277.19
291.833	287.19
292.064	308.19
292.295	294.19
292.526	273.19
292.757	287.19
292.987	280.19
293.218	281.19
293.449	278.19
293.68	298.19
293.91	276.19
294.141	259.19
294.372	280.19
294.603	278.19
294.833	279.19
295.064	285.19
295.295	290.19
295.525	292.19
295.756	285.19
295.987	295.19
296.217	297.19
296.448	315.19
296.679	304.19
296.909	305.19
297.14	310.19
297.37	310.19
297.601	292.19
297.831	296.19
298.062	329.19
298.292	288.19
298.523	289.19
298.753	296.19
298.984	296.19
299.214	305.19
299.445	290.19
299.675	290.19
299.905	320.19
300.136	307.19
300.366	317.19
300.597	310.19
300.827	307.19
301.057	305.19
301.288	331.19
301.518	305.19
301.748	309.19
301.979	331.19
302.209	315.19
302.439	336.19
302.669	319.19
302.9	320.19
303.13	320.19
303.36	312.19
303.59	323.19
303.82	319.19
304.051	332.19
304.281	304.19
304.511	307.19
304.741	315.19
304.971	322.19
305.201	331.19
305.431	327.19
305.661	319.19
305.891	309.19
306.121	329.19
306.352	312.19
306.582	326.19
306.812	327.19
307.042	335.19
307.272	334.19
307.502	315.19
307.731	328.19
307.961	333.19
308.191	345.19
308.421	332.19
308.651	325.19
308.881	323.19
309.111	346.19
309.341	340.19
309.571	360.19
309.8	317.19
310.03	359.19
310.26	341.19
310.49	352.19
310.72	346.19
310.949	370.19
311.179	362.19
311.409	345.19
311.639	363.19
311.868	383.19
312.098	369.19
312.328	359.19
312.557	368.19
312.787	361.19
313.017	393.19
313.246	375.19
313.476	364.19
313.706	364.19
313.935	364.19
314.165	369.19
314.394	383.19
314.624	393.19
314.853	381.19
315.083	364.19
315.312	352.19
315.542	369.19
315.771	353.19
316.001	370.19
316.23	360.19
316.46	351.19
316.689	358.19
316.919	348.19
317.148	370.19
317.377	380.19
317.607	382.19
317.836	369.19
318.065	373.19
318.295	371.19
318.524	366.19
318.753	368.19
318.983	357.19
319.212	375.19
319.441	376.19
319.67	384.19
319.9	372.19
320.129	366.19
320.358	357.19
320.587	369.19
320.816	373.19
321.046	372.19
321.275	403.19
321.504	387.19
321.733	375.19
321.962	417.19
322.191	402.19
322.42	389.19
322.649	410.19
322.878	422.19
323.108	437.19
323.337	449.19
323.566	432.19
323.795	502.19
324.024	503.19
324.253	616.19
324.482	834.19
324.71	1325.19
324.939	1948.19
325.168	1726.19
325.397	870.19
325.626	581.19
325.855	511.19
326.084	491.19
326.313	471.19
326.542	462.19
326.77	509.19
326.999	592.19
327.228	765.19
327.457	1186.19
327.686	1480.19
327.914	963.19
328.143	656.19
328.372	575.19
328.6	543.19
328.829	509.19
329.058	511.19
329.287	535.19
329.515	518.19
329.744	467.19
329.972	474.19
330.201	492.19
330.43	515.19
330.658	531.19
330.887	568.19
331.115	551.19
331.344	509.19
331.572	457.19
331.801	470.19
332.03	465.19
332.258	448.19
332.486	455.19
332.715	450.19
332.943	466.19
333.172	446.19
333.4	442.19
333.629	458.19
333.857	478.19
334.085	474.19
334.314	461.19
334.542	516.19
334.771	504.19
334.999	460.19
335.227	487.19
335.455	457.19
335.684	457.19
335.912	449.19
336.14	443.19
336.369	447.19
336.597	462.19
336.825	456.19
337.053	461.19
337.281	431.19
337.51	453.19
337.738	456.19
337.966	431.19
338.194	443.19
338.422	450.19
338.65	456.19
338.878	451.19
339.106	423.19
339.334	421.19
339.562	435.19
339.79	423.19
340.018	421.19
340.246	407.19
340.474	448.19
340.702	423.19
340.93	429.19
341.158	417.19
341.386	442.19
341.614	407.19
341.842	437.19
342.07	421.19
342.298	433.19
342.526	425.19
342.754	426.19
342.981	417.19
343.209	415.19
343.437	437.19
343.665	411.19
343.893	441.19
344.12	459.19
344.348	465.19
344.576	451.19
344.804	435.19
345.031	442.19
345.259	436.19
345.487	450.19
345.714	434.19
345.942	438.19
346.17	413.19
346.397	411.19
346.625	409.19
346.853	415.19
347.08	418.19
347.308	427.19
347.535	410.19
347.763	394.19
347.99	420.19
348.218	427.19
348.445	438.19
348.673	434.19
348.9	426.19
349.128	411.19
349.355	408.19
349.583	409.19
349.81	414.19
350.037	409.19
350.265	398.19
350.492	404.19
350.72	394.19
350.947	424.19
351.174	426.19
351.402	423.19
351.629	435.19
351.856	401.19
352.083	401.19
352.311	425.19
352.538	430.19
352.765	415.19
352.992	424.19
353.22	432.19
353.447	415.19
353.674	418.19
353.901	398.19
354.128	431.19
354.355	391.19
354.583	397.19
354.81	406.19
355.037	405.19
355.264	416.19
355.491	391.19
355.718	410.19
355.945	418.19
356.172	390.19
356.399	393.19
356.626	422.19
356.853	397.19
357.08	395.19
357.307	417.19
357.534	411.19
357.761	381.19
357.988	415.19
358.215	398.19
358.441	395.19
358.668	421.19
358.895	414.19
359.122	404.19
359.349	387.19
359.576	412.19
359.802	420.19
360.029	452.19
360.256	451.19
360.483	458.19
360.709	437.19
360.936	418.19
361.163	399.19
361.39	402.19
361.616	419.19
361.843	411.19
362.07	432.19
362.296	443.19
362.523	424.19
362.749	427.19
362.976	409.19
363.203	400.19
363.429	410.19
363.656	415.19
363.882	407.19
364.109	418.19
364.335	411.19
364.562	396.19
364.788	386.19
365.015	401.19
365.241	398.19
365.468	417.19
365.694	407.19
365.92	418.19
366.147	401.19
366.373	414.19
366.599	410.19
366.826	415.19
367.052	412.19
367.278	403.19
367.505	419.19
367.731	433.19
367.957	434.19
368.184	416.19
368.41	440.19
368.636	426.19
368.862	438.19
369.089	428.19
369.315	413.19
369.541	422.19
369.767	403.19
369.993	436.19
370.219	437.19
370.445	408.19
370.672	409.19
370.898	395.19
371.124	406.19
371.35	423.19
371.576	425.19
371.802	429.19
372.028	431.19
372.254	428.19
372.48	416.19
372.706	437.19
372.932	422.19
373.158	414.19
373.384	424.19
373.61	437.19
373.835	419.19
374.061	426.19
374.287	445.19
374.513	439.19
374.739	447.19
374.965	444.19
375.191	419.19
375.416	439.19
375.642	427.19
375.868	438.19
376.094	420.19
376.319	418.19
376.545	422.19
376.771	435.19
376.997	412.19
377.222	409.19
377.448	419.19
377.674	433.19
377.899	418.19
378.125	429.19
378.35	438.19
378.576	410.19
378.802	410.19
379.027	413.19
379.253	422.19
379.478	417.19
379.704	417.19
379.929	418.19
380.155	431.19
380.38	414.19
380.606	451.19
380.831	436.19
381.057	438.19
381.282	410.19
381.507	408.19
381.733	424.19
381.958	436.19
382.184	442.19
382.409	436.19
382.634	421.19
382.86	415.19
383.085	427.19
383.31	448.19
383.535	440.19
383.761	412.19
383.986	438.19
384.211	454.19
384.436	444.19
384.662	459.19
384.887	474.19
385.112	453.19
385.337	460.19
385.562	455.19
385.787	476.19
386.013	479.19
386.238	461.19
386.463	488.19
386.688	480.19
386.913	468.19
387.138	475.19
387.363	461.19
387.588	495.19
387.813	473.19
388.038	485.19
388.263	472.19
388.488	473.19
388.713	472.19
388.938	457.19
389.163	461.19
389.387	478.19
389.612	485.19
389.837	487.19
390.062	470.19
390.287	473.19
390.512	462.19
390.736	465.19
390.961	479.19
391.186	452.19
391.411	476.19
391.636	481.19
391.86	477.19
392.085	500.19
392.31	516.19
392.534	471.19
392.759	479.19
392.984	497.19
393.208	472.19
393.433	497.19
393.658	489.19
393.882	479.19
394.107	463.19
394.331	497.19
394.556	467.19
394.78	457.19
395.005	480.19
395.229	499.19
395.454	486.19
395.678	508.19
395.903	494.19
396.127	523.19
396.352	534.19
396.576	500.19
396.801	487.19
397.025	513.19
397.249	513.19
397.474	508.19
397.698	496.19
397.922	495.19
398.147	536.19
398.371	547.19
398.595	515.19
398.82	536.19
399.044	571.19
399.268	579.19
399.492	623.19
399.717	628.19
399.941	633.19
400.165	649.19
400.389	643.19
400.613	632.19
400.837	567.19
401.062	571.19
401.286	577.19
401.51	543.19
401.734	541.19
401.958	563.19
402.182	560.19
402.406	546.19
402.63	567.19
402.854	548.19
403.078	589.19
403.302	579.19
403.526	563.19
403.75	565.19
403.974	566.19
404.198	549.19
404.422	543.19
404.645	574.19
404.869	580.19
405.093	615.19
405.317	665.19
405.541	691.19
405.765	617.19
405.988	602.19
406.212	609.19
406.436	631.19
406.66	607.19
406.883	597.19
407.107	667.19
407.331	687.19
407.555	753.19
407.778	745.19
408.002	684.19
408.226	630.19
408.449	637.19
408.673	608.19
408.896	647.19
409.12	687.19
409.344	663.19
409.567	603.19
409.791	594.19
410.014	563.19
410.238	569.19
410.461	576.19
410.685	592.19
410.908	590.19
411.132	603.19
411.355	661.19
411.578	639.19
411.802	588.19
412.025	565.19
412.249	611.19
412.472	608.19
412.695	638.19
412.919	645.19
413.142	590.19
413.365	579.19
413.589	563.19
413.812	544.19
414.035	543.19
414.258	523.19
414.482	543.19
414.705	517.19
414.928	525.19
415.151	529.19
415.374	545.19
415.597	545.19
415.821	525.19
416.044	540.19
416.267	556.19
416.49	546.19
416.713	556.19
416.936	526.19
417.159	544.19
417.382	533.19
417.605	532.19
417.828	531.19
418.051	585.19
418.274	538.19
418.497	548.19
418.72	541.19
418.943	546.19
419.166	559.19
419.389	581.19
419.611	572.19
419.834	597.19
420.057	577.19
420.28	554.19
420.503	575.19
420.726	548.19
420.948	579.19
421.171	627.19
421.394	650.19
421.617	593.19
421.839	543.19
422.062	554.19
422.285	579.19
422.507	635.19
422.73	734.19
422.953	693.19
423.175	593.19
423.398	592.19
423.621	568.19
423.843	602.19
424.066	583.19
424.288	603.19
424.511	603.19
424.733	667.19
424.956	753.19
425.178	709.19
425.401	712.19
425.623	755.19
425.846	645.19
426.068	605.19
426.291	592.19
426.513	592.19
426.735	612.19
426.958	643.19
427.18	700.19
427.402	871.19
427.625	959.19
427.847	823.19
428.069	699.19
428.292	640.19
428.514	595.19
428.736	588.19
428.958	576.19
429.181	566.19
429.403	561.19
429.625	577.19
429.847	608.19
430.069	647.19
430.292	642.19
430.514	574.19
430.736	532.19
430.958	543.19
431.18	535.19
431.402	526.19
431.624	536.19
431.846	530.19
432.068	546.19
432.29	523.19
432.512	539.19
432.734	547.19
432.956	531.19
433.178	547.19
433.4	553.19
433.622	530.19
433.844	534.19
434.066	527.19
434.287	517.19
434.509	560.19
434.731	556.19
434.953	546.19
435.175	579.19
435.397	591.19
435.618	616.19
435.84	637.19
436.062	753.19
436.284	825.19
436.505	676.19
436.727	613.19
436.949	571.19
437.17	556.19
437.392	568.19
437.614	567.19
437.835	587.19
438.057	689.19
438.278	793.19
438.5	797.19
438.721	855.19
438.943	836.19
439.165	663.19
439.386	599.19
439.608	590.19
439.829	577.19
440.05	602.19
440.272	673.19
440.493	624.19
440.715	607.19
440.936	570.19
441.158	567.19
441.379	549.19
441.6	565.19
441.822	587.19
442.043	642.19
442.264	740.19
442.486	758.19
442.707	641.19
442.928	619.19
443.149	621.19
443.371	668.19
443.592	670.19
443.813	789.19
444.034	844.19
444.255	697.19
444.476	613.19
444.698	607.19
444.919	617.19
445.14	680.19
445.361	665.19
445.582	693.19
445.803	713.19
446.024	796.19
446.245	831.19
446.466	745.19
446.687	633.19
446.908	589.19
447.129	559.19
447.35	557.19
447.571	545.19
447.792	534.19
448.013	555.19
448.234	570.19
448.455	602.19
448.675	716.19
448.896	868.19
449.117	717.19
449.338	682.19
449.559	799.19
449.779	892.19
450	715.19
450.221	592.19
450.442	529.19
450.662	543.19
450.883	542.19
451.104	538.19
451.324	529.19
451.545	534.19
451.766	510.19
451.986	491.19
452.207	489.19
452.428	484.19
452.648	492.19
452.869	504.19
453.089	495.19
453.31	503.19
453.53	499.19
453.751	502.19
453.971	487.19
454.192	513.19
454.412	497.19
454.633	484.19
454.853	491.19
455.073	506.19
455.294	519.19
455.514	564.19
455.734	555.19
455.955	489.19
456.175	482.19
456.395	467.19
456.616	459.19
456.836	484.19
457.056	458.19
457.276	453.19
457.497	481.19
457.717	483.19
457.937	495.19
458.157	461.19
458.377	488.19
458.598	515.19
458.818	534.19
459.038	627.19
459.258	641.19
459.478	563.19
459.698	533.19
459.918	544.19
460.138	535.19
460.358	529.19
460.578	555.19
460.798	539.19
461.018	565.19
461.238	529.19
461.458	529.19
461.678	548.19
461.898	558.19
462.118	569.19
462.338	571.19
462.558	560.19
462.777	572.19
462.997	601.19
463.217	599.19
463.437	609.19
463.657	594.19
463.876	624.19
464.096	591.19
464.316	603.19
464.536	612.19
464.755	601.19
464.975	589.19
465.195	605.19
465.414	659.19
465.634	593.19
465.854	575.19
466.073	545.19
466.293	545.19
466.512	535.19
466.732	496.19
466.951	529.19
467.171	520.19
467.391	495.19
467.61	503.19
467.829	528.19
468.049	502.19
468.268	521.19
468.488	483.19
468.707	488.19
468.927	508.19
469.146	501.19
469.365	491.19
469.585	505.19
469.804	502.19
470.023	500.19
470.243	527.19
470.462	518.19
470.681	539.19
470.901	533.19
471.12	528.19
471.339	504.19
471.558	536.19
471.777	527.19
471.997	522.19
472.216	511.19
472.435	559.19
472.654	502.19
472.873	487.19
473.092	507.19
473.311	520.19
473.53	523.19
473.749	522.19
473.968	571.19
474.187	640.19
474.406	687.19
474.625	590.19
474.844	525.19
475.063	531.19
475.282	539.19
475.501	508.19
475.72	563.19
475.939	517.19
476.158	537.19
476.377	539.19
476.596	557.19
476.814	544.19
477.033	562.19
477.252	557.19
477.471	547.19
477.69	547.19
477.908	560.19
478.127	571.19
478.346	583.19
478.564	595.19
478.783	609.19
479.002	609.19
479.22	603.19
479.439	602.19
479.658	619.19
479.876	633.19
480.095	617.19
480.313	674.19
480.532	661.19
480.751	647.19
480.969	653.19
481.188	687.19
481.406	711.19
481.624	679.19
481.843	638.19
482.061	601.19
482.28	626.19
482.498	623.19
482.717	630.19
482.935	601.19
483.153	608.19
483.372	631.19
483.59	607.19
483.808	621.19
484.027	618.19
484.245	626.19
484.463	614.19
484.681	636.19
484.9	623.19
485.118	621.19
485.336	603.19
485.554	625.19
485.772	617.19
485.99	625.19
486.209	645.19
486.427	646.19
486.645	643.19
486.863	652.19
487.081	673.19
487.299	645.19
487.517	678.19
487.735	637.19
487.953	675.19
488.171	626.19
488.389	662.19
488.607	646.19
488.825	666.19
489.043	659.19
489.261	679.19
489.479	675.19
489.696	652.19
489.914	649.19
490.132	683.19
490.35	681.19
490.568	680.19
490.786	703.19
491.003	720.19
491.221	721.19
491.439	741.19
491.657	743.19
491.874	744.19
492.092	743.19
492.31	732.19
492.527	736.19
492.745	757.19
492.963	769.19
493.18	772.19
493.398	775.19
493.615	765.19
493.833	781.19
494.05	787.19
494.268	755.19
494.485	759.19
494.703	756.19
494.92	769.19
495.138	776.19
495.355	772.19
495.573	791.19
495.79	802.19
496.008	776.19
496.225	792.19
496.442	757.19
496.66	785.19
496.877	776.19
497.094	787.19
497.312	809.19
497.529	793.19
497.746	815.19
497.963	831.19
498.181	842.19
498.398	839.19
498.615	879.19
498.832	905.19
499.049	908.19
499.267	924.19
499.484	992.19
499.701	1009.19
499.918	1057.19
500.135	1093.19
500.352	1160.19
500.569	1180.19
500.786	1158.19
501.003	1187.19
501.22	1115.19
501.437	1042.19
501.654	1015.19
