Data from 1966.PennyLincolnUp.Lamp.En5.5.200Scan.071719.P1._HRD10591_14-14-49-914.txt Node
Date: Thu Jul 18 14:14:49 EDT 2019
User: cochatt
Spectrometer: HR+D1059
Trigger mode: 1
Integration Time (sec): 1.000000E-1
Scans to average: 1
Electric dark correction enabled: true
Nonlinearity correction enabled: false
Boxcar width: 0
XAxis mode: Wavelengths
Number of Pixels in Spectrum: 2048
>>>>>Begin Spectral Data<<<<<
223.165	-9.38
223.4	-9.38
223.635	-9.38
223.869	-12.38
224.104	-24.38
224.338	-16.38
224.573	-20.38
224.808	-7.38
225.042	-7.38
225.277	-7.38
225.511	-4.38
225.746	-3.38
225.98	-8.38
226.215	8.62
226.449	29.62
226.683	24.62
226.918	28.62
227.152	29.62
227.387	34.62
227.621	40.62
227.856	40.62
228.09	41.62
228.324	47.62
228.559	54.62
228.793	58.62
229.027	74.62
229.262	81.62
229.496	75.62
229.73	104.62
229.964	127.62
230.199	82.62
230.433	94.62
230.667	92.62
230.901	86.62
231.136	88.62
231.37	101.62
231.604	100.62
231.838	80.62
232.072	99.62
232.306	99.62
232.541	100.62
232.775	98.62
233.009	100.62
233.243	108.62
233.477	97.62
233.711	95.62
233.945	89.62
234.179	94.62
234.413	81.62
234.647	99.62
234.881	91.62
235.115	105.62
235.349	86.62
235.583	97.62
235.817	103.62
236.051	89.62
236.285	114.62
236.519	94.62
236.753	111.62
236.987	102.62
237.221	122.62
237.455	155.62
237.689	146.62
237.922	110.62
238.156	102.62
238.39	108.62
238.624	98.62
238.858	104.62
239.091	109.62
239.325	100.62
239.559	93.62
239.793	100.62
240.027	98.62
240.26	121.62
240.494	125.62
240.728	106.62
240.961	124.62
241.195	115.62
241.429	110.62
241.662	105.62
241.896	109.62
242.13	102.62
242.363	98.62
242.597	87.62
242.83	89.62
243.064	105.62
243.298	100.62
243.531	121.62
243.765	115.62
243.998	119.62
244.232	116.62
244.465	94.62
244.699	108.62
244.932	125.62
245.166	105.62
245.399	101.62
245.633	107.62
245.866	108.62
246.099	102.62
246.333	120.62
246.566	119.62
246.8	113.62
247.033	118.62
247.266	111.62
247.5	119.62
247.733	121.62
247.966	127.62
248.2	119.62
248.433	120.62
248.666	107.62
248.899	126.62
249.133	121.62
249.366	146.62
249.599	145.62
249.832	130.62
250.066	126.62
250.299	119.62
250.532	128.62
250.765	150.62
250.998	144.62
251.231	136.62
251.465	133.62
251.698	145.62
251.931	116.62
252.164	121.62
252.397	135.62
252.63	143.62
252.863	120.62
253.096	140.62
253.329	140.62
253.562	154.62
253.795	133.62
254.028	142.62
254.261	140.62
254.494	150.62
254.727	150.62
254.96	172.62
255.193	177.62
255.426	152.62
255.659	142.62
255.892	140.62
256.124	143.62
256.357	165.62
256.59	145.62
256.823	140.62
257.056	137.62
257.289	145.62
257.521	136.62
257.754	150.62
257.987	149.62
258.22	133.62
258.452	127.62
258.685	138.62
258.918	138.62
259.151	144.62
259.383	155.62
259.616	152.62
259.849	154.62
260.081	152.62
260.314	167.62
260.547	161.62
260.779	158.62
261.012	144.62
261.244	152.62
261.477	150.62
261.71	146.62
261.942	137.62
262.175	160.62
262.407	134.62
262.64	137.62
262.872	142.62
263.105	144.62
263.337	145.62
263.57	153.62
263.802	136.62
264.035	133.62
264.267	137.62
264.499	122.62
264.732	133.62
264.964	152.62
265.197	126.62
265.429	140.62
265.661	145.62
265.894	154.62
266.126	141.62
266.358	145.62
266.591	157.62
266.823	151.62
267.055	154.62
267.287	145.62
267.52	148.62
267.752	143.62
267.984	147.62
268.216	159.62
268.448	136.62
268.681	157.62
268.913	146.62
269.145	176.62
269.377	170.62
269.609	174.62
269.841	168.62
270.073	159.62
270.306	184.62
270.538	200.62
270.77	192.62
271.002	182.62
271.234	164.62
271.466	180.62
271.698	194.62
271.93	196.62
272.162	200.62
272.394	187.62
272.626	183.62
272.858	170.62
273.09	171.62
273.322	168.62
273.553	166.62
273.785	154.62
274.017	167.62
274.249	160.62
274.481	161.62
274.713	163.62
274.945	166.62
275.176	165.62
275.408	161.62
275.64	171.62
275.872	158.62
276.104	161.62
276.335	168.62
276.567	158.62
276.799	176.62
277.031	191.62
277.262	210.62
277.494	184.62
277.726	175.62
277.957	183.62
278.189	172.62
278.421	164.62
278.652	158.62
278.884	167.62
279.115	158.62
279.347	164.62
279.579	165.62
279.81	166.62
280.042	181.62
280.273	175.62
280.505	164.62
280.736	162.62
280.968	177.62
281.199	169.62
281.431	160.62
281.662	176.62
281.894	166.62
282.125	175.62
282.356	168.62
282.588	188.62
282.819	202.62
283.051	181.62
283.282	166.62
283.513	150.62
283.745	175.62
283.976	194.62
284.207	177.62
284.439	171.62
284.67	168.62
284.901	168.62
285.132	165.62
285.364	173.62
285.595	177.62
285.826	170.62
286.057	173.62
286.288	178.62
286.52	171.62
286.751	168.62
286.982	176.62
287.213	183.62
287.444	172.62
287.675	179.62
287.906	182.62
288.138	174.62
288.369	181.62
288.6	193.62
288.831	177.62
289.062	184.62
289.293	168.62
289.524	176.62
289.755	172.62
289.986	178.62
290.217	176.62
290.448	188.62
290.679	184.62
290.91	170.62
291.141	177.62
291.371	175.62
291.602	183.62
291.833	183.62
292.064	182.62
292.295	172.62
292.526	158.62
292.757	164.62
292.987	188.62
293.218	168.62
293.449	180.62
293.68	173.62
293.91	182.62
294.141	193.62
294.372	189.62
294.603	173.62
294.833	170.62
295.064	168.62
295.295	186.62
295.525	193.62
295.756	186.62
295.987	208.62
296.217	201.62
296.448	191.62
296.679	185.62
296.909	192.62
297.14	184.62
297.37	183.62
297.601	176.62
297.831	171.62
298.062	166.62
298.292	191.62
298.523	184.62
298.753	180.62
298.984	183.62
299.214	187.62
299.445	176.62
299.675	172.62
299.905	186.62
300.136	184.62
300.366	187.62
300.597	196.62
300.827	204.62
301.057	187.62
301.288	196.62
301.518	198.62
301.748	221.62
301.979	204.62
302.209	188.62
302.439	196.62
302.669	196.62
302.9	202.62
303.13	180.62
303.36	213.62
303.59	190.62
303.82	192.62
304.051	201.62
304.281	201.62
304.511	209.62
304.741	196.62
304.971	177.62
305.201	206.62
305.431	199.62
305.661	197.62
305.891	190.62
306.121	202.62
306.352	184.62
306.582	199.62
306.812	189.62
307.042	193.62
307.272	180.62
307.502	206.62
307.731	203.62
307.961	204.62
308.191	193.62
308.421	189.62
308.651	190.62
308.881	184.62
309.111	200.62
309.341	204.62
309.571	194.62
309.8	229.62
310.03	212.62
310.26	221.62
310.49	226.62
310.72	224.62
310.949	224.62
311.179	239.62
311.409	214.62
311.639	215.62
311.868	234.62
312.098	206.62
312.328	214.62
312.557	231.62
312.787	232.62
313.017	240.62
313.246	238.62
313.476	207.62
313.706	201.62
313.935	219.62
314.165	224.62
314.394	230.62
314.624	224.62
314.853	235.62
315.083	215.62
315.312	211.62
315.542	202.62
315.771	211.62
316.001	199.62
316.23	202.62
316.46	205.62
316.689	213.62
316.919	214.62
317.148	234.62
317.377	221.62
317.607	210.62
317.836	215.62
318.065	213.62
318.295	231.62
318.524	219.62
318.753	224.62
318.983	207.62
319.212	216.62
319.441	213.62
319.67	227.62
319.9	222.62
320.129	218.62
320.358	229.62
320.587	209.62
320.816	213.62
321.046	215.62
321.275	221.62
321.504	233.62
321.733	220.62
321.962	217.62
322.191	227.62
322.42	264.62
322.649	244.62
322.878	245.62
323.108	259.62
323.337	268.62
323.566	271.62
323.795	287.62
324.024	321.62
324.253	382.62
324.482	553.62
324.71	796.62
324.939	1102.62
325.168	900.62
325.397	447.62
325.626	308.62
325.855	266.62
326.084	266.62
326.313	257.62
326.542	287.62
326.77	294.62
326.999	364.62
327.228	504.62
327.457	726.62
327.686	832.62
327.914	554.62
328.143	369.62
328.372	335.62
328.6	322.62
328.829	293.62
329.058	344.62
329.287	317.62
329.515	308.62
329.744	273.62
329.972	296.62
330.201	317.62
330.43	335.62
330.658	365.62
330.887	347.62
331.115	342.62
331.344	292.62
331.572	284.62
331.801	282.62
332.03	277.62
332.258	237.62
332.486	257.62
332.715	241.62
332.943	256.62
333.172	266.62
333.4	244.62
333.629	284.62
333.857	268.62
334.085	293.62
334.314	302.62
334.542	331.62
334.771	334.62
334.999	300.62
335.227	273.62
335.455	265.62
335.684	257.62
335.912	247.62
336.14	239.62
336.369	246.62
336.597	264.62
336.825	256.62
337.053	236.62
337.281	236.62
337.51	237.62
337.738	244.62
337.966	253.62
338.194	266.62
338.422	240.62
338.65	233.62
338.878	237.62
339.106	220.62
339.334	248.62
339.562	218.62
339.79	245.62
340.018	229.62
340.246	247.62
340.474	232.62
340.702	238.62
340.93	232.62
341.158	232.62
341.386	247.62
341.614	240.62
341.842	255.62
342.07	220.62
342.298	231.62
342.526	213.62
342.754	223.62
342.981	219.62
343.209	225.62
343.437	219.62
343.665	245.62
343.893	242.62
344.12	233.62
344.348	233.62
344.576	244.62
344.804	252.62
345.031	246.62
345.259	231.62
345.487	254.62
345.714	238.62
345.942	244.62
346.17	247.62
346.397	228.62
346.625	234.62
346.853	222.62
347.08	219.62
347.308	228.62
347.535	218.62
347.763	239.62
347.99	228.62
348.218	238.62
348.445	266.62
348.673	244.62
348.9	225.62
349.128	230.62
349.355	223.62
349.583	215.62
349.81	210.62
350.037	212.62
350.265	226.62
350.492	220.62
350.72	248.62
350.947	232.62
351.174	244.62
351.402	230.62
351.629	218.62
351.856	238.62
352.083	231.62
352.311	237.62
352.538	242.62
352.765	271.62
352.992	228.62
353.22	228.62
353.447	231.62
353.674	225.62
353.901	237.62
354.128	222.62
354.355	210.62
354.583	222.62
354.81	224.62
355.037	213.62
355.264	228.62
355.491	204.62
355.718	213.62
355.945	217.62
356.172	199.62
356.399	207.62
356.626	229.62
356.853	202.62
357.08	204.62
357.307	195.62
357.534	214.62
357.761	203.62
357.988	203.62
358.215	213.62
358.441	219.62
358.668	213.62
358.895	220.62
359.122	215.62
359.349	225.62
359.576	209.62
359.802	233.62
360.029	258.62
360.256	278.62
360.483	255.62
360.709	234.62
360.936	217.62
361.163	223.62
361.39	221.62
361.616	228.62
361.843	225.62
362.07	211.62
362.296	238.62
362.523	229.62
362.749	208.62
362.976	215.62
363.203	231.62
363.429	221.62
363.656	233.62
363.882	220.62
364.109	231.62
364.335	218.62
364.562	226.62
364.788	220.62
365.015	217.62
365.241	217.62
365.468	221.62
365.694	222.62
365.92	236.62
366.147	211.62
366.373	213.62
366.599	216.62
366.826	218.62
367.052	218.62
367.278	214.62
367.505	208.62
367.731	218.62
367.957	218.62
368.184	217.62
368.41	214.62
368.636	221.62
368.862	236.62
369.089	231.62
369.315	222.62
369.541	221.62
369.767	209.62
369.993	210.62
370.219	210.62
370.445	209.62
370.672	236.62
370.898	224.62
371.124	220.62
371.35	217.62
371.576	204.62
371.802	216.62
372.028	209.62
372.254	205.62
372.48	214.62
372.706	220.62
372.932	215.62
373.158	223.62
373.384	223.62
373.61	203.62
373.835	215.62
374.061	214.62
374.287	217.62
374.513	213.62
374.739	220.62
374.965	235.62
375.191	218.62
375.416	216.62
375.642	198.62
375.868	214.62
376.094	226.62
376.319	215.62
376.545	214.62
376.771	210.62
376.997	229.62
377.222	217.62
377.448	197.62
377.674	206.62
377.899	216.62
378.125	222.62
378.35	207.62
378.576	194.62
378.802	211.62
379.027	213.62
379.253	221.62
379.478	216.62
379.704	199.62
379.929	224.62
380.155	210.62
380.38	201.62
380.606	204.62
380.831	219.62
381.057	225.62
381.282	210.62
381.507	214.62
381.733	209.62
381.958	208.62
382.184	215.62
382.409	208.62
382.634	238.62
382.86	219.62
383.085	214.62
383.31	219.62
383.535	213.62
383.761	205.62
383.986	207.62
384.211	223.62
384.436	229.62
384.662	219.62
384.887	239.62
385.112	236.62
385.337	247.62
385.562	233.62
385.787	230.62
386.013	236.62
386.238	233.62
386.463	218.62
386.688	227.62
386.913	232.62
387.138	218.62
387.363	235.62
387.588	234.62
387.813	234.62
388.038	216.62
388.263	231.62
388.488	238.62
388.713	220.62
388.938	233.62
389.163	223.62
389.387	224.62
389.612	215.62
389.837	226.62
390.062	204.62
390.287	229.62
390.512	222.62
390.736	230.62
390.961	231.62
391.186	237.62
391.411	223.62
391.636	234.62
391.86	228.62
392.085	246.62
392.31	240.62
392.534	246.62
392.759	246.62
392.984	230.62
393.208	248.62
393.433	216.62
393.658	240.62
393.882	231.62
394.107	218.62
394.331	246.62
394.556	234.62
394.78	230.62
395.005	227.62
395.229	236.62
395.454	253.62
395.678	229.62
395.903	235.62
396.127	256.62
396.352	253.62
396.576	228.62
396.801	233.62
397.025	233.62
397.249	240.62
397.474	252.62
397.698	244.62
397.922	246.62
398.147	267.62
398.371	239.62
398.595	260.62
398.82	264.62
399.044	265.62
399.268	285.62
399.492	287.62
399.717	305.62
399.941	308.62
400.165	298.62
400.389	322.62
400.613	288.62
400.837	263.62
401.062	272.62
401.286	266.62
401.51	265.62
401.734	260.62
401.958	241.62
402.182	251.62
402.406	251.62
402.63	279.62
402.854	280.62
403.078	272.62
403.302	277.62
403.526	273.62
403.75	262.62
403.974	278.62
404.198	269.62
404.422	288.62
404.645	270.62
404.869	264.62
405.093	285.62
405.317	305.62
405.541	335.62
405.765	303.62
405.988	310.62
406.212	301.62
406.436	331.62
406.66	301.62
406.883	298.62
407.107	297.62
407.331	327.62
407.555	339.62
407.778	338.62
408.002	326.62
408.226	304.62
408.449	286.62
408.673	292.62
408.896	308.62
409.12	312.62
409.344	305.62
409.567	293.62
409.791	266.62
410.014	272.62
410.238	267.62
410.461	271.62
410.685	256.62
410.908	277.62
411.132	294.62
411.355	314.62
411.578	289.62
411.802	262.62
412.025	266.62
412.249	283.62
412.472	286.62
412.695	300.62
412.919	308.62
413.142	294.62
413.365	252.62
413.589	261.62
413.812	244.62
414.035	249.62
414.258	241.62
414.482	261.62
414.705	253.62
414.928	276.62
415.151	256.62
415.374	250.62
415.597	273.62
415.821	245.62
416.044	271.62
416.267	262.62
416.49	260.62
416.713	249.62
416.936	260.62
417.159	258.62
417.382	260.62
417.605	248.62
417.828	287.62
418.051	256.62
418.274	271.62
418.497	260.62
418.72	274.62
418.943	257.62
419.166	270.62
419.389	269.62
419.611	265.62
419.834	278.62
420.057	278.62
420.28	283.62
420.503	249.62
420.726	264.62
420.948	261.62
421.171	302.62
421.394	304.62
421.617	275.62
421.839	281.62
422.062	266.62
422.285	273.62
422.507	321.62
422.73	326.62
422.953	322.62
423.175	286.62
423.398	278.62
423.621	284.62
423.843	282.62
424.066	294.62
424.288	282.62
424.511	301.62
424.733	332.62
424.956	345.62
425.178	349.62
425.401	341.62
425.623	344.62
425.846	295.62
426.068	260.62
426.291	281.62
426.513	289.62
426.735	288.62
426.958	314.62
427.18	362.62
427.402	400.62
427.625	456.62
427.847	414.62
428.069	348.62
428.292	316.62
428.514	261.62
428.736	276.62
428.958	278.62
429.181	265.62
429.403	257.62
429.625	270.62
429.847	295.62
430.069	316.62
430.292	308.62
430.514	283.62
430.736	282.62
430.958	260.62
431.18	248.62
431.402	260.62
431.624	242.62
431.846	236.62
432.068	245.62
432.29	265.62
432.512	265.62
432.734	251.62
432.956	255.62
433.178	267.62
433.4	261.62
433.622	271.62
433.844	270.62
434.066	254.62
434.287	255.62
434.509	262.62
434.731	284.62
434.953	273.62
435.175	278.62
435.397	297.62
435.618	301.62
435.84	316.62
436.062	336.62
436.284	372.62
436.505	290.62
436.727	274.62
436.949	269.62
437.17	269.62
437.392	252.62
437.614	278.62
437.835	278.62
438.057	344.62
438.278	366.62
438.5	352.62
438.721	386.62
438.943	380.62
439.165	301.62
439.386	290.62
439.608	292.62
439.829	303.62
440.05	310.62
440.272	342.62
440.493	312.62
440.715	290.62
440.936	268.62
441.158	272.62
441.379	284.62
441.6	272.62
441.822	295.62
442.043	326.62
442.264	337.62
442.486	349.62
442.707	319.62
442.928	294.62
443.149	301.62
443.371	306.62
443.592	332.62
443.813	371.62
444.034	396.62
444.255	319.62
444.476	282.62
444.698	283.62
444.919	284.62
445.14	375.62
445.361	331.62
445.582	324.62
445.803	353.62
446.024	391.62
446.245	396.62
446.466	351.62
446.687	294.62
446.908	282.62
447.129	281.62
447.35	271.62
447.571	274.62
447.792	259.62
448.013	268.62
448.234	282.62
448.455	302.62
448.675	355.62
448.896	375.62
449.117	334.62
449.338	337.62
449.559	376.62
449.779	409.62
450	346.62
450.221	297.62
450.442	260.62
450.662	249.62
450.883	280.62
451.104	292.62
451.324	285.62
451.545	273.62
451.766	264.62
451.986	250.62
452.207	230.62
452.428	240.62
452.648	244.62
452.869	260.62
453.089	265.62
453.31	250.62
453.53	261.62
453.751	256.62
453.971	249.62
454.192	270.62
454.412	263.62
454.633	236.62
454.853	238.62
455.073	242.62
455.294	263.62
455.514	290.62
455.734	292.62
455.955	241.62
456.175	245.62
456.395	209.62
456.616	246.62
456.836	238.62
457.056	207.62
457.276	230.62
457.497	221.62
457.717	232.62
457.937	255.62
458.157	244.62
458.377	236.62
458.598	252.62
458.818	316.62
459.038	345.62
459.258	336.62
459.478	290.62
459.698	281.62
459.918	231.62
460.138	256.62
460.358	255.62
460.578	242.62
460.798	268.62
461.018	266.62
461.238	275.62
461.458	253.62
461.678	250.62
461.898	269.62
462.118	257.62
462.338	245.62
462.558	272.62
462.777	263.62
462.997	270.62
463.217	282.62
463.437	270.62
463.657	279.62
463.876	278.62
464.096	269.62
464.316	264.62
464.536	292.62
464.755	291.62
464.975	276.62
465.195	338.62
465.414	359.62
465.634	312.62
465.854	266.62
466.073	256.62
466.293	268.62
466.512	238.62
466.732	251.62
466.951	257.62
467.171	236.62
467.391	244.62
467.61	265.62
467.829	258.62
468.049	255.62
468.268	266.62
468.488	240.62
468.707	245.62
468.927	235.62
469.146	237.62
469.365	248.62
469.585	225.62
469.804	239.62
470.023	254.62
470.243	256.62
470.462	264.62
470.681	267.62
470.901	281.62
471.12	253.62
471.339	264.62
471.558	266.62
471.777	275.62
471.997	257.62
472.216	249.62
472.435	290.62
472.654	285.62
472.873	249.62
473.092	248.62
473.311	255.62
473.53	261.62
473.749	265.62
473.968	269.62
474.187	335.62
474.406	346.62
474.625	298.62
474.844	251.62
475.063	246.62
475.282	232.62
475.501	254.62
475.72	258.62
475.939	254.62
476.158	247.62
476.377	266.62
476.596	250.62
476.814	254.62
477.033	270.62
477.252	254.62
477.471	258.62
477.69	257.62
477.908	270.62
478.127	274.62
478.346	272.62
478.564	277.62
478.783	286.62
479.002	286.62
479.22	313.62
479.439	283.62
479.658	296.62
479.876	288.62
480.095	299.62
480.313	329.62
480.532	322.62
480.751	310.62
480.969	304.62
481.188	371.62
481.406	406.62
481.624	334.62
481.843	311.62
482.061	298.62
482.28	289.62
482.498	289.62
482.717	285.62
482.935	269.62
483.153	281.62
483.372	278.62
483.59	296.62
483.808	276.62
484.027	289.62
484.245	272.62
484.463	286.62
484.681	291.62
484.9	291.62
485.118	288.62
485.336	296.62
485.554	273.62
485.772	300.62
485.99	285.62
486.209	298.62
486.427	281.62
486.645	311.62
486.863	333.62
487.081	333.62
487.299	308.62
487.517	310.62
487.735	312.62
487.953	303.62
488.171	321.62
488.389	313.62
488.607	304.62
488.825	301.62
489.043	308.62
489.261	302.62
489.479	326.62
489.696	327.62
489.914	315.62
490.132	335.62
490.35	320.62
490.568	334.62
490.786	322.62
491.003	343.62
491.221	345.62
491.439	344.62
491.657	358.62
491.874	366.62
492.092	345.62
492.31	376.62
492.527	370.62
492.745	366.62
492.963	350.62
493.18	354.62
493.398	364.62
493.615	364.62
493.833	365.62
494.05	377.62
494.268	358.62
494.485	367.62
494.703	365.62
494.92	361.62
495.138	360.62
495.355	370.62
495.573	373.62
495.79	360.62
496.008	355.62
496.225	359.62
496.442	357.62
496.66	378.62
496.877	363.62
497.094	349.62
497.312	380.62
497.529	383.62
497.746	355.62
497.963	379.62
498.181	384.62
498.398	386.62
498.615	385.62
498.832	390.62
499.049	386.62
499.267	409.62
499.484	422.62
499.701	417.62
499.918	442.62
500.135	446.62
500.352	479.62
500.569	490.62
500.786	477.62
501.003	485.62
501.22	451.62
501.437	448.62
501.654	453.62
501.871	433.62
502.088	420.62
502.305	410.62
502.522	411.62
