Data from 1966.PennyLincolnUp.Lamp.En5.5.200Scan.071719.P1.Scan2.head_HRD10591_14-16-39-045.txt Node
Date: Thu Jul 18 14:16:39 EDT 2019
User: cochatt
Spectrometer: HR+D1059
Trigger mode: 1
Integration Time (sec): 1.000000E-1
Scans to average: 1
Electric dark correction enabled: true
Nonlinearity correction enabled: false
Boxcar width: 0
XAxis mode: Wavelengths
Number of Pixels in Spectrum: 2048
>>>>>Begin Spectral Data<<<<<
223.165	-3.31
223.4	-3.31
223.635	-3.31
223.869	-6.31
224.104	-29.31
224.338	-17.31
224.573	-20.31
224.808	-7.31
225.042	-2.31
225.277	-12.31
225.511	-0.31
225.746	1.69
225.98	11.69
226.215	-7.31
226.449	6.69
226.683	25.69
226.918	24.69
227.152	35.69
227.387	29.69
227.621	32.69
227.856	26.69
228.09	43.69
228.324	40.69
228.559	53.69
228.793	57.69
229.027	92.69
229.262	77.69
229.496	90.69
229.73	127.69
229.964	124.69
230.199	112.69
230.433	98.69
230.667	96.69
230.901	94.69
231.136	101.69
231.37	100.69
231.604	118.69
231.838	96.69
232.072	84.69
232.306	116.69
232.541	119.69
232.775	109.69
233.009	117.69
233.243	108.69
233.477	104.69
233.711	106.69
233.945	109.69
234.179	117.69
234.413	117.69
234.647	123.69
234.881	118.69
235.115	106.69
235.349	109.69
235.583	102.69
235.817	117.69
236.051	108.69
236.285	110.69
236.519	118.69
236.753	124.69
236.987	115.69
237.221	158.69
237.455	215.69
237.689	152.69
237.922	128.69
238.156	126.69
238.39	126.69
238.624	112.69
238.858	124.69
239.091	117.69
239.325	126.69
239.559	115.69
239.793	97.69
240.027	124.69
240.26	124.69
240.494	142.69
240.728	132.69
240.961	136.69
241.195	134.69
241.429	129.69
241.662	131.69
241.896	125.69
242.13	140.69
242.363	140.69
242.597	115.69
242.83	129.69
243.064	124.69
243.298	126.69
243.531	140.69
243.765	131.69
243.998	120.69
244.232	132.69
244.465	124.69
244.699	135.69
244.932	137.69
245.166	126.69
245.399	136.69
245.633	133.69
245.866	132.69
246.099	120.69
246.333	140.69
246.566	123.69
246.8	136.69
247.033	139.69
247.266	139.69
247.5	154.69
247.733	151.69
247.966	157.69
248.2	165.69
248.433	154.69
248.666	161.69
248.899	179.69
249.133	162.69
249.366	192.69
249.599	169.69
249.832	167.69
250.066	167.69
250.299	156.69
250.532	165.69
250.765	184.69
250.998	214.69
251.231	196.69
251.465	195.69
251.698	172.69
251.931	167.69
252.164	171.69
252.397	192.69
252.63	176.69
252.863	185.69
253.096	180.69
253.329	176.69
253.562	194.69
253.795	193.69
254.028	194.69
254.261	190.69
254.494	202.69
254.727	224.69
254.96	220.69
255.193	234.69
255.426	215.69
255.659	207.69
255.892	188.69
256.124	212.69
256.357	200.69
256.59	212.69
256.823	185.69
257.056	194.69
257.289	198.69
257.521	199.69
257.754	186.69
257.987	192.69
258.22	197.69
258.452	166.69
258.685	190.69
258.918	197.69
259.151	189.69
259.383	205.69
259.616	190.69
259.849	199.69
260.081	222.69
260.314	217.69
260.547	229.69
260.779	222.69
261.012	201.69
261.244	196.69
261.477	204.69
261.71	214.69
261.942	214.69
262.175	220.69
262.407	194.69
262.64	199.69
262.872	192.69
263.105	187.69
263.337	194.69
263.57	196.69
263.802	200.69
264.035	183.69
264.267	195.69
264.499	206.69
264.732	196.69
264.964	187.69
265.197	196.69
265.429	192.69
265.661	194.69
265.894	217.69
266.126	198.69
266.358	201.69
266.591	201.69
266.823	206.69
267.055	198.69
267.287	198.69
267.52	213.69
267.752	212.69
267.984	220.69
268.216	197.69
268.448	214.69
268.681	209.69
268.913	213.69
269.145	239.69
269.377	241.69
269.609	244.69
269.841	222.69
270.073	236.69
270.306	253.69
270.538	258.69
270.77	267.69
271.002	256.69
271.234	261.69
271.466	240.69
271.698	251.69
271.93	277.69
272.162	257.69
272.394	277.69
272.626	266.69
272.858	249.69
273.09	248.69
273.322	241.69
273.553	229.69
273.785	232.69
274.017	221.69
274.249	243.69
274.481	235.69
274.713	237.69
274.945	251.69
275.176	244.69
275.408	233.69
275.64	240.69
275.872	233.69
276.104	234.69
276.335	227.69
276.567	239.69
276.799	267.69
277.031	265.69
277.262	272.69
277.494	261.69
277.726	264.69
277.957	260.69
278.189	247.69
278.421	242.69
278.652	230.69
278.884	222.69
279.115	262.69
279.347	237.69
279.579	228.69
279.81	243.69
280.042	240.69
280.273	240.69
280.505	242.69
280.736	232.69
280.968	240.69
281.199	239.69
281.431	240.69
281.662	234.69
281.894	258.69
282.125	245.69
282.356	244.69
282.588	277.69
282.819	279.69
283.051	244.69
283.282	255.69
283.513	245.69
283.745	253.69
283.976	257.69
284.207	267.69
284.439	246.69
284.67	255.69
284.901	263.69
285.132	242.69
285.364	237.69
285.595	222.69
285.826	231.69
286.057	260.69
286.288	254.69
286.52	259.69
286.751	252.69
286.982	263.69
287.213	270.69
287.444	246.69
287.675	257.69
287.906	260.69
288.138	261.69
288.369	279.69
288.6	264.69
288.831	291.69
289.062	285.69
289.293	276.69
289.524	252.69
289.755	266.69
289.986	256.69
290.217	278.69
290.448	276.69
290.679	269.69
290.91	269.69
291.141	267.69
291.371	268.69
291.602	279.69
291.833	269.69
292.064	257.69
292.295	273.69
292.526	271.69
292.757	258.69
292.987	274.69
293.218	278.69
293.449	261.69
293.68	255.69
293.91	269.69
294.141	276.69
294.372	271.69
294.603	258.69
294.833	252.69
295.064	249.69
295.295	274.69
295.525	256.69
295.756	260.69
295.987	263.69
296.217	284.69
296.448	298.69
296.679	270.69
296.909	266.69
297.14	268.69
297.37	260.69
297.601	267.69
297.831	283.69
298.062	281.69
298.292	278.69
298.523	281.69
298.753	288.69
298.984	276.69
299.214	296.69
299.445	289.69
299.675	287.69
299.905	293.69
300.136	282.69
300.366	286.69
300.597	285.69
300.827	291.69
301.057	289.69
301.288	304.69
301.518	314.69
301.748	294.69
301.979	300.69
302.209	295.69
302.439	288.69
302.669	276.69
302.9	305.69
303.13	301.69
303.36	297.69
303.59	324.69
303.82	292.69
304.051	319.69
304.281	310.69
304.511	288.69
304.741	298.69
304.971	283.69
305.201	295.69
305.431	296.69
305.661	309.69
305.891	305.69
306.121	317.69
306.352	292.69
306.582	297.69
306.812	301.69
307.042	298.69
307.272	282.69
307.502	297.69
307.731	288.69
307.961	292.69
308.191	300.69
308.421	313.69
308.651	301.69
308.881	296.69
309.111	300.69
309.341	291.69
309.571	323.69
309.8	317.69
310.03	327.69
310.26	336.69
310.49	340.69
310.72	346.69
310.949	324.69
311.179	348.69
311.409	320.69
311.639	323.69
311.868	328.69
312.098	332.69
312.328	353.69
312.557	323.69
312.787	329.69
313.017	359.69
313.246	333.69
313.476	353.69
313.706	317.69
313.935	342.69
314.165	349.69
314.394	346.69
314.624	346.69
314.853	340.69
315.083	342.69
315.312	320.69
315.542	336.69
315.771	298.69
316.001	332.69
316.23	336.69
316.46	338.69
316.689	336.69
316.919	320.69
317.148	342.69
317.377	350.69
317.607	333.69
317.836	339.69
318.065	325.69
318.295	316.69
318.524	331.69
318.753	332.69
318.983	338.69
319.212	337.69
319.441	340.69
319.67	338.69
319.9	334.69
320.129	342.69
320.358	362.69
320.587	360.69
320.816	345.69
321.046	346.69
321.275	332.69
321.504	352.69
321.733	372.69
321.962	355.69
322.191	358.69
322.42	370.69
322.649	403.69
322.878	374.69
323.108	381.69
323.337	413.69
323.566	393.69
323.795	411.69
324.024	451.69
324.253	508.69
324.482	709.69
324.71	1116.69
324.939	1642.69
325.168	1419.69
325.397	715.69
325.626	496.69
325.855	449.69
326.084	417.69
326.313	408.69
326.542	417.69
326.77	433.69
326.999	515.69
327.228	696.69
327.457	1001.69
327.686	1281.69
327.914	855.69
328.143	566.69
328.372	499.69
328.6	460.69
328.829	448.69
329.058	454.69
329.287	462.69
329.515	464.69
329.744	446.69
329.972	423.69
330.201	429.69
330.43	464.69
330.658	451.69
330.887	493.69
331.115	481.69
331.344	428.69
331.572	418.69
331.801	436.69
332.03	427.69
332.258	433.69
332.486	403.69
332.715	428.69
332.943	409.69
333.172	400.69
333.4	419.69
333.629	416.69
333.857	426.69
334.085	437.69
334.314	434.69
334.542	451.69
334.771	462.69
334.999	441.69
335.227	436.69
335.455	397.69
335.684	416.69
335.912	412.69
336.14	402.69
336.369	406.69
336.597	422.69
336.825	399.69
337.053	406.69
337.281	408.69
337.51	393.69
337.738	412.69
337.966	390.69
338.194	406.69
338.422	395.69
338.65	410.69
338.878	404.69
339.106	399.69
339.334	389.69
339.562	397.69
339.79	385.69
340.018	387.69
340.246	389.69
340.474	380.69
340.702	381.69
340.93	395.69
341.158	378.69
341.386	388.69
341.614	373.69
341.842	386.69
342.07	381.69
342.298	388.69
342.526	379.69
342.754	398.69
342.981	377.69
343.209	388.69
343.437	391.69
343.665	421.69
343.893	420.69
344.12	403.69
344.348	398.69
344.576	389.69
344.804	403.69
345.031	427.69
345.259	425.69
345.487	400.69
345.714	397.69
345.942	389.69
346.17	400.69
346.397	381.69
346.625	382.69
346.853	383.69
347.08	365.69
347.308	388.69
347.535	408.69
347.763	412.69
347.99	373.69
348.218	386.69
348.445	398.69
348.673	398.69
348.9	385.69
349.128	389.69
349.355	389.69
349.583	379.69
349.81	362.69
350.037	367.69
350.265	374.69
350.492	380.69
350.72	380.69
350.947	377.69
351.174	378.69
351.402	354.69
351.629	378.69
351.856	388.69
352.083	391.69
352.311	386.69
352.538	386.69
352.765	378.69
352.992	398.69
353.22	392.69
353.447	382.69
353.674	363.69
353.901	368.69
354.128	368.69
354.355	370.69
354.583	372.69
354.81	359.69
355.037	372.69
355.264	348.69
355.491	365.69
355.718	360.69
355.945	359.69
356.172	363.69
356.399	364.69
356.626	363.69
356.853	366.69
357.08	373.69
357.307	363.69
357.534	370.69
357.761	376.69
357.988	356.69
358.215	354.69
358.441	392.69
358.668	381.69
358.895	374.69
359.122	384.69
359.349	389.69
359.576	376.69
359.802	381.69
360.029	420.69
360.256	398.69
360.483	428.69
360.709	394.69
360.936	385.69
361.163	394.69
361.39	388.69
361.616	392.69
361.843	387.69
362.07	390.69
362.296	384.69
362.523	374.69
362.749	379.69
362.976	372.69
363.203	374.69
363.429	377.69
363.656	379.69
363.882	392.69
364.109	380.69
364.335	382.69
364.562	381.69
364.788	376.69
365.015	379.69
365.241	381.69
365.468	354.69
365.694	380.69
365.92	386.69
366.147	382.69
366.373	387.69
366.599	381.69
366.826	370.69
367.052	370.69
367.278	378.69
367.505	382.69
367.731	374.69
367.957	377.69
368.184	382.69
368.41	388.69
368.636	391.69
368.862	404.69
369.089	373.69
369.315	373.69
369.541	386.69
369.767	372.69
369.993	382.69
370.219	390.69
370.445	392.69
370.672	377.69
370.898	372.69
371.124	382.69
371.35	384.69
371.576	408.69
371.802	408.69
372.028	383.69
372.254	409.69
372.48	370.69
372.706	396.69
372.932	394.69
373.158	401.69
373.384	378.69
373.61	368.69
373.835	392.69
374.061	388.69
374.287	389.69
374.513	385.69
374.739	391.69
374.965	409.69
375.191	418.69
375.416	402.69
375.642	405.69
375.868	396.69
376.094	360.69
376.319	409.69
376.545	388.69
376.771	394.69
376.997	385.69
377.222	390.69
377.448	406.69
377.674	414.69
377.899	392.69
378.125	377.69
378.35	373.69
378.576	370.69
378.802	395.69
379.027	358.69
379.253	400.69
379.478	397.69
379.704	410.69
379.929	394.69
380.155	389.69
380.38	390.69
380.606	410.69
380.831	396.69
381.057	395.69
381.282	389.69
381.507	393.69
381.733	408.69
381.958	414.69
382.184	411.69
382.409	406.69
382.634	402.69
382.86	405.69
383.085	388.69
383.31	412.69
383.535	409.69
383.761	436.69
383.986	420.69
384.211	400.69
384.436	418.69
384.662	419.69
384.887	409.69
385.112	408.69
385.337	436.69
385.562	426.69
385.787	446.69
386.013	460.69
386.238	436.69
386.463	428.69
386.688	432.69
386.913	435.69
387.138	434.69
387.363	461.69
387.588	437.69
387.813	442.69
388.038	435.69
388.263	426.69
388.488	460.69
388.713	444.69
388.938	430.69
389.163	431.69
389.387	433.69
389.612	430.69
389.837	434.69
390.062	431.69
390.287	444.69
390.512	441.69
390.736	440.69
390.961	428.69
391.186	439.69
391.411	438.69
391.636	453.69
391.86	470.69
392.085	445.69
392.31	444.69
392.534	460.69
392.759	463.69
392.984	451.69
393.208	449.69
393.433	471.69
393.658	485.69
393.882	432.69
394.107	431.69
394.331	438.69
394.556	455.69
394.78	457.69
395.005	443.69
395.229	442.69
395.454	455.69
395.678	440.69
395.903	469.69
396.127	478.69
396.352	480.69
396.576	452.69
396.801	479.69
397.025	490.69
397.249	457.69
397.474	465.69
397.698	472.69
397.922	483.69
398.147	488.69
398.371	496.69
398.595	497.69
398.82	517.69
399.044	518.69
399.268	537.69
399.492	562.69
399.717	606.69
399.941	617.69
400.165	630.69
400.389	644.69
400.613	579.69
400.837	544.69
401.062	525.69
401.286	516.69
401.51	513.69
401.734	517.69
401.958	527.69
402.182	511.69
402.406	505.69
402.63	512.69
402.854	520.69
403.078	531.69
403.302	518.69
403.526	518.69
403.75	529.69
403.974	536.69
404.198	526.69
404.422	516.69
404.645	521.69
404.869	550.69
405.093	573.69
405.317	592.69
405.541	633.69
405.765	575.69
405.988	543.69
406.212	546.69
406.436	563.69
406.66	585.69
406.883	562.69
407.107	616.69
407.331	636.69
407.555	695.69
407.778	692.69
408.002	632.69
408.226	596.69
408.449	576.69
408.673	564.69
408.896	583.69
409.12	640.69
409.344	601.69
409.567	553.69
409.791	567.69
410.014	537.69
410.238	534.69
410.461	557.69
410.685	532.69
410.908	542.69
411.132	578.69
411.355	598.69
411.578	570.69
411.802	566.69
412.025	544.69
412.249	550.69
412.472	564.69
412.695	580.69
412.919	579.69
413.142	526.69
413.365	511.69
413.589	509.69
413.812	521.69
414.035	514.69
414.258	499.69
414.482	509.69
414.705	502.69
414.928	479.69
415.151	501.69
415.374	503.69
415.597	500.69
415.821	484.69
416.044	519.69
416.267	515.69
416.49	500.69
416.713	494.69
416.936	501.69
417.159	490.69
417.382	496.69
417.605	484.69
417.828	509.69
418.051	523.69
418.274	514.69
418.497	504.69
418.72	477.69
418.943	493.69
419.166	523.69
419.389	561.69
419.611	541.69
419.834	548.69
420.057	546.69
420.28	516.69
420.503	518.69
420.726	518.69
420.948	498.69
421.171	566.69
421.394	572.69
421.617	525.69
421.839	522.69
422.062	537.69
422.285	538.69
422.507	615.69
422.73	677.69
422.953	622.69
423.175	544.69
423.398	549.69
423.621	526.69
423.843	550.69
424.066	570.69
424.288	545.69
424.511	576.69
424.733	606.69
424.956	708.69
425.178	657.69
425.401	667.69
425.623	682.69
425.846	603.69
426.068	536.69
426.291	548.69
426.513	544.69
426.735	565.69
426.958	603.69
427.18	688.69
427.402	812.69
427.625	887.69
427.847	740.69
428.069	656.69
428.292	582.69
428.514	550.69
428.736	525.69
428.958	518.69
429.181	516.69
429.403	525.69
429.625	499.69
429.847	538.69
430.069	578.69
430.292	633.69
430.514	519.69
430.736	520.69
430.958	518.69
431.18	491.69
431.402	491.69
431.624	488.69
431.846	491.69
432.068	501.69
432.29	484.69
432.512	504.69
432.734	514.69
432.956	504.69
433.178	484.69
433.4	498.69
433.622	496.69
433.844	487.69
434.066	481.69
434.287	498.69
434.509	503.69
434.731	504.69
434.953	513.69
435.175	531.69
435.397	542.69
435.618	549.69
435.84	569.69
436.062	663.69
436.284	732.69
436.505	610.69
436.727	568.69
436.949	508.69
437.17	498.69
437.392	530.69
437.614	525.69
437.835	551.69
438.057	624.69
438.278	706.69
438.5	714.69
438.721	812.69
438.943	762.69
439.165	630.69
439.386	550.69
439.608	577.69
439.829	553.69
440.05	583.69
440.272	580.69
440.493	563.69
440.715	525.69
440.936	517.69
441.158	522.69
441.379	508.69
441.6	517.69
441.822	544.69
442.043	572.69
442.264	663.69
442.486	709.69
442.707	586.69
442.928	548.69
443.149	584.69
443.371	599.69
443.592	609.69
443.813	698.69
444.034	784.69
444.255	649.69
444.476	564.69
444.698	598.69
444.919	562.69
445.14	644.69
445.361	632.69
445.582	584.69
445.803	643.69
446.024	728.69
446.245	720.69
446.466	662.69
446.687	595.69
446.908	549.69
447.129	523.69
447.35	502.69
447.571	496.69
447.792	487.69
448.013	524.69
448.234	501.69
448.455	548.69
448.675	648.69
448.896	795.69
449.117	683.69
449.338	633.69
449.559	745.69
449.779	847.69
450	653.69
450.221	555.69
450.442	508.69
450.662	498.69
450.883	490.69
451.104	514.69
451.324	485.69
451.545	467.69
451.766	466.69
451.986	453.69
452.207	460.69
452.428	466.69
452.648	436.69
452.869	462.69
453.089	457.69
453.31	468.69
453.53	486.69
453.751	465.69
453.971	442.69
454.192	473.69
454.412	466.69
454.633	459.69
454.853	456.69
455.073	439.69
455.294	484.69
455.514	522.69
455.734	516.69
455.955	450.69
456.175	420.69
456.395	457.69
456.616	428.69
456.836	438.69
457.056	429.69
457.276	433.69
457.497	443.69
457.717	436.69
457.937	453.69
458.157	442.69
458.377	447.69
458.598	475.69
458.818	502.69
459.038	562.69
459.258	596.69
459.478	511.69
459.698	484.69
459.918	501.69
460.138	487.69
460.358	506.69
460.578	489.69
460.798	507.69
461.018	503.69
461.238	505.69
461.458	533.69
461.678	518.69
461.898	537.69
462.118	518.69
462.338	512.69
462.558	542.69
462.777	544.69
462.997	546.69
463.217	586.69
463.437	567.69
463.657	542.69
463.876	540.69
464.096	550.69
464.316	533.69
464.536	533.69
464.755	545.69
464.975	546.69
465.195	563.69
465.414	615.69
465.634	540.69
465.854	541.69
466.073	504.69
466.293	476.69
466.512	461.69
466.732	467.69
466.951	493.69
467.171	482.69
467.391	465.69
467.61	468.69
467.829	497.69
468.049	477.69
468.268	457.69
468.488	471.69
468.707	483.69
468.927	453.69
469.146	476.69
469.365	459.69
469.585	446.69
469.804	495.69
470.023	483.69
470.243	484.69
470.462	469.69
470.681	500.69
470.901	476.69
471.12	478.69
471.339	491.69
471.558	480.69
471.777	490.69
471.997	493.69
472.216	488.69
472.435	520.69
472.654	483.69
472.873	486.69
473.092	473.69
473.311	482.69
473.53	492.69
473.749	495.69
473.968	524.69
474.187	627.69
474.406	630.69
474.625	520.69
474.844	478.69
475.063	488.69
475.282	463.69
475.501	469.69
475.72	494.69
475.939	492.69
476.158	490.69
476.377	512.69
476.596	493.69
476.814	528.69
477.033	504.69
477.252	493.69
477.471	509.69
477.69	522.69
477.908	531.69
478.127	549.69
478.346	542.69
478.564	534.69
478.783	539.69
479.002	532.69
479.22	559.69
479.439	568.69
479.658	569.69
479.876	588.69
480.095	598.69
480.313	609.69
480.532	625.69
480.751	588.69
480.969	582.69
481.188	608.69
481.406	636.69
481.624	574.69
481.843	577.69
482.061	576.69
482.28	575.69
482.498	576.69
482.717	568.69
482.935	568.69
483.153	571.69
483.372	577.69
483.59	574.69
483.808	583.69
484.027	580.69
484.245	568.69
484.463	565.69
484.681	598.69
484.9	585.69
485.118	598.69
485.336	606.69
485.554	600.69
485.772	607.69
485.99	560.69
486.209	582.69
486.427	576.69
486.645	583.69
486.863	611.69
487.081	616.69
487.299	611.69
487.517	601.69
487.735	575.69
487.953	595.69
488.171	600.69
488.389	614.69
488.607	618.69
488.825	618.69
489.043	609.69
489.261	581.69
489.479	615.69
489.696	630.69
489.914	626.69
490.132	636.69
490.35	632.69
490.568	644.69
490.786	613.69
491.003	661.69
491.221	665.69
491.439	658.69
491.657	658.69
491.874	669.69
492.092	680.69
492.31	672.69
492.527	675.69
492.745	678.69
492.963	698.69
493.18	710.69
493.398	689.69
493.615	705.69
493.833	718.69
494.05	680.69
494.268	695.69
494.485	697.69
494.703	699.69
494.92	703.69
495.138	709.69
495.355	695.69
495.573	694.69
495.79	723.69
496.008	759.69
496.225	715.69
496.442	701.69
496.66	700.69
496.877	736.69
497.094	714.69
497.312	722.69
497.529	724.69
497.746	756.69
497.963	748.69
498.181	783.69
498.398	783.69
498.615	798.69
498.832	829.69
499.049	852.69
499.267	818.69
499.484	876.69
499.701	941.69
499.918	970.69
500.135	1003.69
500.352	1059.69
500.569	1058.69
500.786	1072.69
501.003	1063.69
501.22	1035.69
501.437	970.69
501.654	967.69
501.871	953.69
