Data from 1966.PennyLincolnUp.Lamp.En5.5.200Scan.071719.P1._HRD10591_14-15-27-951.txt Node
Date: Thu Jul 18 14:15:27 EDT 2019
User: cochatt
Spectrometer: HR+D1059
Trigger mode: 1
Integration Time (sec): 1.000000E-1
Scans to average: 1
Electric dark correction enabled: true
Nonlinearity correction enabled: false
Boxcar width: 0
XAxis mode: Wavelengths
Number of Pixels in Spectrum: 2048
>>>>>Begin Spectral Data<<<<<
223.165	-18.75
223.4	-18.75
223.635	-18.75
223.869	-7.75
224.104	-28.75
224.338	-16.75
224.573	-4.75
224.808	-10.75
225.042	-11.75
225.277	0.25
225.511	-2.75
225.746	-0.75
225.98	13.25
226.215	6.25
226.449	14.25
226.683	18.25
226.918	25.25
227.152	25.25
227.387	46.25
227.621	61.25
227.856	36.25
228.09	71.25
228.324	56.25
228.559	61.25
228.793	63.25
229.027	74.25
229.262	92.25
229.496	88.25
229.73	86.25
229.964	97.25
230.199	93.25
230.433	80.25
230.667	84.25
230.901	97.25
231.136	86.25
231.37	85.25
231.604	104.25
231.838	94.25
232.072	93.25
232.306	96.25
232.541	101.25
232.775	92.25
233.009	94.25
233.243	97.25
233.477	97.25
233.711	78.25
233.945	96.25
234.179	92.25
234.413	92.25
234.647	98.25
234.881	107.25
235.115	77.25
235.349	116.25
235.583	113.25
235.817	112.25
236.051	106.25
236.285	108.25
236.519	109.25
236.753	83.25
236.987	108.25
237.221	133.25
237.455	161.25
237.689	118.25
237.922	108.25
238.156	105.25
238.39	97.25
238.624	98.25
238.858	103.25
239.091	107.25
239.325	98.25
239.559	88.25
239.793	107.25
240.027	125.25
240.26	102.25
240.494	117.25
240.728	113.25
240.961	107.25
241.195	123.25
241.429	92.25
241.662	104.25
241.896	89.25
242.13	105.25
242.363	93.25
242.597	108.25
242.83	113.25
243.064	98.25
243.298	96.25
243.531	110.25
243.765	122.25
243.998	97.25
244.232	99.25
244.465	107.25
244.699	113.25
244.932	108.25
245.166	108.25
245.399	113.25
245.633	110.25
245.866	101.25
246.099	104.25
246.333	103.25
246.566	119.25
246.8	125.25
247.033	106.25
247.266	121.25
247.5	126.25
247.733	121.25
247.966	131.25
248.2	137.25
248.433	117.25
248.666	120.25
248.899	121.25
249.133	115.25
249.366	137.25
249.599	137.25
249.832	126.25
250.066	127.25
250.299	123.25
250.532	127.25
250.765	144.25
250.998	151.25
251.231	159.25
251.465	128.25
251.698	118.25
251.931	139.25
252.164	142.25
252.397	136.25
252.63	140.25
252.863	143.25
253.096	134.25
253.329	148.25
253.562	153.25
253.795	140.25
254.028	161.25
254.261	146.25
254.494	152.25
254.727	162.25
254.96	179.25
255.193	167.25
255.426	160.25
255.659	153.25
255.892	157.25
256.124	154.25
256.357	159.25
256.59	148.25
256.823	137.25
257.056	129.25
257.289	154.25
257.521	129.25
257.754	145.25
257.987	128.25
258.22	141.25
258.452	147.25
258.685	144.25
258.918	133.25
259.151	140.25
259.383	143.25
259.616	145.25
259.849	143.25
260.081	157.25
260.314	169.25
260.547	158.25
260.779	155.25
261.012	150.25
261.244	146.25
261.477	153.25
261.71	147.25
261.942	147.25
262.175	161.25
262.407	158.25
262.64	147.25
262.872	152.25
263.105	142.25
263.337	147.25
263.57	138.25
263.802	138.25
264.035	150.25
264.267	153.25
264.499	136.25
264.732	128.25
264.964	140.25
265.197	143.25
265.429	134.25
265.661	150.25
265.894	139.25
266.126	147.25
266.358	151.25
266.591	147.25
266.823	142.25
267.055	139.25
267.287	145.25
267.52	154.25
267.752	157.25
267.984	136.25
268.216	141.25
268.448	154.25
268.681	159.25
268.913	158.25
269.145	155.25
269.377	176.25
269.609	187.25
269.841	171.25
270.073	197.25
270.306	183.25
270.538	182.25
270.77	197.25
271.002	176.25
271.234	183.25
271.466	188.25
271.698	195.25
271.93	200.25
272.162	178.25
272.394	186.25
272.626	193.25
272.858	176.25
273.09	172.25
273.322	152.25
273.553	161.25
273.785	168.25
274.017	160.25
274.249	169.25
274.481	163.25
274.713	167.25
274.945	178.25
275.176	161.25
275.408	170.25
275.64	163.25
275.872	163.25
276.104	168.25
276.335	170.25
276.567	171.25
276.799	186.25
277.031	197.25
277.262	218.25
277.494	216.25
277.726	186.25
277.957	197.25
278.189	185.25
278.421	169.25
278.652	170.25
278.884	167.25
279.115	156.25
279.347	153.25
279.579	175.25
279.81	176.25
280.042	156.25
280.273	175.25
280.505	167.25
280.736	158.25
280.968	167.25
281.199	162.25
281.431	163.25
281.662	157.25
281.894	158.25
282.125	163.25
282.356	193.25
282.588	189.25
282.819	185.25
283.051	185.25
283.282	171.25
283.513	169.25
283.745	161.25
283.976	160.25
284.207	176.25
284.439	170.25
284.67	166.25
284.901	169.25
285.132	167.25
285.364	157.25
285.595	166.25
285.826	159.25
286.057	174.25
286.288	158.25
286.52	168.25
286.751	169.25
286.982	172.25
287.213	181.25
287.444	178.25
287.675	176.25
287.906	199.25
288.138	187.25
288.369	181.25
288.6	187.25
288.831	173.25
289.062	191.25
289.293	164.25
289.524	174.25
289.755	179.25
289.986	176.25
290.217	171.25
290.448	173.25
290.679	169.25
290.91	185.25
291.141	165.25
291.371	195.25
291.602	171.25
291.833	171.25
292.064	180.25
292.295	181.25
292.526	175.25
292.757	183.25
292.987	194.25
293.218	184.25
293.449	185.25
293.68	175.25
293.91	166.25
294.141	191.25
294.372	169.25
294.603	172.25
294.833	177.25
295.064	165.25
295.295	174.25
295.525	182.25
295.756	177.25
295.987	195.25
296.217	200.25
296.448	199.25
296.679	206.25
296.909	176.25
297.14	177.25
297.37	167.25
297.601	182.25
297.831	168.25
298.062	163.25
298.292	198.25
298.523	181.25
298.753	175.25
298.984	185.25
299.214	177.25
299.445	190.25
299.675	199.25
299.905	194.25
300.136	185.25
300.366	173.25
300.597	183.25
300.827	193.25
301.057	201.25
301.288	212.25
301.518	191.25
301.748	189.25
301.979	201.25
302.209	193.25
302.439	193.25
302.669	177.25
302.9	189.25
303.13	187.25
303.36	201.25
303.59	201.25
303.82	199.25
304.051	200.25
304.281	198.25
304.511	199.25
304.741	191.25
304.971	200.25
305.201	177.25
305.431	189.25
305.661	181.25
305.891	181.25
306.121	198.25
306.352	194.25
306.582	199.25
306.812	206.25
307.042	192.25
307.272	193.25
307.502	195.25
307.731	197.25
307.961	201.25
308.191	198.25
308.421	199.25
308.651	194.25
308.881	195.25
309.111	188.25
309.341	194.25
309.571	202.25
309.8	216.25
310.03	207.25
310.26	227.25
310.49	223.25
310.72	237.25
310.949	222.25
311.179	253.25
311.409	226.25
311.639	218.25
311.868	229.25
312.098	226.25
312.328	209.25
312.557	229.25
312.787	227.25
313.017	239.25
313.246	237.25
313.476	210.25
313.706	209.25
313.935	220.25
314.165	243.25
314.394	224.25
314.624	229.25
314.853	227.25
315.083	225.25
315.312	222.25
315.542	228.25
315.771	228.25
316.001	198.25
316.23	200.25
316.46	226.25
316.689	222.25
316.919	216.25
317.148	217.25
317.377	219.25
317.607	217.25
317.836	214.25
318.065	201.25
318.295	217.25
318.524	227.25
318.753	216.25
318.983	242.25
319.212	212.25
319.441	226.25
319.67	226.25
319.9	233.25
320.129	212.25
320.358	220.25
320.587	221.25
320.816	215.25
321.046	229.25
321.275	221.25
321.504	223.25
321.733	224.25
321.962	214.25
322.191	234.25
322.42	255.25
322.649	241.25
322.878	243.25
323.108	251.25
323.337	274.25
323.566	296.25
323.795	299.25
324.024	324.25
324.253	390.25
324.482	567.25
324.71	814.25
324.939	1094.25
325.168	910.25
325.397	480.25
325.626	330.25
325.855	286.25
326.084	280.25
326.313	247.25
326.542	271.25
326.77	293.25
326.999	374.25
327.228	497.25
327.457	737.25
327.686	814.25
327.914	539.25
328.143	373.25
328.372	346.25
328.6	323.25
328.829	318.25
329.058	325.25
329.287	329.25
329.515	319.25
329.744	303.25
329.972	280.25
330.201	309.25
330.43	333.25
330.658	334.25
330.887	368.25
331.115	346.25
331.344	315.25
331.572	281.25
331.801	282.25
332.03	276.25
332.258	263.25
332.486	262.25
332.715	265.25
332.943	248.25
333.172	262.25
333.4	266.25
333.629	282.25
333.857	266.25
334.085	273.25
334.314	296.25
334.542	331.25
334.771	331.25
334.999	302.25
335.227	273.25
335.455	240.25
335.684	285.25
335.912	236.25
336.14	258.25
336.369	255.25
336.597	232.25
336.825	237.25
337.053	237.25
337.281	248.25
337.51	253.25
337.738	249.25
337.966	241.25
338.194	252.25
338.422	251.25
338.65	252.25
338.878	241.25
339.106	239.25
339.334	232.25
339.562	233.25
339.79	235.25
340.018	224.25
340.246	226.25
340.474	249.25
340.702	245.25
340.93	231.25
341.158	219.25
341.386	235.25
341.614	250.25
341.842	239.25
342.07	242.25
342.298	239.25
342.526	220.25
342.754	224.25
342.981	232.25
343.209	240.25
343.437	227.25
343.665	240.25
343.893	237.25
344.12	246.25
344.348	237.25
344.576	242.25
344.804	260.25
345.031	245.25
345.259	254.25
345.487	242.25
345.714	239.25
345.942	240.25
346.17	233.25
346.397	224.25
346.625	231.25
346.853	231.25
347.08	224.25
347.308	243.25
347.535	227.25
347.763	251.25
347.99	249.25
348.218	249.25
348.445	248.25
348.673	261.25
348.9	236.25
349.128	217.25
349.355	214.25
349.583	232.25
349.81	221.25
350.037	240.25
350.265	223.25
350.492	214.25
350.72	225.25
350.947	212.25
351.174	237.25
351.402	234.25
351.629	233.25
351.856	250.25
352.083	245.25
352.311	231.25
352.538	241.25
352.765	245.25
352.992	247.25
353.22	234.25
353.447	227.25
353.674	224.25
353.901	204.25
354.128	197.25
354.355	211.25
354.583	224.25
354.81	218.25
355.037	230.25
355.264	221.25
355.491	203.25
355.718	211.25
355.945	221.25
356.172	227.25
356.399	202.25
356.626	214.25
356.853	222.25
357.08	222.25
357.307	212.25
357.534	217.25
357.761	223.25
357.988	229.25
358.215	219.25
358.441	214.25
358.668	215.25
358.895	215.25
359.122	211.25
359.349	210.25
359.576	233.25
359.802	247.25
360.029	266.25
360.256	298.25
360.483	238.25
360.709	227.25
360.936	239.25
361.163	232.25
361.39	232.25
361.616	233.25
361.843	224.25
362.07	248.25
362.296	238.25
362.523	225.25
362.749	231.25
362.976	224.25
363.203	238.25
363.429	223.25
363.656	226.25
363.882	223.25
364.109	233.25
364.335	221.25
364.562	204.25
364.788	223.25
365.015	232.25
365.241	210.25
365.468	229.25
365.694	225.25
365.92	217.25
366.147	218.25
366.373	218.25
366.599	215.25
366.826	218.25
367.052	214.25
367.278	212.25
367.505	225.25
367.731	222.25
367.957	221.25
368.184	229.25
368.41	223.25
368.636	234.25
368.862	216.25
369.089	217.25
369.315	230.25
369.541	221.25
369.767	202.25
369.993	217.25
370.219	220.25
370.445	208.25
370.672	201.25
370.898	214.25
371.124	215.25
371.35	220.25
371.576	231.25
371.802	212.25
372.028	216.25
372.254	220.25
372.48	216.25
372.706	216.25
372.932	191.25
373.158	221.25
373.384	235.25
373.61	204.25
373.835	209.25
374.061	205.25
374.287	224.25
374.513	232.25
374.739	217.25
374.965	217.25
375.191	216.25
375.416	212.25
375.642	209.25
375.868	187.25
376.094	216.25
376.319	216.25
376.545	206.25
376.771	216.25
376.997	220.25
377.222	216.25
377.448	215.25
377.674	215.25
377.899	235.25
378.125	228.25
378.35	208.25
378.576	210.25
378.802	202.25
379.027	213.25
379.253	223.25
379.478	223.25
379.704	204.25
379.929	217.25
380.155	216.25
380.38	209.25
380.606	216.25
380.831	211.25
381.057	218.25
381.282	209.25
381.507	215.25
381.733	225.25
381.958	221.25
382.184	223.25
382.409	220.25
382.634	211.25
382.86	222.25
383.085	230.25
383.31	243.25
383.535	231.25
383.761	218.25
383.986	218.25
384.211	230.25
384.436	226.25
384.662	219.25
384.887	219.25
385.112	229.25
385.337	217.25
385.562	232.25
385.787	229.25
386.013	251.25
386.238	250.25
386.463	237.25
386.688	226.25
386.913	224.25
387.138	220.25
387.363	224.25
387.588	231.25
387.813	241.25
388.038	232.25
388.263	214.25
388.488	232.25
388.713	226.25
388.938	237.25
389.163	246.25
389.387	233.25
389.612	227.25
389.837	239.25
390.062	233.25
390.287	225.25
390.512	233.25
390.736	235.25
390.961	227.25
391.186	229.25
391.411	219.25
391.636	237.25
391.86	236.25
392.085	233.25
392.31	237.25
392.534	214.25
392.759	230.25
392.984	220.25
393.208	245.25
393.433	249.25
393.658	248.25
393.882	250.25
394.107	231.25
394.331	228.25
394.556	210.25
394.78	226.25
395.005	245.25
395.229	229.25
395.454	242.25
395.678	240.25
395.903	241.25
396.127	257.25
396.352	261.25
396.576	248.25
396.801	236.25
397.025	242.25
397.249	240.25
397.474	248.25
397.698	239.25
397.922	252.25
398.147	263.25
398.371	251.25
398.595	262.25
398.82	265.25
399.044	249.25
399.268	279.25
399.492	290.25
399.717	293.25
399.941	295.25
400.165	313.25
400.389	322.25
400.613	293.25
400.837	272.25
401.062	274.25
401.286	255.25
401.51	268.25
401.734	265.25
401.958	269.25
402.182	258.25
402.406	287.25
402.63	272.25
402.854	265.25
403.078	283.25
403.302	279.25
403.526	254.25
403.75	290.25
403.974	263.25
404.198	263.25
404.422	280.25
404.645	281.25
404.869	278.25
405.093	303.25
405.317	308.25
405.541	325.25
405.765	308.25
405.988	273.25
406.212	274.25
406.436	298.25
406.66	307.25
406.883	295.25
407.107	285.25
407.331	317.25
407.555	331.25
407.778	341.25
408.002	304.25
408.226	302.25
408.449	284.25
408.673	291.25
408.896	308.25
409.12	316.25
409.344	309.25
409.567	303.25
409.791	273.25
410.014	272.25
410.238	283.25
410.461	275.25
410.685	272.25
410.908	272.25
411.132	295.25
411.355	311.25
411.578	288.25
411.802	265.25
412.025	281.25
412.249	276.25
412.472	302.25
412.695	295.25
412.919	286.25
413.142	267.25
413.365	283.25
413.589	259.25
413.812	242.25
414.035	250.25
414.258	249.25
414.482	259.25
414.705	245.25
414.928	269.25
415.151	279.25
415.374	251.25
415.597	247.25
415.821	242.25
416.044	251.25
416.267	265.25
416.49	278.25
416.713	272.25
416.936	247.25
417.159	250.25
417.382	261.25
417.605	269.25
417.828	284.25
418.051	279.25
418.274	270.25
418.497	274.25
418.72	262.25
418.943	272.25
419.166	267.25
419.389	260.25
419.611	265.25
419.834	270.25
420.057	268.25
420.28	275.25
420.503	271.25
420.726	265.25
420.948	282.25
421.171	275.25
421.394	294.25
421.617	288.25
421.839	283.25
422.062	289.25
422.285	284.25
422.507	319.25
422.73	337.25
422.953	311.25
423.175	287.25
423.398	280.25
423.621	295.25
423.843	258.25
424.066	290.25
424.288	288.25
424.511	287.25
424.733	331.25
424.956	350.25
425.178	340.25
425.401	339.25
425.623	336.25
425.846	292.25
426.068	288.25
426.291	281.25
426.513	290.25
426.735	287.25
426.958	317.25
427.18	353.25
427.402	416.25
427.625	438.25
427.847	404.25
428.069	339.25
428.292	301.25
428.514	285.25
428.736	266.25
428.958	269.25
429.181	270.25
429.403	266.25
429.625	273.25
429.847	282.25
430.069	313.25
430.292	323.25
430.514	257.25
430.736	262.25
430.958	273.25
431.18	241.25
431.402	251.25
431.624	256.25
431.846	248.25
432.068	250.25
432.29	271.25
432.512	253.25
432.734	261.25
432.956	267.25
433.178	259.25
433.4	253.25
433.622	255.25
433.844	259.25
434.066	263.25
434.287	266.25
434.509	270.25
434.731	258.25
434.953	280.25
435.175	267.25
435.397	293.25
435.618	285.25
435.84	306.25
436.062	360.25
436.284	385.25
436.505	305.25
436.727	284.25
436.949	269.25
437.17	264.25
437.392	272.25
437.614	291.25
437.835	279.25
438.057	333.25
438.278	379.25
438.5	379.25
438.721	393.25
438.943	360.25
439.165	293.25
439.386	292.25
439.608	299.25
439.829	289.25
440.05	330.25
440.272	323.25
440.493	313.25
440.715	272.25
440.936	269.25
441.158	267.25
441.379	273.25
441.6	276.25
441.822	269.25
442.043	324.25
442.264	349.25
442.486	359.25
442.707	325.25
442.928	295.25
443.149	297.25
443.371	323.25
443.592	327.25
443.813	340.25
444.034	372.25
444.255	331.25
444.476	293.25
444.698	289.25
444.919	284.25
445.14	383.25
445.361	359.25
445.582	306.25
445.803	340.25
446.024	389.25
446.245	369.25
446.466	336.25
446.687	319.25
446.908	285.25
447.129	282.25
447.35	271.25
447.571	274.25
447.792	275.25
448.013	250.25
448.234	267.25
448.455	315.25
448.675	360.25
448.896	407.25
449.117	338.25
449.338	326.25
449.559	379.25
449.779	411.25
450	340.25
450.221	283.25
450.442	273.25
450.662	278.25
450.883	269.25
451.104	286.25
451.324	283.25
451.545	264.25
451.766	227.25
451.986	239.25
452.207	237.25
452.428	264.25
452.648	255.25
452.869	250.25
453.089	266.25
453.31	266.25
453.53	266.25
453.751	238.25
453.971	253.25
454.192	260.25
454.412	249.25
454.633	252.25
454.853	257.25
455.073	234.25
455.294	245.25
455.514	285.25
455.734	279.25
455.955	242.25
456.175	242.25
456.395	230.25
456.616	211.25
456.836	247.25
457.056	235.25
457.276	220.25
457.497	224.25
457.717	226.25
457.937	230.25
458.157	245.25
458.377	228.25
458.598	261.25
458.818	282.25
459.038	349.25
459.258	322.25
459.478	274.25
459.698	256.25
459.918	257.25
460.138	258.25
460.358	250.25
460.578	249.25
460.798	257.25
461.018	258.25
461.238	258.25
461.458	254.25
461.678	241.25
461.898	251.25
462.118	255.25
462.338	250.25
462.558	265.25
462.777	275.25
462.997	285.25
463.217	282.25
463.437	251.25
463.657	269.25
463.876	293.25
464.096	265.25
464.316	252.25
464.536	291.25
464.755	266.25
464.975	279.25
465.195	307.25
465.414	358.25
465.634	313.25
465.854	265.25
466.073	265.25
466.293	249.25
466.512	275.25
466.732	252.25
466.951	239.25
467.171	226.25
467.391	262.25
467.61	259.25
467.829	271.25
468.049	280.25
468.268	283.25
468.488	259.25
468.707	243.25
468.927	255.25
469.146	237.25
469.365	241.25
469.585	234.25
469.804	257.25
470.023	259.25
470.243	252.25
470.462	254.25
470.681	283.25
470.901	263.25
471.12	249.25
471.339	281.25
471.558	266.25
471.777	255.25
471.997	237.25
472.216	277.25
472.435	294.25
472.654	283.25
472.873	253.25
473.092	269.25
473.311	238.25
473.53	243.25
473.749	263.25
473.968	283.25
474.187	322.25
474.406	330.25
474.625	251.25
474.844	275.25
475.063	253.25
475.282	263.25
475.501	267.25
475.72	251.25
475.939	261.25
476.158	261.25
476.377	235.25
476.596	264.25
476.814	265.25
477.033	257.25
477.252	266.25
477.471	275.25
477.69	267.25
477.908	266.25
478.127	279.25
478.346	258.25
478.564	270.25
478.783	271.25
479.002	285.25
479.22	287.25
479.439	301.25
479.658	313.25
479.876	284.25
480.095	309.25
480.313	317.25
480.532	301.25
480.751	304.25
480.969	316.25
481.188	381.25
481.406	421.25
481.624	341.25
481.843	300.25
482.061	296.25
482.28	274.25
482.498	291.25
482.717	289.25
482.935	296.25
483.153	289.25
483.372	302.25
483.59	298.25
483.808	282.25
484.027	292.25
484.245	288.25
484.463	300.25
484.681	302.25
484.9	303.25
485.118	277.25
485.336	290.25
485.554	283.25
485.772	291.25
485.99	300.25
486.209	303.25
486.427	287.25
486.645	300.25
486.863	332.25
487.081	311.25
487.299	335.25
487.517	300.25
487.735	311.25
487.953	318.25
488.171	321.25
488.389	301.25
488.607	301.25
488.825	298.25
489.043	313.25
489.261	307.25
489.479	313.25
489.696	310.25
489.914	315.25
490.132	311.25
490.35	322.25
490.568	320.25
490.786	330.25
491.003	340.25
491.221	343.25
491.439	355.25
491.657	360.25
491.874	360.25
492.092	369.25
492.31	373.25
492.527	379.25
492.745	367.25
492.963	359.25
493.18	379.25
493.398	376.25
493.615	368.25
493.833	377.25
494.05	375.25
494.268	382.25
494.485	346.25
494.703	377.25
494.92	369.25
495.138	370.25
495.355	354.25
495.573	399.25
495.79	365.25
496.008	363.25
496.225	345.25
496.442	359.25
496.66	357.25
496.877	351.25
497.094	356.25
497.312	348.25
497.529	362.25
497.746	363.25
497.963	359.25
498.181	388.25
498.398	383.25
498.615	399.25
498.832	400.25
499.049	395.25
499.267	403.25
499.484	416.25
499.701	424.25
499.918	438.25
500.135	458.25
500.352	465.25
500.569	480.25
500.786	488.25
501.003	468.25
501.22	464.25
501.437	461.25
501.654	460.25
501.871	455.25
502.088	412.25
502.305	387.25
502.522	370.25
