Data from 1966.PennyLincolnUp.Lamp.En5.5.200Scan.071719.P1._HRD10591_14-13-10-913.txt Node
Date: Thu Jul 18 14:13:10 EDT 2019
User: cochatt
Spectrometer: HR+D1059
Trigger mode: 1
Integration Time (sec): 1.000000E-1
Scans to average: 1
Electric dark correction enabled: true
Nonlinearity correction enabled: false
Boxcar width: 0
XAxis mode: Wavelengths
Number of Pixels in Spectrum: 2048
>>>>>Begin Spectral Data<<<<<
223.165	-20.81
223.4	-20.81
223.635	-20.81
223.869	-10.81
224.104	-15.81
224.338	-25.81
224.573	-16.81
224.808	-5.81
225.042	-12.81
225.277	4.19
225.511	-8.81
225.746	0.19
225.98	11.19
226.215	16.19
226.449	15.19
226.683	18.19
226.918	25.19
227.152	27.19
227.387	31.19
227.621	33.19
227.856	49.19
228.09	53.19
228.324	57.19
228.559	49.19
228.793	60.19
229.027	72.19
229.262	82.19
229.496	93.19
229.73	101.19
229.964	101.19
230.199	100.19
230.433	92.19
230.667	97.19
230.901	94.19
231.136	92.19
231.37	87.19
231.604	83.19
231.838	88.19
232.072	84.19
232.306	104.19
232.541	85.19
232.775	84.19
233.009	91.19
233.243	91.19
233.477	91.19
233.711	91.19
233.945	95.19
234.179	96.19
234.413	89.19
234.647	89.19
234.881	103.19
235.115	93.19
235.349	106.19
235.583	96.19
235.817	88.19
236.051	97.19
236.285	90.19
236.519	100.19
236.753	107.19
236.987	106.19
237.221	115.19
237.455	129.19
237.689	117.19
237.922	81.19
238.156	89.19
238.39	91.19
238.624	105.19
238.858	98.19
239.091	91.19
239.325	95.19
239.559	88.19
239.793	95.19
240.027	102.19
240.26	105.19
240.494	122.19
240.728	97.19
240.961	104.19
241.195	108.19
241.429	98.19
241.662	94.19
241.896	102.19
242.13	103.19
242.363	100.19
242.597	108.19
242.83	109.19
243.064	102.19
243.298	105.19
243.531	92.19
243.765	103.19
243.998	96.19
244.232	116.19
244.465	110.19
244.699	110.19
244.932	107.19
245.166	98.19
245.399	105.19
245.633	110.19
245.866	134.19
246.099	93.19
246.333	106.19
246.566	110.19
246.8	109.19
247.033	92.19
247.266	106.19
247.5	116.19
247.733	97.19
247.966	127.19
248.2	108.19
248.433	115.19
248.666	120.19
248.899	120.19
249.133	130.19
249.366	129.19
249.599	116.19
249.832	121.19
250.066	127.19
250.299	134.19
250.532	123.19
250.765	147.19
250.998	146.19
251.231	142.19
251.465	126.19
251.698	125.19
251.931	107.19
252.164	122.19
252.397	116.19
252.63	123.19
252.863	138.19
253.096	128.19
253.329	150.19
253.562	129.19
253.795	142.19
254.028	135.19
254.261	131.19
254.494	139.19
254.727	154.19
254.96	182.19
255.193	152.19
255.426	134.19
255.659	144.19
255.892	147.19
256.124	143.19
256.357	144.19
256.59	127.19
256.823	134.19
257.056	124.19
257.289	120.19
257.521	142.19
257.754	146.19
257.987	131.19
258.22	134.19
258.452	138.19
258.685	128.19
258.918	129.19
259.151	127.19
259.383	131.19
259.616	134.19
259.849	144.19
260.081	137.19
260.314	162.19
260.547	152.19
260.779	158.19
261.012	125.19
261.244	127.19
261.477	140.19
261.71	133.19
261.942	144.19
262.175	139.19
262.407	146.19
262.64	110.19
262.872	139.19
263.105	135.19
263.337	133.19
263.57	136.19
263.802	127.19
264.035	137.19
264.267	132.19
264.499	126.19
264.732	141.19
264.964	130.19
265.197	139.19
265.429	123.19
265.661	137.19
265.894	129.19
266.126	122.19
266.358	123.19
266.591	143.19
266.823	125.19
267.055	135.19
267.287	120.19
267.52	127.19
267.752	141.19
267.984	119.19
268.216	132.19
268.448	147.19
268.681	137.19
268.913	124.19
269.145	163.19
269.377	153.19
269.609	156.19
269.841	157.19
270.073	152.19
270.306	185.19
270.538	179.19
270.77	177.19
271.002	165.19
271.234	157.19
271.466	168.19
271.698	181.19
271.93	181.19
272.162	192.19
272.394	173.19
272.626	158.19
272.858	158.19
273.09	163.19
273.322	160.19
273.553	149.19
273.785	153.19
274.017	156.19
274.249	153.19
274.481	135.19
274.713	149.19
274.945	155.19
275.176	161.19
275.408	143.19
275.64	151.19
275.872	146.19
276.104	155.19
276.335	154.19
276.567	163.19
276.799	155.19
277.031	180.19
277.262	179.19
277.494	176.19
277.726	169.19
277.957	160.19
278.189	153.19
278.421	165.19
278.652	167.19
278.884	149.19
279.115	147.19
279.347	138.19
279.579	148.19
279.81	151.19
280.042	141.19
280.273	158.19
280.505	166.19
280.736	152.19
280.968	152.19
281.199	182.19
281.431	150.19
281.662	141.19
281.894	146.19
282.125	152.19
282.356	153.19
282.588	160.19
282.819	183.19
283.051	182.19
283.282	150.19
283.513	163.19
283.745	152.19
283.976	162.19
284.207	153.19
284.439	157.19
284.67	167.19
284.901	171.19
285.132	157.19
285.364	149.19
285.595	157.19
285.826	156.19
286.057	161.19
286.288	159.19
286.52	164.19
286.751	156.19
286.982	153.19
287.213	159.19
287.444	156.19
287.675	163.19
287.906	176.19
288.138	168.19
288.369	167.19
288.6	176.19
288.831	167.19
289.062	161.19
289.293	163.19
289.524	168.19
289.755	159.19
289.986	159.19
290.217	167.19
290.448	159.19
290.679	159.19
290.91	163.19
291.141	153.19
291.371	157.19
291.602	159.19
291.833	169.19
292.064	169.19
292.295	165.19
292.526	169.19
292.757	171.19
292.987	165.19
293.218	174.19
293.449	159.19
293.68	171.19
293.91	161.19
294.141	153.19
294.372	148.19
294.603	163.19
294.833	183.19
295.064	166.19
295.295	156.19
295.525	169.19
295.756	159.19
295.987	174.19
296.217	181.19
296.448	196.19
296.679	173.19
296.909	175.19
297.14	168.19
297.37	154.19
297.601	167.19
297.831	176.19
298.062	172.19
298.292	175.19
298.523	173.19
298.753	169.19
298.984	166.19
299.214	167.19
299.445	163.19
299.675	172.19
299.905	175.19
300.136	181.19
300.366	156.19
300.597	165.19
300.827	179.19
301.057	181.19
301.288	191.19
301.518	188.19
301.748	185.19
301.979	176.19
302.209	188.19
302.439	183.19
302.669	169.19
302.9	172.19
303.13	169.19
303.36	192.19
303.59	188.19
303.82	176.19
304.051	179.19
304.281	180.19
304.511	156.19
304.741	187.19
304.971	192.19
305.201	169.19
305.431	181.19
305.661	185.19
305.891	173.19
306.121	164.19
306.352	178.19
306.582	188.19
306.812	190.19
307.042	189.19
307.272	167.19
307.502	174.19
307.731	193.19
307.961	170.19
308.191	185.19
308.421	165.19
308.651	187.19
308.881	177.19
309.111	181.19
309.341	189.19
309.571	191.19
309.8	182.19
310.03	198.19
310.26	182.19
310.49	197.19
310.72	212.19
310.949	211.19
311.179	201.19
311.409	199.19
311.639	199.19
311.868	212.19
312.098	205.19
312.328	198.19
312.557	204.19
312.787	220.19
313.017	226.19
313.246	209.19
313.476	186.19
313.706	196.19
313.935	201.19
314.165	216.19
314.394	201.19
314.624	190.19
314.853	205.19
315.083	198.19
315.312	184.19
315.542	198.19
315.771	193.19
316.001	184.19
316.23	188.19
316.46	191.19
316.689	190.19
316.919	211.19
317.148	201.19
317.377	204.19
317.607	202.19
317.836	196.19
318.065	193.19
318.295	193.19
318.524	203.19
318.753	181.19
318.983	201.19
319.212	196.19
319.441	219.19
319.67	206.19
319.9	175.19
320.129	185.19
320.358	198.19
320.587	198.19
320.816	198.19
321.046	197.19
321.275	199.19
321.504	209.19
321.733	184.19
321.962	203.19
322.191	204.19
322.42	223.19
322.649	227.19
322.878	217.19
323.108	244.19
323.337	234.19
323.566	250.19
323.795	258.19
324.024	283.19
324.253	341.19
324.482	475.19
324.71	688.19
324.939	939.19
325.168	773.19
325.397	399.19
325.626	267.19
325.855	246.19
326.084	235.19
326.313	245.19
326.542	256.19
326.77	280.19
326.999	325.19
327.228	403.19
327.457	613.19
327.686	693.19
327.914	462.19
328.143	317.19
328.372	295.19
328.6	296.19
328.829	256.19
329.058	282.19
329.287	308.19
329.515	269.19
329.744	283.19
329.972	261.19
330.201	272.19
330.43	301.19
330.658	304.19
330.887	315.19
331.115	302.19
331.344	259.19
331.572	243.19
331.801	251.19
332.03	246.19
332.258	219.19
332.486	214.19
332.715	232.19
332.943	232.19
333.172	222.19
333.4	224.19
333.629	263.19
333.857	257.19
334.085	247.19
334.314	242.19
334.542	272.19
334.771	301.19
334.999	263.19
335.227	235.19
335.455	222.19
335.684	224.19
335.912	220.19
336.14	214.19
336.369	223.19
336.597	219.19
336.825	224.19
337.053	234.19
337.281	218.19
337.51	216.19
337.738	214.19
337.966	214.19
338.194	211.19
338.422	205.19
338.65	230.19
338.878	217.19
339.106	230.19
339.334	228.19
339.562	216.19
339.79	206.19
340.018	204.19
340.246	203.19
340.474	237.19
340.702	221.19
340.93	215.19
341.158	223.19
341.386	187.19
341.614	211.19
341.842	208.19
342.07	232.19
342.298	217.19
342.526	197.19
342.754	195.19
342.981	214.19
343.209	209.19
343.437	214.19
343.665	220.19
343.893	211.19
344.12	219.19
344.348	223.19
344.576	221.19
344.804	213.19
345.031	230.19
345.259	214.19
345.487	217.19
345.714	202.19
345.942	213.19
346.17	210.19
346.397	203.19
346.625	195.19
346.853	201.19
347.08	207.19
347.308	201.19
347.535	196.19
347.763	221.19
347.99	200.19
348.218	232.19
348.445	230.19
348.673	219.19
348.9	203.19
349.128	197.19
349.355	210.19
349.583	191.19
349.81	188.19
350.037	208.19
350.265	211.19
350.492	203.19
350.72	205.19
350.947	204.19
351.174	211.19
351.402	224.19
351.629	220.19
351.856	208.19
352.083	211.19
352.311	232.19
352.538	219.19
352.765	213.19
352.992	213.19
353.22	206.19
353.447	204.19
353.674	201.19
353.901	202.19
354.128	201.19
354.355	185.19
354.583	184.19
354.81	200.19
355.037	204.19
355.264	203.19
355.491	190.19
355.718	193.19
355.945	202.19
356.172	210.19
356.399	189.19
356.626	187.19
356.853	190.19
357.08	187.19
357.307	204.19
357.534	192.19
357.761	201.19
357.988	205.19
358.215	218.19
358.441	203.19
358.668	199.19
358.895	191.19
359.122	201.19
359.349	202.19
359.576	199.19
359.802	222.19
360.029	251.19
360.256	243.19
360.483	221.19
360.709	207.19
360.936	213.19
361.163	204.19
361.39	209.19
361.616	223.19
361.843	201.19
362.07	212.19
362.296	219.19
362.523	208.19
362.749	205.19
362.976	207.19
363.203	203.19
363.429	201.19
363.656	208.19
363.882	188.19
364.109	212.19
364.335	213.19
364.562	196.19
364.788	191.19
365.015	202.19
365.241	212.19
365.468	202.19
365.694	220.19
365.92	207.19
366.147	212.19
366.373	189.19
366.599	192.19
366.826	195.19
367.052	193.19
367.278	205.19
367.505	201.19
367.731	195.19
367.957	190.19
368.184	202.19
368.41	216.19
368.636	220.19
368.862	189.19
369.089	206.19
369.315	196.19
369.541	187.19
369.767	195.19
369.993	206.19
370.219	200.19
370.445	205.19
370.672	183.19
370.898	211.19
371.124	205.19
371.35	201.19
371.576	203.19
371.802	188.19
372.028	190.19
372.254	203.19
372.48	216.19
372.706	195.19
372.932	197.19
373.158	205.19
373.384	188.19
373.61	222.19
373.835	207.19
374.061	190.19
374.287	192.19
374.513	202.19
374.739	214.19
374.965	197.19
375.191	215.19
375.416	217.19
375.642	201.19
375.868	202.19
376.094	192.19
376.319	184.19
376.545	201.19
376.771	189.19
376.997	216.19
377.222	195.19
377.448	206.19
377.674	208.19
377.899	200.19
378.125	196.19
378.35	201.19
378.576	197.19
378.802	200.19
379.027	214.19
379.253	195.19
379.478	187.19
379.704	193.19
379.929	197.19
380.155	193.19
380.38	198.19
380.606	197.19
380.831	185.19
381.057	201.19
381.282	197.19
381.507	194.19
381.733	209.19
381.958	195.19
382.184	200.19
382.409	181.19
382.634	198.19
382.86	206.19
383.085	199.19
383.31	191.19
383.535	212.19
383.761	221.19
383.986	207.19
384.211	211.19
384.436	204.19
384.662	205.19
384.887	212.19
385.112	213.19
385.337	199.19
385.562	197.19
385.787	198.19
386.013	215.19
386.238	227.19
386.463	198.19
386.688	190.19
386.913	209.19
387.138	214.19
387.363	214.19
387.588	214.19
387.813	234.19
388.038	220.19
388.263	217.19
388.488	216.19
388.713	224.19
388.938	215.19
389.163	213.19
389.387	199.19
389.612	225.19
389.837	215.19
390.062	220.19
390.287	205.19
390.512	218.19
390.736	205.19
390.961	213.19
391.186	207.19
391.411	219.19
391.636	204.19
391.86	217.19
392.085	223.19
392.31	221.19
392.534	231.19
392.759	216.19
392.984	212.19
393.208	217.19
393.433	222.19
393.658	234.19
393.882	214.19
394.107	217.19
394.331	217.19
394.556	216.19
394.78	205.19
395.005	214.19
395.229	209.19
395.454	203.19
395.678	228.19
395.903	219.19
396.127	226.19
396.352	212.19
396.576	215.19
396.801	225.19
397.025	224.19
397.249	222.19
397.474	241.19
397.698	207.19
397.922	229.19
398.147	238.19
398.371	229.19
398.595	227.19
398.82	244.19
399.044	239.19
399.268	250.19
399.492	264.19
399.717	264.19
399.941	274.19
400.165	269.19
400.389	285.19
400.613	271.19
400.837	248.19
401.062	230.19
401.286	232.19
401.51	233.19
401.734	222.19
401.958	216.19
402.182	252.19
402.406	244.19
402.63	235.19
402.854	246.19
403.078	228.19
403.302	224.19
403.526	245.19
403.75	245.19
403.974	236.19
404.198	228.19
404.422	241.19
404.645	257.19
404.869	268.19
405.093	245.19
405.317	277.19
405.541	279.19
405.765	273.19
405.988	259.19
406.212	270.19
406.436	288.19
406.66	273.19
406.883	279.19
407.107	280.19
407.331	279.19
407.555	308.19
407.778	305.19
408.002	287.19
408.226	285.19
408.449	265.19
408.673	273.19
408.896	294.19
409.12	284.19
409.344	277.19
409.567	245.19
409.791	239.19
410.014	240.19
410.238	251.19
410.461	230.19
410.685	230.19
410.908	237.19
411.132	260.19
411.355	287.19
411.578	289.19
411.802	255.19
412.025	222.19
412.249	246.19
412.472	261.19
412.695	265.19
412.919	255.19
413.142	272.19
413.365	238.19
413.589	248.19
413.812	257.19
414.035	229.19
414.258	255.19
414.482	229.19
414.705	240.19
414.928	237.19
415.151	250.19
415.374	229.19
415.597	257.19
415.821	234.19
416.044	233.19
416.267	233.19
416.49	252.19
416.713	225.19
416.936	228.19
417.159	239.19
417.382	236.19
417.605	244.19
417.828	237.19
418.051	245.19
418.274	241.19
418.497	240.19
418.72	238.19
418.943	245.19
419.166	261.19
419.389	253.19
419.611	253.19
419.834	252.19
420.057	248.19
420.28	248.19
420.503	248.19
420.726	233.19
420.948	253.19
421.171	266.19
421.394	281.19
421.617	251.19
421.839	227.19
422.062	252.19
422.285	245.19
422.507	275.19
422.73	299.19
422.953	296.19
423.175	238.19
423.398	258.19
423.621	262.19
423.843	283.19
424.066	255.19
424.288	254.19
424.511	259.19
424.733	294.19
424.956	308.19
425.178	298.19
425.401	308.19
425.623	307.19
425.846	285.19
426.068	263.19
426.291	271.19
426.513	251.19
426.735	248.19
426.958	291.19
427.18	323.19
427.402	357.19
427.625	385.19
427.847	353.19
428.069	309.19
428.292	268.19
428.514	260.19
428.736	243.19
428.958	238.19
429.181	227.19
429.403	238.19
429.625	245.19
429.847	257.19
430.069	290.19
430.292	293.19
430.514	260.19
430.736	239.19
430.958	247.19
431.18	233.19
431.402	235.19
431.624	230.19
431.846	224.19
432.068	243.19
432.29	238.19
432.512	239.19
432.734	231.19
432.956	236.19
433.178	246.19
433.4	256.19
433.622	224.19
433.844	222.19
434.066	244.19
434.287	235.19
434.509	227.19
434.731	231.19
434.953	238.19
435.175	254.19
435.397	239.19
435.618	253.19
435.84	264.19
436.062	299.19
436.284	333.19
436.505	290.19
436.727	275.19
436.949	245.19
437.17	267.19
437.392	244.19
437.614	251.19
437.835	281.19
438.057	313.19
438.278	336.19
438.5	340.19
438.721	359.19
438.943	343.19
439.165	289.19
439.386	281.19
439.608	273.19
439.829	269.19
440.05	279.19
440.272	274.19
440.493	277.19
440.715	243.19
440.936	244.19
441.158	246.19
441.379	246.19
441.6	245.19
441.822	267.19
442.043	263.19
442.264	314.19
442.486	325.19
442.707	271.19
442.928	284.19
443.149	279.19
443.371	307.19
443.592	304.19
443.813	338.19
444.034	357.19
444.255	299.19
444.476	286.19
444.698	269.19
444.919	257.19
445.14	338.19
445.361	311.19
445.582	274.19
445.803	315.19
446.024	368.19
446.245	363.19
446.466	334.19
446.687	295.19
446.908	277.19
447.129	243.19
447.35	244.19
447.571	221.19
447.792	217.19
448.013	251.19
448.234	251.19
448.455	279.19
448.675	315.19
448.896	360.19
449.117	306.19
449.338	319.19
449.559	348.19
449.779	378.19
450	307.19
450.221	276.19
450.442	248.19
450.662	225.19
450.883	229.19
451.104	265.19
451.324	246.19
451.545	226.19
451.766	221.19
451.986	205.19
452.207	213.19
452.428	231.19
452.648	227.19
452.869	231.19
453.089	234.19
453.31	250.19
453.53	236.19
453.751	214.19
453.971	219.19
454.192	220.19
454.412	224.19
454.633	216.19
454.853	215.19
455.073	217.19
455.294	238.19
455.514	271.19
455.734	258.19
455.955	232.19
456.175	215.19
456.395	211.19
456.616	207.19
456.836	209.19
457.056	214.19
457.276	216.19
457.497	219.19
457.717	220.19
457.937	208.19
458.157	204.19
458.377	221.19
458.598	228.19
458.818	265.19
459.038	305.19
459.258	301.19
459.478	250.19
459.698	233.19
459.918	234.19
460.138	257.19
460.358	248.19
460.578	238.19
460.798	240.19
461.018	230.19
461.238	233.19
461.458	227.19
461.678	227.19
461.898	231.19
462.118	219.19
462.338	222.19
462.558	246.19
462.777	234.19
462.997	264.19
463.217	239.19
463.437	255.19
463.657	246.19
463.876	244.19
464.096	251.19
464.316	283.19
464.536	262.19
464.755	245.19
464.975	263.19
465.195	299.19
465.414	321.19
465.634	286.19
465.854	237.19
466.073	241.19
466.293	231.19
466.512	229.19
466.732	224.19
466.951	240.19
467.171	233.19
467.391	219.19
467.61	228.19
467.829	243.19
468.049	229.19
468.268	233.19
468.488	234.19
468.707	223.19
468.927	230.19
469.146	219.19
469.365	222.19
469.585	228.19
469.804	220.19
470.023	244.19
470.243	232.19
470.462	236.19
470.681	260.19
470.901	247.19
471.12	225.19
471.339	222.19
471.558	229.19
471.777	237.19
471.997	222.19
472.216	249.19
472.435	263.19
472.654	261.19
472.873	245.19
473.092	210.19
473.311	225.19
473.53	224.19
473.749	230.19
473.968	246.19
474.187	300.19
474.406	310.19
474.625	243.19
474.844	251.19
475.063	216.19
475.282	239.19
475.501	232.19
475.72	244.19
475.939	239.19
476.158	236.19
476.377	225.19
476.596	230.19
476.814	261.19
477.033	263.19
477.252	244.19
477.471	247.19
477.69	243.19
477.908	235.19
478.127	226.19
478.346	235.19
478.564	252.19
478.783	227.19
479.002	254.19
479.22	275.19
479.439	251.19
479.658	277.19
479.876	263.19
480.095	278.19
480.313	291.19
480.532	278.19
480.751	275.19
480.969	285.19
481.188	317.19
481.406	341.19
481.624	302.19
481.843	277.19
482.061	243.19
482.28	257.19
482.498	249.19
482.717	264.19
482.935	244.19
483.153	255.19
483.372	259.19
483.59	275.19
483.808	247.19
484.027	252.19
484.245	272.19
484.463	260.19
484.681	272.19
484.9	256.19
485.118	268.19
485.336	280.19
485.554	266.19
485.772	263.19
485.99	259.19
486.209	279.19
486.427	274.19
486.645	269.19
486.863	286.19
487.081	288.19
487.299	295.19
487.517	284.19
487.735	286.19
487.953	283.19
488.171	285.19
488.389	269.19
488.607	287.19
488.825	294.19
489.043	279.19
489.261	303.19
489.479	285.19
489.696	279.19
489.914	293.19
490.132	292.19
490.35	289.19
490.568	292.19
490.786	323.19
491.003	311.19
491.221	328.19
491.439	323.19
491.657	330.19
491.874	327.19
492.092	327.19
492.31	339.19
492.527	336.19
492.745	322.19
492.963	335.19
493.18	349.19
493.398	325.19
493.615	336.19
493.833	334.19
494.05	332.19
494.268	339.19
494.485	343.19
494.703	324.19
494.92	337.19
495.138	335.19
495.355	331.19
495.573	316.19
495.79	326.19
496.008	321.19
496.225	335.19
496.442	332.19
496.66	316.19
496.877	317.19
497.094	323.19
497.312	315.19
497.529	348.19
497.746	340.19
497.963	331.19
498.181	342.19
498.398	342.19
498.615	352.19
498.832	375.19
499.049	363.19
499.267	356.19
499.484	397.19
499.701	406.19
499.918	408.19
500.135	425.19
500.352	439.19
500.569	443.19
500.786	452.19
501.003	449.19
501.22	395.19
501.437	421.19
501.654	399.19
501.871	421.19
502.088	391.19
502.305	371.19
502.522	365.19
