Data from 1966.PennyLincolnUp.Lamp.En5.5.200Scan.071719.P1._HRD10591_14-15-04-920.txt Node
Date: Thu Jul 18 14:15:04 EDT 2019
User: cochatt
Spectrometer: HR+D1059
Trigger mode: 1
Integration Time (sec): 1.000000E-1
Scans to average: 1
Electric dark correction enabled: true
Nonlinearity correction enabled: false
Boxcar width: 0
XAxis mode: Wavelengths
Number of Pixels in Spectrum: 2048
>>>>>Begin Spectral Data<<<<<
223.165	-6.12
223.4	-6.12
223.635	-6.12
223.869	-16.12
224.104	-15.12
224.338	-15.12
224.573	-32.12
224.808	-13.12
225.042	-11.12
225.277	0.88
225.511	2.88
225.746	-0.12
225.98	3.88
226.215	14.88
226.449	22.88
226.683	13.88
226.918	24.88
227.152	24.88
227.387	40.88
227.621	40.88
227.856	43.88
228.09	39.88
228.324	39.88
228.559	60.88
228.793	58.88
229.027	69.88
229.262	82.88
229.496	102.88
229.73	91.88
229.964	109.88
230.199	97.88
230.433	91.88
230.667	97.88
230.901	82.88
231.136	79.88
231.37	91.88
231.604	92.88
231.838	92.88
232.072	97.88
232.306	87.88
232.541	83.88
232.775	86.88
233.009	90.88
233.243	90.88
233.477	104.88
233.711	93.88
233.945	91.88
234.179	103.88
234.413	111.88
234.647	90.88
234.881	98.88
235.115	107.88
235.349	108.88
235.583	100.88
235.817	91.88
236.051	103.88
236.285	97.88
236.519	90.88
236.753	110.88
236.987	82.88
237.221	130.88
237.455	139.88
237.689	112.88
237.922	88.88
238.156	99.88
238.39	84.88
238.624	107.88
238.858	97.88
239.091	106.88
239.325	106.88
239.559	103.88
239.793	99.88
240.027	92.88
240.26	116.88
240.494	118.88
240.728	108.88
240.961	101.88
241.195	111.88
241.429	116.88
241.662	113.88
241.896	105.88
242.13	100.88
242.363	112.88
242.597	102.88
242.83	95.88
243.064	117.88
243.298	90.88
243.531	93.88
243.765	99.88
243.998	110.88
244.232	100.88
244.465	109.88
244.699	120.88
244.932	112.88
245.166	107.88
245.399	122.88
245.633	104.88
245.866	119.88
246.099	105.88
246.333	114.88
246.566	100.88
246.8	109.88
247.033	113.88
247.266	111.88
247.5	110.88
247.733	126.88
247.966	103.88
248.2	108.88
248.433	105.88
248.666	117.88
248.899	132.88
249.133	135.88
249.366	125.88
249.599	133.88
249.832	125.88
250.066	118.88
250.299	134.88
250.532	141.88
250.765	137.88
250.998	138.88
251.231	141.88
251.465	124.88
251.698	125.88
251.931	123.88
252.164	139.88
252.397	129.88
252.63	123.88
252.863	129.88
253.096	128.88
253.329	128.88
253.562	153.88
253.795	151.88
254.028	135.88
254.261	126.88
254.494	134.88
254.727	159.88
254.96	150.88
255.193	157.88
255.426	130.88
255.659	148.88
255.892	143.88
256.124	139.88
256.357	154.88
256.59	124.88
256.823	136.88
257.056	123.88
257.289	126.88
257.521	134.88
257.754	139.88
257.987	130.88
258.22	126.88
258.452	118.88
258.685	118.88
258.918	130.88
259.151	121.88
259.383	150.88
259.616	142.88
259.849	137.88
260.081	149.88
260.314	150.88
260.547	154.88
260.779	149.88
261.012	123.88
261.244	156.88
261.477	147.88
261.71	143.88
261.942	146.88
262.175	156.88
262.407	141.88
262.64	131.88
262.872	134.88
263.105	151.88
263.337	123.88
263.57	150.88
263.802	147.88
264.035	129.88
264.267	127.88
264.499	131.88
264.732	145.88
264.964	130.88
265.197	128.88
265.429	142.88
265.661	128.88
265.894	134.88
266.126	141.88
266.358	133.88
266.591	147.88
266.823	120.88
267.055	146.88
267.287	143.88
267.52	138.88
267.752	134.88
267.984	134.88
268.216	132.88
268.448	137.88
268.681	134.88
268.913	136.88
269.145	175.88
269.377	157.88
269.609	164.88
269.841	145.88
270.073	148.88
270.306	165.88
270.538	186.88
270.77	190.88
271.002	172.88
271.234	173.88
271.466	176.88
271.698	188.88
271.93	194.88
272.162	174.88
272.394	204.88
272.626	155.88
272.858	165.88
273.09	157.88
273.322	169.88
273.553	175.88
273.785	149.88
274.017	158.88
274.249	150.88
274.481	159.88
274.713	138.88
274.945	155.88
275.176	152.88
275.408	162.88
275.64	176.88
275.872	152.88
276.104	153.88
276.335	169.88
276.567	162.88
276.799	176.88
277.031	185.88
277.262	195.88
277.494	173.88
277.726	166.88
277.957	172.88
278.189	161.88
278.421	167.88
278.652	163.88
278.884	156.88
279.115	155.88
279.347	153.88
279.579	169.88
279.81	150.88
280.042	166.88
280.273	149.88
280.505	166.88
280.736	154.88
280.968	164.88
281.199	163.88
281.431	154.88
281.662	158.88
281.894	161.88
282.125	153.88
282.356	167.88
282.588	173.88
282.819	173.88
283.051	172.88
283.282	168.88
283.513	165.88
283.745	151.88
283.976	167.88
284.207	164.88
284.439	163.88
284.67	170.88
284.901	160.88
285.132	161.88
285.364	148.88
285.595	161.88
285.826	170.88
286.057	168.88
286.288	156.88
286.52	170.88
286.751	157.88
286.982	170.88
287.213	166.88
287.444	169.88
287.675	167.88
287.906	168.88
288.138	182.88
288.369	178.88
288.6	156.88
288.831	168.88
289.062	171.88
289.293	181.88
289.524	162.88
289.755	169.88
289.986	178.88
290.217	183.88
290.448	162.88
290.679	166.88
290.91	172.88
291.141	164.88
291.371	178.88
291.602	172.88
291.833	176.88
292.064	174.88
292.295	166.88
292.526	177.88
292.757	176.88
292.987	174.88
293.218	164.88
293.449	167.88
293.68	174.88
293.91	171.88
294.141	166.88
294.372	158.88
294.603	162.88
294.833	164.88
295.064	161.88
295.295	161.88
295.525	163.88
295.756	169.88
295.987	198.88
296.217	210.88
296.448	200.88
296.679	174.88
296.909	168.88
297.14	177.88
297.37	188.88
297.601	183.88
297.831	176.88
298.062	172.88
298.292	187.88
298.523	168.88
298.753	184.88
298.984	172.88
299.214	181.88
299.445	181.88
299.675	193.88
299.905	188.88
300.136	174.88
300.366	176.88
300.597	164.88
300.827	194.88
301.057	178.88
301.288	191.88
301.518	177.88
301.748	190.88
301.979	186.88
302.209	184.88
302.439	193.88
302.669	182.88
302.9	183.88
303.13	174.88
303.36	192.88
303.59	196.88
303.82	191.88
304.051	204.88
304.281	192.88
304.511	167.88
304.741	186.88
304.971	180.88
305.201	185.88
305.431	186.88
305.661	188.88
305.891	188.88
306.121	164.88
306.352	186.88
306.582	194.88
306.812	182.88
307.042	199.88
307.272	186.88
307.502	181.88
307.731	171.88
307.961	184.88
308.191	186.88
308.421	167.88
308.651	197.88
308.881	196.88
309.111	180.88
309.341	193.88
309.571	187.88
309.8	184.88
310.03	203.88
310.26	212.88
310.49	201.88
310.72	200.88
310.949	236.88
311.179	202.88
311.409	216.88
311.639	206.88
311.868	210.88
312.098	211.88
312.328	211.88
312.557	221.88
312.787	242.88
313.017	213.88
313.246	192.88
313.476	221.88
313.706	197.88
313.935	206.88
314.165	207.88
314.394	232.88
314.624	238.88
314.853	219.88
315.083	210.88
315.312	213.88
315.542	211.88
315.771	195.88
316.001	197.88
316.23	194.88
316.46	195.88
316.689	217.88
316.919	208.88
317.148	213.88
317.377	224.88
317.607	204.88
317.836	212.88
318.065	189.88
318.295	186.88
318.524	194.88
318.753	217.88
318.983	197.88
319.212	220.88
319.441	217.88
319.67	204.88
319.9	193.88
320.129	186.88
320.358	201.88
320.587	212.88
320.816	218.88
321.046	222.88
321.275	221.88
321.504	192.88
321.733	216.88
321.962	223.88
322.191	226.88
322.42	219.88
322.649	233.88
322.878	256.88
323.108	229.88
323.337	249.88
323.566	264.88
323.795	281.88
324.024	308.88
324.253	378.88
324.482	490.88
324.71	785.88
324.939	1040.88
325.168	875.88
325.397	442.88
325.626	301.88
325.855	276.88
326.084	253.88
326.313	247.88
326.542	262.88
326.77	281.88
326.999	340.88
327.228	483.88
327.457	692.88
327.686	783.88
327.914	513.88
328.143	348.88
328.372	338.88
328.6	299.88
328.829	294.88
329.058	300.88
329.287	329.88
329.515	278.88
329.744	278.88
329.972	271.88
330.201	303.88
330.43	327.88
330.658	342.88
330.887	348.88
331.115	350.88
331.344	270.88
331.572	257.88
331.801	268.88
332.03	260.88
332.258	248.88
332.486	238.88
332.715	236.88
332.943	253.88
333.172	245.88
333.4	231.88
333.629	245.88
333.857	268.88
334.085	269.88
334.314	279.88
334.542	309.88
334.771	328.88
334.999	272.88
335.227	275.88
335.455	258.88
335.684	253.88
335.912	224.88
336.14	230.88
336.369	245.88
336.597	253.88
336.825	237.88
337.053	229.88
337.281	231.88
337.51	214.88
337.738	244.88
337.966	235.88
338.194	245.88
338.422	249.88
338.65	242.88
338.878	217.88
339.106	222.88
339.334	233.88
339.562	226.88
339.79	231.88
340.018	223.88
340.246	228.88
340.474	222.88
340.702	229.88
340.93	222.88
341.158	231.88
341.386	222.88
341.614	229.88
341.842	223.88
342.07	219.88
342.298	224.88
342.526	212.88
342.754	205.88
342.981	232.88
343.209	217.88
343.437	217.88
343.665	206.88
343.893	215.88
344.12	235.88
344.348	244.88
344.576	213.88
344.804	212.88
345.031	245.88
345.259	238.88
345.487	238.88
345.714	218.88
345.942	207.88
346.17	221.88
346.397	212.88
346.625	211.88
346.853	226.88
347.08	211.88
347.308	218.88
347.535	227.88
347.763	232.88
347.99	234.88
348.218	221.88
348.445	225.88
348.673	236.88
348.9	221.88
349.128	205.88
349.355	216.88
349.583	213.88
349.81	217.88
350.037	221.88
350.265	193.88
350.492	214.88
350.72	205.88
350.947	213.88
351.174	225.88
351.402	244.88
351.629	228.88
351.856	225.88
352.083	226.88
352.311	231.88
352.538	224.88
352.765	241.88
352.992	225.88
353.22	211.88
353.447	210.88
353.674	212.88
353.901	200.88
354.128	218.88
354.355	197.88
354.583	192.88
354.81	194.88
355.037	195.88
355.264	199.88
355.491	201.88
355.718	197.88
355.945	201.88
356.172	198.88
356.399	193.88
356.626	194.88
356.853	204.88
357.08	216.88
357.307	201.88
357.534	199.88
357.761	195.88
357.988	217.88
358.215	205.88
358.441	189.88
358.668	205.88
358.895	199.88
359.122	222.88
359.349	215.88
359.576	225.88
359.802	247.88
360.029	248.88
360.256	261.88
360.483	238.88
360.709	215.88
360.936	214.88
361.163	218.88
361.39	220.88
361.616	229.88
361.843	238.88
362.07	222.88
362.296	216.88
362.523	220.88
362.749	203.88
362.976	226.88
363.203	228.88
363.429	202.88
363.656	193.88
363.882	213.88
364.109	222.88
364.335	199.88
364.562	206.88
364.788	213.88
365.015	212.88
365.241	208.88
365.468	219.88
365.694	212.88
365.92	198.88
366.147	212.88
366.373	202.88
366.599	193.88
366.826	194.88
367.052	190.88
367.278	203.88
367.505	214.88
367.731	206.88
367.957	204.88
368.184	204.88
368.41	234.88
368.636	208.88
368.862	218.88
369.089	227.88
369.315	196.88
369.541	199.88
369.767	200.88
369.993	198.88
370.219	227.88
370.445	208.88
370.672	196.88
370.898	209.88
371.124	197.88
371.35	201.88
371.576	199.88
371.802	198.88
372.028	196.88
372.254	204.88
372.48	209.88
372.706	210.88
372.932	211.88
373.158	197.88
373.384	199.88
373.61	204.88
373.835	204.88
374.061	219.88
374.287	209.88
374.513	195.88
374.739	214.88
374.965	217.88
375.191	206.88
375.416	208.88
375.642	205.88
375.868	213.88
376.094	201.88
376.319	197.88
376.545	195.88
376.771	223.88
376.997	213.88
377.222	203.88
377.448	210.88
377.674	200.88
377.899	193.88
378.125	200.88
378.35	192.88
378.576	205.88
378.802	195.88
379.027	203.88
379.253	190.88
379.478	188.88
379.704	200.88
379.929	192.88
380.155	198.88
380.38	198.88
380.606	220.88
380.831	208.88
381.057	228.88
381.282	207.88
381.507	195.88
381.733	218.88
381.958	202.88
382.184	210.88
382.409	216.88
382.634	201.88
382.86	190.88
383.085	208.88
383.31	215.88
383.535	215.88
383.761	201.88
383.986	222.88
384.211	221.88
384.436	202.88
384.662	230.88
384.887	211.88
385.112	213.88
385.337	208.88
385.562	208.88
385.787	219.88
386.013	208.88
386.238	232.88
386.463	232.88
386.688	217.88
386.913	212.88
387.138	224.88
387.363	216.88
387.588	221.88
387.813	214.88
388.038	214.88
388.263	215.88
388.488	217.88
388.713	222.88
388.938	199.88
389.163	219.88
389.387	204.88
389.612	225.88
389.837	213.88
390.062	216.88
390.287	211.88
390.512	217.88
390.736	213.88
390.961	225.88
391.186	213.88
391.411	206.88
391.636	235.88
391.86	209.88
392.085	227.88
392.31	221.88
392.534	218.88
392.759	223.88
392.984	220.88
393.208	225.88
393.433	228.88
393.658	223.88
393.882	230.88
394.107	208.88
394.331	220.88
394.556	211.88
394.78	199.88
395.005	229.88
395.229	214.88
395.454	228.88
395.678	200.88
395.903	232.88
396.127	232.88
396.352	256.88
396.576	236.88
396.801	218.88
397.025	216.88
397.249	213.88
397.474	225.88
397.698	222.88
397.922	231.88
398.147	241.88
398.371	243.88
398.595	241.88
398.82	262.88
399.044	248.88
399.268	240.88
399.492	300.88
399.717	283.88
399.941	277.88
400.165	272.88
400.389	269.88
400.613	279.88
400.837	240.88
401.062	261.88
401.286	248.88
401.51	248.88
401.734	241.88
401.958	246.88
402.182	243.88
402.406	261.88
402.63	256.88
402.854	247.88
403.078	260.88
403.302	262.88
403.526	254.88
403.75	279.88
403.974	250.88
404.198	246.88
404.422	274.88
404.645	281.88
404.869	274.88
405.093	265.88
405.317	296.88
405.541	295.88
405.765	269.88
405.988	268.88
406.212	293.88
406.436	287.88
406.66	295.88
406.883	298.88
407.107	276.88
407.331	296.88
407.555	334.88
407.778	324.88
408.002	297.88
408.226	279.88
408.449	281.88
408.673	273.88
408.896	297.88
409.12	308.88
409.344	282.88
409.567	261.88
409.791	247.88
410.014	246.88
410.238	243.88
410.461	241.88
410.685	262.88
410.908	266.88
411.132	275.88
411.355	293.88
411.578	288.88
411.802	228.88
412.025	232.88
412.249	262.88
412.472	261.88
412.695	296.88
412.919	277.88
413.142	267.88
413.365	242.88
413.589	252.88
413.812	246.88
414.035	247.88
414.258	259.88
414.482	218.88
414.705	239.88
414.928	260.88
415.151	252.88
415.374	270.88
415.597	226.88
415.821	243.88
416.044	237.88
416.267	233.88
416.49	252.88
416.713	237.88
416.936	242.88
417.159	228.88
417.382	235.88
417.605	263.88
417.828	268.88
418.051	261.88
418.274	246.88
418.497	234.88
418.72	246.88
418.943	241.88
419.166	245.88
419.389	258.88
419.611	255.88
419.834	251.88
420.057	257.88
420.28	249.88
420.503	242.88
420.726	267.88
420.948	256.88
421.171	270.88
421.394	276.88
421.617	259.88
421.839	273.88
422.062	268.88
422.285	262.88
422.507	284.88
422.73	322.88
422.953	292.88
423.175	261.88
423.398	275.88
423.621	272.88
423.843	271.88
424.066	280.88
424.288	278.88
424.511	274.88
424.733	294.88
424.956	331.88
425.178	302.88
425.401	329.88
425.623	318.88
425.846	259.88
426.068	267.88
426.291	258.88
426.513	266.88
426.735	260.88
426.958	286.88
427.18	316.88
427.402	382.88
427.625	413.88
427.847	361.88
428.069	326.88
428.292	283.88
428.514	274.88
428.736	260.88
428.958	261.88
429.181	237.88
429.403	253.88
429.625	256.88
429.847	286.88
430.069	313.88
430.292	308.88
430.514	240.88
430.736	268.88
430.958	230.88
431.18	237.88
431.402	232.88
431.624	225.88
431.846	221.88
432.068	230.88
432.29	235.88
432.512	253.88
432.734	248.88
432.956	242.88
433.178	246.88
433.4	260.88
433.622	254.88
433.844	250.88
434.066	232.88
434.287	233.88
434.509	242.88
434.731	235.88
434.953	258.88
435.175	256.88
435.397	283.88
435.618	270.88
435.84	289.88
436.062	350.88
436.284	340.88
436.505	286.88
436.727	268.88
436.949	249.88
437.17	265.88
437.392	273.88
437.614	262.88
437.835	280.88
438.057	313.88
438.278	355.88
438.5	332.88
438.721	364.88
438.943	347.88
439.165	300.88
439.386	300.88
439.608	271.88
439.829	270.88
440.05	291.88
440.272	311.88
440.493	287.88
440.715	274.88
440.936	250.88
441.158	250.88
441.379	260.88
441.6	254.88
441.822	282.88
442.043	278.88
442.264	320.88
442.486	335.88
442.707	293.88
442.928	282.88
443.149	285.88
443.371	284.88
443.592	301.88
443.813	354.88
444.034	361.88
444.255	288.88
444.476	267.88
444.698	280.88
444.919	274.88
445.14	372.88
445.361	328.88
445.582	291.88
445.803	322.88
446.024	370.88
446.245	359.88
446.466	314.88
446.687	302.88
446.908	263.88
447.129	249.88
447.35	246.88
447.571	249.88
447.792	237.88
448.013	268.88
448.234	262.88
448.455	276.88
448.675	329.88
448.896	377.88
449.117	300.88
449.338	318.88
449.559	346.88
449.779	376.88
450	315.88
450.221	260.88
450.442	244.88
450.662	240.88
450.883	250.88
451.104	267.88
451.324	262.88
451.545	231.88
451.766	245.88
451.986	240.88
452.207	225.88
452.428	217.88
452.648	222.88
452.869	231.88
453.089	225.88
453.31	240.88
453.53	237.88
453.751	211.88
453.971	227.88
454.192	253.88
454.412	249.88
454.633	224.88
454.853	218.88
455.073	220.88
455.294	233.88
455.514	268.88
455.734	269.88
455.955	228.88
456.175	223.88
456.395	214.88
456.616	207.88
456.836	222.88
457.056	206.88
457.276	210.88
457.497	214.88
457.717	214.88
457.937	213.88
458.157	213.88
458.377	206.88
458.598	226.88
458.818	275.88
459.038	348.88
459.258	321.88
459.478	265.88
459.698	241.88
459.918	225.88
460.138	234.88
460.358	249.88
460.578	220.88
460.798	239.88
461.018	256.88
461.238	237.88
461.458	243.88
461.678	226.88
461.898	237.88
462.118	237.88
462.338	243.88
462.558	235.88
462.777	248.88
462.997	269.88
463.217	242.88
463.437	256.88
463.657	268.88
463.876	272.88
464.096	269.88
464.316	254.88
464.536	257.88
464.755	264.88
464.975	276.88
465.195	299.88
465.414	364.88
465.634	304.88
465.854	254.88
466.073	227.88
466.293	254.88
466.512	222.88
466.732	240.88
466.951	258.88
467.171	256.88
467.391	230.88
467.61	247.88
467.829	243.88
468.049	241.88
468.268	260.88
468.488	240.88
468.707	237.88
468.927	223.88
469.146	221.88
469.365	233.88
469.585	225.88
469.804	237.88
470.023	229.88
470.243	234.88
470.462	244.88
470.681	261.88
470.901	256.88
471.12	245.88
471.339	244.88
471.558	226.88
471.777	237.88
471.997	233.88
472.216	230.88
472.435	302.88
472.654	259.88
472.873	258.88
473.092	251.88
473.311	236.88
473.53	234.88
473.749	227.88
473.968	265.88
474.187	325.88
474.406	322.88
474.625	275.88
474.844	235.88
475.063	245.88
475.282	232.88
475.501	235.88
475.72	242.88
475.939	235.88
476.158	234.88
476.377	230.88
476.596	241.88
476.814	251.88
477.033	250.88
477.252	242.88
477.471	241.88
477.69	236.88
477.908	236.88
478.127	250.88
478.346	257.88
478.564	241.88
478.783	261.88
479.002	265.88
479.22	257.88
479.439	268.88
479.658	280.88
479.876	269.88
480.095	272.88
480.313	292.88
480.532	305.88
480.751	292.88
480.969	290.88
481.188	344.88
481.406	377.88
481.624	312.88
481.843	284.88
482.061	282.88
482.28	275.88
482.498	274.88
482.717	264.88
482.935	270.88
483.153	284.88
483.372	257.88
483.59	269.88
483.808	281.88
484.027	280.88
484.245	269.88
484.463	270.88
484.681	261.88
484.9	260.88
485.118	288.88
485.336	295.88
485.554	283.88
485.772	272.88
485.99	288.88
486.209	289.88
486.427	274.88
486.645	296.88
486.863	304.88
487.081	293.88
487.299	285.88
487.517	284.88
487.735	296.88
487.953	305.88
488.171	310.88
488.389	291.88
488.607	277.88
488.825	286.88
489.043	296.88
489.261	289.88
489.479	288.88
489.696	296.88
489.914	285.88
490.132	302.88
490.35	286.88
490.568	314.88
490.786	308.88
491.003	314.88
491.221	314.88
491.439	318.88
491.657	340.88
491.874	331.88
492.092	354.88
492.31	346.88
492.527	333.88
492.745	346.88
492.963	350.88
493.18	335.88
493.398	348.88
493.615	357.88
493.833	354.88
494.05	353.88
494.268	347.88
494.485	344.88
494.703	334.88
494.92	347.88
495.138	340.88
495.355	334.88
495.573	355.88
495.79	348.88
496.008	330.88
496.225	326.88
496.442	330.88
496.66	340.88
496.877	340.88
497.094	313.88
497.312	324.88
497.529	347.88
497.746	345.88
497.963	368.88
498.181	370.88
498.398	355.88
498.615	349.88
498.832	373.88
499.049	362.88
499.267	373.88
499.484	384.88
499.701	394.88
499.918	416.88
500.135	436.88
500.352	464.88
500.569	458.88
500.786	457.88
501.003	442.88
501.22	426.88
501.437	423.88
501.654	429.88
501.871	419.88
502.088	393.88
502.305	385.88
502.522	375.88
