Data from 1966.PennyLincolnUp.Lamp.En5.5.200Scan.071719.P1._HRD10591_14-15-00-914.txt Node
Date: Thu Jul 18 14:15:00 EDT 2019
User: cochatt
Spectrometer: HR+D1059
Trigger mode: 1
Integration Time (sec): 1.000000E-1
Scans to average: 1
Electric dark correction enabled: true
Nonlinearity correction enabled: false
Boxcar width: 0
XAxis mode: Wavelengths
Number of Pixels in Spectrum: 2048
>>>>>Begin Spectral Data<<<<<
223.165	-16.19
223.4	-16.19
223.635	-16.19
223.869	-23.19
224.104	-7.19
224.338	-9.19
224.573	-22.19
224.808	-28.19
225.042	7.81
225.277	-5.19
225.511	-17.19
225.746	4.81
225.98	6.81
226.215	4.81
226.449	24.81
226.683	19.81
226.918	29.81
227.152	29.81
227.387	35.81
227.621	29.81
227.856	41.81
228.09	37.81
228.324	42.81
228.559	61.81
228.793	52.81
229.027	72.81
229.262	81.81
229.496	90.81
229.73	92.81
229.964	106.81
230.199	89.81
230.433	86.81
230.667	91.81
230.901	98.81
231.136	84.81
231.37	91.81
231.604	97.81
231.838	104.81
232.072	107.81
232.306	97.81
232.541	99.81
232.775	84.81
233.009	91.81
233.243	99.81
233.477	87.81
233.711	97.81
233.945	79.81
234.179	91.81
234.413	93.81
234.647	100.81
234.881	85.81
235.115	95.81
235.349	86.81
235.583	80.81
235.817	110.81
236.051	87.81
236.285	101.81
236.519	100.81
236.753	108.81
236.987	123.81
237.221	124.81
237.455	151.81
237.689	123.81
237.922	114.81
238.156	104.81
238.39	101.81
238.624	108.81
238.858	107.81
239.091	92.81
239.325	108.81
239.559	105.81
239.793	91.81
240.027	115.81
240.26	89.81
240.494	103.81
240.728	103.81
240.961	124.81
241.195	91.81
241.429	107.81
241.662	97.81
241.896	79.81
242.13	110.81
242.363	110.81
242.597	97.81
242.83	109.81
243.064	112.81
243.298	103.81
243.531	117.81
243.765	95.81
243.998	105.81
244.232	111.81
244.465	100.81
244.699	99.81
244.932	100.81
245.166	90.81
245.399	117.81
245.633	105.81
245.866	112.81
246.099	103.81
246.333	100.81
246.566	121.81
246.8	99.81
247.033	107.81
247.266	115.81
247.5	107.81
247.733	136.81
247.966	133.81
248.2	124.81
248.433	108.81
248.666	132.81
248.899	116.81
249.133	132.81
249.366	140.81
249.599	129.81
249.832	123.81
250.066	128.81
250.299	127.81
250.532	126.81
250.765	135.81
250.998	124.81
251.231	160.81
251.465	129.81
251.698	135.81
251.931	136.81
252.164	152.81
252.397	126.81
252.63	130.81
252.863	131.81
253.096	140.81
253.329	148.81
253.562	138.81
253.795	139.81
254.028	140.81
254.261	144.81
254.494	179.81
254.727	159.81
254.96	183.81
255.193	151.81
255.426	155.81
255.659	130.81
255.892	155.81
256.124	155.81
256.357	146.81
256.59	139.81
256.823	128.81
257.056	125.81
257.289	138.81
257.521	136.81
257.754	127.81
257.987	135.81
258.22	137.81
258.452	127.81
258.685	145.81
258.918	142.81
259.151	135.81
259.383	137.81
259.616	136.81
259.849	148.81
260.081	151.81
260.314	150.81
260.547	159.81
260.779	153.81
261.012	123.81
261.244	157.81
261.477	141.81
261.71	133.81
261.942	159.81
262.175	151.81
262.407	145.81
262.64	129.81
262.872	128.81
263.105	142.81
263.337	135.81
263.57	150.81
263.802	136.81
264.035	136.81
264.267	138.81
264.499	136.81
264.732	138.81
264.964	132.81
265.197	126.81
265.429	140.81
265.661	137.81
265.894	145.81
266.126	147.81
266.358	134.81
266.591	151.81
266.823	153.81
267.055	156.81
267.287	153.81
267.52	161.81
267.752	164.81
267.984	144.81
268.216	139.81
268.448	141.81
268.681	154.81
268.913	144.81
269.145	160.81
269.377	175.81
269.609	165.81
269.841	159.81
270.073	158.81
270.306	175.81
270.538	202.81
270.77	196.81
271.002	180.81
271.234	179.81
271.466	185.81
271.698	174.81
271.93	207.81
272.162	184.81
272.394	174.81
272.626	191.81
272.858	171.81
273.09	166.81
273.322	171.81
273.553	169.81
273.785	166.81
274.017	171.81
274.249	150.81
274.481	165.81
274.713	152.81
274.945	163.81
275.176	153.81
275.408	159.81
275.64	148.81
275.872	166.81
276.104	161.81
276.335	153.81
276.567	168.81
276.799	169.81
277.031	197.81
277.262	183.81
277.494	203.81
277.726	188.81
277.957	186.81
278.189	172.81
278.421	155.81
278.652	164.81
278.884	159.81
279.115	160.81
279.347	179.81
279.579	173.81
279.81	160.81
280.042	167.81
280.273	147.81
280.505	151.81
280.736	145.81
280.968	156.81
281.199	161.81
281.431	171.81
281.662	165.81
281.894	160.81
282.125	157.81
282.356	166.81
282.588	191.81
282.819	183.81
283.051	138.81
283.282	159.81
283.513	143.81
283.745	163.81
283.976	160.81
284.207	171.81
284.439	185.81
284.67	176.81
284.901	140.81
285.132	160.81
285.364	172.81
285.595	171.81
285.826	168.81
286.057	162.81
286.288	177.81
286.52	174.81
286.751	168.81
286.982	160.81
287.213	161.81
287.444	177.81
287.675	185.81
287.906	193.81
288.138	178.81
288.369	183.81
288.6	180.81
288.831	179.81
289.062	183.81
289.293	183.81
289.524	170.81
289.755	169.81
289.986	175.81
290.217	157.81
290.448	149.81
290.679	168.81
290.91	165.81
291.141	160.81
291.371	169.81
291.602	181.81
291.833	165.81
292.064	172.81
292.295	168.81
292.526	164.81
292.757	186.81
292.987	175.81
293.218	176.81
293.449	183.81
293.68	158.81
293.91	179.81
294.141	173.81
294.372	167.81
294.603	171.81
294.833	163.81
295.064	179.81
295.295	163.81
295.525	177.81
295.756	186.81
295.987	167.81
296.217	182.81
296.448	202.81
296.679	171.81
296.909	167.81
297.14	172.81
297.37	197.81
297.601	183.81
297.831	172.81
298.062	185.81
298.292	177.81
298.523	179.81
298.753	168.81
298.984	197.81
299.214	179.81
299.445	168.81
299.675	182.81
299.905	193.81
300.136	189.81
300.366	177.81
300.597	198.81
300.827	177.81
301.057	181.81
301.288	194.81
301.518	195.81
301.748	208.81
301.979	182.81
302.209	199.81
302.439	205.81
302.669	190.81
302.9	173.81
303.13	165.81
303.36	197.81
303.59	194.81
303.82	207.81
304.051	199.81
304.281	186.81
304.511	192.81
304.741	200.81
304.971	169.81
305.201	200.81
305.431	188.81
305.661	172.81
305.891	194.81
306.121	195.81
306.352	198.81
306.582	183.81
306.812	186.81
307.042	183.81
307.272	173.81
307.502	187.81
307.731	187.81
307.961	205.81
308.191	189.81
308.421	183.81
308.651	191.81
308.881	196.81
309.111	201.81
309.341	203.81
309.571	219.81
309.8	204.81
310.03	216.81
310.26	212.81
310.49	212.81
310.72	207.81
310.949	233.81
311.179	226.81
311.409	212.81
311.639	220.81
311.868	216.81
312.098	217.81
312.328	227.81
312.557	229.81
312.787	219.81
313.017	232.81
313.246	243.81
313.476	220.81
313.706	229.81
313.935	212.81
314.165	216.81
314.394	237.81
314.624	233.81
314.853	216.81
315.083	220.81
315.312	215.81
315.542	190.81
315.771	205.81
316.001	200.81
316.23	218.81
316.46	211.81
316.689	219.81
316.919	213.81
317.148	219.81
317.377	205.81
317.607	217.81
317.836	217.81
318.065	217.81
318.295	217.81
318.524	203.81
318.753	195.81
318.983	205.81
319.212	214.81
319.441	227.81
319.67	231.81
319.9	208.81
320.129	208.81
320.358	194.81
320.587	217.81
320.816	213.81
321.046	222.81
321.275	215.81
321.504	214.81
321.733	211.81
321.962	235.81
322.191	265.81
322.42	251.81
322.649	239.81
322.878	251.81
323.108	256.81
323.337	271.81
323.566	273.81
323.795	292.81
324.024	328.81
324.253	393.81
324.482	541.81
324.71	815.81
324.939	1114.81
325.168	874.81
325.397	464.81
325.626	350.81
325.855	288.81
326.084	266.81
326.313	261.81
326.542	279.81
326.77	293.81
326.999	373.81
327.228	479.81
327.457	733.81
327.686	833.81
327.914	542.81
328.143	375.81
328.372	338.81
328.6	323.81
328.829	287.81
329.058	309.81
329.287	331.81
329.515	299.81
329.744	262.81
329.972	275.81
330.201	301.81
330.43	329.81
330.658	352.81
330.887	349.81
331.115	345.81
331.344	281.81
331.572	273.81
331.801	256.81
332.03	263.81
332.258	262.81
332.486	252.81
332.715	240.81
332.943	252.81
333.172	254.81
333.4	256.81
333.629	240.81
333.857	272.81
334.085	274.81
334.314	295.81
334.542	303.81
334.771	319.81
334.999	311.81
335.227	262.81
335.455	266.81
335.684	231.81
335.912	240.81
336.14	249.81
336.369	244.81
336.597	265.81
336.825	273.81
337.053	256.81
337.281	251.81
337.51	238.81
337.738	249.81
337.966	236.81
338.194	245.81
338.422	226.81
338.65	228.81
338.878	237.81
339.106	244.81
339.334	265.81
339.562	228.81
339.79	229.81
340.018	235.81
340.246	235.81
340.474	246.81
340.702	239.81
340.93	233.81
341.158	203.81
341.386	254.81
341.614	222.81
341.842	245.81
342.07	219.81
342.298	214.81
342.526	234.81
342.754	224.81
342.981	218.81
343.209	217.81
343.437	215.81
343.665	237.81
343.893	216.81
344.12	237.81
344.348	228.81
344.576	235.81
344.804	235.81
345.031	247.81
345.259	244.81
345.487	246.81
345.714	235.81
345.942	232.81
346.17	224.81
346.397	231.81
346.625	220.81
346.853	215.81
347.08	224.81
347.308	215.81
347.535	237.81
347.763	240.81
347.99	236.81
348.218	243.81
348.445	236.81
348.673	243.81
348.9	223.81
349.128	225.81
349.355	203.81
349.583	220.81
349.81	217.81
350.037	213.81
350.265	215.81
350.492	220.81
350.72	217.81
350.947	223.81
351.174	222.81
351.402	235.81
351.629	248.81
351.856	235.81
352.083	236.81
352.311	245.81
352.538	228.81
352.765	245.81
352.992	251.81
353.22	231.81
353.447	227.81
353.674	231.81
353.901	214.81
354.128	208.81
354.355	237.81
354.583	231.81
354.81	208.81
355.037	221.81
355.264	212.81
355.491	230.81
355.718	219.81
355.945	210.81
356.172	217.81
356.399	211.81
356.626	215.81
356.853	204.81
357.08	220.81
357.307	214.81
357.534	200.81
357.761	220.81
357.988	216.81
358.215	200.81
358.441	205.81
358.668	223.81
358.895	215.81
359.122	216.81
359.349	214.81
359.576	217.81
359.802	236.81
360.029	266.81
360.256	263.81
360.483	237.81
360.709	238.81
360.936	222.81
361.163	233.81
361.39	239.81
361.616	240.81
361.843	214.81
362.07	219.81
362.296	233.81
362.523	223.81
362.749	218.81
362.976	215.81
363.203	238.81
363.429	225.81
363.656	234.81
363.882	211.81
364.109	207.81
364.335	223.81
364.562	205.81
364.788	200.81
365.015	202.81
365.241	217.81
365.468	221.81
365.694	231.81
365.92	213.81
366.147	209.81
366.373	207.81
366.599	213.81
366.826	219.81
367.052	213.81
367.278	209.81
367.505	219.81
367.731	221.81
367.957	209.81
368.184	217.81
368.41	216.81
368.636	232.81
368.862	235.81
369.089	217.81
369.315	201.81
369.541	208.81
369.767	208.81
369.993	220.81
370.219	225.81
370.445	222.81
370.672	202.81
370.898	208.81
371.124	195.81
371.35	215.81
371.576	208.81
371.802	208.81
372.028	215.81
372.254	208.81
372.48	220.81
372.706	219.81
372.932	215.81
373.158	213.81
373.384	228.81
373.61	224.81
373.835	227.81
374.061	217.81
374.287	232.81
374.513	209.81
374.739	220.81
374.965	208.81
375.191	201.81
375.416	209.81
375.642	209.81
375.868	222.81
376.094	197.81
376.319	208.81
376.545	211.81
376.771	204.81
376.997	217.81
377.222	205.81
377.448	211.81
377.674	207.81
377.899	204.81
378.125	214.81
378.35	203.81
378.576	192.81
378.802	195.81
379.027	221.81
379.253	218.81
379.478	209.81
379.704	216.81
379.929	230.81
380.155	211.81
380.38	222.81
380.606	220.81
380.831	210.81
381.057	205.81
381.282	210.81
381.507	211.81
381.733	205.81
381.958	211.81
382.184	196.81
382.409	224.81
382.634	199.81
382.86	219.81
383.085	210.81
383.31	217.81
383.535	213.81
383.761	224.81
383.986	217.81
384.211	218.81
384.436	211.81
384.662	223.81
384.887	228.81
385.112	225.81
385.337	225.81
385.562	218.81
385.787	223.81
386.013	237.81
386.238	233.81
386.463	211.81
386.688	230.81
386.913	240.81
387.138	230.81
387.363	229.81
387.588	223.81
387.813	224.81
388.038	229.81
388.263	232.81
388.488	231.81
388.713	215.81
388.938	239.81
389.163	238.81
389.387	216.81
389.612	229.81
389.837	229.81
390.062	229.81
390.287	217.81
390.512	208.81
390.736	215.81
390.961	238.81
391.186	227.81
391.411	226.81
391.636	223.81
391.86	231.81
392.085	230.81
392.31	231.81
392.534	234.81
392.759	247.81
392.984	234.81
393.208	231.81
393.433	229.81
393.658	248.81
393.882	246.81
394.107	218.81
394.331	230.81
394.556	233.81
394.78	239.81
395.005	227.81
395.229	231.81
395.454	223.81
395.678	230.81
395.903	232.81
396.127	223.81
396.352	234.81
396.576	245.81
396.801	234.81
397.025	246.81
397.249	231.81
397.474	228.81
397.698	238.81
397.922	235.81
398.147	233.81
398.371	239.81
398.595	243.81
398.82	235.81
399.044	252.81
399.268	258.81
399.492	263.81
399.717	296.81
399.941	299.81
400.165	300.81
400.389	301.81
400.613	264.81
400.837	267.81
401.062	264.81
401.286	257.81
401.51	255.81
401.734	261.81
401.958	243.81
402.182	264.81
402.406	271.81
402.63	268.81
402.854	268.81
403.078	286.81
403.302	268.81
403.526	280.81
403.75	271.81
403.974	273.81
404.198	267.81
404.422	259.81
404.645	273.81
404.869	270.81
405.093	285.81
405.317	296.81
405.541	304.81
405.765	283.81
405.988	277.81
406.212	261.81
406.436	315.81
406.66	320.81
406.883	299.81
407.107	291.81
407.331	327.81
407.555	328.81
407.778	337.81
408.002	306.81
408.226	277.81
408.449	297.81
408.673	295.81
408.896	294.81
409.12	310.81
409.344	305.81
409.567	277.81
409.791	257.81
410.014	246.81
410.238	266.81
410.461	247.81
410.685	267.81
410.908	267.81
411.132	278.81
411.355	309.81
411.578	295.81
411.802	283.81
412.025	266.81
412.249	251.81
412.472	274.81
412.695	300.81
412.919	284.81
413.142	269.81
413.365	267.81
413.589	268.81
413.812	253.81
414.035	261.81
414.258	251.81
414.482	250.81
414.705	240.81
414.928	263.81
415.151	233.81
415.374	222.81
415.597	245.81
415.821	253.81
416.044	261.81
416.267	267.81
416.49	230.81
416.713	233.81
416.936	259.81
417.159	253.81
417.382	268.81
417.605	247.81
417.828	247.81
418.051	248.81
418.274	270.81
418.497	253.81
418.72	255.81
418.943	264.81
419.166	262.81
419.389	265.81
419.611	270.81
419.834	261.81
420.057	256.81
420.28	259.81
420.503	257.81
420.726	267.81
420.948	292.81
421.171	283.81
421.394	317.81
421.617	262.81
421.839	271.81
422.062	273.81
422.285	265.81
422.507	296.81
422.73	321.81
422.953	312.81
423.175	276.81
423.398	275.81
423.621	263.81
423.843	277.81
424.066	273.81
424.288	283.81
424.511	287.81
424.733	314.81
424.956	333.81
425.178	327.81
425.401	334.81
425.623	329.81
425.846	313.81
426.068	283.81
426.291	280.81
426.513	279.81
426.735	271.81
426.958	296.81
427.18	351.81
427.402	402.81
427.625	424.81
427.847	407.81
428.069	324.81
428.292	307.81
428.514	279.81
428.736	257.81
428.958	270.81
429.181	268.81
429.403	239.81
429.625	271.81
429.847	280.81
430.069	317.81
430.292	313.81
430.514	267.81
430.736	269.81
430.958	262.81
431.18	256.81
431.402	243.81
431.624	254.81
431.846	259.81
432.068	245.81
432.29	252.81
432.512	251.81
432.734	248.81
432.956	252.81
433.178	248.81
433.4	241.81
433.622	243.81
433.844	238.81
434.066	238.81
434.287	249.81
434.509	264.81
434.731	260.81
434.953	249.81
435.175	259.81
435.397	284.81
435.618	283.81
435.84	313.81
436.062	345.81
436.284	354.81
436.505	298.81
436.727	282.81
436.949	274.81
437.17	246.81
437.392	255.81
437.614	256.81
437.835	271.81
438.057	331.81
438.278	366.81
438.5	355.81
438.721	394.81
438.943	385.81
439.165	320.81
439.386	287.81
439.608	297.81
439.829	284.81
440.05	303.81
440.272	314.81
440.493	283.81
440.715	283.81
440.936	274.81
441.158	269.81
441.379	263.81
441.6	280.81
441.822	277.81
442.043	311.81
442.264	347.81
442.486	345.81
442.707	301.81
442.928	280.81
443.149	311.81
443.371	310.81
443.592	342.81
443.813	366.81
444.034	393.81
444.255	339.81
444.476	291.81
444.698	292.81
444.919	278.81
445.14	378.81
445.361	336.81
445.582	318.81
445.803	344.81
446.024	367.81
446.245	371.81
446.466	339.81
446.687	288.81
446.908	270.81
447.129	265.81
447.35	261.81
447.571	259.81
447.792	245.81
448.013	253.81
448.234	272.81
448.455	295.81
448.675	345.81
448.896	385.81
449.117	328.81
449.338	314.81
449.559	372.81
449.779	395.81
450	320.81
450.221	297.81
450.442	271.81
450.662	261.81
450.883	263.81
451.104	285.81
451.324	279.81
451.545	259.81
451.766	257.81
451.986	236.81
452.207	223.81
452.428	225.81
452.648	225.81
452.869	218.81
453.089	244.81
453.31	225.81
453.53	229.81
453.751	232.81
453.971	254.81
454.192	255.81
454.412	247.81
454.633	220.81
454.853	221.81
455.073	243.81
455.294	269.81
455.514	274.81
455.734	261.81
455.955	231.81
456.175	238.81
456.395	230.81
456.616	228.81
456.836	233.81
457.056	230.81
457.276	231.81
457.497	227.81
457.717	233.81
457.937	232.81
458.157	228.81
458.377	228.81
458.598	246.81
458.818	267.81
459.038	337.81
459.258	338.81
459.478	270.81
459.698	255.81
459.918	238.81
460.138	254.81
460.358	245.81
460.578	255.81
460.798	254.81
461.018	252.81
461.238	258.81
461.458	246.81
461.678	270.81
461.898	245.81
462.118	261.81
462.338	240.81
462.558	251.81
462.777	273.81
462.997	265.81
463.217	281.81
463.437	261.81
463.657	271.81
463.876	259.81
464.096	280.81
464.316	272.81
464.536	264.81
464.755	260.81
464.975	283.81
465.195	324.81
465.414	367.81
465.634	297.81
465.854	278.81
466.073	249.81
466.293	240.81
466.512	238.81
466.732	240.81
466.951	253.81
467.171	244.81
467.391	236.81
467.61	273.81
467.829	258.81
468.049	243.81
468.268	250.81
468.488	241.81
468.707	244.81
468.927	232.81
469.146	220.81
469.365	242.81
469.585	257.81
469.804	256.81
470.023	246.81
470.243	261.81
470.462	249.81
470.681	266.81
470.901	255.81
471.12	239.81
471.339	253.81
471.558	235.81
471.777	247.81
471.997	238.81
472.216	264.81
472.435	276.81
472.654	250.81
472.873	257.81
473.092	236.81
473.311	240.81
473.53	235.81
473.749	237.81
473.968	272.81
474.187	333.81
474.406	334.81
474.625	271.81
474.844	261.81
475.063	244.81
475.282	239.81
475.501	237.81
475.72	236.81
475.939	250.81
476.158	244.81
476.377	236.81
476.596	244.81
476.814	252.81
477.033	287.81
477.252	269.81
477.471	249.81
477.69	275.81
477.908	257.81
478.127	263.81
478.346	252.81
478.564	268.81
478.783	263.81
479.002	270.81
479.22	277.81
479.439	277.81
479.658	296.81
479.876	285.81
480.095	284.81
480.313	312.81
480.532	291.81
480.751	293.81
480.969	318.81
481.188	363.81
481.406	411.81
481.624	331.81
481.843	296.81
482.061	289.81
482.28	300.81
482.498	272.81
482.717	276.81
482.935	282.81
483.153	277.81
483.372	281.81
483.59	274.81
483.808	269.81
484.027	266.81
484.245	286.81
484.463	273.81
484.681	286.81
484.9	289.81
485.118	282.81
485.336	281.81
485.554	283.81
485.772	282.81
485.99	289.81
486.209	271.81
486.427	301.81
486.645	295.81
486.863	301.81
487.081	315.81
487.299	306.81
487.517	303.81
487.735	307.81
487.953	307.81
488.171	275.81
488.389	300.81
488.607	319.81
488.825	295.81
489.043	297.81
489.261	318.81
489.479	295.81
489.696	302.81
489.914	305.81
490.132	299.81
490.35	320.81
490.568	330.81
490.786	325.81
491.003	320.81
491.221	331.81
491.439	341.81
491.657	355.81
491.874	380.81
492.092	338.81
492.31	359.81
492.527	344.81
492.745	358.81
492.963	352.81
493.18	364.81
493.398	347.81
493.615	368.81
493.833	364.81
494.05	372.81
494.268	369.81
494.485	345.81
494.703	360.81
494.92	375.81
495.138	347.81
495.355	352.81
495.573	366.81
495.79	352.81
496.008	344.81
496.225	331.81
496.442	325.81
496.66	362.81
496.877	363.81
497.094	348.81
497.312	345.81
497.529	332.81
497.746	359.81
497.963	364.81
498.181	367.81
498.398	378.81
498.615	388.81
498.832	385.81
499.049	393.81
499.267	388.81
499.484	408.81
499.701	414.81
499.918	427.81
500.135	451.81
500.352	452.81
500.569	466.81
500.786	457.81
501.003	470.81
501.22	433.81
501.437	434.81
501.654	432.81
501.871	441.81
502.088	407.81
502.305	389.81
502.522	391.81
