Data from 1966.PennyLincolnUp.Lamp.En5.5.200Scan.071719.P1.Scan2.head_HRD10591_14-19-27-269.txt Node
Date: Thu Jul 18 14:19:27 EDT 2019
User: cochatt
Spectrometer: HR+D1059
Trigger mode: 1
Integration Time (sec): 1.000000E-1
Scans to average: 1
Electric dark correction enabled: true
Nonlinearity correction enabled: false
Boxcar width: 0
XAxis mode: Wavelengths
Number of Pixels in Spectrum: 2048
>>>>>Begin Spectral Data<<<<<
223.165	-17.94
223.4	-17.94
223.635	-17.94
223.869	-17.94
224.104	-22.94
224.338	-20.94
224.573	-12.94
224.808	-18.94
225.042	0.06
225.277	-4.94
225.511	1.06
225.746	6.06
225.98	16.06
226.215	14.06
226.449	16.06
226.683	14.06
226.918	17.06
227.152	32.06
227.387	30.06
227.621	47.06
227.856	53.06
228.09	43.06
228.324	62.06
228.559	42.06
228.793	58.06
229.027	97.06
229.262	102.06
229.496	125.06
229.73	140.06
229.964	163.06
230.199	139.06
230.433	127.06
230.667	126.06
230.901	124.06
231.136	106.06
231.37	101.06
231.604	117.06
231.838	113.06
232.072	120.06
232.306	109.06
232.541	123.06
232.775	116.06
233.009	107.06
233.243	127.06
233.477	99.06
233.711	125.06
233.945	131.06
234.179	127.06
234.413	117.06
234.647	117.06
234.881	116.06
235.115	112.06
235.349	122.06
235.583	121.06
235.817	109.06
236.051	135.06
236.285	137.06
236.519	131.06
236.753	143.06
236.987	146.06
237.221	184.06
237.455	253.06
237.689	199.06
237.922	147.06
238.156	136.06
238.39	131.06
238.624	128.06
238.858	137.06
239.091	140.06
239.325	127.06
239.559	127.06
239.793	129.06
240.027	141.06
240.26	151.06
240.494	173.06
240.728	169.06
240.961	156.06
241.195	155.06
241.429	158.06
241.662	141.06
241.896	144.06
242.13	142.06
242.363	150.06
242.597	136.06
242.83	123.06
243.064	135.06
243.298	127.06
243.531	145.06
243.765	157.06
243.998	151.06
244.232	143.06
244.465	157.06
244.699	148.06
244.932	133.06
245.166	153.06
245.399	148.06
245.633	155.06
245.866	144.06
246.099	155.06
246.333	168.06
246.566	161.06
246.8	172.06
247.033	153.06
247.266	164.06
247.5	159.06
247.733	169.06
247.966	191.06
248.2	179.06
248.433	169.06
248.666	171.06
248.899	185.06
249.133	201.06
249.366	220.06
249.599	207.06
249.832	188.06
250.066	190.06
250.299	185.06
250.532	205.06
250.765	236.06
250.998	228.06
251.231	237.06
251.465	233.06
251.698	214.06
251.931	190.06
252.164	212.06
252.397	216.06
252.63	201.06
252.863	218.06
253.096	212.06
253.329	261.06
253.562	233.06
253.795	223.06
254.028	220.06
254.261	230.06
254.494	228.06
254.727	267.06
254.96	313.06
255.193	283.06
255.426	251.06
255.659	232.06
255.892	239.06
256.124	250.06
256.357	249.06
256.59	240.06
256.823	219.06
257.056	223.06
257.289	219.06
257.521	207.06
257.754	217.06
257.987	215.06
258.22	226.06
258.452	200.06
258.685	229.06
258.918	199.06
259.151	224.06
259.383	219.06
259.616	236.06
259.849	233.06
260.081	261.06
260.314	272.06
260.547	277.06
260.779	270.06
261.012	281.06
261.244	233.06
261.477	238.06
261.71	224.06
261.942	236.06
262.175	243.06
262.407	259.06
262.64	215.06
262.872	216.06
263.105	225.06
263.337	213.06
263.57	243.06
263.802	213.06
264.035	212.06
264.267	223.06
264.499	208.06
264.732	221.06
264.964	225.06
265.197	243.06
265.429	209.06
265.661	220.06
265.894	229.06
266.126	216.06
266.358	223.06
266.591	209.06
266.823	224.06
267.055	231.06
267.287	247.06
267.52	251.06
267.752	246.06
267.984	253.06
268.216	245.06
268.448	243.06
268.681	248.06
268.913	266.06
269.145	261.06
269.377	295.06
269.609	281.06
269.841	273.06
270.073	299.06
270.306	321.06
270.538	336.06
270.77	335.06
271.002	312.06
271.234	299.06
271.466	321.06
271.698	325.06
271.93	325.06
272.162	320.06
272.394	342.06
272.626	325.06
272.858	302.06
273.09	288.06
273.322	271.06
273.553	281.06
273.785	288.06
274.017	273.06
274.249	286.06
274.481	277.06
274.713	276.06
274.945	286.06
275.176	284.06
275.408	291.06
275.64	286.06
275.872	283.06
276.104	281.06
276.335	275.06
276.567	294.06
276.799	309.06
277.031	312.06
277.262	340.06
277.494	321.06
277.726	330.06
277.957	315.06
278.189	312.06
278.421	279.06
278.652	271.06
278.884	284.06
279.115	293.06
279.347	279.06
279.579	286.06
279.81	287.06
280.042	284.06
280.273	271.06
280.505	278.06
280.736	290.06
280.968	309.06
281.199	279.06
281.431	285.06
281.662	298.06
281.894	290.06
282.125	295.06
282.356	305.06
282.588	327.06
282.819	331.06
283.051	303.06
283.282	285.06
283.513	288.06
283.745	289.06
283.976	286.06
284.207	304.06
284.439	283.06
284.67	282.06
284.901	315.06
285.132	293.06
285.364	281.06
285.595	296.06
285.826	299.06
286.057	305.06
286.288	293.06
286.52	289.06
286.751	302.06
286.982	300.06
287.213	289.06
287.444	311.06
287.675	305.06
287.906	307.06
288.138	321.06
288.369	324.06
288.6	312.06
288.831	315.06
289.062	309.06
289.293	305.06
289.524	314.06
289.755	305.06
289.986	289.06
290.217	312.06
290.448	302.06
290.679	319.06
290.91	313.06
291.141	310.06
291.371	319.06
291.602	309.06
291.833	307.06
292.064	307.06
292.295	316.06
292.526	311.06
292.757	309.06
292.987	318.06
293.218	303.06
293.449	302.06
293.68	337.06
293.91	313.06
294.141	313.06
294.372	313.06
294.603	321.06
294.833	319.06
295.064	307.06
295.295	300.06
295.525	325.06
295.756	332.06
295.987	323.06
296.217	333.06
296.448	352.06
296.679	312.06
296.909	307.06
297.14	330.06
297.37	302.06
297.601	313.06
297.831	304.06
298.062	311.06
298.292	321.06
298.523	313.06
298.753	331.06
298.984	326.06
299.214	322.06
299.445	320.06
299.675	337.06
299.905	320.06
300.136	333.06
300.366	343.06
300.597	346.06
300.827	332.06
301.057	346.06
301.288	358.06
301.518	366.06
301.748	355.06
301.979	355.06
302.209	361.06
302.439	369.06
302.669	352.06
302.9	345.06
303.13	356.06
303.36	339.06
303.59	343.06
303.82	347.06
304.051	367.06
304.281	364.06
304.511	356.06
304.741	355.06
304.971	345.06
305.201	352.06
305.431	364.06
305.661	340.06
305.891	347.06
306.121	349.06
306.352	366.06
306.582	366.06
306.812	353.06
307.042	359.06
307.272	356.06
307.502	360.06
307.731	348.06
307.961	361.06
308.191	346.06
308.421	363.06
308.651	384.06
308.881	353.06
309.111	368.06
309.341	387.06
309.571	371.06
309.8	368.06
310.03	394.06
310.26	403.06
310.49	379.06
310.72	398.06
310.949	426.06
311.179	430.06
311.409	402.06
311.639	414.06
311.868	391.06
312.098	424.06
312.328	409.06
312.557	419.06
312.787	446.06
313.017	443.06
313.246	421.06
313.476	392.06
313.706	383.06
313.935	412.06
314.165	401.06
314.394	407.06
314.624	423.06
314.853	408.06
315.083	417.06
315.312	410.06
315.542	396.06
315.771	395.06
316.001	372.06
316.23	381.06
316.46	412.06
316.689	405.06
316.919	407.06
317.148	421.06
317.377	414.06
317.607	392.06
317.836	407.06
318.065	408.06
318.295	408.06
318.524	387.06
318.753	397.06
318.983	396.06
319.212	427.06
319.441	419.06
319.67	420.06
319.9	436.06
320.129	411.06
320.358	413.06
320.587	401.06
320.816	416.06
321.046	407.06
321.275	429.06
321.504	426.06
321.733	427.06
321.962	427.06
322.191	456.06
322.42	456.06
322.649	456.06
322.878	464.06
323.108	476.06
323.337	502.06
323.566	506.06
323.795	550.06
324.024	601.06
324.253	694.06
324.482	1005.06
324.71	1631.06
324.939	2388.06
325.168	2081.06
325.397	1031.06
325.626	683.06
325.855	565.06
326.084	540.06
326.313	533.06
326.542	551.06
326.77	559.06
326.999	684.06
327.228	934.06
327.457	1465.06
327.686	1813.06
327.914	1189.06
328.143	737.06
328.372	675.06
328.6	662.06
328.829	589.06
329.058	605.06
329.287	605.06
329.515	592.06
329.744	553.06
329.972	545.06
330.201	563.06
330.43	607.06
330.658	629.06
330.887	639.06
331.115	652.06
331.344	549.06
331.572	516.06
331.801	519.06
332.03	532.06
332.258	501.06
332.486	506.06
332.715	505.06
332.943	463.06
333.172	492.06
333.4	528.06
333.629	518.06
333.857	536.06
334.085	547.06
334.314	576.06
334.542	595.06
334.771	620.06
334.999	556.06
335.227	511.06
335.455	514.06
335.684	486.06
335.912	491.06
336.14	486.06
336.369	483.06
336.597	498.06
336.825	492.06
337.053	494.06
337.281	481.06
337.51	489.06
337.738	477.06
337.966	471.06
338.194	480.06
338.422	504.06
338.65	477.06
338.878	460.06
339.106	471.06
339.334	504.06
339.562	470.06
339.79	469.06
340.018	453.06
340.246	472.06
340.474	474.06
340.702	457.06
340.93	461.06
341.158	469.06
341.386	457.06
341.614	469.06
341.842	467.06
342.07	486.06
342.298	463.06
342.526	460.06
342.754	467.06
342.981	441.06
343.209	457.06
343.437	470.06
343.665	472.06
343.893	465.06
344.12	483.06
344.348	478.06
344.576	483.06
344.804	485.06
345.031	479.06
345.259	487.06
345.487	495.06
345.714	451.06
345.942	464.06
346.17	465.06
346.397	453.06
346.625	439.06
346.853	475.06
347.08	456.06
347.308	455.06
347.535	459.06
347.763	482.06
347.99	486.06
348.218	460.06
348.445	472.06
348.673	457.06
348.9	461.06
349.128	442.06
349.355	438.06
349.583	436.06
349.81	440.06
350.037	438.06
350.265	437.06
350.492	428.06
350.72	432.06
350.947	438.06
351.174	463.06
351.402	471.06
351.629	468.06
351.856	428.06
352.083	461.06
352.311	493.06
352.538	499.06
352.765	464.06
352.992	462.06
353.22	464.06
353.447	459.06
353.674	443.06
353.901	449.06
354.128	446.06
354.355	440.06
354.583	436.06
354.81	431.06
355.037	443.06
355.264	423.06
355.491	432.06
355.718	412.06
355.945	433.06
356.172	437.06
356.399	419.06
356.626	421.06
356.853	430.06
357.08	420.06
357.307	405.06
357.534	427.06
357.761	438.06
357.988	418.06
358.215	428.06
358.441	433.06
358.668	442.06
358.895	427.06
359.122	448.06
359.349	428.06
359.576	460.06
359.802	485.06
360.029	488.06
360.256	525.06
360.483	508.06
360.709	480.06
360.936	461.06
361.163	460.06
361.39	461.06
361.616	449.06
361.843	461.06
362.07	469.06
362.296	470.06
362.523	454.06
362.749	451.06
362.976	464.06
363.203	437.06
363.429	417.06
363.656	438.06
363.882	458.06
364.109	468.06
364.335	462.06
364.562	448.06
364.788	415.06
365.015	438.06
365.241	439.06
365.468	449.06
365.694	453.06
365.92	441.06
366.147	432.06
366.373	451.06
366.599	460.06
366.826	425.06
367.052	426.06
367.278	435.06
367.505	436.06
367.731	451.06
367.957	425.06
368.184	435.06
368.41	457.06
368.636	455.06
368.862	460.06
369.089	439.06
369.315	454.06
369.541	453.06
369.767	448.06
369.993	452.06
370.219	415.06
370.445	457.06
370.672	431.06
370.898	464.06
371.124	443.06
371.35	446.06
371.576	441.06
371.802	443.06
372.028	442.06
372.254	445.06
372.48	451.06
372.706	439.06
372.932	433.06
373.158	470.06
373.384	429.06
373.61	464.06
373.835	451.06
374.061	428.06
374.287	440.06
374.513	466.06
374.739	458.06
374.965	468.06
375.191	464.06
375.416	463.06
375.642	465.06
375.868	450.06
376.094	473.06
376.319	460.06
376.545	446.06
376.771	445.06
376.997	454.06
377.222	448.06
377.448	447.06
377.674	451.06
377.899	437.06
378.125	437.06
378.35	465.06
378.576	461.06
378.802	421.06
379.027	433.06
379.253	441.06
379.478	445.06
379.704	450.06
379.929	445.06
380.155	432.06
380.38	447.06
380.606	461.06
380.831	459.06
381.057	466.06
381.282	454.06
381.507	438.06
381.733	449.06
381.958	445.06
382.184	464.06
382.409	458.06
382.634	487.06
382.86	451.06
383.085	471.06
383.31	448.06
383.535	477.06
383.761	487.06
383.986	473.06
384.211	461.06
384.436	481.06
384.662	494.06
384.887	512.06
385.112	501.06
385.337	476.06
385.562	494.06
385.787	510.06
386.013	509.06
386.238	531.06
386.463	504.06
386.688	520.06
386.913	495.06
387.138	505.06
387.363	513.06
387.588	492.06
387.813	491.06
388.038	477.06
388.263	484.06
388.488	497.06
388.713	512.06
388.938	496.06
389.163	502.06
389.387	526.06
389.612	523.06
389.837	486.06
390.062	494.06
390.287	511.06
390.512	501.06
390.736	515.06
390.961	496.06
391.186	484.06
391.411	484.06
391.636	523.06
391.86	523.06
392.085	542.06
392.31	515.06
392.534	524.06
392.759	535.06
392.984	505.06
393.208	500.06
393.433	517.06
393.658	526.06
393.882	506.06
394.107	520.06
394.331	512.06
394.556	499.06
394.78	520.06
395.005	507.06
395.229	513.06
395.454	538.06
395.678	535.06
395.903	539.06
396.127	578.06
396.352	545.06
396.576	535.06
396.801	531.06
397.025	512.06
397.249	545.06
397.474	552.06
397.698	549.06
397.922	567.06
398.147	573.06
398.371	563.06
398.595	573.06
398.82	575.06
399.044	591.06
399.268	623.06
399.492	656.06
399.717	701.06
399.941	727.06
400.165	724.06
400.389	728.06
400.613	680.06
400.837	607.06
401.062	611.06
401.286	609.06
401.51	597.06
401.734	579.06
401.958	602.06
402.182	587.06
402.406	604.06
402.63	585.06
402.854	577.06
403.078	599.06
403.302	605.06
403.526	619.06
403.75	604.06
403.974	612.06
404.198	575.06
404.422	610.06
404.645	601.06
404.869	638.06
405.093	656.06
405.317	728.06
405.541	754.06
405.765	678.06
405.988	641.06
406.212	653.06
406.436	671.06
406.66	657.06
406.883	659.06
407.107	681.06
407.331	748.06
407.555	821.06
407.778	840.06
408.002	760.06
408.226	688.06
408.449	672.06
408.673	673.06
408.896	708.06
409.12	725.06
409.344	709.06
409.567	649.06
409.791	605.06
410.014	611.06
410.238	629.06
410.461	621.06
410.685	621.06
410.908	632.06
411.132	675.06
411.355	717.06
411.578	691.06
411.802	613.06
412.025	611.06
412.249	634.06
412.472	664.06
412.695	714.06
412.919	704.06
413.142	638.06
413.365	617.06
413.589	603.06
413.812	588.06
414.035	581.06
414.258	571.06
414.482	580.06
414.705	590.06
414.928	601.06
415.151	592.06
415.374	598.06
415.597	593.06
415.821	602.06
416.044	580.06
416.267	580.06
416.49	587.06
416.713	560.06
416.936	573.06
417.159	565.06
417.382	581.06
417.605	579.06
417.828	589.06
418.051	614.06
418.274	597.06
418.497	564.06
418.72	579.06
418.943	582.06
419.166	606.06
419.389	633.06
419.611	629.06
419.834	633.06
420.057	604.06
420.28	622.06
420.503	607.06
420.726	605.06
420.948	608.06
421.171	652.06
421.394	703.06
421.617	633.06
421.839	616.06
422.062	611.06
422.285	632.06
422.507	701.06
422.73	756.06
422.953	739.06
423.175	643.06
423.398	615.06
423.621	619.06
423.843	676.06
424.066	661.06
424.288	649.06
424.511	679.06
424.733	739.06
424.956	835.06
425.178	774.06
425.401	762.06
425.623	830.06
425.846	705.06
426.068	647.06
426.291	679.06
426.513	655.06
426.735	657.06
426.958	724.06
427.18	793.06
427.402	972.06
427.625	1031.06
427.847	896.06
428.069	805.06
428.292	709.06
428.514	650.06
428.736	633.06
428.958	615.06
429.181	616.06
429.403	599.06
429.625	622.06
429.847	639.06
430.069	736.06
430.292	718.06
430.514	639.06
430.736	621.06
430.958	592.06
431.18	574.06
431.402	599.06
431.624	557.06
431.846	570.06
432.068	560.06
432.29	577.06
432.512	555.06
432.734	583.06
432.956	593.06
433.178	599.06
433.4	619.06
433.622	604.06
433.844	587.06
434.066	574.06
434.287	564.06
434.509	579.06
434.731	565.06
434.953	590.06
435.175	632.06
435.397	637.06
435.618	638.06
435.84	703.06
436.062	814.06
436.284	889.06
436.505	704.06
436.727	651.06
436.949	612.06
437.17	598.06
437.392	577.06
437.614	620.06
437.835	657.06
438.057	775.06
438.278	889.06
438.5	885.06
438.721	967.06
438.943	938.06
439.165	735.06
439.386	686.06
439.608	679.06
439.829	640.06
440.05	686.06
440.272	721.06
440.493	699.06
440.715	644.06
440.936	632.06
441.158	594.06
441.379	608.06
441.6	630.06
441.822	672.06
442.043	717.06
442.264	801.06
442.486	863.06
442.707	730.06
442.928	663.06
443.149	674.06
443.371	716.06
443.592	756.06
443.813	860.06
444.034	939.06
444.255	799.06
444.476	682.06
444.698	670.06
444.919	659.06
445.14	783.06
445.361	725.06
445.582	711.06
445.803	804.06
446.024	889.06
446.245	913.06
446.466	832.06
446.687	707.06
446.908	641.06
447.129	631.06
447.35	609.06
447.571	592.06
447.792	593.06
448.013	623.06
448.234	622.06
448.455	674.06
448.675	815.06
448.896	936.06
449.117	821.06
449.338	752.06
449.559	869.06
449.779	989.06
450	819.06
450.221	667.06
450.442	612.06
450.662	599.06
450.883	586.06
451.104	591.06
451.324	595.06
451.545	575.06
451.766	538.06
451.986	530.06
452.207	521.06
452.428	509.06
452.648	523.06
452.869	525.06
453.089	577.06
453.31	560.06
453.53	534.06
453.751	534.06
453.971	516.06
454.192	535.06
454.412	532.06
454.633	547.06
454.853	530.06
455.073	552.06
455.294	587.06
455.514	649.06
455.734	637.06
455.955	536.06
456.175	533.06
456.395	512.06
456.616	509.06
456.836	539.06
457.056	487.06
457.276	476.06
457.497	504.06
457.717	494.06
457.937	528.06
458.157	523.06
458.377	546.06
458.598	558.06
458.818	600.06
459.038	712.06
459.258	748.06
459.478	607.06
459.698	565.06
459.918	565.06
460.138	591.06
460.358	584.06
460.578	592.06
460.798	577.06
461.018	580.06
461.238	572.06
461.458	593.06
461.678	598.06
461.898	597.06
462.118	575.06
462.338	611.06
462.558	624.06
462.777	601.06
462.997	615.06
463.217	657.06
463.437	681.06
463.657	621.06
463.876	631.06
464.096	616.06
464.316	631.06
464.536	629.06
464.755	635.06
464.975	633.06
465.195	664.06
465.414	742.06
465.634	658.06
465.854	616.06
466.073	624.06
466.293	576.06
466.512	565.06
466.732	559.06
466.951	585.06
467.171	563.06
467.391	550.06
467.61	559.06
467.829	560.06
468.049	578.06
468.268	559.06
468.488	559.06
468.707	535.06
468.927	552.06
469.146	554.06
469.365	551.06
469.585	567.06
469.804	558.06
470.023	549.06
470.243	557.06
470.462	575.06
470.681	596.06
470.901	583.06
471.12	563.06
471.339	564.06
471.558	571.06
471.777	565.06
471.997	559.06
472.216	553.06
472.435	599.06
472.654	591.06
472.873	558.06
473.092	564.06
473.311	558.06
473.53	547.06
473.749	585.06
473.968	622.06
474.187	719.06
474.406	746.06
474.625	616.06
474.844	567.06
475.063	576.06
475.282	553.06
475.501	573.06
475.72	584.06
475.939	576.06
476.158	581.06
476.377	599.06
476.596	604.06
476.814	591.06
477.033	601.06
477.252	586.06
477.471	606.06
477.69	592.06
477.908	591.06
478.127	631.06
478.346	607.06
478.564	633.06
478.783	603.06
479.002	643.06
479.22	661.06
479.439	645.06
479.658	645.06
479.876	647.06
480.095	665.06
480.313	711.06
480.532	699.06
480.751	728.06
480.969	711.06
481.188	773.06
481.406	819.06
481.624	776.06
481.843	705.06
482.061	698.06
482.28	705.06
482.498	685.06
482.717	656.06
482.935	664.06
483.153	663.06
483.372	648.06
483.59	647.06
483.808	675.06
484.027	672.06
484.245	681.06
484.463	661.06
484.681	676.06
484.9	671.06
485.118	703.06
485.336	670.06
485.554	689.06
485.772	700.06
485.99	675.06
486.209	703.06
486.427	680.06
486.645	691.06
486.863	714.06
487.081	750.06
487.299	703.06
487.517	695.06
487.735	698.06
487.953	695.06
488.171	690.06
488.389	705.06
488.607	719.06
488.825	716.06
489.043	731.06
489.261	752.06
489.479	726.06
489.696	714.06
489.914	747.06
490.132	721.06
490.35	745.06
490.568	748.06
490.786	779.06
491.003	783.06
491.221	776.06
491.439	808.06
491.657	809.06
491.874	795.06
492.092	805.06
492.31	823.06
492.527	836.06
492.745	835.06
492.963	832.06
493.18	852.06
493.398	835.06
493.615	841.06
493.833	845.06
494.05	878.06
494.268	857.06
494.485	845.06
494.703	859.06
494.92	852.06
495.138	852.06
495.355	845.06
495.573	847.06
495.79	861.06
496.008	838.06
496.225	836.06
496.442	840.06
496.66	863.06
496.877	841.06
497.094	859.06
497.312	899.06
497.529	867.06
497.746	885.06
497.963	931.06
498.181	921.06
498.398	935.06
498.615	951.06
498.832	985.06
499.049	965.06
499.267	1034.06
499.484	1056.06
499.701	1068.06
499.918	1133.06
500.135	1173.06
500.352	1200.06
500.569	1238.06
500.786	1240.06
501.003	1234.06
501.22	1159.06
501.437	1169.06
501.654	1100.06
