Data from 1966.PennyLincolnUp.Lamp.En5.5.200Scan.071719.P1.Scan2.head_HRD10591_14-16-29-032.txt Node
Date: Thu Jul 18 14:16:29 EDT 2019
User: cochatt
Spectrometer: HR+D1059
Trigger mode: 1
Integration Time (sec): 1.000000E-1
Scans to average: 1
Electric dark correction enabled: true
Nonlinearity correction enabled: false
Boxcar width: 0
XAxis mode: Wavelengths
Number of Pixels in Spectrum: 2048
>>>>>Begin Spectral Data<<<<<
223.165	-18.75
223.4	-18.75
223.635	-18.75
223.869	-21.75
224.104	-19.75
224.338	-21.75
224.573	-17.75
224.808	-16.75
225.042	-14.75
225.277	-10.75
225.511	10.25
225.746	8.25
225.98	8.25
226.215	13.25
226.449	11.25
226.683	12.25
226.918	36.25
227.152	42.25
227.387	38.25
227.621	39.25
227.856	41.25
228.09	48.25
228.324	42.25
228.559	48.25
228.793	61.25
229.027	89.25
229.262	92.25
229.496	107.25
229.73	111.25
229.964	134.25
230.199	125.25
230.433	104.25
230.667	113.25
230.901	103.25
231.136	110.25
231.37	99.25
231.604	109.25
231.838	102.25
232.072	109.25
232.306	117.25
232.541	94.25
232.775	116.25
233.009	116.25
233.243	112.25
233.477	106.25
233.711	104.25
233.945	95.25
234.179	103.25
234.413	113.25
234.647	107.25
234.881	110.25
235.115	106.25
235.349	130.25
235.583	110.25
235.817	132.25
236.051	124.25
236.285	131.25
236.519	113.25
236.753	116.25
236.987	137.25
237.221	146.25
237.455	184.25
237.689	159.25
237.922	132.25
238.156	126.25
238.39	132.25
238.624	108.25
238.858	114.25
239.091	128.25
239.325	126.25
239.559	120.25
239.793	116.25
240.027	119.25
240.26	123.25
240.494	150.25
240.728	136.25
240.961	138.25
241.195	135.25
241.429	128.25
241.662	132.25
241.896	119.25
242.13	138.25
242.363	124.25
242.597	123.25
242.83	128.25
243.064	131.25
243.298	126.25
243.531	132.25
243.765	130.25
243.998	142.25
244.232	134.25
244.465	131.25
244.699	137.25
244.932	140.25
245.166	137.25
245.399	135.25
245.633	148.25
245.866	142.25
246.099	134.25
246.333	145.25
246.566	144.25
246.8	147.25
247.033	160.25
247.266	154.25
247.5	158.25
247.733	134.25
247.966	144.25
248.2	161.25
248.433	172.25
248.666	155.25
248.899	171.25
249.133	183.25
249.366	171.25
249.599	173.25
249.832	157.25
250.066	160.25
250.299	168.25
250.532	176.25
250.765	182.25
250.998	167.25
251.231	193.25
251.465	184.25
251.698	169.25
251.931	184.25
252.164	175.25
252.397	170.25
252.63	190.25
252.863	191.25
253.096	184.25
253.329	201.25
253.562	191.25
253.795	207.25
254.028	203.25
254.261	202.25
254.494	187.25
254.727	212.25
254.96	225.25
255.193	235.25
255.426	204.25
255.659	197.25
255.892	201.25
256.124	210.25
256.357	188.25
256.59	188.25
256.823	181.25
257.056	193.25
257.289	190.25
257.521	169.25
257.754	198.25
257.987	188.25
258.22	177.25
258.452	177.25
258.685	193.25
258.918	191.25
259.151	192.25
259.383	192.25
259.616	198.25
259.849	191.25
260.081	196.25
260.314	216.25
260.547	216.25
260.779	218.25
261.012	198.25
261.244	205.25
261.477	216.25
261.71	203.25
261.942	198.25
262.175	202.25
262.407	192.25
262.64	201.25
262.872	196.25
263.105	194.25
263.337	193.25
263.57	203.25
263.802	198.25
264.035	182.25
264.267	195.25
264.499	196.25
264.732	168.25
264.964	180.25
265.197	181.25
265.429	194.25
265.661	194.25
265.894	174.25
266.126	206.25
266.358	200.25
266.591	202.25
266.823	208.25
267.055	209.25
267.287	198.25
267.52	204.25
267.752	215.25
267.984	193.25
268.216	195.25
268.448	207.25
268.681	198.25
268.913	219.25
269.145	220.25
269.377	234.25
269.609	225.25
269.841	224.25
270.073	218.25
270.306	243.25
270.538	262.25
270.77	236.25
271.002	244.25
271.234	244.25
271.466	238.25
271.698	244.25
271.93	246.25
272.162	250.25
272.394	239.25
272.626	240.25
272.858	249.25
273.09	246.25
273.322	217.25
273.553	236.25
273.785	221.25
274.017	221.25
274.249	247.25
274.481	222.25
274.713	222.25
274.945	226.25
275.176	230.25
275.408	244.25
275.64	235.25
275.872	223.25
276.104	240.25
276.335	249.25
276.567	221.25
276.799	249.25
277.031	235.25
277.262	256.25
277.494	278.25
277.726	255.25
277.957	263.25
278.189	246.25
278.421	208.25
278.652	236.25
278.884	232.25
279.115	240.25
279.347	228.25
279.579	240.25
279.81	253.25
280.042	244.25
280.273	237.25
280.505	242.25
280.736	248.25
280.968	219.25
281.199	248.25
281.431	241.25
281.662	245.25
281.894	249.25
282.125	248.25
282.356	251.25
282.588	254.25
282.819	262.25
283.051	247.25
283.282	240.25
283.513	250.25
283.745	236.25
283.976	245.25
284.207	233.25
284.439	237.25
284.67	258.25
284.901	271.25
285.132	245.25
285.364	259.25
285.595	235.25
285.826	239.25
286.057	264.25
286.288	253.25
286.52	264.25
286.751	266.25
286.982	268.25
287.213	261.25
287.444	263.25
287.675	263.25
287.906	248.25
288.138	258.25
288.369	267.25
288.6	261.25
288.831	255.25
289.062	241.25
289.293	256.25
289.524	263.25
289.755	270.25
289.986	266.25
290.217	274.25
290.448	235.25
290.679	246.25
290.91	272.25
291.141	272.25
291.371	266.25
291.602	253.25
291.833	250.25
292.064	247.25
292.295	269.25
292.526	266.25
292.757	272.25
292.987	245.25
293.218	246.25
293.449	259.25
293.68	272.25
293.91	280.25
294.141	262.25
294.372	256.25
294.603	265.25
294.833	284.25
295.064	284.25
295.295	253.25
295.525	268.25
295.756	273.25
295.987	266.25
296.217	283.25
296.448	299.25
296.679	278.25
296.909	271.25
297.14	262.25
297.37	281.25
297.601	274.25
297.831	286.25
298.062	277.25
298.292	292.25
298.523	286.25
298.753	296.25
298.984	272.25
299.214	260.25
299.445	280.25
299.675	298.25
299.905	256.25
300.136	273.25
300.366	268.25
300.597	287.25
300.827	271.25
301.057	280.25
301.288	298.25
301.518	289.25
301.748	284.25
301.979	302.25
302.209	287.25
302.439	289.25
302.669	302.25
302.9	304.25
303.13	298.25
303.36	297.25
303.59	284.25
303.82	304.25
304.051	284.25
304.281	285.25
304.511	293.25
304.741	297.25
304.971	288.25
305.201	282.25
305.431	302.25
305.661	304.25
305.891	308.25
306.121	274.25
306.352	280.25
306.582	288.25
306.812	293.25
307.042	293.25
307.272	291.25
307.502	298.25
307.731	313.25
307.961	311.25
308.191	302.25
308.421	301.25
308.651	309.25
308.881	293.25
309.111	310.25
309.341	305.25
309.571	299.25
309.8	329.25
310.03	306.25
310.26	313.25
310.49	324.25
310.72	332.25
310.949	301.25
311.179	335.25
311.409	328.25
311.639	320.25
311.868	300.25
312.098	313.25
312.328	349.25
312.557	328.25
312.787	340.25
313.017	348.25
313.246	334.25
313.476	318.25
313.706	323.25
313.935	332.25
314.165	348.25
314.394	342.25
314.624	340.25
314.853	318.25
315.083	335.25
315.312	329.25
315.542	329.25
315.771	312.25
316.001	320.25
316.23	347.25
316.46	326.25
316.689	326.25
316.919	318.25
317.148	332.25
317.377	323.25
317.607	343.25
317.836	337.25
318.065	333.25
318.295	360.25
318.524	334.25
318.753	358.25
318.983	349.25
319.212	345.25
319.441	358.25
319.67	347.25
319.9	335.25
320.129	342.25
320.358	342.25
320.587	341.25
320.816	336.25
321.046	357.25
321.275	339.25
321.504	333.25
321.733	346.25
321.962	341.25
322.191	359.25
322.42	351.25
322.649	378.25
322.878	376.25
323.108	375.25
323.337	376.25
323.566	374.25
323.795	401.25
324.024	445.25
324.253	512.25
324.482	672.25
324.71	1014.25
324.939	1520.25
325.168	1348.25
325.397	648.25
325.626	461.25
325.855	388.25
326.084	392.25
326.313	378.25
326.542	420.25
326.77	414.25
326.999	470.25
327.228	629.25
327.457	938.25
327.686	1152.25
327.914	776.25
328.143	520.25
328.372	467.25
328.6	452.25
328.829	411.25
329.058	432.25
329.287	428.25
329.515	414.25
329.744	403.25
329.972	398.25
330.201	418.25
330.43	439.25
330.658	441.25
330.887	486.25
331.115	443.25
331.344	406.25
331.572	390.25
331.801	417.25
332.03	414.25
332.258	392.25
332.486	402.25
332.715	387.25
332.943	388.25
333.172	403.25
333.4	420.25
333.629	409.25
333.857	422.25
334.085	417.25
334.314	412.25
334.542	422.25
334.771	449.25
334.999	424.25
335.227	414.25
335.455	398.25
335.684	409.25
335.912	403.25
336.14	411.25
336.369	393.25
336.597	398.25
336.825	400.25
337.053	412.25
337.281	389.25
337.51	409.25
337.738	402.25
337.966	408.25
338.194	414.25
338.422	402.25
338.65	385.25
338.878	389.25
339.106	409.25
339.334	398.25
339.562	375.25
339.79	379.25
340.018	407.25
340.246	370.25
340.474	384.25
340.702	376.25
340.93	383.25
341.158	369.25
341.386	377.25
341.614	380.25
341.842	388.25
342.07	380.25
342.298	384.25
342.526	355.25
342.754	381.25
342.981	372.25
343.209	376.25
343.437	379.25
343.665	378.25
343.893	408.25
344.12	406.25
344.348	394.25
344.576	420.25
344.804	412.25
345.031	389.25
345.259	408.25
345.487	397.25
345.714	386.25
345.942	377.25
346.17	382.25
346.397	388.25
346.625	379.25
346.853	372.25
347.08	358.25
347.308	369.25
347.535	374.25
347.763	390.25
347.99	379.25
348.218	381.25
348.445	377.25
348.673	375.25
348.9	389.25
349.128	384.25
349.355	365.25
349.583	358.25
349.81	363.25
350.037	368.25
350.265	369.25
350.492	362.25
350.72	369.25
350.947	373.25
351.174	377.25
351.402	380.25
351.629	389.25
351.856	395.25
352.083	412.25
352.311	394.25
352.538	392.25
352.765	394.25
352.992	382.25
353.22	366.25
353.447	376.25
353.674	352.25
353.901	376.25
354.128	371.25
354.355	382.25
354.583	388.25
354.81	364.25
355.037	360.25
355.264	368.25
355.491	379.25
355.718	381.25
355.945	364.25
356.172	367.25
356.399	359.25
356.626	373.25
356.853	371.25
357.08	367.25
357.307	364.25
357.534	350.25
357.761	355.25
357.988	384.25
358.215	380.25
358.441	369.25
358.668	380.25
358.895	362.25
359.122	380.25
359.349	374.25
359.576	378.25
359.802	389.25
360.029	415.25
360.256	416.25
360.483	380.25
360.709	378.25
360.936	412.25
361.163	373.25
361.39	383.25
361.616	398.25
361.843	394.25
362.07	375.25
362.296	394.25
362.523	380.25
362.749	380.25
362.976	370.25
363.203	379.25
363.429	372.25
363.656	392.25
363.882	361.25
364.109	373.25
364.335	376.25
364.562	397.25
364.788	372.25
365.015	378.25
365.241	383.25
365.468	380.25
365.694	363.25
365.92	378.25
366.147	383.25
366.373	378.25
366.599	356.25
366.826	360.25
367.052	379.25
367.278	380.25
367.505	389.25
367.731	396.25
367.957	388.25
368.184	379.25
368.41	367.25
368.636	382.25
368.862	394.25
369.089	393.25
369.315	385.25
369.541	373.25
369.767	384.25
369.993	388.25
370.219	388.25
370.445	391.25
370.672	380.25
370.898	388.25
371.124	406.25
371.35	390.25
371.576	408.25
371.802	374.25
372.028	381.25
372.254	374.25
372.48	393.25
372.706	391.25
372.932	389.25
373.158	394.25
373.384	400.25
373.61	392.25
373.835	390.25
374.061	416.25
374.287	391.25
374.513	399.25
374.739	413.25
374.965	412.25
375.191	431.25
375.416	410.25
375.642	395.25
375.868	370.25
376.094	388.25
376.319	388.25
376.545	390.25
376.771	385.25
376.997	383.25
377.222	386.25
377.448	400.25
377.674	391.25
377.899	400.25
378.125	390.25
378.35	389.25
378.576	380.25
378.802	380.25
379.027	392.25
379.253	398.25
379.478	377.25
379.704	408.25
379.929	412.25
380.155	402.25
380.38	393.25
380.606	398.25
380.831	397.25
381.057	393.25
381.282	396.25
381.507	393.25
381.733	408.25
381.958	399.25
382.184	401.25
382.409	403.25
382.634	411.25
382.86	390.25
383.085	413.25
383.31	402.25
383.535	436.25
383.761	426.25
383.986	438.25
384.211	432.25
384.436	419.25
384.662	436.25
384.887	450.25
385.112	436.25
385.337	449.25
385.562	462.25
385.787	465.25
386.013	457.25
386.238	464.25
386.463	431.25
386.688	448.25
386.913	451.25
387.138	439.25
387.363	441.25
387.588	445.25
387.813	441.25
388.038	439.25
388.263	441.25
388.488	450.25
388.713	462.25
388.938	435.25
389.163	442.25
389.387	455.25
389.612	432.25
389.837	447.25
390.062	438.25
390.287	416.25
390.512	426.25
390.736	439.25
390.961	440.25
391.186	444.25
391.411	432.25
391.636	440.25
391.86	457.25
392.085	458.25
392.31	473.25
392.534	453.25
392.759	477.25
392.984	448.25
393.208	485.25
393.433	554.25
393.658	590.25
393.882	490.25
394.107	454.25
394.331	456.25
394.556	440.25
394.78	452.25
395.005	458.25
395.229	444.25
395.454	461.25
395.678	465.25
395.903	477.25
396.127	520.25
396.352	492.25
396.576	477.25
396.801	491.25
397.025	526.25
397.249	500.25
397.474	488.25
397.698	489.25
397.922	489.25
398.147	492.25
398.371	527.25
398.595	501.25
398.82	488.25
399.044	498.25
399.268	544.25
399.492	561.25
399.717	580.25
399.941	592.25
400.165	632.25
400.389	650.25
400.613	579.25
400.837	537.25
401.062	522.25
401.286	509.25
401.51	500.25
401.734	510.25
401.958	531.25
402.182	526.25
402.406	536.25
402.63	519.25
402.854	511.25
403.078	525.25
403.302	542.25
403.526	526.25
403.75	504.25
403.974	513.25
404.198	505.25
404.422	529.25
404.645	527.25
404.869	516.25
405.093	552.25
405.317	575.25
405.541	603.25
405.765	573.25
405.988	549.25
406.212	548.25
406.436	550.25
406.66	579.25
406.883	584.25
407.107	573.25
407.331	621.25
407.555	671.25
407.778	677.25
408.002	628.25
408.226	593.25
408.449	576.25
408.673	585.25
408.896	595.25
409.12	625.25
409.344	592.25
409.567	552.25
409.791	536.25
410.014	526.25
410.238	540.25
410.461	542.25
410.685	540.25
410.908	538.25
411.132	567.25
411.355	605.25
411.578	579.25
411.802	506.25
412.025	504.25
412.249	507.25
412.472	538.25
412.695	566.25
412.919	564.25
413.142	539.25
413.365	516.25
413.589	522.25
413.812	520.25
414.035	505.25
414.258	497.25
414.482	491.25
414.705	509.25
414.928	512.25
415.151	493.25
415.374	498.25
415.597	495.25
415.821	500.25
416.044	508.25
416.267	484.25
416.49	496.25
416.713	492.25
416.936	477.25
417.159	480.25
417.382	484.25
417.605	491.25
417.828	526.25
418.051	514.25
418.274	505.25
418.497	492.25
418.72	516.25
418.943	513.25
419.166	520.25
419.389	544.25
419.611	533.25
419.834	523.25
420.057	527.25
420.28	528.25
420.503	504.25
420.726	493.25
420.948	495.25
421.171	563.25
421.394	580.25
421.617	524.25
421.839	514.25
422.062	519.25
422.285	511.25
422.507	570.25
422.73	636.25
422.953	639.25
423.175	563.25
423.398	532.25
423.621	549.25
423.843	561.25
424.066	553.25
424.288	544.25
424.511	557.25
424.733	588.25
424.956	669.25
425.178	669.25
425.401	640.25
425.623	641.25
425.846	568.25
426.068	544.25
426.291	535.25
426.513	541.25
426.735	561.25
426.958	586.25
427.18	646.25
427.402	770.25
427.625	827.25
427.847	701.25
428.069	617.25
428.292	572.25
428.514	533.25
428.736	535.25
428.958	490.25
429.181	525.25
429.403	481.25
429.625	523.25
429.847	531.25
430.069	594.25
430.292	596.25
430.514	513.25
430.736	509.25
430.958	496.25
431.18	508.25
431.402	476.25
431.624	487.25
431.846	492.25
432.068	470.25
432.29	497.25
432.512	499.25
432.734	495.25
432.956	473.25
433.178	479.25
433.4	500.25
433.622	495.25
433.844	495.25
434.066	482.25
434.287	498.25
434.509	504.25
434.731	510.25
434.953	531.25
435.175	516.25
435.397	550.25
435.618	533.25
435.84	575.25
436.062	651.25
436.284	713.25
436.505	589.25
436.727	562.25
436.949	534.25
437.17	491.25
437.392	516.25
437.614	516.25
437.835	554.25
438.057	610.25
438.278	704.25
438.5	686.25
438.721	792.25
438.943	762.25
439.165	589.25
439.386	556.25
439.608	551.25
439.829	543.25
440.05	522.25
440.272	566.25
440.493	552.25
440.715	534.25
440.936	514.25
441.158	509.25
441.379	502.25
441.6	515.25
441.822	538.25
442.043	570.25
442.264	637.25
442.486	653.25
442.707	591.25
442.928	558.25
443.149	565.25
443.371	590.25
443.592	613.25
443.813	684.25
444.034	781.25
444.255	642.25
444.476	586.25
444.698	546.25
444.919	557.25
445.14	645.25
445.361	606.25
445.582	581.25
445.803	617.25
446.024	690.25
446.245	696.25
446.466	653.25
446.687	565.25
446.908	552.25
447.129	519.25
447.35	515.25
447.571	499.25
447.792	497.25
448.013	488.25
448.234	500.25
448.455	530.25
448.675	641.25
448.896	760.25
449.117	647.25
449.338	596.25
449.559	699.25
449.779	796.25
450	636.25
450.221	546.25
450.442	503.25
450.662	497.25
450.883	485.25
451.104	514.25
451.324	457.25
451.545	475.25
451.766	460.25
451.986	465.25
452.207	459.25
452.428	452.25
452.648	451.25
452.869	463.25
453.089	476.25
453.31	447.25
453.53	443.25
453.751	438.25
453.971	454.25
454.192	457.25
454.412	471.25
454.633	438.25
454.853	439.25
455.073	439.25
455.294	454.25
455.514	533.25
455.734	503.25
455.955	463.25
456.175	432.25
456.395	432.25
456.616	438.25
456.836	448.25
457.056	421.25
457.276	430.25
457.497	431.25
457.717	437.25
457.937	443.25
458.157	447.25
458.377	458.25
458.598	468.25
458.818	508.25
459.038	558.25
459.258	587.25
459.478	522.25
459.698	484.25
459.918	490.25
460.138	496.25
460.358	500.25
460.578	516.25
460.798	514.25
461.018	492.25
461.238	533.25
461.458	503.25
461.678	512.25
461.898	506.25
462.118	523.25
462.338	523.25
462.558	540.25
462.777	538.25
462.997	549.25
463.217	580.25
463.437	570.25
463.657	548.25
463.876	541.25
464.096	547.25
464.316	551.25
464.536	544.25
464.755	532.25
464.975	550.25
465.195	557.25
465.414	574.25
465.634	540.25
465.854	537.25
466.073	515.25
466.293	514.25
466.512	479.25
466.732	464.25
466.951	471.25
467.171	464.25
467.391	484.25
467.61	482.25
467.829	505.25
468.049	487.25
468.268	488.25
468.488	482.25
468.707	483.25
468.927	455.25
469.146	436.25
469.365	471.25
469.585	470.25
469.804	470.25
470.023	488.25
470.243	465.25
470.462	485.25
470.681	490.25
470.901	495.25
471.12	467.25
471.339	474.25
471.558	470.25
471.777	489.25
471.997	483.25
472.216	495.25
472.435	500.25
472.654	475.25
472.873	481.25
473.092	484.25
473.311	464.25
473.53	450.25
473.749	491.25
473.968	504.25
474.187	569.25
474.406	614.25
474.625	511.25
474.844	481.25
475.063	480.25
475.282	489.25
475.501	487.25
475.72	521.25
475.939	485.25
476.158	518.25
476.377	504.25
476.596	498.25
476.814	499.25
477.033	502.25
477.252	516.25
477.471	522.25
477.69	521.25
477.908	547.25
478.127	522.25
478.346	527.25
478.564	547.25
478.783	560.25
479.002	555.25
479.22	555.25
479.439	565.25
479.658	565.25
479.876	590.25
480.095	584.25
480.313	623.25
480.532	605.25
480.751	603.25
480.969	604.25
481.188	609.25
481.406	638.25
481.624	598.25
481.843	568.25
482.061	578.25
482.28	567.25
482.498	558.25
482.717	568.25
482.935	558.25
483.153	594.25
483.372	547.25
483.59	553.25
483.808	573.25
484.027	569.25
484.245	568.25
484.463	583.25
484.681	598.25
484.9	583.25
485.118	607.25
485.336	606.25
485.554	594.25
485.772	607.25
485.99	579.25
486.209	583.25
486.427	598.25
486.645	589.25
486.863	596.25
487.081	612.25
487.299	613.25
487.517	599.25
487.735	589.25
487.953	618.25
488.171	598.25
488.389	618.25
488.607	633.25
488.825	641.25
489.043	611.25
489.261	615.25
489.479	637.25
489.696	629.25
489.914	615.25
490.132	630.25
490.35	625.25
490.568	632.25
490.786	626.25
491.003	644.25
491.221	648.25
491.439	678.25
491.657	652.25
491.874	644.25
492.092	667.25
492.31	668.25
492.527	674.25
492.745	688.25
492.963	680.25
493.18	704.25
493.398	702.25
493.615	708.25
493.833	695.25
494.05	676.25
494.268	689.25
494.485	679.25
494.703	683.25
494.92	695.25
495.138	706.25
495.355	694.25
495.573	707.25
495.79	705.25
496.008	710.25
496.225	690.25
496.442	685.25
496.66	687.25
496.877	732.25
497.094	722.25
497.312	713.25
497.529	758.25
497.746	728.25
497.963	748.25
498.181	765.25
498.398	803.25
498.615	801.25
498.832	829.25
499.049	832.25
499.267	864.25
499.484	892.25
499.701	911.25
499.918	974.25
500.135	1005.25
500.352	1036.25
500.569	1091.25
500.786	1089.25
501.003	1055.25
501.22	1046.25
501.437	992.25
501.654	964.25
