Data from 1966.PennyLincolnUp.Lamp.En5.5.200Scan.071719.P1._HRD10591_14-12-20-913.txt Node
Date: Thu Jul 18 14:12:20 EDT 2019
User: cochatt
Spectrometer: HR+D1059
Trigger mode: 1
Integration Time (sec): 1.000000E-1
Scans to average: 1
Electric dark correction enabled: true
Nonlinearity correction enabled: false
Boxcar width: 0
XAxis mode: Wavelengths
Number of Pixels in Spectrum: 2048
>>>>>Begin Spectral Data<<<<<
223.165	-8.56
223.4	-8.56
223.635	-8.56
223.869	-24.56
224.104	-9.56
224.338	-18.56
224.573	-13.56
224.808	-17.56
225.042	-4.56
225.277	-6.56
225.511	1.44
225.746	5.44
225.98	9.44
226.215	4.44
226.449	17.44
226.683	28.44
226.918	11.44
227.152	25.44
227.387	27.44
227.621	33.44
227.856	41.44
228.09	47.44
228.324	47.44
228.559	47.44
228.793	44.44
229.027	62.44
229.262	60.44
229.496	88.44
229.73	90.44
229.964	99.44
230.199	92.44
230.433	82.44
230.667	93.44
230.901	85.44
231.136	86.44
231.37	95.44
231.604	95.44
231.838	111.44
232.072	91.44
232.306	91.44
232.541	103.44
232.775	82.44
233.009	86.44
233.243	101.44
233.477	100.44
233.711	109.44
233.945	86.44
234.179	91.44
234.413	92.44
234.647	97.44
234.881	96.44
235.115	94.44
235.349	96.44
235.583	102.44
235.817	101.44
236.051	95.44
236.285	84.44
236.519	109.44
236.753	98.44
236.987	106.44
237.221	102.44
237.455	130.44
237.689	101.44
237.922	116.44
238.156	94.44
238.39	95.44
238.624	92.44
238.858	82.44
239.091	87.44
239.325	82.44
239.559	94.44
239.793	94.44
240.027	88.44
240.26	94.44
240.494	116.44
240.728	102.44
240.961	118.44
241.195	122.44
241.429	99.44
241.662	108.44
241.896	91.44
242.13	92.44
242.363	99.44
242.597	97.44
242.83	84.44
243.064	92.44
243.298	98.44
243.531	98.44
243.765	91.44
243.998	95.44
244.232	104.44
244.465	104.44
244.699	94.44
244.932	89.44
245.166	92.44
245.399	104.44
245.633	104.44
245.866	107.44
246.099	108.44
246.333	96.44
246.566	96.44
246.8	93.44
247.033	105.44
247.266	107.44
247.5	106.44
247.733	100.44
247.966	106.44
248.2	117.44
248.433	111.44
248.666	117.44
248.899	110.44
249.133	126.44
249.366	127.44
249.599	119.44
249.832	125.44
250.066	122.44
250.299	111.44
250.532	112.44
250.765	132.44
250.998	136.44
251.231	129.44
251.465	128.44
251.698	111.44
251.931	128.44
252.164	111.44
252.397	118.44
252.63	112.44
252.863	116.44
253.096	122.44
253.329	136.44
253.562	140.44
253.795	135.44
254.028	116.44
254.261	136.44
254.494	136.44
254.727	139.44
254.96	160.44
255.193	122.44
255.426	133.44
255.659	130.44
255.892	135.44
256.124	148.44
256.357	142.44
256.59	125.44
256.823	140.44
257.056	125.44
257.289	132.44
257.521	134.44
257.754	132.44
257.987	121.44
258.22	123.44
258.452	142.44
258.685	136.44
258.918	120.44
259.151	107.44
259.383	138.44
259.616	130.44
259.849	138.44
260.081	128.44
260.314	129.44
260.547	135.44
260.779	132.44
261.012	139.44
261.244	131.44
261.477	138.44
261.71	135.44
261.942	151.44
262.175	133.44
262.407	120.44
262.64	130.44
262.872	125.44
263.105	134.44
263.337	105.44
263.57	123.44
263.802	122.44
264.035	123.44
264.267	134.44
264.499	128.44
264.732	130.44
264.964	128.44
265.197	144.44
265.429	128.44
265.661	117.44
265.894	113.44
266.126	126.44
266.358	132.44
266.591	130.44
266.823	134.44
267.055	120.44
267.287	126.44
267.52	135.44
267.752	131.44
267.984	125.44
268.216	141.44
268.448	134.44
268.681	152.44
268.913	132.44
269.145	146.44
269.377	145.44
269.609	136.44
269.841	141.44
270.073	144.44
270.306	151.44
270.538	161.44
270.77	158.44
271.002	156.44
271.234	164.44
271.466	143.44
271.698	153.44
271.93	167.44
272.162	166.44
272.394	164.44
272.626	169.44
272.858	146.44
273.09	152.44
273.322	133.44
273.553	152.44
273.785	141.44
274.017	134.44
274.249	134.44
274.481	134.44
274.713	148.44
274.945	141.44
275.176	135.44
275.408	149.44
275.64	142.44
275.872	142.44
276.104	144.44
276.335	136.44
276.567	151.44
276.799	138.44
277.031	156.44
277.262	168.44
277.494	177.44
277.726	153.44
277.957	168.44
278.189	140.44
278.421	131.44
278.652	152.44
278.884	150.44
279.115	142.44
279.347	142.44
279.579	152.44
279.81	152.44
280.042	147.44
280.273	156.44
280.505	147.44
280.736	136.44
280.968	130.44
281.199	145.44
281.431	152.44
281.662	145.44
281.894	136.44
282.125	149.44
282.356	145.44
282.588	179.44
282.819	175.44
283.051	140.44
283.282	156.44
283.513	150.44
283.745	151.44
283.976	165.44
284.207	154.44
284.439	152.44
284.67	149.44
284.901	175.44
285.132	151.44
285.364	160.44
285.595	145.44
285.826	143.44
286.057	152.44
286.288	149.44
286.52	168.44
286.751	140.44
286.982	154.44
287.213	142.44
287.444	161.44
287.675	156.44
287.906	172.44
288.138	167.44
288.369	154.44
288.6	164.44
288.831	156.44
289.062	156.44
289.293	162.44
289.524	150.44
289.755	168.44
289.986	162.44
290.217	159.44
290.448	147.44
290.679	156.44
290.91	166.44
291.141	139.44
291.371	184.44
291.602	163.44
291.833	168.44
292.064	158.44
292.295	159.44
292.526	150.44
292.757	162.44
292.987	161.44
293.218	169.44
293.449	145.44
293.68	153.44
293.91	156.44
294.141	157.44
294.372	150.44
294.603	146.44
294.833	167.44
295.064	155.44
295.295	167.44
295.525	158.44
295.756	160.44
295.987	162.44
296.217	167.44
296.448	178.44
296.679	166.44
296.909	162.44
297.14	167.44
297.37	158.44
297.601	144.44
297.831	163.44
298.062	162.44
298.292	158.44
298.523	153.44
298.753	180.44
298.984	166.44
299.214	147.44
299.445	176.44
299.675	164.44
299.905	162.44
300.136	152.44
300.366	159.44
300.597	166.44
300.827	147.44
301.057	173.44
301.288	158.44
301.518	162.44
301.748	187.44
301.979	170.44
302.209	185.44
302.439	154.44
302.669	164.44
302.9	154.44
303.13	164.44
303.36	158.44
303.59	164.44
303.82	180.44
304.051	170.44
304.281	189.44
304.511	164.44
304.741	169.44
304.971	165.44
305.201	182.44
305.431	174.44
305.661	157.44
305.891	170.44
306.121	184.44
306.352	172.44
306.582	160.44
306.812	173.44
307.042	166.44
307.272	160.44
307.502	172.44
307.731	170.44
307.961	168.44
308.191	165.44
308.421	169.44
308.651	167.44
308.881	163.44
309.111	174.44
309.341	176.44
309.571	196.44
309.8	184.44
310.03	189.44
310.26	178.44
310.49	176.44
310.72	192.44
310.949	187.44
311.179	213.44
311.409	200.44
311.639	184.44
311.868	175.44
312.098	179.44
312.328	178.44
312.557	194.44
312.787	185.44
313.017	199.44
313.246	201.44
313.476	193.44
313.706	196.44
313.935	181.44
314.165	182.44
314.394	198.44
314.624	196.44
314.853	191.44
315.083	187.44
315.312	191.44
315.542	177.44
315.771	187.44
316.001	184.44
316.23	174.44
316.46	191.44
316.689	185.44
316.919	186.44
317.148	182.44
317.377	199.44
317.607	196.44
317.836	185.44
318.065	184.44
318.295	172.44
318.524	196.44
318.753	187.44
318.983	202.44
319.212	190.44
319.441	207.44
319.67	186.44
319.9	199.44
320.129	175.44
320.358	190.44
320.587	172.44
320.816	191.44
321.046	182.44
321.275	177.44
321.504	187.44
321.733	189.44
321.962	207.44
322.191	189.44
322.42	209.44
322.649	202.44
322.878	202.44
323.108	204.44
323.337	194.44
323.566	237.44
323.795	229.44
324.024	250.44
324.253	299.44
324.482	426.44
324.71	647.44
324.939	852.44
325.168	671.44
325.397	350.44
325.626	248.44
325.855	222.44
326.084	202.44
326.313	217.44
326.542	234.44
326.77	251.44
326.999	294.44
327.228	382.44
327.457	570.44
327.686	654.44
327.914	421.44
328.143	303.44
328.372	254.44
328.6	251.44
328.829	247.44
329.058	254.44
329.287	260.44
329.515	244.44
329.744	227.44
329.972	221.44
330.201	245.44
330.43	278.44
330.658	269.44
330.887	285.44
331.115	261.44
331.344	264.44
331.572	223.44
331.801	234.44
332.03	234.44
332.258	228.44
332.486	223.44
332.715	215.44
332.943	215.44
333.172	215.44
333.4	217.44
333.629	221.44
333.857	232.44
334.085	226.44
334.314	240.44
334.542	243.44
334.771	266.44
334.999	236.44
335.227	213.44
335.455	223.44
335.684	217.44
335.912	194.44
336.14	198.44
336.369	217.44
336.597	210.44
336.825	234.44
337.053	211.44
337.281	211.44
337.51	192.44
337.738	210.44
337.966	210.44
338.194	215.44
338.422	198.44
338.65	205.44
338.878	217.44
339.106	207.44
339.334	201.44
339.562	207.44
339.79	195.44
340.018	221.44
340.246	201.44
340.474	209.44
340.702	192.44
340.93	213.44
341.158	202.44
341.386	195.44
341.614	220.44
341.842	206.44
342.07	208.44
342.298	209.44
342.526	201.44
342.754	194.44
342.981	202.44
343.209	192.44
343.437	213.44
343.665	207.44
343.893	213.44
344.12	202.44
344.348	203.44
344.576	209.44
344.804	213.44
345.031	223.44
345.259	221.44
345.487	216.44
345.714	220.44
345.942	192.44
346.17	193.44
346.397	209.44
346.625	188.44
346.853	187.44
347.08	211.44
347.308	200.44
347.535	206.44
347.763	200.44
347.99	193.44
348.218	200.44
348.445	208.44
348.673	193.44
348.9	210.44
349.128	187.44
349.355	211.44
349.583	187.44
349.81	206.44
350.037	196.44
350.265	182.44
350.492	194.44
350.72	197.44
350.947	182.44
351.174	199.44
351.402	209.44
351.629	193.44
351.856	201.44
352.083	209.44
352.311	213.44
352.538	208.44
352.765	204.44
352.992	210.44
353.22	199.44
353.447	202.44
353.674	204.44
353.901	199.44
354.128	197.44
354.355	192.44
354.583	182.44
354.81	202.44
355.037	185.44
355.264	174.44
355.491	196.44
355.718	174.44
355.945	169.44
356.172	193.44
356.399	186.44
356.626	171.44
356.853	191.44
357.08	192.44
357.307	186.44
357.534	176.44
357.761	182.44
357.988	190.44
358.215	208.44
358.441	187.44
358.668	190.44
358.895	207.44
359.122	191.44
359.349	206.44
359.576	196.44
359.802	198.44
360.029	224.44
360.256	212.44
360.483	192.44
360.709	200.44
360.936	208.44
361.163	230.44
361.39	201.44
361.616	207.44
361.843	199.44
362.07	200.44
362.296	205.44
362.523	194.44
362.749	196.44
362.976	192.44
363.203	186.44
363.429	199.44
363.656	199.44
363.882	193.44
364.109	197.44
364.335	190.44
364.562	193.44
364.788	193.44
365.015	177.44
365.241	195.44
365.468	203.44
365.694	205.44
365.92	215.44
366.147	197.44
366.373	202.44
366.599	184.44
366.826	173.44
367.052	193.44
367.278	202.44
367.505	185.44
367.731	196.44
367.957	196.44
368.184	182.44
368.41	196.44
368.636	201.44
368.862	183.44
369.089	190.44
369.315	189.44
369.541	191.44
369.767	196.44
369.993	187.44
370.219	194.44
370.445	198.44
370.672	208.44
370.898	176.44
371.124	192.44
371.35	206.44
371.576	199.44
371.802	180.44
372.028	200.44
372.254	192.44
372.48	169.44
372.706	199.44
372.932	188.44
373.158	188.44
373.384	190.44
373.61	192.44
373.835	183.44
374.061	190.44
374.287	185.44
374.513	201.44
374.739	205.44
374.965	192.44
375.191	198.44
375.416	209.44
375.642	174.44
375.868	199.44
376.094	194.44
376.319	200.44
376.545	209.44
376.771	186.44
376.997	202.44
377.222	197.44
377.448	200.44
377.674	182.44
377.899	205.44
378.125	180.44
378.35	196.44
378.576	193.44
378.802	198.44
379.027	184.44
379.253	192.44
379.478	200.44
379.704	177.44
379.929	186.44
380.155	189.44
380.38	199.44
380.606	184.44
380.831	201.44
381.057	201.44
381.282	189.44
381.507	200.44
381.733	200.44
381.958	199.44
382.184	193.44
382.409	189.44
382.634	192.44
382.86	205.44
383.085	188.44
383.31	190.44
383.535	190.44
383.761	203.44
383.986	207.44
384.211	201.44
384.436	206.44
384.662	212.44
384.887	204.44
385.112	184.44
385.337	191.44
385.562	205.44
385.787	208.44
386.013	216.44
386.238	209.44
386.463	221.44
386.688	209.44
386.913	199.44
387.138	209.44
387.363	212.44
387.588	222.44
387.813	212.44
388.038	205.44
388.263	196.44
388.488	214.44
388.713	208.44
388.938	187.44
389.163	198.44
389.387	206.44
389.612	221.44
389.837	207.44
390.062	223.44
390.287	208.44
390.512	205.44
390.736	218.44
390.961	210.44
391.186	191.44
391.411	214.44
391.636	206.44
391.86	208.44
392.085	220.44
392.31	215.44
392.534	205.44
392.759	220.44
392.984	212.44
393.208	214.44
393.433	243.44
393.658	225.44
393.882	208.44
394.107	205.44
394.331	215.44
394.556	215.44
394.78	191.44
395.005	205.44
395.229	206.44
395.454	212.44
395.678	221.44
395.903	216.44
396.127	226.44
396.352	217.44
396.576	207.44
396.801	217.44
397.025	204.44
397.249	224.44
397.474	215.44
397.698	204.44
397.922	207.44
398.147	215.44
398.371	223.44
398.595	220.44
398.82	228.44
399.044	221.44
399.268	237.44
399.492	266.44
399.717	282.44
399.941	271.44
400.165	273.44
400.389	277.44
400.613	240.44
400.837	254.44
401.062	230.44
401.286	247.44
401.51	223.44
401.734	230.44
401.958	218.44
402.182	234.44
402.406	248.44
402.63	237.44
402.854	241.44
403.078	219.44
403.302	222.44
403.526	265.44
403.75	251.44
403.974	233.44
404.198	237.44
404.422	253.44
404.645	241.44
404.869	264.44
405.093	256.44
405.317	271.44
405.541	272.44
405.765	264.44
405.988	244.44
406.212	256.44
406.436	265.44
406.66	296.44
406.883	244.44
407.107	273.44
407.331	271.44
407.555	308.44
407.778	298.44
408.002	287.44
408.226	264.44
408.449	264.44
408.673	266.44
408.896	260.44
409.12	272.44
409.344	277.44
409.567	239.44
409.791	231.44
410.014	245.44
410.238	238.44
410.461	227.44
410.685	236.44
410.908	244.44
411.132	249.44
411.355	276.44
411.578	249.44
411.802	247.44
412.025	239.44
412.249	248.44
412.472	260.44
412.695	275.44
412.919	242.44
413.142	240.44
413.365	239.44
413.589	217.44
413.812	222.44
414.035	245.44
414.258	222.44
414.482	236.44
414.705	238.44
414.928	233.44
415.151	234.44
415.374	219.44
415.597	216.44
415.821	234.44
416.044	240.44
416.267	232.44
416.49	238.44
416.713	220.44
416.936	228.44
417.159	240.44
417.382	239.44
417.605	239.44
417.828	247.44
418.051	241.44
418.274	251.44
418.497	230.44
418.72	223.44
418.943	237.44
419.166	239.44
419.389	251.44
419.611	246.44
419.834	251.44
420.057	253.44
420.28	237.44
420.503	243.44
420.726	234.44
420.948	228.44
421.171	256.44
421.394	265.44
421.617	238.44
421.839	234.44
422.062	246.44
422.285	238.44
422.507	270.44
422.73	292.44
422.953	283.44
423.175	239.44
423.398	264.44
423.621	246.44
423.843	266.44
424.066	258.44
424.288	245.44
424.511	254.44
424.733	279.44
424.956	310.44
425.178	290.44
425.401	297.44
425.623	274.44
425.846	252.44
426.068	262.44
426.291	258.44
426.513	262.44
426.735	250.44
426.958	264.44
427.18	298.44
427.402	340.44
427.625	377.44
427.847	332.44
428.069	278.44
428.292	273.44
428.514	245.44
428.736	241.44
428.958	224.44
429.181	240.44
429.403	235.44
429.625	236.44
429.847	252.44
430.069	262.44
430.292	270.44
430.514	231.44
430.736	223.44
430.958	238.44
431.18	240.44
431.402	232.44
431.624	233.44
431.846	218.44
432.068	213.44
432.29	217.44
432.512	236.44
432.734	228.44
432.956	235.44
433.178	237.44
433.4	249.44
433.622	233.44
433.844	228.44
434.066	227.44
434.287	220.44
434.509	231.44
434.731	236.44
434.953	231.44
435.175	241.44
435.397	247.44
435.618	258.44
435.84	256.44
436.062	289.44
436.284	311.44
436.505	272.44
436.727	235.44
436.949	239.44
437.17	231.44
437.392	242.44
437.614	246.44
437.835	250.44
438.057	305.44
438.278	324.44
438.5	312.44
438.721	340.44
438.943	314.44
439.165	269.44
439.386	246.44
439.608	246.44
439.829	244.44
440.05	252.44
440.272	266.44
440.493	262.44
440.715	257.44
440.936	244.44
441.158	234.44
441.379	235.44
441.6	248.44
441.822	265.44
442.043	278.44
442.264	301.44
442.486	305.44
442.707	283.44
442.928	248.44
443.149	266.44
443.371	269.44
443.592	282.44
443.813	314.44
444.034	329.44
444.255	271.44
444.476	252.44
444.698	274.44
444.919	233.44
445.14	343.44
445.361	306.44
445.582	284.44
445.803	310.44
446.024	332.44
446.245	304.44
446.466	289.44
446.687	263.44
446.908	244.44
447.129	248.44
447.35	244.44
447.571	241.44
447.792	236.44
448.013	222.44
448.234	236.44
448.455	244.44
448.675	287.44
448.896	347.44
449.117	279.44
449.338	265.44
449.559	320.44
449.779	352.44
450	285.44
450.221	237.44
450.442	220.44
450.662	223.44
450.883	229.44
451.104	235.44
451.324	234.44
451.545	220.44
451.766	223.44
451.986	200.44
452.207	217.44
452.428	229.44
452.648	210.44
452.869	217.44
453.089	226.44
453.31	230.44
453.53	219.44
453.751	217.44
453.971	224.44
454.192	256.44
454.412	213.44
454.633	196.44
454.853	208.44
455.073	223.44
455.294	217.44
455.514	244.44
455.734	225.44
455.955	226.44
456.175	220.44
456.395	202.44
456.616	200.44
456.836	197.44
457.056	200.44
457.276	190.44
457.497	194.44
457.717	204.44
457.937	203.44
458.157	200.44
458.377	209.44
458.598	216.44
458.818	239.44
459.038	295.44
459.258	285.44
459.478	232.44
459.698	215.44
459.918	249.44
460.138	218.44
460.358	241.44
460.578	230.44
460.798	239.44
461.018	222.44
461.238	235.44
461.458	240.44
461.678	223.44
461.898	229.44
462.118	227.44
462.338	251.44
462.558	213.44
462.777	222.44
462.997	246.44
463.217	262.44
463.437	248.44
463.657	236.44
463.876	242.44
464.096	241.44
464.316	246.44
464.536	253.44
464.755	256.44
464.975	247.44
465.195	268.44
465.414	308.44
465.634	277.44
465.854	228.44
466.073	215.44
466.293	223.44
466.512	218.44
466.732	215.44
466.951	238.44
467.171	221.44
467.391	239.44
467.61	224.44
467.829	234.44
468.049	234.44
468.268	224.44
468.488	228.44
468.707	212.44
468.927	217.44
469.146	230.44
469.365	205.44
469.585	203.44
469.804	222.44
470.023	219.44
470.243	221.44
470.462	225.44
470.681	246.44
470.901	236.44
471.12	246.44
471.339	222.44
471.558	226.44
471.777	247.44
471.997	225.44
472.216	222.44
472.435	246.44
472.654	220.44
472.873	216.44
473.092	216.44
473.311	206.44
473.53	207.44
473.749	233.44
473.968	241.44
474.187	277.44
474.406	278.44
474.625	243.44
474.844	225.44
475.063	216.44
475.282	223.44
475.501	206.44
475.72	231.44
475.939	208.44
476.158	229.44
476.377	226.44
476.596	220.44
476.814	245.44
477.033	227.44
477.252	235.44
477.471	211.44
477.69	241.44
477.908	235.44
478.127	226.44
478.346	240.44
478.564	260.44
478.783	260.44
479.002	247.44
479.22	237.44
479.439	271.44
479.658	269.44
479.876	267.44
480.095	250.44
480.313	261.44
480.532	260.44
480.751	253.44
480.969	277.44
481.188	318.44
481.406	312.44
481.624	272.44
481.843	257.44
482.061	268.44
482.28	235.44
482.498	238.44
482.717	233.44
482.935	247.44
483.153	264.44
483.372	272.44
483.59	262.44
483.808	259.44
484.027	250.44
484.245	265.44
484.463	252.44
484.681	269.44
484.9	260.44
485.118	256.44
485.336	273.44
485.554	279.44
485.772	257.44
485.99	251.44
486.209	261.44
486.427	249.44
486.645	260.44
486.863	279.44
487.081	264.44
487.299	273.44
487.517	271.44
487.735	265.44
487.953	265.44
488.171	272.44
488.389	280.44
488.607	271.44
488.825	270.44
489.043	254.44
489.261	290.44
489.479	278.44
489.696	258.44
489.914	264.44
490.132	279.44
490.35	293.44
490.568	284.44
490.786	287.44
491.003	270.44
491.221	302.44
491.439	301.44
491.657	308.44
491.874	322.44
492.092	319.44
492.31	310.44
492.527	309.44
492.745	302.44
492.963	315.44
493.18	312.44
493.398	318.44
493.615	315.44
493.833	314.44
494.05	321.44
494.268	312.44
494.485	311.44
494.703	322.44
494.92	326.44
495.138	281.44
495.355	320.44
495.573	305.44
495.79	320.44
496.008	320.44
496.225	292.44
496.442	287.44
496.66	321.44
496.877	305.44
497.094	306.44
497.312	313.44
497.529	306.44
497.746	331.44
497.963	330.44
498.181	313.44
498.398	327.44
498.615	328.44
498.832	338.44
499.049	338.44
499.267	322.44
499.484	378.44
499.701	369.44
499.918	392.44
500.135	402.44
500.352	429.44
500.569	428.44
500.786	413.44
501.003	420.44
501.22	408.44
501.437	392.44
501.654	352.44
501.871	374.44
502.088	365.44
502.305	350.44
502.522	325.44
502.739	322.44
