Data from 1966.PennyLincolnUp.Lamp.En5.5.200Scan.071719.P1.Scan2.head_HRD10591_14-18-10-167.txt Node
Date: Thu Jul 18 14:18:10 EDT 2019
User: cochatt
Spectrometer: HR+D1059
Trigger mode: 1
Integration Time (sec): 1.000000E-1
Scans to average: 1
Electric dark correction enabled: true
Nonlinearity correction enabled: false
Boxcar width: 0
XAxis mode: Wavelengths
Number of Pixels in Spectrum: 2048
>>>>>Begin Spectral Data<<<<<
223.165	-17.31
223.4	-17.31
223.635	-17.31
223.869	-23.31
224.104	-29.31
224.338	-20.31
224.573	-16.31
224.808	-17.31
225.042	-2.31
225.277	-6.31
225.511	-5.31
225.746	4.69
225.98	4.69
226.215	22.69
226.449	21.69
226.683	29.69
226.918	22.69
227.152	31.69
227.387	26.69
227.621	35.69
227.856	41.69
228.09	39.69
228.324	48.69
228.559	60.69
228.793	68.69
229.027	95.69
229.262	120.69
229.496	125.69
229.73	160.69
229.964	150.69
230.199	139.69
230.433	114.69
230.667	117.69
230.901	111.69
231.136	109.69
231.37	109.69
231.604	111.69
231.838	122.69
232.072	96.69
232.306	129.69
232.541	112.69
232.775	112.69
233.009	106.69
233.243	106.69
233.477	97.69
233.711	104.69
233.945	109.69
234.179	127.69
234.413	127.69
234.647	104.69
234.881	117.69
235.115	119.69
235.349	133.69
235.583	119.69
235.817	114.69
236.051	119.69
236.285	132.69
236.519	147.69
236.753	127.69
236.987	135.69
237.221	179.69
237.455	235.69
237.689	189.69
237.922	150.69
238.156	131.69
238.39	134.69
238.624	139.69
238.858	132.69
239.091	133.69
239.325	121.69
239.559	107.69
239.793	133.69
240.027	127.69
240.26	133.69
240.494	161.69
240.728	156.69
240.961	171.69
241.195	135.69
241.429	148.69
241.662	142.69
241.896	131.69
242.13	124.69
242.363	132.69
242.597	131.69
242.83	132.69
243.064	131.69
243.298	140.69
243.531	147.69
243.765	143.69
243.998	154.69
244.232	143.69
244.465	148.69
244.699	155.69
244.932	161.69
245.166	149.69
245.399	150.69
245.633	155.69
245.866	151.69
246.099	156.69
246.333	141.69
246.566	161.69
246.8	156.69
247.033	162.69
247.266	161.69
247.5	149.69
247.733	164.69
247.966	155.69
248.2	170.69
248.433	189.69
248.666	180.69
248.899	174.69
249.133	203.69
249.366	225.69
249.599	193.69
249.832	189.69
250.066	177.69
250.299	181.69
250.532	200.69
250.765	207.69
250.998	229.69
251.231	250.69
251.465	206.69
251.698	213.69
251.931	207.69
252.164	204.69
252.397	212.69
252.63	204.69
252.863	220.69
253.096	238.69
253.329	233.69
253.562	211.69
253.795	227.69
254.028	227.69
254.261	229.69
254.494	234.69
254.727	259.69
254.96	305.69
255.193	290.69
255.426	271.69
255.659	246.69
255.892	235.69
256.124	255.69
256.357	234.69
256.59	223.69
256.823	212.69
257.056	222.69
257.289	209.69
257.521	218.69
257.754	207.69
257.987	219.69
258.22	228.69
258.452	226.69
258.685	213.69
258.918	222.69
259.151	219.69
259.383	216.69
259.616	225.69
259.849	211.69
260.081	241.69
260.314	246.69
260.547	258.69
260.779	255.69
261.012	245.69
261.244	257.69
261.477	245.69
261.71	233.69
261.942	234.69
262.175	230.69
262.407	224.69
262.64	219.69
262.872	204.69
263.105	205.69
263.337	225.69
263.57	214.69
263.802	205.69
264.035	223.69
264.267	217.69
264.499	213.69
264.732	220.69
264.964	207.69
265.197	217.69
265.429	210.69
265.661	217.69
265.894	214.69
266.126	225.69
266.358	227.69
266.591	244.69
266.823	221.69
267.055	222.69
267.287	224.69
267.52	236.69
267.752	237.69
267.984	239.69
268.216	233.69
268.448	240.69
268.681	248.69
268.913	264.69
269.145	259.69
269.377	291.69
269.609	271.69
269.841	274.69
270.073	290.69
270.306	309.69
270.538	312.69
270.77	324.69
271.002	296.69
271.234	292.69
271.466	298.69
271.698	339.69
271.93	330.69
272.162	311.69
272.394	307.69
272.626	306.69
272.858	282.69
273.09	294.69
273.322	280.69
273.553	254.69
273.785	261.69
274.017	265.69
274.249	281.69
274.481	261.69
274.713	278.69
274.945	269.69
275.176	257.69
275.408	277.69
275.64	273.69
275.872	258.69
276.104	278.69
276.335	265.69
276.567	273.69
276.799	273.69
277.031	322.69
277.262	323.69
277.494	341.69
277.726	300.69
277.957	301.69
278.189	293.69
278.421	286.69
278.652	286.69
278.884	290.69
279.115	269.69
279.347	281.69
279.579	281.69
279.81	275.69
280.042	272.69
280.273	258.69
280.505	263.69
280.736	278.69
280.968	278.69
281.199	278.69
281.431	280.69
281.662	262.69
281.894	280.69
282.125	277.69
282.356	293.69
282.588	318.69
282.819	329.69
283.051	284.69
283.282	279.69
283.513	277.69
283.745	297.69
283.976	300.69
284.207	295.69
284.439	296.69
284.67	279.69
284.901	284.69
285.132	301.69
285.364	290.69
285.595	278.69
285.826	294.69
286.057	276.69
286.288	277.69
286.52	287.69
286.751	306.69
286.982	293.69
287.213	290.69
287.444	307.69
287.675	306.69
287.906	305.69
288.138	309.69
288.369	309.69
288.6	302.69
288.831	306.69
289.062	301.69
289.293	303.69
289.524	318.69
289.755	302.69
289.986	323.69
290.217	298.69
290.448	293.69
290.679	296.69
290.91	282.69
291.141	332.69
291.371	290.69
291.602	300.69
291.833	293.69
292.064	316.69
292.295	297.69
292.526	311.69
292.757	305.69
292.987	300.69
293.218	303.69
293.449	338.69
293.68	313.69
293.91	298.69
294.141	312.69
294.372	299.69
294.603	302.69
294.833	310.69
295.064	296.69
295.295	313.69
295.525	292.69
295.756	298.69
295.987	309.69
296.217	339.69
296.448	346.69
296.679	323.69
296.909	305.69
297.14	323.69
297.37	297.69
297.601	317.69
297.831	304.69
298.062	329.69
298.292	317.69
298.523	331.69
298.753	325.69
298.984	319.69
299.214	330.69
299.445	326.69
299.675	321.69
299.905	328.69
300.136	322.69
300.366	337.69
300.597	324.69
300.827	344.69
301.057	337.69
301.288	329.69
301.518	353.69
301.748	345.69
301.979	341.69
302.209	345.69
302.439	357.69
302.669	352.69
302.9	350.69
303.13	349.69
303.36	344.69
303.59	357.69
303.82	371.69
304.051	353.69
304.281	346.69
304.511	330.69
304.741	326.69
304.971	329.69
305.201	349.69
305.431	334.69
305.661	334.69
305.891	327.69
306.121	348.69
306.352	331.69
306.582	341.69
306.812	318.69
307.042	341.69
307.272	365.69
307.502	341.69
307.731	334.69
307.961	344.69
308.191	348.69
308.421	353.69
308.651	346.69
308.881	338.69
309.111	346.69
309.341	343.69
309.571	355.69
309.8	372.69
310.03	369.69
310.26	378.69
310.49	391.69
310.72	381.69
310.949	394.69
311.179	421.69
311.409	410.69
311.639	378.69
311.868	362.69
312.098	398.69
312.328	414.69
312.557	419.69
312.787	430.69
313.017	426.69
313.246	425.69
313.476	370.69
313.706	395.69
313.935	417.69
314.165	388.69
314.394	408.69
314.624	395.69
314.853	380.69
315.083	409.69
315.312	402.69
315.542	377.69
315.771	375.69
316.001	383.69
316.23	387.69
316.46	408.69
316.689	389.69
316.919	408.69
317.148	422.69
317.377	404.69
317.607	403.69
317.836	404.69
318.065	412.69
318.295	396.69
318.524	394.69
318.753	391.69
318.983	390.69
319.212	382.69
319.441	400.69
319.67	425.69
319.9	396.69
320.129	386.69
320.358	400.69
320.587	419.69
320.816	405.69
321.046	407.69
321.275	418.69
321.504	399.69
321.733	403.69
321.962	435.69
322.191	425.69
322.42	437.69
322.649	458.69
322.878	452.69
323.108	483.69
323.337	483.69
323.566	519.69
323.795	526.69
324.024	570.69
324.253	654.69
324.482	961.69
324.71	1483.69
324.939	2224.69
325.168	1916.69
325.397	974.69
325.626	653.69
325.855	566.69
326.084	505.69
326.313	503.69
326.542	474.69
326.77	557.69
326.999	648.69
327.228	879.69
327.457	1345.69
327.686	1683.69
327.914	1096.69
328.143	741.69
328.372	623.69
328.6	603.69
328.829	591.69
329.058	595.69
329.287	585.69
329.515	556.69
329.744	548.69
329.972	545.69
330.201	554.69
330.43	569.69
330.658	602.69
330.887	618.69
331.115	606.69
331.344	528.69
331.572	510.69
331.801	504.69
332.03	533.69
332.258	493.69
332.486	497.69
332.715	485.69
332.943	493.69
333.172	481.69
333.4	479.69
333.629	489.69
333.857	512.69
334.085	516.69
334.314	520.69
334.542	577.69
334.771	564.69
334.999	535.69
335.227	514.69
335.455	479.69
335.684	513.69
335.912	477.69
336.14	456.69
336.369	482.69
336.597	488.69
336.825	488.69
337.053	493.69
337.281	446.69
337.51	475.69
337.738	474.69
337.966	462.69
338.194	473.69
338.422	462.69
338.65	458.69
338.878	478.69
339.106	451.69
339.334	455.69
339.562	470.69
339.79	454.69
340.018	460.69
340.246	444.69
340.474	467.69
340.702	476.69
340.93	450.69
341.158	459.69
341.386	443.69
341.614	450.69
341.842	454.69
342.07	452.69
342.298	442.69
342.526	439.69
342.754	446.69
342.981	440.69
343.209	458.69
343.437	434.69
343.665	446.69
343.893	474.69
344.12	496.69
344.348	481.69
344.576	465.69
344.804	445.69
345.031	474.69
345.259	479.69
345.487	468.69
345.714	471.69
345.942	456.69
346.17	464.69
346.397	439.69
346.625	452.69
346.853	448.69
347.08	442.69
347.308	433.69
347.535	431.69
347.763	457.69
347.99	453.69
348.218	452.69
348.445	460.69
348.673	453.69
348.9	443.69
349.128	429.69
349.355	438.69
349.583	443.69
349.81	447.69
350.037	418.69
350.265	433.69
350.492	448.69
350.72	428.69
350.947	459.69
351.174	430.69
351.402	435.69
351.629	450.69
351.856	460.69
352.083	424.69
352.311	460.69
352.538	468.69
352.765	455.69
352.992	445.69
353.22	457.69
353.447	441.69
353.674	450.69
353.901	429.69
354.128	406.69
354.355	430.69
354.583	434.69
354.81	455.69
355.037	422.69
355.264	420.69
355.491	415.69
355.718	418.69
355.945	417.69
356.172	410.69
356.399	411.69
356.626	416.69
356.853	420.69
357.08	420.69
357.307	420.69
357.534	423.69
357.761	425.69
357.988	439.69
358.215	435.69
358.441	425.69
358.668	397.69
358.895	434.69
359.122	417.69
359.349	437.69
359.576	444.69
359.802	466.69
360.029	501.69
360.256	517.69
360.483	471.69
360.709	455.69
360.936	464.69
361.163	446.69
361.39	450.69
361.616	455.69
361.843	450.69
362.07	444.69
362.296	450.69
362.523	455.69
362.749	438.69
362.976	434.69
363.203	428.69
363.429	439.69
363.656	426.69
363.882	443.69
364.109	455.69
364.335	416.69
364.562	443.69
364.788	423.69
365.015	429.69
365.241	410.69
365.468	442.69
365.694	436.69
365.92	454.69
366.147	440.69
366.373	440.69
366.599	430.69
366.826	421.69
367.052	423.69
367.278	439.69
367.505	449.69
367.731	418.69
367.957	434.69
368.184	436.69
368.41	443.69
368.636	464.69
368.862	454.69
369.089	442.69
369.315	446.69
369.541	430.69
369.767	414.69
369.993	433.69
370.219	436.69
370.445	453.69
370.672	430.69
370.898	432.69
371.124	432.69
371.35	450.69
371.576	425.69
371.802	461.69
372.028	451.69
372.254	407.69
372.48	430.69
372.706	458.69
372.932	427.69
373.158	439.69
373.384	441.69
373.61	447.69
373.835	453.69
374.061	456.69
374.287	448.69
374.513	460.69
374.739	433.69
374.965	429.69
375.191	473.69
375.416	444.69
375.642	445.69
375.868	461.69
376.094	466.69
376.319	439.69
376.545	431.69
376.771	443.69
376.997	447.69
377.222	444.69
377.448	453.69
377.674	443.69
377.899	448.69
378.125	435.69
378.35	445.69
378.576	442.69
378.802	446.69
379.027	459.69
379.253	448.69
379.478	446.69
379.704	443.69
379.929	453.69
380.155	425.69
380.38	448.69
380.606	431.69
380.831	465.69
381.057	445.69
381.282	438.69
381.507	440.69
381.733	450.69
381.958	464.69
382.184	449.69
382.409	467.69
382.634	455.69
382.86	463.69
383.085	457.69
383.31	443.69
383.535	468.69
383.761	465.69
383.986	452.69
384.211	468.69
384.436	487.69
384.662	498.69
384.887	478.69
385.112	481.69
385.337	478.69
385.562	487.69
385.787	486.69
386.013	510.69
386.238	497.69
386.463	482.69
386.688	493.69
386.913	517.69
387.138	487.69
387.363	499.69
387.588	498.69
387.813	503.69
388.038	488.69
388.263	492.69
388.488	490.69
388.713	505.69
388.938	497.69
389.163	505.69
389.387	489.69
389.612	479.69
389.837	498.69
390.062	496.69
390.287	484.69
390.512	478.69
390.736	489.69
390.961	506.69
391.186	475.69
391.411	486.69
391.636	515.69
391.86	503.69
392.085	515.69
392.31	533.69
392.534	505.69
392.759	500.69
392.984	501.69
393.208	500.69
393.433	495.69
393.658	526.69
393.882	521.69
394.107	518.69
394.331	505.69
394.556	507.69
394.78	490.69
395.005	513.69
395.229	515.69
395.454	526.69
395.678	522.69
395.903	533.69
396.127	527.69
396.352	557.69
396.576	527.69
396.801	523.69
397.025	526.69
397.249	542.69
397.474	531.69
397.698	527.69
397.922	565.69
398.147	550.69
398.371	567.69
398.595	566.69
398.82	568.69
399.044	606.69
399.268	619.69
399.492	627.69
399.717	663.69
399.941	684.69
400.165	716.69
400.389	709.69
400.613	668.69
400.837	619.69
401.062	595.69
401.286	579.69
401.51	597.69
401.734	595.69
401.958	565.69
402.182	566.69
402.406	591.69
402.63	586.69
402.854	588.69
403.078	602.69
403.302	605.69
403.526	612.69
403.75	585.69
403.974	595.69
404.198	586.69
404.422	586.69
404.645	630.69
404.869	637.69
405.093	637.69
405.317	694.69
405.541	741.69
405.765	669.69
405.988	633.69
406.212	641.69
406.436	648.69
406.66	665.69
406.883	630.69
407.107	697.69
407.331	717.69
407.555	798.69
407.778	766.69
408.002	705.69
408.226	681.69
408.449	665.69
408.673	660.69
408.896	696.69
409.12	745.69
409.344	713.69
409.567	627.69
409.791	616.69
410.014	595.69
410.238	600.69
410.461	597.69
410.685	611.69
410.908	625.69
411.132	659.69
411.355	692.69
411.578	676.69
411.802	607.69
412.025	594.69
412.249	601.69
412.472	623.69
412.695	684.69
412.919	665.69
413.142	642.69
413.365	595.69
413.589	574.69
413.812	590.69
414.035	565.69
414.258	563.69
414.482	575.69
414.705	601.69
414.928	573.69
415.151	564.69
415.374	567.69
415.597	554.69
415.821	575.69
416.044	574.69
416.267	575.69
416.49	563.69
416.713	546.69
416.936	582.69
417.159	567.69
417.382	579.69
417.605	580.69
417.828	602.69
418.051	595.69
418.274	591.69
418.497	567.69
418.72	572.69
418.943	561.69
419.166	596.69
419.389	625.69
419.611	628.69
419.834	592.69
420.057	600.69
420.28	626.69
420.503	595.69
420.726	579.69
420.948	617.69
421.171	664.69
421.394	710.69
421.617	613.69
421.839	581.69
422.062	595.69
422.285	631.69
422.507	666.69
422.73	743.69
422.953	722.69
423.175	640.69
423.398	622.69
423.621	620.69
423.843	630.69
424.066	638.69
424.288	614.69
424.511	653.69
424.733	716.69
424.956	814.69
425.178	757.69
425.401	759.69
425.623	772.69
425.846	714.69
426.068	652.69
426.291	624.69
426.513	611.69
426.735	650.69
426.958	701.69
427.18	776.69
427.402	941.69
427.625	1005.69
427.847	883.69
428.069	759.69
428.292	685.69
428.514	639.69
428.736	611.69
428.958	608.69
429.181	582.69
429.403	594.69
429.625	588.69
429.847	634.69
430.069	685.69
430.292	705.69
430.514	596.69
430.736	593.69
430.958	570.69
431.18	555.69
431.402	578.69
431.624	563.69
431.846	530.69
432.068	550.69
432.29	566.69
432.512	561.69
432.734	548.69
432.956	546.69
433.178	575.69
433.4	598.69
433.622	551.69
433.844	561.69
434.066	543.69
434.287	571.69
434.509	570.69
434.731	591.69
434.953	592.69
435.175	586.69
435.397	651.69
435.618	639.69
435.84	699.69
436.062	784.69
436.284	859.69
436.505	720.69
436.727	647.69
436.949	620.69
437.17	614.69
437.392	595.69
437.614	598.69
437.835	617.69
438.057	743.69
438.278	860.69
438.5	862.69
438.721	928.69
438.943	897.69
439.165	705.69
439.386	661.69
439.608	660.69
439.829	641.69
440.05	657.69
440.272	723.69
440.493	684.69
440.715	614.69
440.936	606.69
441.158	594.69
441.379	598.69
441.6	626.69
441.822	625.69
442.043	664.69
442.264	762.69
442.486	812.69
442.707	694.69
442.928	667.69
443.149	650.69
443.371	662.69
443.592	722.69
443.813	819.69
444.034	915.69
444.255	722.69
444.476	669.69
444.698	647.69
444.919	641.69
445.14	773.69
445.361	706.69
445.582	664.69
445.803	751.69
446.024	866.69
446.245	867.69
446.466	824.69
446.687	673.69
446.908	637.69
447.129	607.69
447.35	610.69
447.571	580.69
447.792	587.69
448.013	594.69
448.234	606.69
448.455	647.69
448.675	781.69
448.896	937.69
449.117	790.69
449.338	733.69
449.559	858.69
449.779	987.69
450	739.69
450.221	644.69
450.442	584.69
450.662	579.69
450.883	554.69
451.104	580.69
451.324	599.69
451.545	553.69
451.766	548.69
451.986	531.69
452.207	531.69
452.428	489.69
452.648	545.69
452.869	533.69
453.089	525.69
453.31	534.69
453.53	518.69
453.751	502.69
453.971	534.69
454.192	557.69
454.412	551.69
454.633	529.69
454.853	505.69
455.073	511.69
455.294	553.69
455.514	618.69
455.734	615.69
455.955	529.69
456.175	485.69
456.395	491.69
456.616	493.69
456.836	517.69
457.056	495.69
457.276	492.69
457.497	479.69
457.717	492.69
457.937	483.69
458.157	499.69
458.377	531.69
458.598	562.69
458.818	607.69
459.038	680.69
459.258	711.69
459.478	601.69
459.698	579.69
459.918	557.69
460.138	582.69
460.358	559.69
460.578	566.69
460.798	577.69
461.018	602.69
461.238	579.69
461.458	586.69
461.678	553.69
461.898	590.69
462.118	574.69
462.338	594.69
462.558	595.69
462.777	595.69
462.997	617.69
463.217	638.69
463.437	659.69
463.657	610.69
463.876	631.69
464.096	603.69
464.316	620.69
464.536	597.69
464.755	613.69
464.975	615.69
465.195	654.69
465.414	728.69
465.634	642.69
465.854	602.69
466.073	596.69
466.293	588.69
466.512	578.69
466.732	527.69
466.951	554.69
467.171	537.69
467.391	549.69
467.61	546.69
467.829	544.69
468.049	548.69
468.268	532.69
468.488	545.69
468.707	551.69
468.927	522.69
469.146	542.69
469.365	552.69
469.585	522.69
469.804	540.69
470.023	561.69
470.243	563.69
470.462	567.69
470.681	556.69
470.901	567.69
471.12	538.69
471.339	563.69
471.558	546.69
471.777	569.69
471.997	543.69
472.216	535.69
472.435	580.69
472.654	592.69
472.873	572.69
473.092	550.69
473.311	559.69
473.53	554.69
473.749	581.69
473.968	609.69
474.187	706.69
474.406	729.69
474.625	618.69
474.844	571.69
475.063	558.69
475.282	568.69
475.501	544.69
475.72	557.69
475.939	557.69
476.158	578.69
476.377	595.69
476.596	541.69
476.814	591.69
477.033	581.69
477.252	589.69
477.471	594.69
477.69	605.69
477.908	622.69
478.127	606.69
478.346	600.69
478.564	638.69
478.783	610.69
479.002	617.69
479.22	644.69
479.439	650.69
479.658	651.69
479.876	653.69
480.095	684.69
480.313	721.69
480.532	699.69
480.751	690.69
480.969	671.69
481.188	739.69
481.406	783.69
481.624	710.69
481.843	683.69
482.061	659.69
482.28	660.69
482.498	647.69
482.717	630.69
482.935	646.69
483.153	659.69
483.372	637.69
483.59	639.69
483.808	650.69
484.027	650.69
484.245	649.69
484.463	659.69
484.681	681.69
484.9	658.69
485.118	681.69
485.336	649.69
485.554	672.69
485.772	694.69
485.99	681.69
486.209	674.69
486.427	671.69
486.645	663.69
486.863	700.69
487.081	696.69
487.299	703.69
487.517	723.69
487.735	698.69
487.953	670.69
488.171	681.69
488.389	716.69
488.607	701.69
488.825	687.69
489.043	713.69
489.261	708.69
489.479	720.69
489.696	731.69
489.914	726.69
490.132	726.69
490.35	730.69
490.568	738.69
490.786	739.69
491.003	744.69
491.221	774.69
491.439	761.69
491.657	781.69
491.874	802.69
492.092	810.69
492.31	784.69
492.527	820.69
492.745	809.69
492.963	809.69
493.18	832.69
493.398	802.69
493.615	815.69
493.833	827.69
494.05	831.69
494.268	814.69
494.485	804.69
494.703	836.69
494.92	838.69
495.138	800.69
495.355	819.69
495.573	810.69
495.79	827.69
496.008	822.69
496.225	822.69
496.442	823.69
496.66	857.69
496.877	817.69
497.094	833.69
497.312	863.69
497.529	836.69
497.746	839.69
497.963	883.69
498.181	892.69
498.398	948.69
498.615	954.69
498.832	959.69
499.049	954.69
499.267	978.69
499.484	997.69
499.701	1062.69
499.918	1095.69
500.135	1165.69
500.352	1171.69
500.569	1249.69
500.786	1203.69
501.003	1209.69
501.22	1169.69
501.437	1127.69
501.654	1099.69
