Data from 1966.PennyLincolnUp.Lamp.En5.5.200Scan.071719.P1.Scan2.head_HRD10591_14-17-39-125.txt Node
Date: Thu Jul 18 14:17:39 EDT 2019
User: cochatt
Spectrometer: HR+D1059
Trigger mode: 1
Integration Time (sec): 1.000000E-1
Scans to average: 1
Electric dark correction enabled: true
Nonlinearity correction enabled: false
Boxcar width: 0
XAxis mode: Wavelengths
Number of Pixels in Spectrum: 2048
>>>>>Begin Spectral Data<<<<<
223.165	-13.75
223.4	-13.75
223.635	-13.75
223.869	-20.75
224.104	-11.75
224.338	-24.75
224.573	-18.75
224.808	-17.75
225.042	-12.75
225.277	5.25
225.511	9.25
225.746	6.25
225.98	5.25
226.215	9.25
226.449	11.25
226.683	19.25
226.918	29.25
227.152	25.25
227.387	34.25
227.621	33.25
227.856	21.25
228.09	42.25
228.324	64.25
228.559	54.25
228.793	71.25
229.027	95.25
229.262	107.25
229.496	106.25
229.73	140.25
229.964	147.25
230.199	129.25
230.433	123.25
230.667	104.25
230.901	101.25
231.136	93.25
231.37	118.25
231.604	103.25
231.838	101.25
232.072	119.25
232.306	104.25
232.541	103.25
232.775	104.25
233.009	119.25
233.243	109.25
233.477	107.25
233.711	121.25
233.945	108.25
234.179	113.25
234.413	119.25
234.647	118.25
234.881	113.25
235.115	124.25
235.349	128.25
235.583	117.25
235.817	123.25
236.051	138.25
236.285	122.25
236.519	134.25
236.753	125.25
236.987	146.25
237.221	154.25
237.455	220.25
237.689	188.25
237.922	126.25
238.156	129.25
238.39	141.25
238.624	126.25
238.858	134.25
239.091	125.25
239.325	125.25
239.559	130.25
239.793	137.25
240.027	127.25
240.26	147.25
240.494	141.25
240.728	129.25
240.961	177.25
241.195	140.25
241.429	132.25
241.662	142.25
241.896	121.25
242.13	135.25
242.363	141.25
242.597	127.25
242.83	135.25
243.064	134.25
243.298	144.25
243.531	151.25
243.765	144.25
243.998	126.25
244.232	139.25
244.465	142.25
244.699	147.25
244.932	133.25
245.166	132.25
245.399	137.25
245.633	160.25
245.866	139.25
246.099	151.25
246.333	159.25
246.566	143.25
246.8	157.25
247.033	149.25
247.266	147.25
247.5	166.25
247.733	168.25
247.966	170.25
248.2	178.25
248.433	165.25
248.666	171.25
248.899	182.25
249.133	209.25
249.366	202.25
249.599	196.25
249.832	180.25
250.066	202.25
250.299	188.25
250.532	191.25
250.765	204.25
250.998	205.25
251.231	230.25
251.465	211.25
251.698	201.25
251.931	198.25
252.164	191.25
252.397	207.25
252.63	210.25
252.863	205.25
253.096	226.25
253.329	217.25
253.562	224.25
253.795	202.25
254.028	226.25
254.261	207.25
254.494	220.25
254.727	223.25
254.96	259.25
255.193	238.25
255.426	233.25
255.659	215.25
255.892	243.25
256.124	233.25
256.357	230.25
256.59	229.25
256.823	225.25
257.056	206.25
257.289	200.25
257.521	199.25
257.754	217.25
257.987	219.25
258.22	205.25
258.452	195.25
258.685	203.25
258.918	217.25
259.151	199.25
259.383	217.25
259.616	213.25
259.849	221.25
260.081	233.25
260.314	243.25
260.547	230.25
260.779	259.25
261.012	233.25
261.244	229.25
261.477	230.25
261.71	217.25
261.942	205.25
262.175	225.25
262.407	227.25
262.64	210.25
262.872	209.25
263.105	204.25
263.337	224.25
263.57	216.25
263.802	220.25
264.035	205.25
264.267	216.25
264.499	218.25
264.732	215.25
264.964	207.25
265.197	208.25
265.429	206.25
265.661	197.25
265.894	213.25
266.126	214.25
266.358	220.25
266.591	223.25
266.823	200.25
267.055	200.25
267.287	220.25
267.52	235.25
267.752	221.25
267.984	218.25
268.216	216.25
268.448	223.25
268.681	222.25
268.913	233.25
269.145	234.25
269.377	244.25
269.609	262.25
269.841	265.25
270.073	265.25
270.306	299.25
270.538	301.25
270.77	298.25
271.002	307.25
271.234	281.25
271.466	278.25
271.698	311.25
271.93	302.25
272.162	303.25
272.394	290.25
272.626	281.25
272.858	283.25
273.09	258.25
273.322	282.25
273.553	269.25
273.785	285.25
274.017	267.25
274.249	283.25
274.481	252.25
274.713	272.25
274.945	270.25
275.176	261.25
275.408	262.25
275.64	268.25
275.872	253.25
276.104	265.25
276.335	264.25
276.567	269.25
276.799	279.25
277.031	297.25
277.262	316.25
277.494	310.25
277.726	292.25
277.957	287.25
278.189	263.25
278.421	269.25
278.652	265.25
278.884	261.25
279.115	265.25
279.347	266.25
279.579	265.25
279.81	271.25
280.042	255.25
280.273	262.25
280.505	251.25
280.736	271.25
280.968	266.25
281.199	251.25
281.431	262.25
281.662	264.25
281.894	264.25
282.125	275.25
282.356	268.25
282.588	288.25
282.819	295.25
283.051	267.25
283.282	254.25
283.513	267.25
283.745	277.25
283.976	267.25
284.207	297.25
284.439	289.25
284.67	273.25
284.901	272.25
285.132	262.25
285.364	262.25
285.595	262.25
285.826	267.25
286.057	266.25
286.288	293.25
286.52	285.25
286.751	277.25
286.982	291.25
287.213	284.25
287.444	297.25
287.675	269.25
287.906	282.25
288.138	298.25
288.369	294.25
288.6	301.25
288.831	298.25
289.062	291.25
289.293	286.25
289.524	297.25
289.755	284.25
289.986	288.25
290.217	275.25
290.448	281.25
290.679	299.25
290.91	294.25
291.141	276.25
291.371	301.25
291.602	289.25
291.833	276.25
292.064	292.25
292.295	295.25
292.526	307.25
292.757	289.25
292.987	281.25
293.218	293.25
293.449	285.25
293.68	284.25
293.91	280.25
294.141	286.25
294.372	294.25
294.603	295.25
294.833	289.25
295.064	285.25
295.295	312.25
295.525	300.25
295.756	282.25
295.987	297.25
296.217	331.25
296.448	313.25
296.679	307.25
296.909	297.25
297.14	285.25
297.37	313.25
297.601	294.25
297.831	294.25
298.062	291.25
298.292	301.25
298.523	292.25
298.753	288.25
298.984	297.25
299.214	301.25
299.445	315.25
299.675	315.25
299.905	310.25
300.136	300.25
300.366	315.25
300.597	309.25
300.827	318.25
301.057	325.25
301.288	315.25
301.518	321.25
301.748	332.25
301.979	307.25
302.209	337.25
302.439	334.25
302.669	318.25
302.9	338.25
303.13	323.25
303.36	338.25
303.59	323.25
303.82	324.25
304.051	333.25
304.281	334.25
304.511	329.25
304.741	324.25
304.971	319.25
305.201	317.25
305.431	326.25
305.661	325.25
305.891	325.25
306.121	334.25
306.352	344.25
306.582	333.25
306.812	331.25
307.042	324.25
307.272	341.25
307.502	335.25
307.731	337.25
307.961	325.25
308.191	329.25
308.421	329.25
308.651	339.25
308.881	350.25
309.111	334.25
309.341	338.25
309.571	348.25
309.8	341.25
310.03	351.25
310.26	346.25
310.49	350.25
310.72	373.25
310.949	392.25
311.179	403.25
311.409	375.25
311.639	373.25
311.868	385.25
312.098	366.25
312.328	375.25
312.557	393.25
312.787	408.25
313.017	376.25
313.246	377.25
313.476	379.25
313.706	372.25
313.935	356.25
314.165	387.25
314.394	385.25
314.624	388.25
314.853	371.25
315.083	389.25
315.312	383.25
315.542	375.25
315.771	378.25
316.001	357.25
316.23	339.25
316.46	362.25
316.689	366.25
316.919	374.25
317.148	359.25
317.377	391.25
317.607	376.25
317.836	371.25
318.065	371.25
318.295	378.25
318.524	366.25
318.753	379.25
318.983	371.25
319.212	377.25
319.441	382.25
319.67	370.25
319.9	361.25
320.129	377.25
320.358	383.25
320.587	378.25
320.816	374.25
321.046	404.25
321.275	377.25
321.504	390.25
321.733	373.25
321.962	405.25
322.191	419.25
322.42	411.25
322.649	438.25
322.878	418.25
323.108	450.25
323.337	482.25
323.566	454.25
323.795	471.25
324.024	530.25
324.253	629.25
324.482	858.25
324.71	1363.25
324.939	2005.25
325.168	1754.25
325.397	883.25
325.626	609.25
325.855	507.25
326.084	489.25
326.313	467.25
326.542	476.25
326.77	527.25
326.999	587.25
327.228	787.25
327.457	1213.25
327.686	1553.25
327.914	1003.25
328.143	645.25
328.372	591.25
328.6	531.25
328.829	529.25
329.058	540.25
329.287	551.25
329.515	529.25
329.744	476.25
329.972	500.25
330.201	504.25
330.43	545.25
330.658	556.25
330.887	558.25
331.115	548.25
331.344	517.25
331.572	472.25
331.801	458.25
332.03	470.25
332.258	462.25
332.486	468.25
332.715	441.25
332.943	427.25
333.172	469.25
333.4	435.25
333.629	453.25
333.857	453.25
334.085	493.25
334.314	488.25
334.542	528.25
334.771	526.25
334.999	512.25
335.227	477.25
335.455	456.25
335.684	464.25
335.912	455.25
336.14	468.25
336.369	436.25
336.597	444.25
336.825	464.25
337.053	460.25
337.281	450.25
337.51	430.25
337.738	464.25
337.966	453.25
338.194	460.25
338.422	442.25
338.65	439.25
338.878	427.25
339.106	411.25
339.334	432.25
339.562	434.25
339.79	436.25
340.018	421.25
340.246	436.25
340.474	455.25
340.702	428.25
340.93	442.25
341.158	441.25
341.386	447.25
341.614	435.25
341.842	423.25
342.07	419.25
342.298	415.25
342.526	410.25
342.754	411.25
342.981	410.25
343.209	396.25
343.437	434.25
343.665	438.25
343.893	450.25
344.12	429.25
344.348	427.25
344.576	442.25
344.804	444.25
345.031	462.25
345.259	453.25
345.487	449.25
345.714	444.25
345.942	439.25
346.17	425.25
346.397	427.25
346.625	410.25
346.853	426.25
347.08	427.25
347.308	440.25
347.535	439.25
347.763	436.25
347.99	435.25
348.218	436.25
348.445	430.25
348.673	413.25
348.9	436.25
349.128	418.25
349.355	416.25
349.583	418.25
349.81	403.25
350.037	409.25
350.265	398.25
350.492	406.25
350.72	415.25
350.947	420.25
351.174	412.25
351.402	445.25
351.629	428.25
351.856	449.25
352.083	436.25
352.311	437.25
352.538	447.25
352.765	458.25
352.992	415.25
353.22	410.25
353.447	410.25
353.674	405.25
353.901	427.25
354.128	399.25
354.355	387.25
354.583	406.25
354.81	400.25
355.037	393.25
355.264	379.25
355.491	403.25
355.718	397.25
355.945	390.25
356.172	398.25
356.399	406.25
356.626	406.25
356.853	405.25
357.08	409.25
357.307	384.25
357.534	402.25
357.761	395.25
357.988	396.25
358.215	380.25
358.441	392.25
358.668	405.25
358.895	401.25
359.122	415.25
359.349	423.25
359.576	439.25
359.802	411.25
360.029	454.25
360.256	472.25
360.483	454.25
360.709	434.25
360.936	409.25
361.163	441.25
361.39	439.25
361.616	424.25
361.843	437.25
362.07	433.25
362.296	435.25
362.523	409.25
362.749	435.25
362.976	427.25
363.203	405.25
363.429	424.25
363.656	409.25
363.882	436.25
364.109	414.25
364.335	411.25
364.562	426.25
364.788	412.25
365.015	400.25
365.241	394.25
365.468	419.25
365.694	443.25
365.92	411.25
366.147	418.25
366.373	389.25
366.599	405.25
366.826	397.25
367.052	428.25
367.278	415.25
367.505	421.25
367.731	412.25
367.957	433.25
368.184	416.25
368.41	409.25
368.636	441.25
368.862	441.25
369.089	426.25
369.315	398.25
369.541	429.25
369.767	400.25
369.993	415.25
370.219	422.25
370.445	435.25
370.672	433.25
370.898	421.25
371.124	429.25
371.35	400.25
371.576	427.25
371.802	424.25
372.028	411.25
372.254	416.25
372.48	412.25
372.706	427.25
372.932	420.25
373.158	442.25
373.384	434.25
373.61	423.25
373.835	409.25
374.061	408.25
374.287	408.25
374.513	446.25
374.739	433.25
374.965	449.25
375.191	438.25
375.416	417.25
375.642	442.25
375.868	427.25
376.094	421.25
376.319	443.25
376.545	433.25
376.771	428.25
376.997	431.25
377.222	412.25
377.448	424.25
377.674	425.25
377.899	413.25
378.125	399.25
378.35	421.25
378.576	395.25
378.802	408.25
379.027	413.25
379.253	417.25
379.478	414.25
379.704	423.25
379.929	421.25
380.155	433.25
380.38	415.25
380.606	411.25
380.831	419.25
381.057	460.25
381.282	429.25
381.507	423.25
381.733	441.25
381.958	442.25
382.184	429.25
382.409	400.25
382.634	422.25
382.86	426.25
383.085	443.25
383.31	436.25
383.535	434.25
383.761	423.25
383.986	477.25
384.211	429.25
384.436	453.25
384.662	454.25
384.887	450.25
385.112	450.25
385.337	441.25
385.562	470.25
385.787	444.25
386.013	473.25
386.238	463.25
386.463	458.25
386.688	455.25
386.913	452.25
387.138	454.25
387.363	450.25
387.588	468.25
387.813	461.25
388.038	463.25
388.263	441.25
388.488	473.25
388.713	474.25
388.938	478.25
389.163	463.25
389.387	478.25
389.612	477.25
389.837	479.25
390.062	479.25
390.287	457.25
390.512	476.25
390.736	470.25
390.961	468.25
391.186	472.25
391.411	452.25
391.636	490.25
391.86	483.25
392.085	488.25
392.31	491.25
392.534	495.25
392.759	488.25
392.984	485.25
393.208	499.25
393.433	488.25
393.658	492.25
393.882	474.25
394.107	483.25
394.331	478.25
394.556	499.25
394.78	495.25
395.005	479.25
395.229	506.25
395.454	490.25
395.678	511.25
395.903	513.25
396.127	521.25
396.352	523.25
396.576	506.25
396.801	493.25
397.025	504.25
397.249	517.25
397.474	522.25
397.698	530.25
397.922	515.25
398.147	535.25
398.371	542.25
398.595	542.25
398.82	557.25
399.044	541.25
399.268	551.25
399.492	592.25
399.717	633.25
399.941	661.25
400.165	667.25
400.389	674.25
400.613	625.25
400.837	578.25
401.062	593.25
401.286	585.25
401.51	547.25
401.734	559.25
401.958	535.25
402.182	547.25
402.406	559.25
402.63	573.25
402.854	540.25
403.078	575.25
403.302	590.25
403.526	563.25
403.75	575.25
403.974	582.25
404.198	577.25
404.422	571.25
404.645	576.25
404.869	574.25
405.093	623.25
405.317	669.25
405.541	650.25
405.765	630.25
405.988	612.25
406.212	585.25
406.436	634.25
406.66	637.25
406.883	609.25
407.107	637.25
407.331	675.25
407.555	750.25
407.778	730.25
408.002	677.25
408.226	635.25
408.449	624.25
408.673	637.25
408.896	668.25
409.12	712.25
409.344	647.25
409.567	588.25
409.791	574.25
410.014	592.25
410.238	569.25
410.461	600.25
410.685	573.25
410.908	599.25
411.132	643.25
411.355	661.25
411.578	613.25
411.802	573.25
412.025	570.25
412.249	568.25
412.472	617.25
412.695	639.25
412.919	636.25
413.142	582.25
413.365	556.25
413.589	565.25
413.812	545.25
414.035	556.25
414.258	536.25
414.482	535.25
414.705	532.25
414.928	547.25
415.151	557.25
415.374	536.25
415.597	555.25
415.821	537.25
416.044	522.25
416.267	537.25
416.49	524.25
416.713	541.25
416.936	534.25
417.159	533.25
417.382	543.25
417.605	519.25
417.828	523.25
418.051	549.25
418.274	559.25
418.497	552.25
418.72	550.25
418.943	547.25
419.166	575.25
419.389	604.25
419.611	593.25
419.834	596.25
420.057	581.25
420.28	552.25
420.503	566.25
420.726	567.25
420.948	563.25
421.171	612.25
421.394	645.25
421.617	585.25
421.839	568.25
422.062	561.25
422.285	566.25
422.507	621.25
422.73	678.25
422.953	669.25
423.175	626.25
423.398	585.25
423.621	566.25
423.843	598.25
424.066	606.25
424.288	600.25
424.511	618.25
424.733	643.25
424.956	773.25
425.178	728.25
425.401	742.25
425.623	765.25
425.846	653.25
426.068	593.25
426.291	623.25
426.513	614.25
426.735	618.25
426.958	654.25
427.18	722.25
427.402	881.25
427.625	953.25
427.847	818.25
428.069	755.25
428.292	653.25
428.514	589.25
428.736	576.25
428.958	582.25
429.181	560.25
429.403	558.25
429.625	561.25
429.847	597.25
430.069	694.25
430.292	657.25
430.514	577.25
430.736	551.25
430.958	533.25
431.18	527.25
431.402	545.25
431.624	505.25
431.846	522.25
432.068	520.25
432.29	528.25
432.512	533.25
432.734	549.25
432.956	524.25
433.178	539.25
433.4	530.25
433.622	527.25
433.844	525.25
434.066	513.25
434.287	526.25
434.509	556.25
434.731	557.25
434.953	558.25
435.175	570.25
435.397	596.25
435.618	607.25
435.84	668.25
436.062	755.25
436.284	815.25
436.505	687.25
436.727	616.25
436.949	582.25
437.17	580.25
437.392	557.25
437.614	554.25
437.835	601.25
438.057	706.25
438.278	797.25
438.5	817.25
438.721	889.25
438.943	840.25
439.165	672.25
439.386	609.25
439.608	617.25
439.829	597.25
440.05	639.25
440.272	679.25
440.493	629.25
440.715	589.25
440.936	584.25
441.158	590.25
441.379	567.25
441.6	578.25
441.822	575.25
442.043	633.25
442.264	713.25
442.486	777.25
442.707	622.25
442.928	634.25
443.149	617.25
443.371	633.25
443.592	685.25
443.813	801.25
444.034	862.25
444.255	720.25
444.476	611.25
444.698	611.25
444.919	611.25
445.14	710.25
445.361	683.25
445.582	643.25
445.803	700.25
446.024	810.25
446.245	837.25
446.466	740.25
446.687	642.25
446.908	605.25
447.129	577.25
447.35	569.25
447.571	541.25
447.792	523.25
448.013	561.25
448.234	568.25
448.455	627.25
448.675	723.25
448.896	856.25
449.117	730.25
449.338	706.25
449.559	792.25
449.779	895.25
450	718.25
450.221	606.25
450.442	558.25
450.662	562.25
450.883	549.25
451.104	554.25
451.324	563.25
451.545	543.25
451.766	535.25
451.986	497.25
452.207	498.25
452.428	499.25
452.648	504.25
452.869	485.25
453.089	521.25
453.31	519.25
453.53	539.25
453.751	490.25
453.971	491.25
454.192	521.25
454.412	493.25
454.633	493.25
454.853	490.25
455.073	496.25
455.294	536.25
455.514	579.25
455.734	581.25
455.955	502.25
456.175	478.25
456.395	461.25
456.616	470.25
456.836	449.25
457.056	470.25
457.276	475.25
457.497	452.25
457.717	463.25
457.937	489.25
458.157	477.25
458.377	468.25
458.598	536.25
458.818	565.25
459.038	639.25
459.258	652.25
459.478	557.25
459.698	540.25
459.918	532.25
460.138	514.25
460.358	553.25
460.578	539.25
460.798	541.25
461.018	561.25
461.238	543.25
461.458	541.25
461.678	511.25
461.898	536.25
462.118	541.25
462.338	557.25
462.558	557.25
462.777	575.25
462.997	608.25
463.217	605.25
463.437	611.25
463.657	592.25
463.876	586.25
464.096	568.25
464.316	581.25
464.536	580.25
464.755	586.25
464.975	601.25
465.195	618.25
465.414	665.25
465.634	609.25
465.854	569.25
466.073	562.25
466.293	552.25
466.512	515.25
466.732	528.25
466.951	499.25
467.171	501.25
467.391	521.25
467.61	523.25
467.829	509.25
468.049	525.25
468.268	519.25
468.488	523.25
468.707	499.25
468.927	509.25
469.146	493.25
469.365	498.25
469.585	516.25
469.804	514.25
470.023	500.25
470.243	531.25
470.462	513.25
470.681	544.25
470.901	537.25
471.12	524.25
471.339	533.25
471.558	515.25
471.777	556.25
471.997	532.25
472.216	533.25
472.435	570.25
472.654	551.25
472.873	515.25
473.092	510.25
473.311	546.25
473.53	521.25
473.749	521.25
473.968	545.25
474.187	670.25
474.406	699.25
474.625	583.25
474.844	533.25
475.063	515.25
475.282	535.25
475.501	519.25
475.72	540.25
475.939	531.25
476.158	556.25
476.377	550.25
476.596	536.25
476.814	574.25
477.033	546.25
477.252	565.25
477.471	543.25
477.69	590.25
477.908	586.25
478.127	574.25
478.346	568.25
478.564	602.25
478.783	591.25
479.002	601.25
479.22	610.25
479.439	608.25
479.658	619.25
479.876	628.25
480.095	639.25
480.313	668.25
480.532	650.25
480.751	661.25
480.969	661.25
481.188	693.25
481.406	737.25
481.624	674.25
481.843	642.25
482.061	644.25
482.28	627.25
482.498	629.25
482.717	625.25
482.935	618.25
483.153	617.25
483.372	615.25
483.59	632.25
483.808	590.25
484.027	607.25
484.245	602.25
484.463	620.25
484.681	634.25
484.9	613.25
485.118	655.25
485.336	649.25
485.554	626.25
485.772	646.25
485.99	630.25
486.209	655.25
486.427	641.25
486.645	650.25
486.863	676.25
487.081	673.25
487.299	684.25
487.517	641.25
487.735	629.25
487.953	689.25
488.171	662.25
488.389	659.25
488.607	672.25
488.825	641.25
489.043	638.25
489.261	697.25
489.479	706.25
489.696	680.25
489.914	671.25
490.132	693.25
490.35	701.25
490.568	670.25
490.786	674.25
491.003	687.25
491.221	708.25
491.439	742.25
491.657	723.25
491.874	757.25
492.092	750.25
492.31	747.25
492.527	749.25
492.745	734.25
492.963	736.25
493.18	779.25
493.398	757.25
493.615	773.25
493.833	749.25
494.05	772.25
494.268	777.25
494.485	789.25
494.703	754.25
494.92	770.25
495.138	788.25
495.355	784.25
495.573	808.25
495.79	787.25
496.008	786.25
496.225	790.25
496.442	778.25
496.66	781.25
496.877	817.25
497.094	789.25
497.312	779.25
497.529	823.25
497.746	810.25
497.963	847.25
498.181	861.25
498.398	854.25
498.615	871.25
498.832	906.25
499.049	918.25
499.267	915.25
499.484	971.25
499.701	1011.25
499.918	1041.25
500.135	1083.25
500.352	1138.25
500.569	1150.25
500.786	1141.25
501.003	1137.25
501.22	1110.25
501.437	1076.25
501.654	1037.25
