Data from 1966.PennyLincolnUp.Lamp.En5.5.200Scan.071719.P1._HRD10591_14-13-30-913.txt Node
Date: Thu Jul 18 14:13:30 EDT 2019
User: cochatt
Spectrometer: HR+D1059
Trigger mode: 1
Integration Time (sec): 1.000000E-1
Scans to average: 1
Electric dark correction enabled: true
Nonlinearity correction enabled: false
Boxcar width: 0
XAxis mode: Wavelengths
Number of Pixels in Spectrum: 2048
>>>>>Begin Spectral Data<<<<<
223.165	-21.44
223.4	-21.44
223.635	-21.44
223.869	-18.44
224.104	-22.44
224.338	-10.44
224.573	-11.44
224.808	-16.44
225.042	-9.44
225.277	-11.44
225.511	-13.44
225.746	6.56
225.98	13.56
226.215	20.56
226.449	18.56
226.683	14.56
226.918	20.56
227.152	40.56
227.387	39.56
227.621	30.56
227.856	29.56
228.09	49.56
228.324	49.56
228.559	57.56
228.793	72.56
229.027	85.56
229.262	83.56
229.496	90.56
229.73	105.56
229.964	103.56
230.199	97.56
230.433	97.56
230.667	100.56
230.901	87.56
231.136	85.56
231.37	97.56
231.604	94.56
231.838	88.56
232.072	97.56
232.306	103.56
232.541	92.56
232.775	97.56
233.009	94.56
233.243	108.56
233.477	84.56
233.711	99.56
233.945	94.56
234.179	101.56
234.413	103.56
234.647	102.56
234.881	116.56
235.115	99.56
235.349	80.56
235.583	107.56
235.817	112.56
236.051	108.56
236.285	90.56
236.519	93.56
236.753	107.56
236.987	105.56
237.221	119.56
237.455	128.56
237.689	114.56
237.922	111.56
238.156	96.56
238.39	105.56
238.624	91.56
238.858	93.56
239.091	90.56
239.325	100.56
239.559	97.56
239.793	96.56
240.027	102.56
240.26	98.56
240.494	110.56
240.728	118.56
240.961	110.56
241.195	112.56
241.429	110.56
241.662	106.56
241.896	104.56
242.13	108.56
242.363	99.56
242.597	100.56
242.83	115.56
243.064	103.56
243.298	94.56
243.531	99.56
243.765	110.56
243.998	105.56
244.232	107.56
244.465	106.56
244.699	110.56
244.932	114.56
245.166	106.56
245.399	97.56
245.633	97.56
245.866	99.56
246.099	101.56
246.333	98.56
246.566	102.56
246.8	115.56
247.033	116.56
247.266	102.56
247.5	130.56
247.733	135.56
247.966	95.56
248.2	104.56
248.433	128.56
248.666	118.56
248.899	126.56
249.133	127.56
249.366	132.56
249.599	124.56
249.832	132.56
250.066	145.56
250.299	124.56
250.532	124.56
250.765	136.56
250.998	150.56
251.231	150.56
251.465	139.56
251.698	133.56
251.931	124.56
252.164	152.56
252.397	130.56
252.63	131.56
252.863	130.56
253.096	127.56
253.329	144.56
253.562	145.56
253.795	142.56
254.028	112.56
254.261	149.56
254.494	137.56
254.727	156.56
254.96	168.56
255.193	158.56
255.426	143.56
255.659	139.56
255.892	150.56
256.124	143.56
256.357	132.56
256.59	141.56
256.823	130.56
257.056	138.56
257.289	123.56
257.521	127.56
257.754	131.56
257.987	147.56
258.22	139.56
258.452	142.56
258.685	121.56
258.918	121.56
259.151	135.56
259.383	139.56
259.616	140.56
259.849	146.56
260.081	128.56
260.314	170.56
260.547	144.56
260.779	161.56
261.012	130.56
261.244	145.56
261.477	144.56
261.71	130.56
261.942	140.56
262.175	144.56
262.407	152.56
262.64	138.56
262.872	134.56
263.105	127.56
263.337	145.56
263.57	138.56
263.802	140.56
264.035	118.56
264.267	138.56
264.499	126.56
264.732	132.56
264.964	132.56
265.197	118.56
265.429	157.56
265.661	129.56
265.894	144.56
266.126	137.56
266.358	131.56
266.591	132.56
266.823	149.56
267.055	151.56
267.287	137.56
267.52	142.56
267.752	145.56
267.984	137.56
268.216	145.56
268.448	151.56
268.681	144.56
268.913	152.56
269.145	177.56
269.377	166.56
269.609	161.56
269.841	154.56
270.073	156.56
270.306	162.56
270.538	184.56
270.77	171.56
271.002	175.56
271.234	157.56
271.466	166.56
271.698	171.56
271.93	181.56
272.162	188.56
272.394	169.56
272.626	160.56
272.858	168.56
273.09	164.56
273.322	160.56
273.553	158.56
273.785	142.56
274.017	150.56
274.249	145.56
274.481	149.56
274.713	164.56
274.945	174.56
275.176	151.56
275.408	160.56
275.64	154.56
275.872	152.56
276.104	147.56
276.335	145.56
276.567	146.56
276.799	176.56
277.031	177.56
277.262	182.56
277.494	192.56
277.726	175.56
277.957	177.56
278.189	176.56
278.421	157.56
278.652	150.56
278.884	142.56
279.115	149.56
279.347	146.56
279.579	161.56
279.81	166.56
280.042	152.56
280.273	162.56
280.505	160.56
280.736	156.56
280.968	166.56
281.199	160.56
281.431	156.56
281.662	159.56
281.894	156.56
282.125	158.56
282.356	164.56
282.588	188.56
282.819	194.56
283.051	157.56
283.282	173.56
283.513	152.56
283.745	145.56
283.976	159.56
284.207	170.56
284.439	160.56
284.67	178.56
284.901	159.56
285.132	172.56
285.364	157.56
285.595	168.56
285.826	150.56
286.057	172.56
286.288	168.56
286.52	174.56
286.751	162.56
286.982	172.56
287.213	167.56
287.444	154.56
287.675	168.56
287.906	163.56
288.138	184.56
288.369	158.56
288.6	175.56
288.831	165.56
289.062	164.56
289.293	157.56
289.524	172.56
289.755	134.56
289.986	166.56
290.217	155.56
290.448	165.56
290.679	152.56
290.91	177.56
291.141	159.56
291.371	177.56
291.602	176.56
291.833	160.56
292.064	181.56
292.295	162.56
292.526	173.56
292.757	153.56
292.987	170.56
293.218	184.56
293.449	167.56
293.68	158.56
293.91	177.56
294.141	164.56
294.372	162.56
294.603	160.56
294.833	171.56
295.064	172.56
295.295	166.56
295.525	172.56
295.756	162.56
295.987	188.56
296.217	200.56
296.448	186.56
296.679	167.56
296.909	177.56
297.14	169.56
297.37	177.56
297.601	183.56
297.831	184.56
298.062	173.56
298.292	174.56
298.523	173.56
298.753	167.56
298.984	176.56
299.214	182.56
299.445	188.56
299.675	173.56
299.905	193.56
300.136	177.56
300.366	177.56
300.597	165.56
300.827	176.56
301.057	176.56
301.288	176.56
301.518	194.56
301.748	169.56
301.979	181.56
302.209	180.56
302.439	178.56
302.669	179.56
302.9	184.56
303.13	180.56
303.36	177.56
303.59	197.56
303.82	190.56
304.051	176.56
304.281	182.56
304.511	190.56
304.741	193.56
304.971	189.56
305.201	191.56
305.431	161.56
305.661	174.56
305.891	183.56
306.121	192.56
306.352	180.56
306.582	182.56
306.812	183.56
307.042	174.56
307.272	184.56
307.502	192.56
307.731	197.56
307.961	185.56
308.191	173.56
308.421	182.56
308.651	198.56
308.881	183.56
309.111	192.56
309.341	195.56
309.571	186.56
309.8	204.56
310.03	193.56
310.26	202.56
310.49	215.56
310.72	219.56
310.949	212.56
311.179	223.56
311.409	204.56
311.639	209.56
311.868	214.56
312.098	215.56
312.328	218.56
312.557	219.56
312.787	222.56
313.017	229.56
313.246	212.56
313.476	202.56
313.706	194.56
313.935	202.56
314.165	200.56
314.394	214.56
314.624	225.56
314.853	194.56
315.083	217.56
315.312	197.56
315.542	184.56
315.771	204.56
316.001	209.56
316.23	202.56
316.46	186.56
316.689	191.56
316.919	210.56
317.148	206.56
317.377	200.56
317.607	223.56
317.836	208.56
318.065	191.56
318.295	184.56
318.524	206.56
318.753	228.56
318.983	211.56
319.212	213.56
319.441	223.56
319.67	208.56
319.9	222.56
320.129	194.56
320.358	218.56
320.587	222.56
320.816	220.56
321.046	215.56
321.275	207.56
321.504	215.56
321.733	220.56
321.962	211.56
322.191	204.56
322.42	226.56
322.649	236.56
322.878	238.56
323.108	234.56
323.337	240.56
323.566	255.56
323.795	266.56
324.024	287.56
324.253	328.56
324.482	470.56
324.71	708.56
324.939	934.56
325.168	772.56
325.397	390.56
325.626	280.56
325.855	273.56
326.084	252.56
326.313	244.56
326.542	241.56
326.77	274.56
326.999	321.56
327.228	456.56
327.457	628.56
327.686	731.56
327.914	461.56
328.143	333.56
328.372	312.56
328.6	298.56
328.829	273.56
329.058	302.56
329.287	308.56
329.515	271.56
329.744	273.56
329.972	272.56
330.201	268.56
330.43	290.56
330.658	305.56
330.887	314.56
331.115	311.56
331.344	258.56
331.572	248.56
331.801	260.56
332.03	258.56
332.258	236.56
332.486	218.56
332.715	227.56
332.943	225.56
333.172	245.56
333.4	245.56
333.629	255.56
333.857	260.56
334.085	253.56
334.314	274.56
334.542	288.56
334.771	320.56
334.999	274.56
335.227	238.56
335.455	244.56
335.684	236.56
335.912	240.56
336.14	225.56
336.369	225.56
336.597	250.56
336.825	240.56
337.053	237.56
337.281	212.56
337.51	221.56
337.738	233.56
337.966	235.56
338.194	231.56
338.422	233.56
338.65	227.56
338.878	212.56
339.106	226.56
339.334	225.56
339.562	221.56
339.79	229.56
340.018	218.56
340.246	230.56
340.474	211.56
340.702	241.56
340.93	216.56
341.158	217.56
341.386	234.56
341.614	238.56
341.842	231.56
342.07	215.56
342.298	219.56
342.526	210.56
342.754	214.56
342.981	218.56
343.209	225.56
343.437	216.56
343.665	225.56
343.893	231.56
344.12	214.56
344.348	234.56
344.576	221.56
344.804	249.56
345.031	236.56
345.259	240.56
345.487	220.56
345.714	229.56
345.942	222.56
346.17	219.56
346.397	196.56
346.625	218.56
346.853	204.56
347.08	224.56
347.308	210.56
347.535	233.56
347.763	220.56
347.99	202.56
348.218	234.56
348.445	228.56
348.673	228.56
348.9	203.56
349.128	206.56
349.355	200.56
349.583	211.56
349.81	202.56
350.037	216.56
350.265	216.56
350.492	206.56
350.72	210.56
350.947	219.56
351.174	217.56
351.402	231.56
351.629	221.56
351.856	236.56
352.083	216.56
352.311	228.56
352.538	223.56
352.765	225.56
352.992	223.56
353.22	193.56
353.447	225.56
353.674	233.56
353.901	221.56
354.128	205.56
354.355	214.56
354.583	199.56
354.81	222.56
355.037	220.56
355.264	212.56
355.491	209.56
355.718	215.56
355.945	200.56
356.172	207.56
356.399	196.56
356.626	191.56
356.853	183.56
357.08	200.56
357.307	198.56
357.534	206.56
357.761	188.56
357.988	205.56
358.215	190.56
358.441	200.56
358.668	182.56
358.895	208.56
359.122	204.56
359.349	199.56
359.576	217.56
359.802	227.56
360.029	231.56
360.256	248.56
360.483	241.56
360.709	227.56
360.936	214.56
361.163	210.56
361.39	222.56
361.616	219.56
361.843	205.56
362.07	230.56
362.296	225.56
362.523	215.56
362.749	227.56
362.976	210.56
363.203	208.56
363.429	198.56
363.656	201.56
363.882	206.56
364.109	193.56
364.335	205.56
364.562	215.56
364.788	213.56
365.015	199.56
365.241	206.56
365.468	206.56
365.694	213.56
365.92	216.56
366.147	196.56
366.373	208.56
366.599	185.56
366.826	224.56
367.052	188.56
367.278	193.56
367.505	213.56
367.731	208.56
367.957	204.56
368.184	214.56
368.41	209.56
368.636	220.56
368.862	212.56
369.089	199.56
369.315	218.56
369.541	213.56
369.767	189.56
369.993	212.56
370.219	198.56
370.445	208.56
370.672	193.56
370.898	198.56
371.124	190.56
371.35	220.56
371.576	203.56
371.802	214.56
372.028	193.56
372.254	203.56
372.48	199.56
372.706	208.56
372.932	203.56
373.158	184.56
373.384	211.56
373.61	208.56
373.835	217.56
374.061	207.56
374.287	202.56
374.513	206.56
374.739	194.56
374.965	202.56
375.191	212.56
375.416	208.56
375.642	214.56
375.868	223.56
376.094	204.56
376.319	202.56
376.545	204.56
376.771	196.56
376.997	210.56
377.222	208.56
377.448	197.56
377.674	209.56
377.899	222.56
378.125	209.56
378.35	216.56
378.576	220.56
378.802	217.56
379.027	194.56
379.253	196.56
379.478	210.56
379.704	212.56
379.929	210.56
380.155	180.56
380.38	215.56
380.606	216.56
380.831	208.56
381.057	204.56
381.282	202.56
381.507	202.56
381.733	214.56
381.958	210.56
382.184	217.56
382.409	221.56
382.634	205.56
382.86	213.56
383.085	209.56
383.31	213.56
383.535	204.56
383.761	225.56
383.986	216.56
384.211	207.56
384.436	209.56
384.662	207.56
384.887	209.56
385.112	217.56
385.337	216.56
385.562	210.56
385.787	208.56
386.013	231.56
386.238	218.56
386.463	215.56
386.688	222.56
386.913	212.56
387.138	198.56
387.363	209.56
387.588	224.56
387.813	236.56
388.038	230.56
388.263	224.56
388.488	213.56
388.713	219.56
388.938	226.56
389.163	225.56
389.387	224.56
389.612	207.56
389.837	220.56
390.062	216.56
390.287	229.56
390.512	218.56
390.736	225.56
390.961	217.56
391.186	203.56
391.411	230.56
391.636	216.56
391.86	240.56
392.085	221.56
392.31	228.56
392.534	217.56
392.759	221.56
392.984	208.56
393.208	214.56
393.433	215.56
393.658	221.56
393.882	208.56
394.107	211.56
394.331	223.56
394.556	219.56
394.78	223.56
395.005	228.56
395.229	224.56
395.454	221.56
395.678	232.56
395.903	239.56
396.127	239.56
396.352	226.56
396.576	219.56
396.801	225.56
397.025	249.56
397.249	224.56
397.474	241.56
397.698	233.56
397.922	242.56
398.147	262.56
398.371	241.56
398.595	250.56
398.82	250.56
399.044	258.56
399.268	252.56
399.492	271.56
399.717	290.56
399.941	287.56
400.165	295.56
400.389	295.56
400.613	270.56
400.837	251.56
401.062	255.56
401.286	250.56
401.51	245.56
401.734	247.56
401.958	246.56
402.182	249.56
402.406	269.56
402.63	279.56
402.854	263.56
403.078	246.56
403.302	264.56
403.526	279.56
403.75	273.56
403.974	270.56
404.198	257.56
404.422	270.56
404.645	266.56
404.869	244.56
405.093	268.56
405.317	312.56
405.541	290.56
405.765	283.56
405.988	265.56
406.212	273.56
406.436	294.56
406.66	299.56
406.883	276.56
407.107	290.56
407.331	298.56
407.555	327.56
407.778	321.56
408.002	315.56
408.226	282.56
408.449	280.56
408.673	264.56
408.896	283.56
409.12	304.56
409.344	288.56
409.567	282.56
409.791	244.56
410.014	248.56
410.238	252.56
410.461	239.56
410.685	250.56
410.908	270.56
411.132	273.56
411.355	295.56
411.578	273.56
411.802	270.56
412.025	257.56
412.249	256.56
412.472	257.56
412.695	296.56
412.919	287.56
413.142	262.56
413.365	256.56
413.589	255.56
413.812	236.56
414.035	247.56
414.258	233.56
414.482	258.56
414.705	264.56
414.928	244.56
415.151	249.56
415.374	251.56
415.597	245.56
415.821	253.56
416.044	251.56
416.267	249.56
416.49	231.56
416.713	248.56
416.936	262.56
417.159	249.56
417.382	263.56
417.605	253.56
417.828	240.56
418.051	270.56
418.274	254.56
418.497	241.56
418.72	258.56
418.943	265.56
419.166	248.56
419.389	269.56
419.611	256.56
419.834	247.56
420.057	254.56
420.28	274.56
420.503	250.56
420.726	242.56
420.948	256.56
421.171	284.56
421.394	276.56
421.617	264.56
421.839	260.56
422.062	273.56
422.285	271.56
422.507	283.56
422.73	328.56
422.953	301.56
423.175	284.56
423.398	252.56
423.621	265.56
423.843	266.56
424.066	259.56
424.288	269.56
424.511	265.56
424.733	295.56
424.956	348.56
425.178	304.56
425.401	316.56
425.623	306.56
425.846	297.56
426.068	284.56
426.291	256.56
426.513	255.56
426.735	254.56
426.958	282.56
427.18	325.56
427.402	380.56
427.625	404.56
427.847	358.56
428.069	317.56
428.292	283.56
428.514	259.56
428.736	247.56
428.958	238.56
429.181	256.56
429.403	254.56
429.625	256.56
429.847	270.56
430.069	290.56
430.292	286.56
430.514	255.56
430.736	250.56
430.958	262.56
431.18	245.56
431.402	239.56
431.624	235.56
431.846	237.56
432.068	225.56
432.29	245.56
432.512	234.56
432.734	240.56
432.956	260.56
433.178	240.56
433.4	240.56
433.622	257.56
433.844	230.56
434.066	242.56
434.287	246.56
434.509	249.56
434.731	250.56
434.953	246.56
435.175	274.56
435.397	276.56
435.618	279.56
435.84	280.56
436.062	304.56
436.284	344.56
436.505	304.56
436.727	272.56
436.949	240.56
437.17	249.56
437.392	232.56
437.614	245.56
437.835	266.56
438.057	309.56
438.278	356.56
438.5	364.56
438.721	359.56
438.943	362.56
439.165	285.56
439.386	275.56
439.608	291.56
439.829	268.56
440.05	278.56
440.272	300.56
440.493	289.56
440.715	252.56
440.936	286.56
441.158	258.56
441.379	263.56
441.6	275.56
441.822	253.56
442.043	266.56
442.264	318.56
442.486	329.56
442.707	270.56
442.928	285.56
443.149	268.56
443.371	321.56
443.592	322.56
443.813	330.56
444.034	362.56
444.255	285.56
444.476	279.56
444.698	275.56
444.919	291.56
445.14	361.56
445.361	328.56
445.582	295.56
445.803	332.56
446.024	352.56
446.245	365.56
446.466	316.56
446.687	296.56
446.908	266.56
447.129	258.56
447.35	260.56
447.571	251.56
447.792	245.56
448.013	249.56
448.234	247.56
448.455	280.56
448.675	301.56
448.896	348.56
449.117	321.56
449.338	296.56
449.559	339.56
449.779	371.56
450	312.56
450.221	260.56
450.442	257.56
450.662	228.56
450.883	252.56
451.104	270.56
451.324	260.56
451.545	239.56
451.766	236.56
451.986	230.56
452.207	218.56
452.428	239.56
452.648	244.56
452.869	241.56
453.089	233.56
453.31	245.56
453.53	228.56
453.751	225.56
453.971	246.56
454.192	253.56
454.412	246.56
454.633	230.56
454.853	234.56
455.073	213.56
455.294	239.56
455.514	281.56
455.734	237.56
455.955	228.56
456.175	204.56
456.395	230.56
456.616	214.56
456.836	235.56
457.056	204.56
457.276	218.56
457.497	206.56
457.717	207.56
457.937	234.56
458.157	206.56
458.377	223.56
458.598	248.56
458.818	277.56
459.038	329.56
459.258	316.56
459.478	255.56
459.698	222.56
459.918	247.56
460.138	246.56
460.358	233.56
460.578	248.56
460.798	250.56
461.018	262.56
461.238	251.56
461.458	246.56
461.678	237.56
461.898	253.56
462.118	245.56
462.338	252.56
462.558	257.56
462.777	264.56
462.997	260.56
463.217	274.56
463.437	267.56
463.657	265.56
463.876	262.56
464.096	247.56
464.316	260.56
464.536	282.56
464.755	273.56
464.975	274.56
465.195	302.56
465.414	326.56
465.634	282.56
465.854	280.56
466.073	251.56
466.293	221.56
466.512	227.56
466.732	226.56
466.951	246.56
467.171	253.56
467.391	236.56
467.61	252.56
467.829	256.56
468.049	249.56
468.268	248.56
468.488	232.56
468.707	232.56
468.927	243.56
469.146	234.56
469.365	258.56
469.585	220.56
469.804	239.56
470.023	233.56
470.243	247.56
470.462	249.56
470.681	240.56
470.901	256.56
471.12	233.56
471.339	248.56
471.558	249.56
471.777	221.56
471.997	214.56
472.216	230.56
472.435	269.56
472.654	255.56
472.873	250.56
473.092	245.56
473.311	231.56
473.53	240.56
473.749	252.56
473.968	247.56
474.187	295.56
474.406	305.56
474.625	236.56
474.844	239.56
475.063	234.56
475.282	223.56
475.501	225.56
475.72	242.56
475.939	260.56
476.158	226.56
476.377	241.56
476.596	248.56
476.814	270.56
477.033	242.56
477.252	241.56
477.471	248.56
477.69	252.56
477.908	238.56
478.127	271.56
478.346	264.56
478.564	251.56
478.783	266.56
479.002	297.56
479.22	268.56
479.439	264.56
479.658	285.56
479.876	289.56
480.095	281.56
480.313	284.56
480.532	300.56
480.751	281.56
480.969	308.56
481.188	340.56
481.406	372.56
481.624	305.56
481.843	282.56
482.061	271.56
482.28	252.56
482.498	267.56
482.717	260.56
482.935	257.56
483.153	272.56
483.372	279.56
483.59	279.56
483.808	264.56
484.027	269.56
484.245	268.56
484.463	292.56
484.681	286.56
484.9	264.56
485.118	280.56
485.336	276.56
485.554	285.56
485.772	276.56
485.99	289.56
486.209	292.56
486.427	283.56
486.645	288.56
486.863	306.56
487.081	306.56
487.299	294.56
487.517	290.56
487.735	301.56
487.953	290.56
488.171	295.56
488.389	312.56
488.607	293.56
488.825	306.56
489.043	303.56
489.261	310.56
489.479	299.56
489.696	291.56
489.914	295.56
490.132	289.56
490.35	310.56
490.568	310.56
490.786	299.56
491.003	310.56
491.221	316.56
491.439	345.56
491.657	328.56
491.874	324.56
492.092	345.56
492.31	342.56
492.527	348.56
492.745	366.56
492.963	345.56
493.18	371.56
493.398	342.56
493.615	353.56
493.833	358.56
494.05	333.56
494.268	342.56
494.485	349.56
494.703	324.56
494.92	330.56
495.138	354.56
495.355	342.56
495.573	329.56
495.79	348.56
496.008	335.56
496.225	360.56
496.442	329.56
496.66	346.56
496.877	350.56
497.094	338.56
497.312	346.56
497.529	353.56
497.746	361.56
497.963	357.56
498.181	371.56
498.398	353.56
498.615	369.56
498.832	382.56
499.049	396.56
499.267	366.56
499.484	398.56
499.701	408.56
499.918	385.56
500.135	433.56
500.352	461.56
500.569	456.56
500.786	461.56
501.003	442.56
501.22	429.56
501.437	426.56
501.654	405.56
501.871	411.56
502.088	403.56
502.305	388.56
502.522	390.56
