Data from 1966.PennyLincolnUp.Lamp.En5.5.200Scan.071719.P1._HRD10591_14-15-13-933.txt Node
Date: Thu Jul 18 14:15:13 EDT 2019
User: cochatt
Spectrometer: HR+D1059
Trigger mode: 1
Integration Time (sec): 1.000000E-1
Scans to average: 1
Electric dark correction enabled: true
Nonlinearity correction enabled: false
Boxcar width: 0
XAxis mode: Wavelengths
Number of Pixels in Spectrum: 2048
>>>>>Begin Spectral Data<<<<<
223.165	-19.12
223.4	-19.12
223.635	-19.12
223.869	-27.12
224.104	-28.12
224.338	2.88
224.573	-6.12
224.808	-15.12
225.042	-6.12
225.277	-9.12
225.511	-6.12
225.746	-2.12
225.98	25.88
226.215	9.88
226.449	13.88
226.683	19.88
226.918	28.88
227.152	17.88
227.387	28.88
227.621	40.88
227.856	32.88
228.09	49.88
228.324	54.88
228.559	66.88
228.793	74.88
229.027	81.88
229.262	73.88
229.496	89.88
229.73	82.88
229.964	105.88
230.199	99.88
230.433	82.88
230.667	91.88
230.901	98.88
231.136	87.88
231.37	88.88
231.604	78.88
231.838	72.88
232.072	93.88
232.306	85.88
232.541	96.88
232.775	101.88
233.009	90.88
233.243	85.88
233.477	100.88
233.711	100.88
233.945	87.88
234.179	89.88
234.413	97.88
234.647	87.88
234.881	95.88
235.115	91.88
235.349	100.88
235.583	97.88
235.817	105.88
236.051	87.88
236.285	85.88
236.519	104.88
236.753	102.88
236.987	109.88
237.221	118.88
237.455	150.88
237.689	132.88
237.922	101.88
238.156	105.88
238.39	89.88
238.624	81.88
238.858	97.88
239.091	88.88
239.325	92.88
239.559	101.88
239.793	89.88
240.027	104.88
240.26	111.88
240.494	121.88
240.728	121.88
240.961	113.88
241.195	102.88
241.429	100.88
241.662	102.88
241.896	108.88
242.13	90.88
242.363	97.88
242.597	97.88
242.83	97.88
243.064	100.88
243.298	100.88
243.531	108.88
243.765	93.88
243.998	107.88
244.232	91.88
244.465	100.88
244.699	106.88
244.932	106.88
245.166	105.88
245.399	93.88
245.633	120.88
245.866	96.88
246.099	107.88
246.333	108.88
246.566	104.88
246.8	94.88
247.033	116.88
247.266	101.88
247.5	114.88
247.733	115.88
247.966	119.88
248.2	120.88
248.433	117.88
248.666	131.88
248.899	116.88
249.133	131.88
249.366	134.88
249.599	122.88
249.832	119.88
250.066	123.88
250.299	124.88
250.532	112.88
250.765	123.88
250.998	140.88
251.231	147.88
251.465	137.88
251.698	128.88
251.931	120.88
252.164	128.88
252.397	127.88
252.63	120.88
252.863	127.88
253.096	139.88
253.329	154.88
253.562	148.88
253.795	153.88
254.028	139.88
254.261	140.88
254.494	146.88
254.727	170.88
254.96	173.88
255.193	139.88
255.426	155.88
255.659	158.88
255.892	149.88
256.124	126.88
256.357	160.88
256.59	144.88
256.823	134.88
257.056	141.88
257.289	147.88
257.521	132.88
257.754	127.88
257.987	129.88
258.22	142.88
258.452	127.88
258.685	118.88
258.918	137.88
259.151	147.88
259.383	125.88
259.616	139.88
259.849	130.88
260.081	148.88
260.314	149.88
260.547	167.88
260.779	156.88
261.012	145.88
261.244	138.88
261.477	156.88
261.71	139.88
261.942	139.88
262.175	141.88
262.407	141.88
262.64	137.88
262.872	132.88
263.105	132.88
263.337	133.88
263.57	123.88
263.802	139.88
264.035	118.88
264.267	124.88
264.499	131.88
264.732	126.88
264.964	140.88
265.197	134.88
265.429	128.88
265.661	144.88
265.894	116.88
266.126	125.88
266.358	141.88
266.591	135.88
266.823	150.88
267.055	133.88
267.287	156.88
267.52	149.88
267.752	150.88
267.984	143.88
268.216	137.88
268.448	147.88
268.681	143.88
268.913	163.88
269.145	168.88
269.377	170.88
269.609	162.88
269.841	162.88
270.073	164.88
270.306	182.88
270.538	193.88
270.77	195.88
271.002	177.88
271.234	179.88
271.466	177.88
271.698	168.88
271.93	181.88
272.162	166.88
272.394	198.88
272.626	171.88
272.858	173.88
273.09	169.88
273.322	160.88
273.553	144.88
273.785	152.88
274.017	162.88
274.249	155.88
274.481	149.88
274.713	161.88
274.945	163.88
275.176	155.88
275.408	148.88
275.64	168.88
275.872	165.88
276.104	167.88
276.335	161.88
276.567	172.88
276.799	187.88
277.031	181.88
277.262	195.88
277.494	196.88
277.726	184.88
277.957	170.88
278.189	169.88
278.421	151.88
278.652	159.88
278.884	157.88
279.115	167.88
279.347	160.88
279.579	181.88
279.81	168.88
280.042	146.88
280.273	154.88
280.505	165.88
280.736	161.88
280.968	159.88
281.199	148.88
281.431	156.88
281.662	164.88
281.894	151.88
282.125	149.88
282.356	166.88
282.588	179.88
282.819	187.88
283.051	166.88
283.282	151.88
283.513	181.88
283.745	161.88
283.976	167.88
284.207	160.88
284.439	172.88
284.67	150.88
284.901	170.88
285.132	179.88
285.364	185.88
285.595	170.88
285.826	168.88
286.057	175.88
286.288	152.88
286.52	160.88
286.751	161.88
286.982	156.88
287.213	164.88
287.444	154.88
287.675	159.88
287.906	167.88
288.138	176.88
288.369	180.88
288.6	181.88
288.831	163.88
289.062	189.88
289.293	183.88
289.524	177.88
289.755	155.88
289.986	162.88
290.217	163.88
290.448	167.88
290.679	177.88
290.91	176.88
291.141	169.88
291.371	161.88
291.602	185.88
291.833	168.88
292.064	165.88
292.295	169.88
292.526	179.88
292.757	169.88
292.987	175.88
293.218	180.88
293.449	169.88
293.68	179.88
293.91	171.88
294.141	156.88
294.372	180.88
294.603	159.88
294.833	159.88
295.064	168.88
295.295	167.88
295.525	176.88
295.756	168.88
295.987	183.88
296.217	171.88
296.448	203.88
296.679	170.88
296.909	172.88
297.14	168.88
297.37	180.88
297.601	184.88
297.831	159.88
298.062	181.88
298.292	199.88
298.523	180.88
298.753	166.88
298.984	177.88
299.214	186.88
299.445	167.88
299.675	195.88
299.905	179.88
300.136	169.88
300.366	169.88
300.597	177.88
300.827	180.88
301.057	169.88
301.288	197.88
301.518	189.88
301.748	189.88
301.979	179.88
302.209	203.88
302.439	201.88
302.669	177.88
302.9	181.88
303.13	185.88
303.36	200.88
303.59	187.88
303.82	187.88
304.051	200.88
304.281	185.88
304.511	183.88
304.741	199.88
304.971	187.88
305.201	189.88
305.431	183.88
305.661	188.88
305.891	190.88
306.121	176.88
306.352	186.88
306.582	191.88
306.812	182.88
307.042	203.88
307.272	207.88
307.502	186.88
307.731	203.88
307.961	187.88
308.191	190.88
308.421	187.88
308.651	197.88
308.881	209.88
309.111	207.88
309.341	184.88
309.571	200.88
309.8	196.88
310.03	215.88
310.26	206.88
310.49	208.88
310.72	210.88
310.949	234.88
311.179	226.88
311.409	229.88
311.639	205.88
311.868	205.88
312.098	215.88
312.328	213.88
312.557	233.88
312.787	234.88
313.017	231.88
313.246	211.88
313.476	216.88
313.706	214.88
313.935	220.88
314.165	235.88
314.394	228.88
314.624	223.88
314.853	222.88
315.083	218.88
315.312	216.88
315.542	207.88
315.771	203.88
316.001	217.88
316.23	212.88
316.46	213.88
316.689	198.88
316.919	195.88
317.148	216.88
317.377	212.88
317.607	217.88
317.836	216.88
318.065	207.88
318.295	216.88
318.524	224.88
318.753	197.88
318.983	213.88
319.212	228.88
319.441	215.88
319.67	196.88
319.9	219.88
320.129	209.88
320.358	210.88
320.587	225.88
320.816	215.88
321.046	227.88
321.275	219.88
321.504	211.88
321.733	213.88
321.962	212.88
322.191	225.88
322.42	228.88
322.649	236.88
322.878	236.88
323.108	272.88
323.337	278.88
323.566	287.88
323.795	286.88
324.024	329.88
324.253	396.88
324.482	539.88
324.71	841.88
324.939	1120.88
325.168	907.88
325.397	481.88
325.626	311.88
325.855	286.88
326.084	275.88
326.313	267.88
326.542	261.88
326.77	305.88
326.999	357.88
327.228	498.88
327.457	721.88
327.686	829.88
327.914	549.88
328.143	374.88
328.372	333.88
328.6	334.88
328.829	312.88
329.058	329.88
329.287	312.88
329.515	294.88
329.744	275.88
329.972	284.88
330.201	307.88
330.43	338.88
330.658	343.88
330.887	353.88
331.115	339.88
331.344	296.88
331.572	282.88
331.801	267.88
332.03	285.88
332.258	261.88
332.486	240.88
332.715	235.88
332.943	253.88
333.172	259.88
333.4	257.88
333.629	268.88
333.857	266.88
334.085	260.88
334.314	295.88
334.542	347.88
334.771	332.88
334.999	294.88
335.227	264.88
335.455	248.88
335.684	253.88
335.912	266.88
336.14	257.88
336.369	255.88
336.597	252.88
336.825	231.88
337.053	232.88
337.281	219.88
337.51	241.88
337.738	223.88
337.966	245.88
338.194	233.88
338.422	243.88
338.65	255.88
338.878	247.88
339.106	243.88
339.334	215.88
339.562	232.88
339.79	233.88
340.018	228.88
340.246	232.88
340.474	249.88
340.702	235.88
340.93	249.88
341.158	244.88
341.386	231.88
341.614	232.88
341.842	250.88
342.07	253.88
342.298	225.88
342.526	218.88
342.754	233.88
342.981	230.88
343.209	227.88
343.437	235.88
343.665	217.88
343.893	229.88
344.12	232.88
344.348	223.88
344.576	221.88
344.804	232.88
345.031	244.88
345.259	240.88
345.487	235.88
345.714	224.88
345.942	218.88
346.17	233.88
346.397	226.88
346.625	228.88
346.853	226.88
347.08	227.88
347.308	203.88
347.535	230.88
347.763	228.88
347.99	242.88
348.218	248.88
348.445	229.88
348.673	241.88
348.9	219.88
349.128	248.88
349.355	223.88
349.583	215.88
349.81	219.88
350.037	217.88
350.265	242.88
350.492	211.88
350.72	229.88
350.947	223.88
351.174	230.88
351.402	246.88
351.629	236.88
351.856	236.88
352.083	220.88
352.311	223.88
352.538	209.88
352.765	249.88
352.992	243.88
353.22	214.88
353.447	223.88
353.674	216.88
353.901	213.88
354.128	205.88
354.355	212.88
354.583	217.88
354.81	218.88
355.037	196.88
355.264	205.88
355.491	201.88
355.718	204.88
355.945	196.88
356.172	203.88
356.399	204.88
356.626	212.88
356.853	207.88
357.08	206.88
357.307	209.88
357.534	207.88
357.761	186.88
357.988	219.88
358.215	208.88
358.441	205.88
358.668	206.88
358.895	219.88
359.122	219.88
359.349	218.88
359.576	224.88
359.802	245.88
360.029	266.88
360.256	251.88
360.483	277.88
360.709	232.88
360.936	225.88
361.163	212.88
361.39	236.88
361.616	232.88
361.843	222.88
362.07	232.88
362.296	237.88
362.523	232.88
362.749	217.88
362.976	212.88
363.203	211.88
363.429	228.88
363.656	209.88
363.882	224.88
364.109	202.88
364.335	200.88
364.562	212.88
364.788	215.88
365.015	212.88
365.241	230.88
365.468	220.88
365.694	224.88
365.92	220.88
366.147	225.88
366.373	201.88
366.599	212.88
366.826	189.88
367.052	237.88
367.278	206.88
367.505	213.88
367.731	233.88
367.957	196.88
368.184	199.88
368.41	208.88
368.636	215.88
368.862	255.88
369.089	251.88
369.315	209.88
369.541	196.88
369.767	197.88
369.993	219.88
370.219	224.88
370.445	200.88
370.672	211.88
370.898	207.88
371.124	208.88
371.35	219.88
371.576	201.88
371.802	209.88
372.028	204.88
372.254	185.88
372.48	203.88
372.706	226.88
372.932	216.88
373.158	199.88
373.384	211.88
373.61	203.88
373.835	203.88
374.061	213.88
374.287	227.88
374.513	206.88
374.739	210.88
374.965	229.88
375.191	203.88
375.416	230.88
375.642	229.88
375.868	203.88
376.094	213.88
376.319	209.88
376.545	207.88
376.771	210.88
376.997	197.88
377.222	195.88
377.448	197.88
377.674	207.88
377.899	203.88
378.125	225.88
378.35	194.88
378.576	209.88
378.802	193.88
379.027	209.88
379.253	220.88
379.478	191.88
379.704	204.88
379.929	218.88
380.155	214.88
380.38	200.88
380.606	204.88
380.831	224.88
381.057	225.88
381.282	211.88
381.507	203.88
381.733	211.88
381.958	213.88
382.184	206.88
382.409	218.88
382.634	212.88
382.86	211.88
383.085	204.88
383.31	203.88
383.535	218.88
383.761	231.88
383.986	218.88
384.211	199.88
384.436	204.88
384.662	215.88
384.887	228.88
385.112	225.88
385.337	208.88
385.562	222.88
385.787	210.88
386.013	228.88
386.238	233.88
386.463	209.88
386.688	214.88
386.913	219.88
387.138	209.88
387.363	202.88
387.588	219.88
387.813	225.88
388.038	223.88
388.263	219.88
388.488	221.88
388.713	219.88
388.938	221.88
389.163	217.88
389.387	229.88
389.612	211.88
389.837	226.88
390.062	214.88
390.287	228.88
390.512	225.88
390.736	217.88
390.961	225.88
391.186	228.88
391.411	227.88
391.636	224.88
391.86	235.88
392.085	227.88
392.31	240.88
392.534	235.88
392.759	223.88
392.984	232.88
393.208	233.88
393.433	221.88
393.658	221.88
393.882	226.88
394.107	229.88
394.331	228.88
394.556	227.88
394.78	226.88
395.005	229.88
395.229	241.88
395.454	236.88
395.678	230.88
395.903	234.88
396.127	250.88
396.352	245.88
396.576	228.88
396.801	242.88
397.025	233.88
397.249	232.88
397.474	243.88
397.698	224.88
397.922	237.88
398.147	251.88
398.371	239.88
398.595	248.88
398.82	247.88
399.044	235.88
399.268	273.88
399.492	284.88
399.717	281.88
399.941	299.88
400.165	301.88
400.389	332.88
400.613	273.88
400.837	252.88
401.062	256.88
401.286	256.88
401.51	244.88
401.734	265.88
401.958	255.88
402.182	252.88
402.406	266.88
402.63	289.88
402.854	255.88
403.078	256.88
403.302	243.88
403.526	258.88
403.75	254.88
403.974	260.88
404.198	257.88
404.422	280.88
404.645	275.88
404.869	268.88
405.093	297.88
405.317	319.88
405.541	328.88
405.765	305.88
405.988	280.88
406.212	292.88
406.436	308.88
406.66	287.88
406.883	301.88
407.107	295.88
407.331	308.88
407.555	331.88
407.778	333.88
408.002	298.88
408.226	269.88
408.449	295.88
408.673	284.88
408.896	307.88
409.12	312.88
409.344	300.88
409.567	262.88
409.791	257.88
410.014	268.88
410.238	268.88
410.461	264.88
410.685	257.88
410.908	259.88
411.132	282.88
411.355	300.88
411.578	296.88
411.802	251.88
412.025	259.88
412.249	286.88
412.472	291.88
412.695	297.88
412.919	291.88
413.142	252.88
413.365	232.88
413.589	250.88
413.812	253.88
414.035	273.88
414.258	275.88
414.482	239.88
414.705	245.88
414.928	243.88
415.151	240.88
415.374	259.88
415.597	240.88
415.821	245.88
416.044	257.88
416.267	249.88
416.49	266.88
416.713	249.88
416.936	239.88
417.159	258.88
417.382	249.88
417.605	248.88
417.828	256.88
418.051	248.88
418.274	255.88
418.497	249.88
418.72	259.88
418.943	224.88
419.166	257.88
419.389	261.88
419.611	275.88
419.834	285.88
420.057	259.88
420.28	280.88
420.503	262.88
420.726	261.88
420.948	268.88
421.171	281.88
421.394	291.88
421.617	269.88
421.839	283.88
422.062	269.88
422.285	260.88
422.507	294.88
422.73	338.88
422.953	318.88
423.175	287.88
423.398	268.88
423.621	263.88
423.843	288.88
424.066	281.88
424.288	281.88
424.511	294.88
424.733	328.88
424.956	358.88
425.178	314.88
425.401	323.88
425.623	325.88
425.846	314.88
426.068	275.88
426.291	274.88
426.513	294.88
426.735	281.88
426.958	307.88
427.18	331.88
427.402	383.88
427.625	422.88
427.847	389.88
428.069	322.88
428.292	295.88
428.514	268.88
428.736	243.88
428.958	261.88
429.181	242.88
429.403	264.88
429.625	261.88
429.847	274.88
430.069	293.88
430.292	312.88
430.514	272.88
430.736	246.88
430.958	245.88
431.18	261.88
431.402	239.88
431.624	244.88
431.846	251.88
432.068	233.88
432.29	258.88
432.512	263.88
432.734	259.88
432.956	250.88
433.178	255.88
433.4	254.88
433.622	266.88
433.844	266.88
434.066	249.88
434.287	250.88
434.509	253.88
434.731	240.88
434.953	252.88
435.175	260.88
435.397	276.88
435.618	282.88
435.84	307.88
436.062	322.88
436.284	355.88
436.505	315.88
436.727	283.88
436.949	263.88
437.17	258.88
437.392	241.88
437.614	261.88
437.835	287.88
438.057	331.88
438.278	385.88
438.5	351.88
438.721	389.88
438.943	356.88
439.165	303.88
439.386	283.88
439.608	291.88
439.829	286.88
440.05	299.88
440.272	315.88
440.493	280.88
440.715	261.88
440.936	271.88
441.158	275.88
441.379	277.88
441.6	286.88
441.822	295.88
442.043	311.88
442.264	347.88
442.486	348.88
442.707	305.88
442.928	297.88
443.149	306.88
443.371	303.88
443.592	319.88
443.813	359.88
444.034	366.88
444.255	311.88
444.476	290.88
444.698	294.88
444.919	297.88
445.14	386.88
445.361	316.88
445.582	303.88
445.803	314.88
446.024	372.88
446.245	377.88
446.466	345.88
446.687	288.88
446.908	275.88
447.129	265.88
447.35	273.88
447.571	244.88
447.792	248.88
448.013	251.88
448.234	281.88
448.455	281.88
448.675	345.88
448.896	386.88
449.117	320.88
449.338	343.88
449.559	358.88
449.779	389.88
450	327.88
450.221	286.88
450.442	258.88
450.662	256.88
450.883	248.88
451.104	268.88
451.324	281.88
451.545	257.88
451.766	257.88
451.986	237.88
452.207	241.88
452.428	234.88
452.648	219.88
452.869	234.88
453.089	239.88
453.31	249.88
453.53	232.88
453.751	236.88
453.971	244.88
454.192	255.88
454.412	250.88
454.633	227.88
454.853	234.88
455.073	232.88
455.294	222.88
455.514	281.88
455.734	267.88
455.955	225.88
456.175	227.88
456.395	231.88
456.616	212.88
456.836	225.88
457.056	216.88
457.276	210.88
457.497	218.88
457.717	201.88
457.937	227.88
458.157	229.88
458.377	231.88
458.598	243.88
458.818	278.88
459.038	313.88
459.258	331.88
459.478	268.88
459.698	250.88
459.918	244.88
460.138	246.88
460.358	247.88
460.578	244.88
460.798	241.88
461.018	239.88
461.238	240.88
461.458	238.88
461.678	244.88
461.898	234.88
462.118	251.88
462.338	240.88
462.558	262.88
462.777	255.88
462.997	257.88
463.217	273.88
463.437	262.88
463.657	279.88
463.876	270.88
464.096	263.88
464.316	263.88
464.536	264.88
464.755	259.88
464.975	279.88
465.195	331.88
465.414	383.88
465.634	312.88
465.854	273.88
466.073	262.88
466.293	241.88
466.512	232.88
466.732	249.88
466.951	255.88
467.171	247.88
467.391	233.88
467.61	249.88
467.829	236.88
468.049	252.88
468.268	253.88
468.488	249.88
468.707	227.88
468.927	236.88
469.146	234.88
469.365	237.88
469.585	217.88
469.804	241.88
470.023	252.88
470.243	245.88
470.462	257.88
470.681	274.88
470.901	270.88
471.12	246.88
471.339	259.88
471.558	237.88
471.777	250.88
471.997	239.88
472.216	252.88
472.435	288.88
472.654	283.88
472.873	258.88
473.092	243.88
473.311	239.88
473.53	240.88
473.749	255.88
473.968	267.88
474.187	298.88
474.406	333.88
474.625	263.88
474.844	253.88
475.063	254.88
475.282	223.88
475.501	251.88
475.72	244.88
475.939	241.88
476.158	243.88
476.377	241.88
476.596	241.88
476.814	244.88
477.033	255.88
477.252	263.88
477.471	248.88
477.69	251.88
477.908	258.88
478.127	264.88
478.346	283.88
478.564	263.88
478.783	257.88
479.002	277.88
479.22	265.88
479.439	284.88
479.658	303.88
479.876	292.88
480.095	314.88
480.313	296.88
480.532	299.88
480.751	292.88
480.969	311.88
481.188	373.88
481.406	401.88
481.624	310.88
481.843	298.88
482.061	296.88
482.28	283.88
482.498	263.88
482.717	266.88
482.935	271.88
483.153	271.88
483.372	279.88
483.59	283.88
483.808	268.88
484.027	269.88
484.245	279.88
484.463	295.88
484.681	282.88
484.9	284.88
485.118	290.88
485.336	292.88
485.554	299.88
485.772	287.88
485.99	280.88
486.209	284.88
486.427	303.88
486.645	292.88
486.863	308.88
487.081	301.88
487.299	283.88
487.517	299.88
487.735	314.88
487.953	271.88
488.171	307.88
488.389	302.88
488.607	306.88
488.825	285.88
489.043	292.88
489.261	287.88
489.479	313.88
489.696	309.88
489.914	312.88
490.132	308.88
490.35	318.88
490.568	312.88
490.786	324.88
491.003	323.88
491.221	350.88
491.439	335.88
491.657	333.88
491.874	362.88
492.092	357.88
492.31	348.88
492.527	343.88
492.745	360.88
492.963	353.88
493.18	354.88
493.398	360.88
493.615	365.88
493.833	365.88
494.05	360.88
494.268	373.88
494.485	359.88
494.703	347.88
494.92	360.88
495.138	361.88
495.355	360.88
495.573	356.88
495.79	352.88
496.008	363.88
496.225	344.88
496.442	358.88
496.66	364.88
496.877	347.88
497.094	361.88
497.312	358.88
497.529	345.88
497.746	370.88
497.963	363.88
498.181	367.88
498.398	369.88
498.615	373.88
498.832	386.88
499.049	381.88
499.267	396.88
499.484	402.88
499.701	405.88
499.918	424.88
500.135	429.88
500.352	465.88
500.569	469.88
500.786	464.88
501.003	464.88
501.22	459.88
501.437	445.88
501.654	451.88
501.871	440.88
502.088	419.88
502.305	383.88
502.522	389.88
