Data from 1966.PennyLincolnUp.Lamp.En5.5.200Scan.071719.P1._HRD10591_14-13-41-914.txt Node
Date: Thu Jul 18 14:13:41 EDT 2019
User: cochatt
Spectrometer: HR+D1059
Trigger mode: 1
Integration Time (sec): 1.000000E-1
Scans to average: 1
Electric dark correction enabled: true
Nonlinearity correction enabled: false
Boxcar width: 0
XAxis mode: Wavelengths
Number of Pixels in Spectrum: 2048
>>>>>Begin Spectral Data<<<<<
223.165	-3.06
223.4	-3.06
223.635	-3.06
223.869	-29.06
224.104	-31.06
224.338	-22.06
224.573	-14.06
224.808	-0.06
225.042	-12.06
225.277	-14.06
225.511	2.94
225.746	9.94
225.98	14.94
226.215	11.94
226.449	19.94
226.683	21.94
226.918	21.94
227.152	21.94
227.387	28.94
227.621	27.94
227.856	40.94
228.09	41.94
228.324	45.94
228.559	53.94
228.793	58.94
229.027	68.94
229.262	81.94
229.496	81.94
229.73	81.94
229.964	116.94
230.199	96.94
230.433	94.94
230.667	91.94
230.901	85.94
231.136	93.94
231.37	69.94
231.604	79.94
231.838	102.94
232.072	99.94
232.306	101.94
232.541	101.94
232.775	95.94
233.009	92.94
233.243	101.94
233.477	109.94
233.711	83.94
233.945	88.94
234.179	110.94
234.413	106.94
234.647	89.94
234.881	110.94
235.115	101.94
235.349	91.94
235.583	93.94
235.817	90.94
236.051	93.94
236.285	94.94
236.519	91.94
236.753	96.94
236.987	98.94
237.221	113.94
237.455	144.94
237.689	122.94
237.922	103.94
238.156	96.94
238.39	88.94
238.624	89.94
238.858	85.94
239.091	73.94
239.325	93.94
239.559	108.94
239.793	103.94
240.027	101.94
240.26	98.94
240.494	108.94
240.728	95.94
240.961	99.94
241.195	96.94
241.429	96.94
241.662	98.94
241.896	88.94
242.13	83.94
242.363	83.94
242.597	102.94
242.83	106.94
243.064	98.94
243.298	77.94
243.531	93.94
243.765	93.94
243.998	100.94
244.232	105.94
244.465	92.94
244.699	103.94
244.932	92.94
245.166	101.94
245.399	96.94
245.633	102.94
245.866	87.94
246.099	110.94
246.333	108.94
246.566	106.94
246.8	96.94
247.033	97.94
247.266	95.94
247.5	126.94
247.733	120.94
247.966	118.94
248.2	117.94
248.433	121.94
248.666	110.94
248.899	110.94
249.133	119.94
249.366	124.94
249.599	129.94
249.832	106.94
250.066	114.94
250.299	121.94
250.532	121.94
250.765	131.94
250.998	148.94
251.231	142.94
251.465	138.94
251.698	134.94
251.931	119.94
252.164	122.94
252.397	129.94
252.63	119.94
252.863	121.94
253.096	149.94
253.329	152.94
253.562	148.94
253.795	148.94
254.028	129.94
254.261	144.94
254.494	141.94
254.727	150.94
254.96	157.94
255.193	151.94
255.426	146.94
255.659	132.94
255.892	148.94
256.124	157.94
256.357	140.94
256.59	139.94
256.823	134.94
257.056	130.94
257.289	138.94
257.521	128.94
257.754	124.94
257.987	132.94
258.22	131.94
258.452	133.94
258.685	107.94
258.918	130.94
259.151	139.94
259.383	123.94
259.616	137.94
259.849	129.94
260.081	138.94
260.314	150.94
260.547	148.94
260.779	142.94
261.012	141.94
261.244	143.94
261.477	146.94
261.71	140.94
261.942	156.94
262.175	140.94
262.407	147.94
262.64	138.94
262.872	140.94
263.105	122.94
263.337	147.94
263.57	125.94
263.802	134.94
264.035	127.94
264.267	125.94
264.499	124.94
264.732	124.94
264.964	127.94
265.197	134.94
265.429	126.94
265.661	129.94
265.894	137.94
266.126	128.94
266.358	137.94
266.591	157.94
266.823	128.94
267.055	145.94
267.287	147.94
267.52	144.94
267.752	141.94
267.984	132.94
268.216	141.94
268.448	146.94
268.681	146.94
268.913	145.94
269.145	145.94
269.377	167.94
269.609	170.94
269.841	164.94
270.073	150.94
270.306	174.94
270.538	183.94
270.77	173.94
271.002	188.94
271.234	167.94
271.466	176.94
271.698	169.94
271.93	192.94
272.162	187.94
272.394	177.94
272.626	158.94
272.858	160.94
273.09	161.94
273.322	161.94
273.553	163.94
273.785	159.94
274.017	153.94
274.249	142.94
274.481	161.94
274.713	156.94
274.945	148.94
275.176	161.94
275.408	149.94
275.64	151.94
275.872	136.94
276.104	147.94
276.335	148.94
276.567	156.94
276.799	149.94
277.031	174.94
277.262	176.94
277.494	179.94
277.726	167.94
277.957	157.94
278.189	153.94
278.421	172.94
278.652	151.94
278.884	146.94
279.115	140.94
279.347	151.94
279.579	146.94
279.81	161.94
280.042	155.94
280.273	170.94
280.505	139.94
280.736	154.94
280.968	144.94
281.199	148.94
281.431	162.94
281.662	171.94
281.894	154.94
282.125	169.94
282.356	161.94
282.588	174.94
282.819	169.94
283.051	158.94
283.282	172.94
283.513	170.94
283.745	156.94
283.976	182.94
284.207	173.94
284.439	171.94
284.67	165.94
284.901	165.94
285.132	165.94
285.364	158.94
285.595	173.94
285.826	164.94
286.057	152.94
286.288	168.94
286.52	160.94
286.751	171.94
286.982	158.94
287.213	163.94
287.444	163.94
287.675	164.94
287.906	182.94
288.138	182.94
288.369	184.94
288.6	165.94
288.831	169.94
289.062	178.94
289.293	165.94
289.524	161.94
289.755	177.94
289.986	157.94
290.217	161.94
290.448	181.94
290.679	177.94
290.91	174.94
291.141	185.94
291.371	167.94
291.602	176.94
291.833	156.94
292.064	168.94
292.295	173.94
292.526	174.94
292.757	156.94
292.987	167.94
293.218	174.94
293.449	159.94
293.68	165.94
293.91	150.94
294.141	165.94
294.372	168.94
294.603	166.94
294.833	177.94
295.064	171.94
295.295	184.94
295.525	168.94
295.756	176.94
295.987	183.94
296.217	194.94
296.448	179.94
296.679	187.94
296.909	181.94
297.14	163.94
297.37	169.94
297.601	146.94
297.831	163.94
298.062	180.94
298.292	166.94
298.523	164.94
298.753	183.94
298.984	172.94
299.214	169.94
299.445	179.94
299.675	176.94
299.905	178.94
300.136	173.94
300.366	162.94
300.597	156.94
300.827	178.94
301.057	171.94
301.288	178.94
301.518	196.94
301.748	188.94
301.979	194.94
302.209	190.94
302.439	209.94
302.669	181.94
302.9	180.94
303.13	171.94
303.36	155.94
303.59	182.94
303.82	196.94
304.051	194.94
304.281	192.94
304.511	192.94
304.741	183.94
304.971	174.94
305.201	171.94
305.431	183.94
305.661	176.94
305.891	162.94
306.121	196.94
306.352	184.94
306.582	185.94
306.812	178.94
307.042	170.94
307.272	174.94
307.502	188.94
307.731	182.94
307.961	202.94
308.191	188.94
308.421	174.94
308.651	175.94
308.881	171.94
309.111	196.94
309.341	190.94
309.571	199.94
309.8	196.94
310.03	204.94
310.26	191.94
310.49	190.94
310.72	212.94
310.949	215.94
311.179	210.94
311.409	195.94
311.639	211.94
311.868	216.94
312.098	224.94
312.328	212.94
312.557	227.94
312.787	226.94
313.017	212.94
313.246	211.94
313.476	197.94
313.706	201.94
313.935	202.94
314.165	214.94
314.394	229.94
314.624	219.94
314.853	215.94
315.083	206.94
315.312	206.94
315.542	180.94
315.771	194.94
316.001	212.94
316.23	201.94
316.46	211.94
316.689	207.94
316.919	223.94
317.148	219.94
317.377	224.94
317.607	223.94
317.836	209.94
318.065	196.94
318.295	216.94
318.524	205.94
318.753	207.94
318.983	204.94
319.212	187.94
319.441	205.94
319.67	216.94
319.9	199.94
320.129	198.94
320.358	193.94
320.587	210.94
320.816	215.94
321.046	212.94
321.275	193.94
321.504	203.94
321.733	203.94
321.962	218.94
322.191	225.94
322.42	225.94
322.649	250.94
322.878	240.94
323.108	233.94
323.337	241.94
323.566	259.94
323.795	271.94
324.024	306.94
324.253	352.94
324.482	504.94
324.71	745.94
324.939	978.94
325.168	787.94
325.397	412.94
325.626	288.94
325.855	259.94
326.084	244.94
326.313	247.94
326.542	252.94
326.77	291.94
326.999	328.94
327.228	444.94
327.457	647.94
327.686	724.94
327.914	490.94
328.143	332.94
328.372	299.94
328.6	301.94
328.829	293.94
329.058	301.94
329.287	311.94
329.515	282.94
329.744	267.94
329.972	266.94
330.201	281.94
330.43	316.94
330.658	330.94
330.887	325.94
331.115	315.94
331.344	279.94
331.572	258.94
331.801	244.94
332.03	264.94
332.258	258.94
332.486	231.94
332.715	234.94
332.943	241.94
333.172	240.94
333.4	236.94
333.629	249.94
333.857	245.94
334.085	258.94
334.314	288.94
334.542	301.94
334.771	304.94
334.999	269.94
335.227	258.94
335.455	240.94
335.684	244.94
335.912	240.94
336.14	244.94
336.369	230.94
336.597	247.94
336.825	240.94
337.053	246.94
337.281	244.94
337.51	211.94
337.738	238.94
337.966	230.94
338.194	227.94
338.422	232.94
338.65	233.94
338.878	231.94
339.106	220.94
339.334	201.94
339.562	219.94
339.79	231.94
340.018	234.94
340.246	224.94
340.474	224.94
340.702	214.94
340.93	222.94
341.158	221.94
341.386	210.94
341.614	220.94
341.842	224.94
342.07	238.94
342.298	233.94
342.526	216.94
342.754	211.94
342.981	224.94
343.209	230.94
343.437	220.94
343.665	237.94
343.893	218.94
344.12	238.94
344.348	220.94
344.576	217.94
344.804	231.94
345.031	230.94
345.259	243.94
345.487	227.94
345.714	230.94
345.942	215.94
346.17	218.94
346.397	222.94
346.625	217.94
346.853	217.94
347.08	211.94
347.308	216.94
347.535	218.94
347.763	225.94
347.99	225.94
348.218	210.94
348.445	227.94
348.673	238.94
348.9	203.94
349.128	204.94
349.355	216.94
349.583	215.94
349.81	209.94
350.037	215.94
350.265	212.94
350.492	214.94
350.72	210.94
350.947	212.94
351.174	210.94
351.402	246.94
351.629	217.94
351.856	217.94
352.083	233.94
352.311	233.94
352.538	233.94
352.765	234.94
352.992	209.94
353.22	222.94
353.447	221.94
353.674	216.94
353.901	202.94
354.128	207.94
354.355	214.94
354.583	204.94
354.81	205.94
355.037	220.94
355.264	210.94
355.491	196.94
355.718	204.94
355.945	198.94
356.172	210.94
356.399	216.94
356.626	193.94
356.853	184.94
357.08	203.94
357.307	204.94
357.534	191.94
357.761	186.94
357.988	210.94
358.215	190.94
358.441	194.94
358.668	212.94
358.895	206.94
359.122	207.94
359.349	207.94
359.576	228.94
359.802	224.94
360.029	240.94
360.256	250.94
360.483	226.94
360.709	223.94
360.936	218.94
361.163	214.94
361.39	213.94
361.616	215.94
361.843	212.94
362.07	215.94
362.296	218.94
362.523	214.94
362.749	228.94
362.976	230.94
363.203	219.94
363.429	214.94
363.656	218.94
363.882	197.94
364.109	206.94
364.335	220.94
364.562	192.94
364.788	201.94
365.015	216.94
365.241	228.94
365.468	204.94
365.694	215.94
365.92	220.94
366.147	207.94
366.373	204.94
366.599	200.94
366.826	198.94
367.052	218.94
367.278	196.94
367.505	192.94
367.731	210.94
367.957	205.94
368.184	206.94
368.41	207.94
368.636	203.94
368.862	213.94
369.089	201.94
369.315	190.94
369.541	197.94
369.767	203.94
369.993	212.94
370.219	207.94
370.445	196.94
370.672	195.94
370.898	214.94
371.124	206.94
371.35	192.94
371.576	206.94
371.802	211.94
372.028	207.94
372.254	207.94
372.48	203.94
372.706	197.94
372.932	188.94
373.158	181.94
373.384	198.94
373.61	216.94
373.835	225.94
374.061	205.94
374.287	198.94
374.513	214.94
374.739	205.94
374.965	211.94
375.191	216.94
375.416	191.94
375.642	200.94
375.868	211.94
376.094	203.94
376.319	184.94
376.545	201.94
376.771	205.94
376.997	186.94
377.222	204.94
377.448	194.94
377.674	210.94
377.899	201.94
378.125	203.94
378.35	200.94
378.576	187.94
378.802	192.94
379.027	203.94
379.253	197.94
379.478	186.94
379.704	204.94
379.929	216.94
380.155	211.94
380.38	212.94
380.606	206.94
380.831	226.94
381.057	211.94
381.282	211.94
381.507	214.94
381.733	210.94
381.958	213.94
382.184	206.94
382.409	194.94
382.634	214.94
382.86	206.94
383.085	203.94
383.31	223.94
383.535	222.94
383.761	207.94
383.986	205.94
384.211	196.94
384.436	204.94
384.662	218.94
384.887	220.94
385.112	221.94
385.337	231.94
385.562	227.94
385.787	220.94
386.013	241.94
386.238	223.94
386.463	226.94
386.688	231.94
386.913	219.94
387.138	217.94
387.363	225.94
387.588	212.94
387.813	228.94
388.038	218.94
388.263	225.94
388.488	201.94
388.713	212.94
388.938	230.94
389.163	225.94
389.387	236.94
389.612	217.94
389.837	215.94
390.062	242.94
390.287	227.94
390.512	215.94
390.736	214.94
390.961	218.94
391.186	217.94
391.411	215.94
391.636	226.94
391.86	219.94
392.085	216.94
392.31	208.94
392.534	237.94
392.759	228.94
392.984	226.94
393.208	221.94
393.433	230.94
393.658	226.94
393.882	209.94
394.107	208.94
394.331	232.94
394.556	220.94
394.78	220.94
395.005	212.94
395.229	210.94
395.454	229.94
395.678	218.94
395.903	228.94
396.127	240.94
396.352	227.94
396.576	220.94
396.801	231.94
397.025	256.94
397.249	217.94
397.474	224.94
397.698	239.94
397.922	233.94
398.147	258.94
398.371	248.94
398.595	238.94
398.82	257.94
399.044	268.94
399.268	245.94
399.492	272.94
399.717	294.94
399.941	284.94
400.165	277.94
400.389	304.94
400.613	280.94
400.837	265.94
401.062	256.94
401.286	251.94
401.51	243.94
401.734	248.94
401.958	243.94
402.182	254.94
402.406	271.94
402.63	254.94
402.854	251.94
403.078	258.94
403.302	257.94
403.526	246.94
403.75	237.94
403.974	252.94
404.198	244.94
404.422	267.94
404.645	266.94
404.869	269.94
405.093	283.94
405.317	302.94
405.541	316.94
405.765	295.94
405.988	280.94
406.212	292.94
406.436	304.94
406.66	312.94
406.883	292.94
407.107	278.94
407.331	300.94
407.555	332.94
407.778	321.94
408.002	301.94
408.226	276.94
408.449	291.94
408.673	269.94
408.896	283.94
409.12	302.94
409.344	280.94
409.567	264.94
409.791	243.94
410.014	280.94
410.238	256.94
410.461	258.94
410.685	263.94
410.908	268.94
411.132	282.94
411.355	309.94
411.578	278.94
411.802	269.94
412.025	276.94
412.249	262.94
412.472	278.94
412.695	290.94
412.919	277.94
413.142	264.94
413.365	262.94
413.589	264.94
413.812	254.94
414.035	261.94
414.258	243.94
414.482	241.94
414.705	259.94
414.928	262.94
415.151	249.94
415.374	231.94
415.597	234.94
415.821	255.94
416.044	249.94
416.267	234.94
416.49	272.94
416.713	232.94
416.936	237.94
417.159	260.94
417.382	257.94
417.605	237.94
417.828	273.94
418.051	258.94
418.274	251.94
418.497	250.94
418.72	254.94
418.943	245.94
419.166	247.94
419.389	254.94
419.611	245.94
419.834	240.94
420.057	270.94
420.28	259.94
420.503	253.94
420.726	258.94
420.948	251.94
421.171	283.94
421.394	298.94
421.617	256.94
421.839	246.94
422.062	253.94
422.285	245.94
422.507	297.94
422.73	336.94
422.953	306.94
423.175	268.94
423.398	274.94
423.621	258.94
423.843	276.94
424.066	281.94
424.288	278.94
424.511	276.94
424.733	289.94
424.956	330.94
425.178	312.94
425.401	312.94
425.623	316.94
425.846	261.94
426.068	272.94
426.291	278.94
426.513	260.94
426.735	274.94
426.958	276.94
427.18	331.94
427.402	394.94
427.625	404.94
427.847	357.94
428.069	324.94
428.292	303.94
428.514	258.94
428.736	262.94
428.958	252.94
429.181	236.94
429.403	256.94
429.625	263.94
429.847	281.94
430.069	301.94
430.292	286.94
430.514	265.94
430.736	246.94
430.958	234.94
431.18	244.94
431.402	249.94
431.624	224.94
431.846	221.94
432.068	232.94
432.29	226.94
432.512	266.94
432.734	267.94
432.956	243.94
433.178	236.94
433.4	237.94
433.622	220.94
433.844	231.94
434.066	238.94
434.287	245.94
434.509	245.94
434.731	251.94
434.953	286.94
435.175	271.94
435.397	273.94
435.618	268.94
435.84	262.94
436.062	334.94
436.284	337.94
436.505	292.94
436.727	273.94
436.949	246.94
437.17	249.94
437.392	256.94
437.614	245.94
437.835	280.94
438.057	331.94
438.278	356.94
438.5	355.94
438.721	360.94
438.943	351.94
439.165	293.94
439.386	274.94
439.608	270.94
439.829	275.94
440.05	288.94
440.272	312.94
440.493	296.94
440.715	262.94
440.936	250.94
441.158	269.94
441.379	261.94
441.6	277.94
441.822	275.94
442.043	278.94
442.264	323.94
442.486	323.94
442.707	309.94
442.928	272.94
443.149	285.94
443.371	291.94
443.592	310.94
443.813	336.94
444.034	349.94
444.255	305.94
444.476	269.94
444.698	275.94
444.919	279.94
445.14	360.94
445.361	316.94
445.582	300.94
445.803	338.94
446.024	355.94
446.245	359.94
446.466	333.94
446.687	301.94
446.908	281.94
447.129	246.94
447.35	255.94
447.571	256.94
447.792	254.94
448.013	243.94
448.234	242.94
448.455	287.94
448.675	332.94
448.896	368.94
449.117	324.94
449.338	293.94
449.559	357.94
449.779	381.94
450	312.94
450.221	266.94
450.442	264.94
450.662	245.94
450.883	243.94
451.104	254.94
451.324	258.94
451.545	246.94
451.766	226.94
451.986	215.94
452.207	220.94
452.428	219.94
452.648	227.94
452.869	224.94
453.089	246.94
453.31	236.94
453.53	213.94
453.751	245.94
453.971	239.94
454.192	249.94
454.412	237.94
454.633	222.94
454.853	219.94
455.073	225.94
455.294	242.94
455.514	282.94
455.734	260.94
455.955	226.94
456.175	214.94
456.395	226.94
456.616	209.94
456.836	212.94
457.056	206.94
457.276	194.94
457.497	210.94
457.717	216.94
457.937	223.94
458.157	213.94
458.377	216.94
458.598	257.94
458.818	280.94
459.038	315.94
459.258	304.94
459.478	268.94
459.698	237.94
459.918	227.94
460.138	244.94
460.358	237.94
460.578	249.94
460.798	255.94
461.018	244.94
461.238	263.94
461.458	248.94
461.678	222.94
461.898	249.94
462.118	240.94
462.338	262.94
462.558	250.94
462.777	264.94
462.997	283.94
463.217	274.94
463.437	260.94
463.657	249.94
463.876	246.94
464.096	271.94
464.316	265.94
464.536	269.94
464.755	276.94
464.975	262.94
465.195	303.94
465.414	348.94
465.634	298.94
465.854	256.94
466.073	237.94
466.293	243.94
466.512	231.94
466.732	237.94
466.951	256.94
467.171	236.94
467.391	248.94
467.61	237.94
467.829	251.94
468.049	251.94
468.268	253.94
468.488	237.94
468.707	226.94
468.927	227.94
469.146	223.94
469.365	236.94
469.585	246.94
469.804	241.94
470.023	241.94
470.243	243.94
470.462	244.94
470.681	254.94
470.901	245.94
471.12	245.94
471.339	226.94
471.558	226.94
471.777	252.94
471.997	230.94
472.216	238.94
472.435	279.94
472.654	261.94
472.873	238.94
473.092	245.94
473.311	240.94
473.53	244.94
473.749	254.94
473.968	279.94
474.187	314.94
474.406	293.94
474.625	290.94
474.844	229.94
475.063	248.94
475.282	229.94
475.501	223.94
475.72	250.94
475.939	240.94
476.158	257.94
476.377	243.94
476.596	246.94
476.814	232.94
477.033	254.94
477.252	264.94
477.471	241.94
477.69	265.94
477.908	243.94
478.127	258.94
478.346	265.94
478.564	264.94
478.783	266.94
479.002	276.94
479.22	268.94
479.439	270.94
479.658	290.94
479.876	278.94
480.095	270.94
480.313	284.94
480.532	262.94
480.751	295.94
480.969	299.94
481.188	342.94
481.406	371.94
481.624	308.94
481.843	304.94
482.061	278.94
482.28	295.94
482.498	269.94
482.717	257.94
482.935	277.94
483.153	267.94
483.372	278.94
483.59	249.94
483.808	280.94
484.027	281.94
484.245	273.94
484.463	268.94
484.681	284.94
484.9	284.94
485.118	289.94
485.336	288.94
485.554	295.94
485.772	281.94
485.99	297.94
486.209	279.94
486.427	290.94
486.645	290.94
486.863	302.94
487.081	309.94
487.299	305.94
487.517	297.94
487.735	285.94
487.953	318.94
488.171	301.94
488.389	294.94
488.607	284.94
488.825	300.94
489.043	300.94
489.261	283.94
489.479	300.94
489.696	299.94
489.914	292.94
490.132	308.94
490.35	310.94
490.568	308.94
490.786	309.94
491.003	322.94
491.221	328.94
491.439	342.94
491.657	321.94
491.874	330.94
492.092	357.94
492.31	326.94
492.527	340.94
492.745	335.94
492.963	364.94
493.18	361.94
493.398	344.94
493.615	370.94
493.833	376.94
494.05	333.94
494.268	338.94
494.485	329.94
494.703	353.94
494.92	343.94
495.138	347.94
495.355	349.94
495.573	359.94
495.79	333.94
496.008	358.94
496.225	333.94
496.442	336.94
496.66	330.94
496.877	338.94
497.094	331.94
497.312	352.94
497.529	341.94
497.746	361.94
497.963	344.94
498.181	364.94
498.398	377.94
498.615	376.94
498.832	370.94
499.049	374.94
499.267	381.94
499.484	400.94
499.701	403.94
499.918	435.94
500.135	434.94
500.352	461.94
500.569	468.94
500.786	456.94
501.003	450.94
501.22	457.94
501.437	453.94
501.654	418.94
501.871	400.94
502.088	398.94
502.305	404.94
502.522	374.94
502.739	364.94
