Data from 1966.PennyLincolnUp.Lamp.En5.5.200Scan.071719.P1._HRD10591_14-13-00-913.txt Node
Date: Thu Jul 18 14:13:00 EDT 2019
User: cochatt
Spectrometer: HR+D1059
Trigger mode: 1
Integration Time (sec): 1.000000E-1
Scans to average: 1
Electric dark correction enabled: true
Nonlinearity correction enabled: false
Boxcar width: 0
XAxis mode: Wavelengths
Number of Pixels in Spectrum: 2048
>>>>>Begin Spectral Data<<<<<
223.165	-7.38
223.4	-7.38
223.635	-7.38
223.869	-10.38
224.104	-17.38
224.338	-19.38
224.573	-19.38
224.808	-13.38
225.042	4.62
225.277	-11.38
225.511	-8.38
225.746	5.62
225.98	8.62
226.215	7.62
226.449	11.62
226.683	12.62
226.918	17.62
227.152	38.62
227.387	33.62
227.621	40.62
227.856	32.62
228.09	40.62
228.324	52.62
228.559	61.62
228.793	47.62
229.027	69.62
229.262	77.62
229.496	77.62
229.73	108.62
229.964	105.62
230.199	70.62
230.433	87.62
230.667	85.62
230.901	91.62
231.136	83.62
231.37	92.62
231.604	91.62
231.838	96.62
232.072	97.62
232.306	90.62
232.541	81.62
232.775	86.62
233.009	90.62
233.243	89.62
233.477	75.62
233.711	80.62
233.945	85.62
234.179	85.62
234.413	97.62
234.647	99.62
234.881	106.62
235.115	93.62
235.349	95.62
235.583	92.62
235.817	97.62
236.051	86.62
236.285	90.62
236.519	94.62
236.753	110.62
236.987	102.62
237.221	114.62
237.455	146.62
237.689	138.62
237.922	89.62
238.156	93.62
238.39	104.62
238.624	109.62
238.858	95.62
239.091	94.62
239.325	102.62
239.559	97.62
239.793	94.62
240.027	88.62
240.26	101.62
240.494	122.62
240.728	106.62
240.961	104.62
241.195	108.62
241.429	85.62
241.662	91.62
241.896	93.62
242.13	98.62
242.363	94.62
242.597	98.62
242.83	102.62
243.064	82.62
243.298	97.62
243.531	119.62
243.765	104.62
243.998	105.62
244.232	90.62
244.465	99.62
244.699	94.62
244.932	107.62
245.166	97.62
245.399	105.62
245.633	102.62
245.866	109.62
246.099	123.62
246.333	106.62
246.566	104.62
246.8	109.62
247.033	86.62
247.266	96.62
247.5	115.62
247.733	114.62
247.966	117.62
248.2	118.62
248.433	112.62
248.666	115.62
248.899	126.62
249.133	117.62
249.366	126.62
249.599	117.62
249.832	114.62
250.066	109.62
250.299	110.62
250.532	123.62
250.765	136.62
250.998	149.62
251.231	133.62
251.465	126.62
251.698	137.62
251.931	121.62
252.164	134.62
252.397	121.62
252.63	119.62
252.863	123.62
253.096	132.62
253.329	130.62
253.562	129.62
253.795	124.62
254.028	127.62
254.261	129.62
254.494	132.62
254.727	157.62
254.96	159.62
255.193	151.62
255.426	159.62
255.659	139.62
255.892	122.62
256.124	132.62
256.357	136.62
256.59	125.62
256.823	116.62
257.056	123.62
257.289	125.62
257.521	129.62
257.754	129.62
257.987	134.62
258.22	140.62
258.452	131.62
258.685	131.62
258.918	139.62
259.151	127.62
259.383	123.62
259.616	131.62
259.849	139.62
260.081	149.62
260.314	155.62
260.547	146.62
260.779	133.62
261.012	144.62
261.244	133.62
261.477	134.62
261.71	139.62
261.942	144.62
262.175	133.62
262.407	122.62
262.64	103.62
262.872	125.62
263.105	125.62
263.337	117.62
263.57	130.62
263.802	127.62
264.035	131.62
264.267	129.62
264.499	125.62
264.732	137.62
264.964	135.62
265.197	118.62
265.429	139.62
265.661	127.62
265.894	127.62
266.126	126.62
266.358	120.62
266.591	127.62
266.823	140.62
267.055	150.62
267.287	148.62
267.52	131.62
267.752	126.62
267.984	144.62
268.216	125.62
268.448	126.62
268.681	129.62
268.913	150.62
269.145	168.62
269.377	165.62
269.609	157.62
269.841	150.62
270.073	162.62
270.306	166.62
270.538	171.62
270.77	173.62
271.002	174.62
271.234	160.62
271.466	179.62
271.698	160.62
271.93	174.62
272.162	166.62
272.394	173.62
272.626	161.62
272.858	151.62
273.09	142.62
273.322	150.62
273.553	169.62
273.785	147.62
274.017	149.62
274.249	154.62
274.481	144.62
274.713	151.62
274.945	163.62
275.176	146.62
275.408	143.62
275.64	155.62
275.872	157.62
276.104	151.62
276.335	134.62
276.567	152.62
276.799	163.62
277.031	172.62
277.262	179.62
277.494	181.62
277.726	178.62
277.957	165.62
278.189	147.62
278.421	151.62
278.652	159.62
278.884	153.62
279.115	154.62
279.347	154.62
279.579	155.62
279.81	157.62
280.042	159.62
280.273	153.62
280.505	160.62
280.736	145.62
280.968	143.62
281.199	158.62
281.431	159.62
281.662	150.62
281.894	156.62
282.125	142.62
282.356	168.62
282.588	186.62
282.819	172.62
283.051	150.62
283.282	151.62
283.513	166.62
283.745	149.62
283.976	171.62
284.207	156.62
284.439	128.62
284.67	152.62
284.901	154.62
285.132	142.62
285.364	157.62
285.595	153.62
285.826	153.62
286.057	159.62
286.288	143.62
286.52	156.62
286.751	175.62
286.982	159.62
287.213	167.62
287.444	171.62
287.675	165.62
287.906	167.62
288.138	160.62
288.369	162.62
288.6	169.62
288.831	154.62
289.062	161.62
289.293	151.62
289.524	149.62
289.755	153.62
289.986	147.62
290.217	154.62
290.448	162.62
290.679	163.62
290.91	151.62
291.141	147.62
291.371	163.62
291.602	155.62
291.833	148.62
292.064	139.62
292.295	157.62
292.526	156.62
292.757	163.62
292.987	157.62
293.218	167.62
293.449	151.62
293.68	161.62
293.91	165.62
294.141	153.62
294.372	172.62
294.603	165.62
294.833	166.62
295.064	151.62
295.295	159.62
295.525	173.62
295.756	174.62
295.987	163.62
296.217	178.62
296.448	184.62
296.679	187.62
296.909	167.62
297.14	155.62
297.37	167.62
297.601	164.62
297.831	172.62
298.062	169.62
298.292	152.62
298.523	156.62
298.753	162.62
298.984	171.62
299.214	160.62
299.445	158.62
299.675	158.62
299.905	170.62
300.136	158.62
300.366	147.62
300.597	167.62
300.827	166.62
301.057	181.62
301.288	168.62
301.518	193.62
301.748	184.62
301.979	180.62
302.209	172.62
302.439	178.62
302.669	175.62
302.9	161.62
303.13	186.62
303.36	185.62
303.59	160.62
303.82	188.62
304.051	180.62
304.281	166.62
304.511	181.62
304.741	172.62
304.971	173.62
305.201	202.62
305.431	172.62
305.661	157.62
305.891	174.62
306.121	174.62
306.352	179.62
306.582	175.62
306.812	195.62
307.042	163.62
307.272	197.62
307.502	164.62
307.731	194.62
307.961	161.62
308.191	171.62
308.421	174.62
308.651	190.62
308.881	181.62
309.111	181.62
309.341	172.62
309.571	169.62
309.8	193.62
310.03	198.62
310.26	216.62
310.49	179.62
310.72	196.62
310.949	211.62
311.179	200.62
311.409	198.62
311.639	189.62
311.868	218.62
312.098	187.62
312.328	201.62
312.557	209.62
312.787	225.62
313.017	219.62
313.246	196.62
313.476	189.62
313.706	193.62
313.935	177.62
314.165	198.62
314.394	196.62
314.624	204.62
314.853	198.62
315.083	186.62
315.312	190.62
315.542	192.62
315.771	200.62
316.001	192.62
316.23	189.62
316.46	183.62
316.689	188.62
316.919	183.62
317.148	188.62
317.377	211.62
317.607	191.62
317.836	207.62
318.065	197.62
318.295	188.62
318.524	190.62
318.753	194.62
318.983	191.62
319.212	194.62
319.441	193.62
319.67	198.62
319.9	211.62
320.129	196.62
320.358	183.62
320.587	193.62
320.816	205.62
321.046	197.62
321.275	202.62
321.504	202.62
321.733	196.62
321.962	203.62
322.191	207.62
322.42	220.62
322.649	221.62
322.878	210.62
323.108	218.62
323.337	217.62
323.566	232.62
323.795	257.62
324.024	268.62
324.253	329.62
324.482	467.62
324.71	669.62
324.939	933.62
325.168	733.62
325.397	386.62
325.626	277.62
325.855	241.62
326.084	226.62
326.313	226.62
326.542	250.62
326.77	265.62
326.999	315.62
327.228	427.62
327.457	627.62
327.686	689.62
327.914	452.62
328.143	323.62
328.372	297.62
328.6	267.62
328.829	274.62
329.058	307.62
329.287	291.62
329.515	261.62
329.744	264.62
329.972	257.62
330.201	267.62
330.43	299.62
330.658	301.62
330.887	315.62
331.115	283.62
331.344	255.62
331.572	254.62
331.801	228.62
332.03	244.62
332.258	231.62
332.486	235.62
332.715	215.62
332.943	247.62
333.172	230.62
333.4	219.62
333.629	233.62
333.857	245.62
334.085	245.62
334.314	260.62
334.542	264.62
334.771	300.62
334.999	257.62
335.227	229.62
335.455	238.62
335.684	242.62
335.912	231.62
336.14	212.62
336.369	218.62
336.597	242.62
336.825	231.62
337.053	218.62
337.281	209.62
337.51	212.62
337.738	213.62
337.966	230.62
338.194	212.62
338.422	236.62
338.65	222.62
338.878	221.62
339.106	230.62
339.334	199.62
339.562	213.62
339.79	222.62
340.018	205.62
340.246	227.62
340.474	222.62
340.702	204.62
340.93	197.62
341.158	198.62
341.386	195.62
341.614	211.62
341.842	202.62
342.07	219.62
342.298	209.62
342.526	213.62
342.754	197.62
342.981	207.62
343.209	199.62
343.437	209.62
343.665	196.62
343.893	215.62
344.12	200.62
344.348	224.62
344.576	220.62
344.804	236.62
345.031	221.62
345.259	232.62
345.487	228.62
345.714	210.62
345.942	201.62
346.17	201.62
346.397	194.62
346.625	202.62
346.853	212.62
347.08	214.62
347.308	222.62
347.535	224.62
347.763	216.62
347.99	219.62
348.218	223.62
348.445	215.62
348.673	205.62
348.9	214.62
349.128	193.62
349.355	216.62
349.583	199.62
349.81	190.62
350.037	211.62
350.265	193.62
350.492	207.62
350.72	197.62
350.947	209.62
351.174	197.62
351.402	207.62
351.629	211.62
351.856	221.62
352.083	218.62
352.311	217.62
352.538	227.62
352.765	233.62
352.992	207.62
353.22	200.62
353.447	195.62
353.674	211.62
353.901	198.62
354.128	195.62
354.355	184.62
354.583	195.62
354.81	217.62
355.037	184.62
355.264	195.62
355.491	181.62
355.718	183.62
355.945	191.62
356.172	205.62
356.399	185.62
356.626	198.62
356.853	175.62
357.08	201.62
357.307	180.62
357.534	191.62
357.761	213.62
357.988	185.62
358.215	179.62
358.441	216.62
358.668	201.62
358.895	190.62
359.122	189.62
359.349	204.62
359.576	191.62
359.802	216.62
360.029	230.62
360.256	219.62
360.483	220.62
360.709	201.62
360.936	214.62
361.163	206.62
361.39	207.62
361.616	206.62
361.843	208.62
362.07	197.62
362.296	198.62
362.523	221.62
362.749	212.62
362.976	222.62
363.203	211.62
363.429	202.62
363.656	199.62
363.882	206.62
364.109	196.62
364.335	188.62
364.562	189.62
364.788	197.62
365.015	187.62
365.241	201.62
365.468	204.62
365.694	194.62
365.92	203.62
366.147	189.62
366.373	198.62
366.599	185.62
366.826	194.62
367.052	180.62
367.278	187.62
367.505	204.62
367.731	205.62
367.957	195.62
368.184	187.62
368.41	183.62
368.636	206.62
368.862	227.62
369.089	186.62
369.315	189.62
369.541	191.62
369.767	205.62
369.993	194.62
370.219	187.62
370.445	206.62
370.672	200.62
370.898	197.62
371.124	190.62
371.35	206.62
371.576	207.62
371.802	193.62
372.028	190.62
372.254	192.62
372.48	189.62
372.706	191.62
372.932	191.62
373.158	187.62
373.384	198.62
373.61	197.62
373.835	200.62
374.061	207.62
374.287	202.62
374.513	204.62
374.739	194.62
374.965	197.62
375.191	190.62
375.416	194.62
375.642	195.62
375.868	196.62
376.094	185.62
376.319	211.62
376.545	197.62
376.771	196.62
376.997	198.62
377.222	182.62
377.448	194.62
377.674	200.62
377.899	198.62
378.125	196.62
378.35	196.62
378.576	202.62
378.802	184.62
379.027	182.62
379.253	195.62
379.478	185.62
379.704	188.62
379.929	200.62
380.155	190.62
380.38	200.62
380.606	206.62
380.831	208.62
381.057	205.62
381.282	189.62
381.507	193.62
381.733	198.62
381.958	207.62
382.184	214.62
382.409	177.62
382.634	200.62
382.86	202.62
383.085	185.62
383.31	190.62
383.535	189.62
383.761	186.62
383.986	197.62
384.211	214.62
384.436	220.62
384.662	198.62
384.887	214.62
385.112	190.62
385.337	189.62
385.562	188.62
385.787	230.62
386.013	205.62
386.238	210.62
386.463	211.62
386.688	207.62
386.913	206.62
387.138	211.62
387.363	203.62
387.588	220.62
387.813	202.62
388.038	207.62
388.263	217.62
388.488	196.62
388.713	230.62
388.938	224.62
389.163	199.62
389.387	214.62
389.612	202.62
389.837	205.62
390.062	198.62
390.287	203.62
390.512	208.62
390.736	203.62
390.961	212.62
391.186	205.62
391.411	215.62
391.636	220.62
391.86	203.62
392.085	204.62
392.31	217.62
392.534	217.62
392.759	226.62
392.984	200.62
393.208	214.62
393.433	220.62
393.658	216.62
393.882	204.62
394.107	206.62
394.331	212.62
394.556	214.62
394.78	206.62
395.005	212.62
395.229	209.62
395.454	204.62
395.678	199.62
395.903	209.62
396.127	227.62
396.352	242.62
396.576	205.62
396.801	196.62
397.025	222.62
397.249	223.62
397.474	211.62
397.698	217.62
397.922	230.62
398.147	259.62
398.371	234.62
398.595	224.62
398.82	210.62
399.044	231.62
399.268	253.62
399.492	252.62
399.717	260.62
399.941	264.62
400.165	285.62
400.389	270.62
400.613	272.62
400.837	229.62
401.062	238.62
401.286	239.62
401.51	227.62
401.734	220.62
401.958	248.62
402.182	231.62
402.406	248.62
402.63	224.62
402.854	235.62
403.078	243.62
403.302	244.62
403.526	236.62
403.75	243.62
403.974	228.62
404.198	243.62
404.422	245.62
404.645	257.62
404.869	249.62
405.093	260.62
405.317	258.62
405.541	279.62
405.765	260.62
405.988	270.62
406.212	258.62
406.436	264.62
406.66	300.62
406.883	268.62
407.107	282.62
407.331	271.62
407.555	324.62
407.778	295.62
408.002	278.62
408.226	261.62
408.449	261.62
408.673	264.62
408.896	270.62
409.12	287.62
409.344	267.62
409.567	257.62
409.791	246.62
410.014	253.62
410.238	231.62
410.461	237.62
410.685	247.62
410.908	263.62
411.132	277.62
411.355	267.62
411.578	260.62
411.802	247.62
412.025	245.62
412.249	246.62
412.472	233.62
412.695	249.62
412.919	249.62
413.142	242.62
413.365	246.62
413.589	232.62
413.812	233.62
414.035	250.62
414.258	233.62
414.482	228.62
414.705	247.62
414.928	242.62
415.151	225.62
415.374	222.62
415.597	234.62
415.821	228.62
416.044	239.62
416.267	230.62
416.49	231.62
416.713	223.62
416.936	238.62
417.159	230.62
417.382	228.62
417.605	228.62
417.828	246.62
418.051	241.62
418.274	249.62
418.497	262.62
418.72	225.62
418.943	226.62
419.166	251.62
419.389	239.62
419.611	236.62
419.834	246.62
420.057	252.62
420.28	242.62
420.503	246.62
420.726	250.62
420.948	255.62
421.171	266.62
421.394	269.62
421.617	233.62
421.839	246.62
422.062	250.62
422.285	251.62
422.507	262.62
422.73	270.62
422.953	276.62
423.175	268.62
423.398	247.62
423.621	246.62
423.843	271.62
424.066	235.62
424.288	237.62
424.511	261.62
424.733	300.62
424.956	323.62
425.178	319.62
425.401	297.62
425.623	314.62
425.846	266.62
426.068	255.62
426.291	251.62
426.513	250.62
426.735	257.62
426.958	264.62
427.18	329.62
427.402	340.62
427.625	387.62
427.847	332.62
428.069	295.62
428.292	275.62
428.514	258.62
428.736	246.62
428.958	255.62
429.181	228.62
429.403	245.62
429.625	234.62
429.847	250.62
430.069	253.62
430.292	258.62
430.514	229.62
430.736	230.62
430.958	227.62
431.18	237.62
431.402	221.62
431.624	214.62
431.846	228.62
432.068	225.62
432.29	231.62
432.512	228.62
432.734	217.62
432.956	231.62
433.178	249.62
433.4	228.62
433.622	241.62
433.844	236.62
434.066	212.62
434.287	226.62
434.509	220.62
434.731	229.62
434.953	245.62
435.175	238.62
435.397	244.62
435.618	245.62
435.84	280.62
436.062	312.62
436.284	332.62
436.505	281.62
436.727	257.62
436.949	234.62
437.17	231.62
437.392	228.62
437.614	244.62
437.835	277.62
438.057	297.62
438.278	341.62
438.5	315.62
438.721	353.62
438.943	341.62
439.165	277.62
439.386	261.62
439.608	259.62
439.829	266.62
440.05	265.62
440.272	292.62
440.493	262.62
440.715	237.62
440.936	229.62
441.158	238.62
441.379	242.62
441.6	256.62
441.822	253.62
442.043	271.62
442.264	317.62
442.486	319.62
442.707	308.62
442.928	257.62
443.149	273.62
443.371	261.62
443.592	295.62
443.813	350.62
444.034	356.62
444.255	289.62
444.476	261.62
444.698	256.62
444.919	279.62
445.14	327.62
445.361	299.62
445.582	291.62
445.803	304.62
446.024	345.62
446.245	330.62
446.466	319.62
446.687	254.62
446.908	249.62
447.129	258.62
447.35	242.62
447.571	238.62
447.792	241.62
448.013	236.62
448.234	232.62
448.455	267.62
448.675	299.62
448.896	337.62
449.117	311.62
449.338	287.62
449.559	330.62
449.779	371.62
450	289.62
450.221	255.62
450.442	227.62
450.662	233.62
450.883	249.62
451.104	251.62
451.324	243.62
451.545	231.62
451.766	223.62
451.986	205.62
452.207	214.62
452.428	219.62
452.648	219.62
452.869	216.62
453.089	229.62
453.31	232.62
453.53	237.62
453.751	218.62
453.971	219.62
454.192	238.62
454.412	218.62
454.633	220.62
454.853	212.62
455.073	213.62
455.294	228.62
455.514	262.62
455.734	245.62
455.955	201.62
456.175	211.62
456.395	194.62
456.616	226.62
456.836	202.62
457.056	196.62
457.276	208.62
457.497	211.62
457.717	197.62
457.937	209.62
458.157	193.62
458.377	205.62
458.598	209.62
458.818	279.62
459.038	293.62
459.258	295.62
459.478	252.62
459.698	242.62
459.918	227.62
460.138	224.62
460.358	225.62
460.578	223.62
460.798	234.62
461.018	228.62
461.238	221.62
461.458	227.62
461.678	223.62
461.898	223.62
462.118	237.62
462.338	248.62
462.558	245.62
462.777	222.62
462.997	237.62
463.217	244.62
463.437	251.62
463.657	236.62
463.876	247.62
464.096	259.62
464.316	263.62
464.536	236.62
464.755	252.62
464.975	264.62
465.195	284.62
465.414	314.62
465.634	268.62
465.854	243.62
466.073	232.62
466.293	223.62
466.512	223.62
466.732	212.62
466.951	222.62
467.171	217.62
467.391	226.62
467.61	234.62
467.829	220.62
468.049	233.62
468.268	233.62
468.488	226.62
468.707	207.62
468.927	216.62
469.146	209.62
469.365	218.62
469.585	214.62
469.804	202.62
470.023	220.62
470.243	235.62
470.462	235.62
470.681	242.62
470.901	236.62
471.12	210.62
471.339	225.62
471.558	225.62
471.777	234.62
471.997	220.62
472.216	236.62
472.435	243.62
472.654	254.62
472.873	243.62
473.092	234.62
473.311	229.62
473.53	210.62
473.749	231.62
473.968	248.62
474.187	278.62
474.406	295.62
474.625	235.62
474.844	221.62
475.063	226.62
475.282	237.62
475.501	233.62
475.72	228.62
475.939	225.62
476.158	224.62
476.377	225.62
476.596	234.62
476.814	242.62
477.033	238.62
477.252	226.62
477.471	232.62
477.69	236.62
477.908	235.62
478.127	241.62
478.346	231.62
478.564	239.62
478.783	242.62
479.002	245.62
479.22	234.62
479.439	251.62
479.658	264.62
479.876	274.62
480.095	269.62
480.313	275.62
480.532	259.62
480.751	295.62
480.969	287.62
481.188	325.62
481.406	346.62
481.624	307.62
481.843	256.62
482.061	234.62
482.28	250.62
482.498	251.62
482.717	247.62
482.935	257.62
483.153	260.62
483.372	267.62
483.59	264.62
483.808	257.62
484.027	254.62
484.245	259.62
484.463	253.62
484.681	273.62
484.9	249.62
485.118	265.62
485.336	266.62
485.554	248.62
485.772	278.62
485.99	262.62
486.209	265.62
486.427	284.62
486.645	266.62
486.863	290.62
487.081	296.62
487.299	278.62
487.517	275.62
487.735	295.62
487.953	290.62
488.171	272.62
488.389	287.62
488.607	287.62
488.825	261.62
489.043	275.62
489.261	284.62
489.479	264.62
489.696	292.62
489.914	287.62
490.132	291.62
490.35	299.62
490.568	299.62
490.786	302.62
491.003	303.62
491.221	318.62
491.439	311.62
491.657	314.62
491.874	334.62
492.092	327.62
492.31	314.62
492.527	345.62
492.745	326.62
492.963	334.62
493.18	327.62
493.398	339.62
493.615	319.62
493.833	339.62
494.05	329.62
494.268	307.62
494.485	327.62
494.703	321.62
494.92	334.62
495.138	326.62
495.355	305.62
495.573	314.62
495.79	315.62
496.008	315.62
496.225	321.62
496.442	331.62
496.66	323.62
496.877	318.62
497.094	337.62
497.312	322.62
497.529	317.62
497.746	333.62
497.963	335.62
498.181	342.62
498.398	348.62
498.615	347.62
498.832	355.62
499.049	348.62
499.267	363.62
499.484	369.62
499.701	365.62
499.918	405.62
500.135	410.62
500.352	397.62
500.569	438.62
500.786	433.62
501.003	406.62
501.22	403.62
501.437	438.62
501.654	398.62
501.871	392.62
502.088	379.62
502.305	357.62
502.522	341.62
502.739	338.62
