Data from 1966.PennyLincolnUp.Lamp.En5.5.200Scan.071719.P1._HRD10591_14-13-50-915.txt Node
Date: Thu Jul 18 14:13:50 EDT 2019
User: cochatt
Spectrometer: HR+D1059
Trigger mode: 1
Integration Time (sec): 1.000000E-1
Scans to average: 1
Electric dark correction enabled: true
Nonlinearity correction enabled: false
Boxcar width: 0
XAxis mode: Wavelengths
Number of Pixels in Spectrum: 2048
>>>>>Begin Spectral Data<<<<<
223.165	-24.12
223.4	-24.12
223.635	-24.12
223.869	-17.12
224.104	-29.12
224.338	-14.12
224.573	-23.12
224.808	-15.12
225.042	-11.12
225.277	2.88
225.511	7.88
225.746	0.88
225.98	-1.12
226.215	15.88
226.449	18.88
226.683	10.88
226.918	40.88
227.152	36.88
227.387	37.88
227.621	32.88
227.856	38.88
228.09	45.88
228.324	31.88
228.559	53.88
228.793	52.88
229.027	71.88
229.262	78.88
229.496	76.88
229.73	95.88
229.964	96.88
230.199	95.88
230.433	94.88
230.667	91.88
230.901	94.88
231.136	91.88
231.37	98.88
231.604	95.88
231.838	85.88
232.072	90.88
232.306	109.88
232.541	99.88
232.775	102.88
233.009	98.88
233.243	105.88
233.477	85.88
233.711	103.88
233.945	101.88
234.179	106.88
234.413	94.88
234.647	93.88
234.881	98.88
235.115	91.88
235.349	97.88
235.583	84.88
235.817	97.88
236.051	94.88
236.285	90.88
236.519	97.88
236.753	100.88
236.987	96.88
237.221	125.88
237.455	148.88
237.689	121.88
237.922	101.88
238.156	93.88
238.39	104.88
238.624	101.88
238.858	87.88
239.091	109.88
239.325	100.88
239.559	101.88
239.793	83.88
240.027	102.88
240.26	99.88
240.494	121.88
240.728	122.88
240.961	108.88
241.195	90.88
241.429	92.88
241.662	78.88
241.896	100.88
242.13	100.88
242.363	101.88
242.597	103.88
242.83	102.88
243.064	119.88
243.298	101.88
243.531	92.88
243.765	99.88
243.998	98.88
244.232	101.88
244.465	111.88
244.699	105.88
244.932	93.88
245.166	109.88
245.399	107.88
245.633	101.88
245.866	102.88
246.099	115.88
246.333	104.88
246.566	106.88
246.8	99.88
247.033	119.88
247.266	112.88
247.5	119.88
247.733	104.88
247.966	130.88
248.2	120.88
248.433	115.88
248.666	112.88
248.899	130.88
249.133	128.88
249.366	128.88
249.599	128.88
249.832	124.88
250.066	125.88
250.299	121.88
250.532	123.88
250.765	134.88
250.998	151.88
251.231	154.88
251.465	128.88
251.698	117.88
251.931	124.88
252.164	115.88
252.397	129.88
252.63	125.88
252.863	136.88
253.096	150.88
253.329	143.88
253.562	142.88
253.795	141.88
254.028	127.88
254.261	138.88
254.494	137.88
254.727	142.88
254.96	174.88
255.193	156.88
255.426	139.88
255.659	133.88
255.892	156.88
256.124	142.88
256.357	147.88
256.59	136.88
256.823	140.88
257.056	131.88
257.289	132.88
257.521	126.88
257.754	135.88
257.987	129.88
258.22	134.88
258.452	141.88
258.685	135.88
258.918	127.88
259.151	128.88
259.383	147.88
259.616	145.88
259.849	129.88
260.081	162.88
260.314	155.88
260.547	143.88
260.779	149.88
261.012	137.88
261.244	122.88
261.477	128.88
261.71	134.88
261.942	158.88
262.175	141.88
262.407	137.88
262.64	149.88
262.872	135.88
263.105	124.88
263.337	123.88
263.57	131.88
263.802	135.88
264.035	111.88
264.267	130.88
264.499	146.88
264.732	124.88
264.964	116.88
265.197	137.88
265.429	136.88
265.661	138.88
265.894	133.88
266.126	132.88
266.358	130.88
266.591	144.88
266.823	147.88
267.055	136.88
267.287	145.88
267.52	146.88
267.752	143.88
267.984	141.88
268.216	149.88
268.448	138.88
268.681	150.88
268.913	144.88
269.145	157.88
269.377	160.88
269.609	135.88
269.841	164.88
270.073	157.88
270.306	181.88
270.538	173.88
270.77	179.88
271.002	180.88
271.234	172.88
271.466	196.88
271.698	170.88
271.93	165.88
272.162	170.88
272.394	206.88
272.626	182.88
272.858	162.88
273.09	172.88
273.322	175.88
273.553	150.88
273.785	152.88
274.017	163.88
274.249	164.88
274.481	150.88
274.713	155.88
274.945	150.88
275.176	163.88
275.408	149.88
275.64	172.88
275.872	159.88
276.104	162.88
276.335	165.88
276.567	154.88
276.799	179.88
277.031	182.88
277.262	192.88
277.494	173.88
277.726	192.88
277.957	183.88
278.189	161.88
278.421	155.88
278.652	155.88
278.884	149.88
279.115	156.88
279.347	154.88
279.579	162.88
279.81	138.88
280.042	155.88
280.273	171.88
280.505	147.88
280.736	157.88
280.968	153.88
281.199	154.88
281.431	171.88
281.662	152.88
281.894	155.88
282.125	170.88
282.356	169.88
282.588	186.88
282.819	191.88
283.051	168.88
283.282	154.88
283.513	169.88
283.745	172.88
283.976	153.88
284.207	170.88
284.439	163.88
284.67	171.88
284.901	163.88
285.132	157.88
285.364	158.88
285.595	170.88
285.826	166.88
286.057	159.88
286.288	182.88
286.52	170.88
286.751	168.88
286.982	161.88
287.213	164.88
287.444	172.88
287.675	169.88
287.906	175.88
288.138	183.88
288.369	186.88
288.6	192.88
288.831	167.88
289.062	170.88
289.293	179.88
289.524	165.88
289.755	164.88
289.986	169.88
290.217	160.88
290.448	161.88
290.679	176.88
290.91	151.88
291.141	155.88
291.371	161.88
291.602	175.88
291.833	142.88
292.064	166.88
292.295	164.88
292.526	171.88
292.757	164.88
292.987	161.88
293.218	175.88
293.449	163.88
293.68	154.88
293.91	169.88
294.141	175.88
294.372	174.88
294.603	166.88
294.833	174.88
295.064	180.88
295.295	170.88
295.525	163.88
295.756	186.88
295.987	170.88
296.217	182.88
296.448	192.88
296.679	180.88
296.909	154.88
297.14	184.88
297.37	167.88
297.601	168.88
297.831	167.88
298.062	168.88
298.292	155.88
298.523	158.88
298.753	172.88
298.984	171.88
299.214	187.88
299.445	174.88
299.675	175.88
299.905	174.88
300.136	175.88
300.366	179.88
300.597	175.88
300.827	166.88
301.057	178.88
301.288	202.88
301.518	188.88
301.748	178.88
301.979	184.88
302.209	161.88
302.439	187.88
302.669	190.88
302.9	197.88
303.13	178.88
303.36	187.88
303.59	192.88
303.82	171.88
304.051	183.88
304.281	205.88
304.511	182.88
304.741	176.88
304.971	183.88
305.201	186.88
305.431	188.88
305.661	191.88
305.891	185.88
306.121	196.88
306.352	182.88
306.582	188.88
306.812	188.88
307.042	193.88
307.272	179.88
307.502	191.88
307.731	192.88
307.961	184.88
308.191	179.88
308.421	176.88
308.651	188.88
308.881	171.88
309.111	199.88
309.341	188.88
309.571	192.88
309.8	196.88
310.03	197.88
310.26	199.88
310.49	198.88
310.72	212.88
310.949	210.88
311.179	216.88
311.409	205.88
311.639	211.88
311.868	206.88
312.098	212.88
312.328	216.88
312.557	225.88
312.787	227.88
313.017	214.88
313.246	210.88
313.476	194.88
313.706	204.88
313.935	218.88
314.165	212.88
314.394	207.88
314.624	232.88
314.853	214.88
315.083	210.88
315.312	192.88
315.542	216.88
315.771	206.88
316.001	203.88
316.23	218.88
316.46	218.88
316.689	221.88
316.919	201.88
317.148	199.88
317.377	206.88
317.607	207.88
317.836	227.88
318.065	189.88
318.295	197.88
318.524	197.88
318.753	212.88
318.983	221.88
319.212	213.88
319.441	217.88
319.67	211.88
319.9	209.88
320.129	203.88
320.358	208.88
320.587	188.88
320.816	201.88
321.046	225.88
321.275	223.88
321.504	216.88
321.733	229.88
321.962	218.88
322.191	208.88
322.42	234.88
322.649	244.88
322.878	246.88
323.108	246.88
323.337	261.88
323.566	251.88
323.795	276.88
324.024	300.88
324.253	373.88
324.482	492.88
324.71	756.88
324.939	1002.88
325.168	805.88
325.397	393.88
325.626	297.88
325.855	262.88
326.084	252.88
326.313	259.88
326.542	257.88
326.77	263.88
326.999	335.88
327.228	447.88
327.457	675.88
327.686	767.88
327.914	507.88
328.143	370.88
328.372	330.88
328.6	319.88
328.829	296.88
329.058	307.88
329.287	307.88
329.515	265.88
329.744	264.88
329.972	260.88
330.201	286.88
330.43	315.88
330.658	319.88
330.887	350.88
331.115	333.88
331.344	282.88
331.572	268.88
331.801	268.88
332.03	280.88
332.258	234.88
332.486	229.88
332.715	236.88
332.943	247.88
333.172	219.88
333.4	248.88
333.629	231.88
333.857	253.88
334.085	261.88
334.314	251.88
334.542	285.88
334.771	312.88
334.999	285.88
335.227	238.88
335.455	235.88
335.684	230.88
335.912	223.88
336.14	233.88
336.369	227.88
336.597	235.88
336.825	243.88
337.053	244.88
337.281	233.88
337.51	230.88
337.738	229.88
337.966	223.88
338.194	232.88
338.422	222.88
338.65	226.88
338.878	229.88
339.106	229.88
339.334	224.88
339.562	214.88
339.79	229.88
340.018	241.88
340.246	225.88
340.474	234.88
340.702	228.88
340.93	220.88
341.158	225.88
341.386	220.88
341.614	223.88
341.842	220.88
342.07	218.88
342.298	208.88
342.526	220.88
342.754	224.88
342.981	206.88
343.209	205.88
343.437	209.88
343.665	223.88
343.893	242.88
344.12	238.88
344.348	224.88
344.576	231.88
344.804	224.88
345.031	246.88
345.259	246.88
345.487	249.88
345.714	213.88
345.942	226.88
346.17	215.88
346.397	235.88
346.625	232.88
346.853	225.88
347.08	213.88
347.308	209.88
347.535	239.88
347.763	213.88
347.99	220.88
348.218	208.88
348.445	234.88
348.673	233.88
348.9	234.88
349.128	208.88
349.355	209.88
349.583	190.88
349.81	201.88
350.037	203.88
350.265	215.88
350.492	211.88
350.72	211.88
350.947	208.88
351.174	208.88
351.402	229.88
351.629	231.88
351.856	227.88
352.083	214.88
352.311	235.88
352.538	237.88
352.765	253.88
352.992	237.88
353.22	234.88
353.447	216.88
353.674	226.88
353.901	214.88
354.128	202.88
354.355	205.88
354.583	195.88
354.81	205.88
355.037	198.88
355.264	191.88
355.491	206.88
355.718	203.88
355.945	203.88
356.172	197.88
356.399	196.88
356.626	196.88
356.853	210.88
357.08	215.88
357.307	179.88
357.534	184.88
357.761	193.88
357.988	188.88
358.215	193.88
358.441	202.88
358.668	192.88
358.895	200.88
359.122	197.88
359.349	215.88
359.576	225.88
359.802	249.88
360.029	243.88
360.256	248.88
360.483	219.88
360.709	219.88
360.936	224.88
361.163	218.88
361.39	214.88
361.616	218.88
361.843	217.88
362.07	225.88
362.296	220.88
362.523	226.88
362.749	220.88
362.976	205.88
363.203	217.88
363.429	206.88
363.656	204.88
363.882	203.88
364.109	208.88
364.335	206.88
364.562	216.88
364.788	223.88
365.015	200.88
365.241	218.88
365.468	218.88
365.694	212.88
365.92	203.88
366.147	209.88
366.373	202.88
366.599	192.88
366.826	204.88
367.052	205.88
367.278	230.88
367.505	210.88
367.731	223.88
367.957	213.88
368.184	194.88
368.41	216.88
368.636	220.88
368.862	230.88
369.089	217.88
369.315	202.88
369.541	201.88
369.767	200.88
369.993	204.88
370.219	224.88
370.445	212.88
370.672	218.88
370.898	203.88
371.124	215.88
371.35	215.88
371.576	197.88
371.802	203.88
372.028	202.88
372.254	212.88
372.48	212.88
372.706	204.88
372.932	197.88
373.158	194.88
373.384	229.88
373.61	211.88
373.835	208.88
374.061	212.88
374.287	214.88
374.513	211.88
374.739	225.88
374.965	219.88
375.191	197.88
375.416	206.88
375.642	214.88
375.868	207.88
376.094	218.88
376.319	207.88
376.545	184.88
376.771	206.88
376.997	202.88
377.222	214.88
377.448	218.88
377.674	211.88
377.899	193.88
378.125	187.88
378.35	185.88
378.576	192.88
378.802	188.88
379.027	210.88
379.253	196.88
379.478	207.88
379.704	194.88
379.929	221.88
380.155	206.88
380.38	207.88
380.606	202.88
380.831	208.88
381.057	213.88
381.282	217.88
381.507	223.88
381.733	214.88
381.958	226.88
382.184	211.88
382.409	222.88
382.634	209.88
382.86	204.88
383.085	225.88
383.31	214.88
383.535	199.88
383.761	212.88
383.986	202.88
384.211	206.88
384.436	203.88
384.662	207.88
384.887	220.88
385.112	226.88
385.337	227.88
385.562	217.88
385.787	233.88
386.013	232.88
386.238	231.88
386.463	234.88
386.688	235.88
386.913	230.88
387.138	204.88
387.363	215.88
387.588	200.88
387.813	227.88
388.038	217.88
388.263	202.88
388.488	215.88
388.713	219.88
388.938	227.88
389.163	213.88
389.387	220.88
389.612	202.88
389.837	207.88
390.062	217.88
390.287	194.88
390.512	217.88
390.736	218.88
390.961	208.88
391.186	219.88
391.411	232.88
391.636	221.88
391.86	235.88
392.085	238.88
392.31	207.88
392.534	225.88
392.759	232.88
392.984	237.88
393.208	227.88
393.433	225.88
393.658	221.88
393.882	215.88
394.107	212.88
394.331	215.88
394.556	215.88
394.78	228.88
395.005	224.88
395.229	202.88
395.454	214.88
395.678	231.88
395.903	227.88
396.127	241.88
396.352	232.88
396.576	226.88
396.801	221.88
397.025	227.88
397.249	226.88
397.474	242.88
397.698	230.88
397.922	252.88
398.147	244.88
398.371	248.88
398.595	244.88
398.82	221.88
399.044	233.88
399.268	250.88
399.492	270.88
399.717	284.88
399.941	308.88
400.165	292.88
400.389	302.88
400.613	296.88
400.837	278.88
401.062	253.88
401.286	238.88
401.51	255.88
401.734	244.88
401.958	227.88
402.182	250.88
402.406	271.88
402.63	256.88
402.854	260.88
403.078	267.88
403.302	250.88
403.526	270.88
403.75	259.88
403.974	271.88
404.198	254.88
404.422	269.88
404.645	268.88
404.869	266.88
405.093	279.88
405.317	293.88
405.541	302.88
405.765	288.88
405.988	265.88
406.212	264.88
406.436	283.88
406.66	300.88
406.883	283.88
407.107	295.88
407.331	312.88
407.555	330.88
407.778	326.88
408.002	295.88
408.226	264.88
408.449	287.88
408.673	275.88
408.896	282.88
409.12	272.88
409.344	295.88
409.567	261.88
409.791	261.88
410.014	266.88
410.238	261.88
410.461	240.88
410.685	270.88
410.908	263.88
411.132	275.88
411.355	267.88
411.578	261.88
411.802	250.88
412.025	263.88
412.249	264.88
412.472	254.88
412.695	281.88
412.919	271.88
413.142	255.88
413.365	260.88
413.589	256.88
413.812	236.88
414.035	239.88
414.258	254.88
414.482	223.88
414.705	231.88
414.928	240.88
415.151	235.88
415.374	251.88
415.597	247.88
415.821	254.88
416.044	239.88
416.267	253.88
416.49	251.88
416.713	251.88
416.936	231.88
417.159	247.88
417.382	256.88
417.605	252.88
417.828	275.88
418.051	254.88
418.274	256.88
418.497	235.88
418.72	251.88
418.943	242.88
419.166	259.88
419.389	242.88
419.611	242.88
419.834	279.88
420.057	251.88
420.28	259.88
420.503	249.88
420.726	253.88
420.948	261.88
421.171	262.88
421.394	295.88
421.617	250.88
421.839	246.88
422.062	258.88
422.285	269.88
422.507	267.88
422.73	319.88
422.953	298.88
423.175	280.88
423.398	270.88
423.621	269.88
423.843	252.88
424.066	272.88
424.288	251.88
424.511	286.88
424.733	308.88
424.956	340.88
425.178	337.88
425.401	320.88
425.623	328.88
425.846	294.88
426.068	268.88
426.291	270.88
426.513	259.88
426.735	284.88
426.958	301.88
427.18	308.88
427.402	372.88
427.625	392.88
427.847	382.88
428.069	303.88
428.292	276.88
428.514	277.88
428.736	260.88
428.958	247.88
429.181	252.88
429.403	242.88
429.625	244.88
429.847	269.88
430.069	301.88
430.292	299.88
430.514	259.88
430.736	262.88
430.958	249.88
431.18	234.88
431.402	247.88
431.624	254.88
431.846	242.88
432.068	227.88
432.29	223.88
432.512	246.88
432.734	237.88
432.956	236.88
433.178	239.88
433.4	252.88
433.622	251.88
433.844	238.88
434.066	249.88
434.287	239.88
434.509	246.88
434.731	269.88
434.953	255.88
435.175	263.88
435.397	266.88
435.618	264.88
435.84	296.88
436.062	329.88
436.284	332.88
436.505	283.88
436.727	271.88
436.949	266.88
437.17	240.88
437.392	245.88
437.614	246.88
437.835	267.88
438.057	308.88
438.278	357.88
438.5	346.88
438.721	375.88
438.943	340.88
439.165	303.88
439.386	288.88
439.608	279.88
439.829	263.88
440.05	294.88
440.272	311.88
440.493	289.88
440.715	282.88
440.936	249.88
441.158	243.88
441.379	277.88
441.6	277.88
441.822	267.88
442.043	295.88
442.264	316.88
442.486	335.88
442.707	288.88
442.928	262.88
443.149	284.88
443.371	290.88
443.592	320.88
443.813	347.88
444.034	350.88
444.255	314.88
444.476	298.88
444.698	280.88
444.919	260.88
445.14	350.88
445.361	315.88
445.582	296.88
445.803	320.88
446.024	369.88
446.245	356.88
446.466	326.88
446.687	286.88
446.908	271.88
447.129	261.88
447.35	243.88
447.571	262.88
447.792	255.88
448.013	248.88
448.234	258.88
448.455	289.88
448.675	314.88
448.896	364.88
449.117	313.88
449.338	288.88
449.559	331.88
449.779	372.88
450	310.88
450.221	269.88
450.442	274.88
450.662	251.88
450.883	260.88
451.104	269.88
451.324	260.88
451.545	251.88
451.766	228.88
451.986	248.88
452.207	210.88
452.428	215.88
452.648	216.88
452.869	213.88
453.089	230.88
453.31	250.88
453.53	235.88
453.751	219.88
453.971	222.88
454.192	235.88
454.412	241.88
454.633	227.88
454.853	225.88
455.073	213.88
455.294	235.88
455.514	276.88
455.734	269.88
455.955	238.88
456.175	225.88
456.395	209.88
456.616	215.88
456.836	219.88
457.056	202.88
457.276	212.88
457.497	232.88
457.717	213.88
457.937	226.88
458.157	212.88
458.377	230.88
458.598	226.88
458.818	278.88
459.038	313.88
459.258	322.88
459.478	250.88
459.698	250.88
459.918	243.88
460.138	234.88
460.358	224.88
460.578	242.88
460.798	250.88
461.018	252.88
461.238	248.88
461.458	246.88
461.678	236.88
461.898	255.88
462.118	226.88
462.338	246.88
462.558	254.88
462.777	246.88
462.997	267.88
463.217	255.88
463.437	269.88
463.657	257.88
463.876	263.88
464.096	249.88
464.316	251.88
464.536	258.88
464.755	267.88
464.975	271.88
465.195	303.88
465.414	362.88
465.634	301.88
465.854	279.88
466.073	264.88
466.293	230.88
466.512	245.88
466.732	235.88
466.951	215.88
467.171	217.88
467.391	230.88
467.61	242.88
467.829	229.88
468.049	230.88
468.268	232.88
468.488	227.88
468.707	221.88
468.927	199.88
469.146	200.88
469.365	229.88
469.585	235.88
469.804	234.88
470.023	250.88
470.243	239.88
470.462	267.88
470.681	257.88
470.901	263.88
471.12	244.88
471.339	237.88
471.558	233.88
471.777	229.88
471.997	265.88
472.216	253.88
472.435	285.88
472.654	255.88
472.873	237.88
473.092	223.88
473.311	214.88
473.53	236.88
473.749	229.88
473.968	248.88
474.187	312.88
474.406	319.88
474.625	251.88
474.844	250.88
475.063	236.88
475.282	240.88
475.501	249.88
475.72	246.88
475.939	247.88
476.158	236.88
476.377	265.88
476.596	246.88
476.814	231.88
477.033	261.88
477.252	242.88
477.471	256.88
477.69	265.88
477.908	240.88
478.127	258.88
478.346	253.88
478.564	266.88
478.783	270.88
479.002	259.88
479.22	268.88
479.439	285.88
479.658	290.88
479.876	282.88
480.095	295.88
480.313	308.88
480.532	282.88
480.751	292.88
480.969	310.88
481.188	367.88
481.406	354.88
481.624	311.88
481.843	273.88
482.061	270.88
482.28	260.88
482.498	266.88
482.717	284.88
482.935	262.88
483.153	274.88
483.372	269.88
483.59	274.88
483.808	292.88
484.027	267.88
484.245	295.88
484.463	258.88
484.681	300.88
484.9	283.88
485.118	271.88
485.336	284.88
485.554	271.88
485.772	285.88
485.99	260.88
486.209	280.88
486.427	287.88
486.645	280.88
486.863	308.88
487.081	310.88
487.299	282.88
487.517	292.88
487.735	265.88
487.953	284.88
488.171	308.88
488.389	296.88
488.607	292.88
488.825	308.88
489.043	300.88
489.261	294.88
489.479	298.88
489.696	290.88
489.914	300.88
490.132	282.88
490.35	287.88
490.568	314.88
490.786	318.88
491.003	309.88
491.221	323.88
491.439	338.88
491.657	327.88
491.874	346.88
492.092	344.88
492.31	337.88
492.527	346.88
492.745	351.88
492.963	355.88
493.18	344.88
493.398	352.88
493.615	353.88
493.833	364.88
494.05	352.88
494.268	348.88
494.485	339.88
494.703	351.88
494.92	351.88
495.138	336.88
495.355	339.88
495.573	326.88
495.79	341.88
496.008	338.88
496.225	339.88
496.442	334.88
496.66	352.88
496.877	313.88
497.094	328.88
497.312	333.88
497.529	343.88
497.746	365.88
497.963	359.88
498.181	359.88
498.398	361.88
498.615	371.88
498.832	376.88
499.049	380.88
499.267	363.88
499.484	377.88
499.701	408.88
499.918	431.88
500.135	427.88
500.352	424.88
500.569	450.88
500.786	458.88
501.003	460.88
501.22	435.88
501.437	430.88
501.654	414.88
501.871	408.88
502.088	423.88
502.305	382.88
502.522	382.88
