Data from 1966.PennyLincolnUp.Lamp.En5.5.200Scan.071719.P1.Scan2.head_HRD10591_14-19-13-250.txt Node
Date: Thu Jul 18 14:19:13 EDT 2019
User: cochatt
Spectrometer: HR+D1059
Trigger mode: 1
Integration Time (sec): 1.000000E-1
Scans to average: 1
Electric dark correction enabled: true
Nonlinearity correction enabled: false
Boxcar width: 0
XAxis mode: Wavelengths
Number of Pixels in Spectrum: 2048
>>>>>Begin Spectral Data<<<<<
223.165	-11.19
223.4	-11.19
223.635	-11.19
223.869	-16.19
224.104	-15.19
224.338	-8.19
224.573	6.81
224.808	-10.19
225.042	-18.19
225.277	-17.19
225.511	-10.19
225.746	-0.19
225.98	4.81
226.215	-8.19
226.449	14.81
226.683	38.81
226.918	27.81
227.152	21.81
227.387	30.81
227.621	46.81
227.856	46.81
228.09	48.81
228.324	64.81
228.559	55.81
228.793	76.81
229.027	94.81
229.262	91.81
229.496	118.81
229.73	130.81
229.964	157.81
230.199	125.81
230.433	118.81
230.667	116.81
230.901	111.81
231.136	110.81
231.37	119.81
231.604	106.81
231.838	111.81
232.072	115.81
232.306	120.81
232.541	119.81
232.775	109.81
233.009	126.81
233.243	110.81
233.477	112.81
233.711	117.81
233.945	134.81
234.179	128.81
234.413	123.81
234.647	116.81
234.881	109.81
235.115	118.81
235.349	129.81
235.583	116.81
235.817	123.81
236.051	130.81
236.285	148.81
236.519	125.81
236.753	147.81
236.987	153.81
237.221	182.81
237.455	244.81
237.689	205.81
237.922	148.81
238.156	140.81
238.39	135.81
238.624	132.81
238.858	135.81
239.091	136.81
239.325	131.81
239.559	121.81
239.793	142.81
240.027	140.81
240.26	148.81
240.494	159.81
240.728	161.81
240.961	159.81
241.195	148.81
241.429	143.81
241.662	156.81
241.896	136.81
242.13	126.81
242.363	128.81
242.597	144.81
242.83	160.81
243.064	148.81
243.298	144.81
243.531	150.81
243.765	155.81
243.998	131.81
244.232	124.81
244.465	149.81
244.699	142.81
244.932	162.81
245.166	146.81
245.399	156.81
245.633	145.81
245.866	170.81
246.099	145.81
246.333	154.81
246.566	157.81
246.8	163.81
247.033	166.81
247.266	160.81
247.5	195.81
247.733	186.81
247.966	194.81
248.2	180.81
248.433	168.81
248.666	187.81
248.899	196.81
249.133	206.81
249.366	220.81
249.599	202.81
249.832	200.81
250.066	190.81
250.299	192.81
250.532	194.81
250.765	212.81
250.998	223.81
251.231	244.81
251.465	222.81
251.698	210.81
251.931	218.81
252.164	202.81
252.397	194.81
252.63	217.81
252.863	203.81
253.096	209.81
253.329	219.81
253.562	245.81
253.795	224.81
254.028	221.81
254.261	224.81
254.494	229.81
254.727	265.81
254.96	303.81
255.193	283.81
255.426	264.81
255.659	231.81
255.892	253.81
256.124	254.81
256.357	250.81
256.59	235.81
256.823	226.81
257.056	234.81
257.289	228.81
257.521	203.81
257.754	223.81
257.987	215.81
258.22	213.81
258.452	217.81
258.685	211.81
258.918	220.81
259.151	213.81
259.383	224.81
259.616	222.81
259.849	220.81
260.081	251.81
260.314	265.81
260.547	276.81
260.779	254.81
261.012	251.81
261.244	227.81
261.477	224.81
261.71	228.81
261.942	234.81
262.175	251.81
262.407	238.81
262.64	234.81
262.872	219.81
263.105	223.81
263.337	235.81
263.57	224.81
263.802	214.81
264.035	216.81
264.267	208.81
264.499	216.81
264.732	222.81
264.964	208.81
265.197	226.81
265.429	222.81
265.661	232.81
265.894	233.81
266.126	241.81
266.358	230.81
266.591	229.81
266.823	246.81
267.055	236.81
267.287	244.81
267.52	231.81
267.752	236.81
267.984	237.81
268.216	248.81
268.448	241.81
268.681	237.81
268.913	254.81
269.145	263.81
269.377	266.81
269.609	261.81
269.841	286.81
270.073	283.81
270.306	285.81
270.538	332.81
270.77	308.81
271.002	295.81
271.234	300.81
271.466	314.81
271.698	300.81
271.93	324.81
272.162	324.81
272.394	328.81
272.626	299.81
272.858	300.81
273.09	283.81
273.322	263.81
273.553	271.81
273.785	277.81
274.017	290.81
274.249	269.81
274.481	288.81
274.713	282.81
274.945	248.81
275.176	276.81
275.408	277.81
275.64	279.81
275.872	277.81
276.104	279.81
276.335	262.81
276.567	296.81
276.799	287.81
277.031	319.81
277.262	332.81
277.494	329.81
277.726	315.81
277.957	309.81
278.189	288.81
278.421	271.81
278.652	279.81
278.884	293.81
279.115	265.81
279.347	287.81
279.579	279.81
279.81	277.81
280.042	277.81
280.273	282.81
280.505	270.81
280.736	290.81
280.968	288.81
281.199	276.81
281.431	284.81
281.662	291.81
281.894	255.81
282.125	288.81
282.356	300.81
282.588	335.81
282.819	328.81
283.051	279.81
283.282	284.81
283.513	286.81
283.745	304.81
283.976	278.81
284.207	279.81
284.439	301.81
284.67	294.81
284.901	290.81
285.132	273.81
285.364	284.81
285.595	268.81
285.826	272.81
286.057	295.81
286.288	294.81
286.52	296.81
286.751	286.81
286.982	267.81
287.213	300.81
287.444	288.81
287.675	304.81
287.906	298.81
288.138	310.81
288.369	310.81
288.6	315.81
288.831	301.81
289.062	290.81
289.293	298.81
289.524	296.81
289.755	301.81
289.986	307.81
290.217	295.81
290.448	308.81
290.679	326.81
290.91	293.81
291.141	315.81
291.371	295.81
291.602	302.81
291.833	302.81
292.064	286.81
292.295	288.81
292.526	296.81
292.757	299.81
292.987	294.81
293.218	301.81
293.449	292.81
293.68	302.81
293.91	299.81
294.141	311.81
294.372	302.81
294.603	302.81
294.833	305.81
295.064	314.81
295.295	304.81
295.525	299.81
295.756	298.81
295.987	332.81
296.217	333.81
296.448	340.81
296.679	310.81
296.909	324.81
297.14	322.81
297.37	320.81
297.601	310.81
297.831	310.81
298.062	320.81
298.292	336.81
298.523	323.81
298.753	302.81
298.984	327.81
299.214	327.81
299.445	323.81
299.675	316.81
299.905	340.81
300.136	330.81
300.366	332.81
300.597	321.81
300.827	330.81
301.057	330.81
301.288	343.81
301.518	328.81
301.748	324.81
301.979	334.81
302.209	327.81
302.439	359.81
302.669	339.81
302.9	346.81
303.13	334.81
303.36	356.81
303.59	343.81
303.82	342.81
304.051	371.81
304.281	342.81
304.511	338.81
304.741	354.81
304.971	332.81
305.201	339.81
305.431	325.81
305.661	335.81
305.891	334.81
306.121	350.81
306.352	364.81
306.582	353.81
306.812	341.81
307.042	338.81
307.272	344.81
307.502	344.81
307.731	351.81
307.961	360.81
308.191	364.81
308.421	349.81
308.651	354.81
308.881	336.81
309.111	355.81
309.341	361.81
309.571	341.81
309.8	380.81
310.03	388.81
310.26	379.81
310.49	388.81
310.72	376.81
310.949	404.81
311.179	400.81
311.409	401.81
311.639	379.81
311.868	393.81
312.098	388.81
312.328	383.81
312.557	397.81
312.787	436.81
313.017	404.81
313.246	411.81
313.476	388.81
313.706	391.81
313.935	408.81
314.165	414.81
314.394	414.81
314.624	399.81
314.853	419.81
315.083	406.81
315.312	384.81
315.542	399.81
315.771	381.81
316.001	387.81
316.23	381.81
316.46	390.81
316.689	399.81
316.919	391.81
317.148	396.81
317.377	410.81
317.607	392.81
317.836	395.81
318.065	388.81
318.295	406.81
318.524	386.81
318.753	395.81
318.983	391.81
319.212	389.81
319.441	394.81
319.67	394.81
319.9	389.81
320.129	401.81
320.358	389.81
320.587	393.81
320.816	419.81
321.046	425.81
321.275	436.81
321.504	431.81
321.733	432.81
321.962	420.81
322.191	435.81
322.42	459.81
322.649	445.81
322.878	483.81
323.108	457.81
323.337	491.81
323.566	509.81
323.795	523.81
324.024	570.81
324.253	670.81
324.482	1012.81
324.71	1553.81
324.939	2318.81
325.168	1985.81
325.397	983.81
325.626	662.81
325.855	539.81
326.084	532.81
326.313	517.81
326.542	495.81
326.77	555.81
326.999	656.81
327.228	895.81
327.457	1386.81
327.686	1745.81
327.914	1124.81
328.143	733.81
328.372	668.81
328.6	623.81
328.829	578.81
329.058	592.81
329.287	630.81
329.515	558.81
329.744	523.81
329.972	523.81
330.201	547.81
330.43	600.81
330.658	616.81
330.887	635.81
331.115	615.81
331.344	531.81
331.572	502.81
331.801	506.81
332.03	512.81
332.258	494.81
332.486	472.81
332.715	478.81
332.943	475.81
333.172	471.81
333.4	468.81
333.629	502.81
333.857	501.81
334.085	525.81
334.314	547.81
334.542	581.81
334.771	584.81
334.999	533.81
335.227	504.81
335.455	480.81
335.684	495.81
335.912	471.81
336.14	469.81
336.369	474.81
336.597	465.81
336.825	480.81
337.053	488.81
337.281	474.81
337.51	483.81
337.738	489.81
337.966	451.81
338.194	462.81
338.422	467.81
338.65	480.81
338.878	461.81
339.106	460.81
339.334	459.81
339.562	463.81
339.79	458.81
340.018	460.81
340.246	468.81
340.474	454.81
340.702	473.81
340.93	448.81
341.158	450.81
341.386	468.81
341.614	453.81
341.842	466.81
342.07	438.81
342.298	437.81
342.526	453.81
342.754	458.81
342.981	448.81
343.209	458.81
343.437	454.81
343.665	471.81
343.893	450.81
344.12	463.81
344.348	475.81
344.576	485.81
344.804	459.81
345.031	457.81
345.259	474.81
345.487	479.81
345.714	462.81
345.942	478.81
346.17	458.81
346.397	443.81
346.625	462.81
346.853	427.81
347.08	456.81
347.308	452.81
347.535	448.81
347.763	475.81
347.99	473.81
348.218	462.81
348.445	478.81
348.673	459.81
348.9	426.81
349.128	446.81
349.355	429.81
349.583	437.81
349.81	432.81
350.037	452.81
350.265	440.81
350.492	427.81
350.72	444.81
350.947	471.81
351.174	447.81
351.402	454.81
351.629	454.81
351.856	440.81
352.083	452.81
352.311	470.81
352.538	462.81
352.765	462.81
352.992	454.81
353.22	451.81
353.447	464.81
353.674	444.81
353.901	412.81
354.128	411.81
354.355	420.81
354.583	414.81
354.81	429.81
355.037	427.81
355.264	398.81
355.491	403.81
355.718	410.81
355.945	422.81
356.172	423.81
356.399	415.81
356.626	416.81
356.853	440.81
357.08	413.81
357.307	407.81
357.534	418.81
357.761	436.81
357.988	406.81
358.215	416.81
358.441	415.81
358.668	443.81
358.895	442.81
359.122	447.81
359.349	439.81
359.576	439.81
359.802	487.81
360.029	509.81
360.256	525.81
360.483	479.81
360.709	467.81
360.936	450.81
361.163	439.81
361.39	437.81
361.616	459.81
361.843	443.81
362.07	437.81
362.296	454.81
362.523	458.81
362.749	465.81
362.976	454.81
363.203	424.81
363.429	437.81
363.656	457.81
363.882	435.81
364.109	446.81
364.335	430.81
364.562	414.81
364.788	414.81
365.015	424.81
365.241	422.81
365.468	440.81
365.694	439.81
365.92	451.81
366.147	438.81
366.373	428.81
366.599	442.81
366.826	444.81
367.052	439.81
367.278	434.81
367.505	436.81
367.731	423.81
367.957	464.81
368.184	434.81
368.41	436.81
368.636	437.81
368.862	453.81
369.089	456.81
369.315	446.81
369.541	429.81
369.767	446.81
369.993	425.81
370.219	434.81
370.445	438.81
370.672	436.81
370.898	423.81
371.124	440.81
371.35	418.81
371.576	437.81
371.802	438.81
372.028	435.81
372.254	441.81
372.48	430.81
372.706	451.81
372.932	436.81
373.158	437.81
373.384	441.81
373.61	437.81
373.835	439.81
374.061	447.81
374.287	431.81
374.513	443.81
374.739	431.81
374.965	430.81
375.191	447.81
375.416	470.81
375.642	447.81
375.868	444.81
376.094	424.81
376.319	440.81
376.545	457.81
376.771	438.81
376.997	446.81
377.222	455.81
377.448	439.81
377.674	430.81
377.899	450.81
378.125	442.81
378.35	430.81
378.576	419.81
378.802	421.81
379.027	442.81
379.253	446.81
379.478	443.81
379.704	435.81
379.929	446.81
380.155	429.81
380.38	450.81
380.606	442.81
380.831	453.81
381.057	439.81
381.282	447.81
381.507	448.81
381.733	457.81
381.958	456.81
382.184	448.81
382.409	436.81
382.634	458.81
382.86	457.81
383.085	440.81
383.31	463.81
383.535	467.81
383.761	451.81
383.986	463.81
384.211	463.81
384.436	447.81
384.662	468.81
384.887	484.81
385.112	466.81
385.337	468.81
385.562	459.81
385.787	482.81
386.013	501.81
386.238	512.81
386.463	500.81
386.688	487.81
386.913	508.81
387.138	468.81
387.363	494.81
387.588	490.81
387.813	508.81
388.038	504.81
388.263	494.81
388.488	506.81
388.713	498.81
388.938	487.81
389.163	501.81
389.387	496.81
389.612	481.81
389.837	483.81
390.062	498.81
390.287	490.81
390.512	494.81
390.736	487.81
390.961	499.81
391.186	522.81
391.411	491.81
391.636	502.81
391.86	491.81
392.085	505.81
392.31	513.81
392.534	520.81
392.759	540.81
392.984	483.81
393.208	502.81
393.433	501.81
393.658	519.81
393.882	486.81
394.107	522.81
394.331	490.81
394.556	490.81
394.78	531.81
395.005	513.81
395.229	531.81
395.454	517.81
395.678	542.81
395.903	551.81
396.127	545.81
396.352	567.81
396.576	529.81
396.801	539.81
397.025	543.81
397.249	546.81
397.474	526.81
397.698	550.81
397.922	556.81
398.147	556.81
398.371	567.81
398.595	572.81
398.82	570.81
399.044	570.81
399.268	603.81
399.492	622.81
399.717	657.81
399.941	706.81
400.165	705.81
400.389	708.81
400.613	646.81
400.837	609.81
401.062	590.81
401.286	602.81
401.51	591.81
401.734	567.81
401.958	566.81
402.182	582.81
402.406	591.81
402.63	572.81
402.854	555.81
403.078	567.81
403.302	603.81
403.526	575.81
403.75	608.81
403.974	594.81
404.198	605.81
404.422	614.81
404.645	610.81
404.869	614.81
405.093	637.81
405.317	670.81
405.541	763.81
405.765	666.81
405.988	642.81
406.212	645.81
406.436	647.81
406.66	694.81
406.883	635.81
407.107	663.81
407.331	715.81
407.555	788.81
407.778	800.81
408.002	715.81
408.226	715.81
408.449	678.81
408.673	670.81
408.896	680.81
409.12	744.81
409.344	703.81
409.567	639.81
409.791	629.81
410.014	632.81
410.238	597.81
410.461	607.81
410.685	602.81
410.908	595.81
411.132	647.81
411.355	698.81
411.578	648.81
411.802	610.81
412.025	583.81
412.249	618.81
412.472	622.81
412.695	672.81
412.919	695.81
413.142	628.81
413.365	592.81
413.589	568.81
413.812	574.81
414.035	593.81
414.258	565.81
414.482	582.81
414.705	562.81
414.928	553.81
415.151	579.81
415.374	550.81
415.597	585.81
415.821	542.81
416.044	562.81
416.267	575.81
416.49	557.81
416.713	580.81
416.936	580.81
417.159	580.81
417.382	559.81
417.605	575.81
417.828	617.81
418.051	597.81
418.274	581.81
418.497	588.81
418.72	546.81
418.943	570.81
419.166	592.81
419.389	618.81
419.611	627.81
419.834	614.81
420.057	614.81
420.28	600.81
420.503	607.81
420.726	609.81
420.948	630.81
421.171	654.81
421.394	685.81
421.617	629.81
421.839	582.81
422.062	579.81
422.285	612.81
422.507	663.81
422.73	761.81
422.953	709.81
423.175	656.81
423.398	629.81
423.621	632.81
423.843	634.81
424.066	619.81
424.288	647.81
424.511	650.81
424.733	698.81
424.956	805.81
425.178	759.81
425.401	758.81
425.623	822.81
425.846	684.81
426.068	655.81
426.291	639.81
426.513	642.81
426.735	662.81
426.958	702.81
427.18	777.81
427.402	959.81
427.625	1014.81
427.847	889.81
428.069	807.81
428.292	702.81
428.514	643.81
428.736	616.81
428.958	621.81
429.181	580.81
429.403	578.81
429.625	599.81
429.847	622.81
430.069	706.81
430.292	712.81
430.514	622.81
430.736	593.81
430.958	600.81
431.18	554.81
431.402	564.81
431.624	544.81
431.846	562.81
432.068	562.81
432.29	548.81
432.512	566.81
432.734	583.81
432.956	599.81
433.178	596.81
433.4	588.81
433.622	573.81
433.844	562.81
434.066	562.81
434.287	548.81
434.509	588.81
434.731	584.81
434.953	587.81
435.175	601.81
435.397	638.81
435.618	638.81
435.84	673.81
436.062	800.81
436.284	874.81
436.505	718.81
436.727	639.81
436.949	608.81
437.17	598.81
437.392	582.81
437.614	600.81
437.835	639.81
438.057	737.81
438.278	847.81
438.5	842.81
438.721	976.81
438.943	895.81
439.165	717.81
439.386	674.81
439.608	650.81
439.829	655.81
440.05	665.81
440.272	711.81
440.493	674.81
440.715	647.81
440.936	604.81
441.158	583.81
441.379	593.81
441.6	609.81
441.822	643.81
442.043	684.81
442.264	779.81
442.486	814.81
442.707	695.81
442.928	680.81
443.149	640.81
443.371	678.81
443.592	735.81
443.813	829.81
444.034	891.81
444.255	758.81
444.476	662.81
444.698	670.81
444.919	648.81
445.14	742.81
445.361	680.81
445.582	700.81
445.803	760.81
446.024	870.81
446.245	894.81
446.466	825.81
446.687	692.81
446.908	639.81
447.129	590.81
447.35	606.81
447.571	567.81
447.792	573.81
448.013	607.81
448.234	611.81
448.455	655.81
448.675	790.81
448.896	926.81
449.117	770.81
449.338	719.81
449.559	853.81
449.779	971.81
450	778.81
450.221	634.81
450.442	581.81
450.662	596.81
450.883	580.81
451.104	576.81
451.324	574.81
451.545	574.81
451.766	558.81
451.986	519.81
452.207	528.81
452.428	515.81
452.648	541.81
452.869	528.81
453.089	558.81
453.31	544.81
453.53	548.81
453.751	526.81
453.971	530.81
454.192	514.81
454.412	536.81
454.633	521.81
454.853	523.81
455.073	521.81
455.294	575.81
455.514	627.81
455.734	622.81
455.955	546.81
456.175	505.81
456.395	501.81
456.616	494.81
456.836	500.81
457.056	500.81
457.276	483.81
457.497	510.81
457.717	514.81
457.937	505.81
458.157	521.81
458.377	486.81
458.598	527.81
458.818	599.81
459.038	672.81
459.258	702.81
459.478	609.81
459.698	570.81
459.918	552.81
460.138	555.81
460.358	575.81
460.578	584.81
460.798	574.81
461.018	570.81
461.238	575.81
461.458	557.81
461.678	565.81
461.898	564.81
462.118	585.81
462.338	591.81
462.558	583.81
462.777	616.81
462.997	630.81
463.217	638.81
463.437	635.81
463.657	610.81
463.876	623.81
464.096	631.81
464.316	611.81
464.536	632.81
464.755	638.81
464.975	618.81
465.195	670.81
465.414	713.81
465.634	662.81
465.854	597.81
466.073	579.81
466.293	580.81
466.512	544.81
466.732	548.81
466.951	543.81
467.171	556.81
467.391	577.81
467.61	553.81
467.829	580.81
468.049	538.81
468.268	538.81
468.488	546.81
468.707	510.81
468.927	522.81
469.146	562.81
469.365	550.81
469.585	535.81
469.804	537.81
470.023	566.81
470.243	559.81
470.462	570.81
470.681	573.81
470.901	575.81
471.12	553.81
471.339	556.81
471.558	545.81
471.777	536.81
471.997	560.81
472.216	586.81
472.435	602.81
472.654	588.81
472.873	555.81
473.092	548.81
473.311	552.81
473.53	536.81
473.749	569.81
473.968	590.81
474.187	718.81
474.406	751.81
474.625	626.81
474.844	602.81
475.063	568.81
475.282	560.81
475.501	566.81
475.72	571.81
475.939	560.81
476.158	570.81
476.377	555.81
476.596	558.81
476.814	578.81
477.033	567.81
477.252	592.81
477.471	582.81
477.69	576.81
477.908	611.81
478.127	610.81
478.346	633.81
478.564	607.81
478.783	617.81
479.002	637.81
479.22	616.81
479.439	634.81
479.658	664.81
479.876	660.81
480.095	654.81
480.313	694.81
480.532	699.81
480.751	658.81
480.969	705.81
481.188	746.81
481.406	795.81
481.624	730.81
481.843	679.81
482.061	652.81
482.28	649.81
482.498	637.81
482.717	656.81
482.935	657.81
483.153	634.81
483.372	668.81
483.59	657.81
483.808	649.81
484.027	621.81
484.245	648.81
484.463	674.81
484.681	675.81
484.9	675.81
485.118	671.81
485.336	666.81
485.554	643.81
485.772	656.81
485.99	686.81
486.209	672.81
486.427	692.81
486.645	702.81
486.863	676.81
487.081	693.81
487.299	686.81
487.517	690.81
487.735	687.81
487.953	684.81
488.171	681.81
488.389	716.81
488.607	704.81
488.825	720.81
489.043	698.81
489.261	691.81
489.479	683.81
489.696	712.81
489.914	726.81
490.132	716.81
490.35	759.81
490.568	742.81
490.786	761.81
491.003	758.81
491.221	783.81
491.439	780.81
491.657	807.81
491.874	808.81
492.092	792.81
492.31	803.81
492.527	769.81
492.745	810.81
492.963	811.81
493.18	819.81
493.398	827.81
493.615	831.81
493.833	850.81
494.05	834.81
494.268	816.81
494.485	824.81
494.703	842.81
494.92	801.81
495.138	844.81
495.355	829.81
495.573	844.81
495.79	831.81
496.008	855.81
496.225	844.81
496.442	838.81
496.66	830.81
496.877	843.81
497.094	839.81
497.312	842.81
497.529	873.81
497.746	876.81
497.963	901.81
498.181	901.81
498.398	878.81
498.615	922.81
498.832	943.81
499.049	965.81
499.267	989.81
499.484	972.81
499.701	1066.81
499.918	1099.81
500.135	1126.81
500.352	1174.81
500.569	1188.81
500.786	1199.81
501.003	1202.81
501.22	1160.81
501.437	1132.81
501.654	1066.81
