Data from 1966.PennyLincolnUp.Lamp.En5.5.200Scan.071719.P1.Scan2.head_HRD10591_14-17-28-111.txt Node
Date: Thu Jul 18 14:17:28 EDT 2019
User: cochatt
Spectrometer: HR+D1059
Trigger mode: 1
Integration Time (sec): 1.000000E-1
Scans to average: 1
Electric dark correction enabled: true
Nonlinearity correction enabled: false
Boxcar width: 0
XAxis mode: Wavelengths
Number of Pixels in Spectrum: 2048
>>>>>Begin Spectral Data<<<<<
223.165	-19.69
223.4	-19.69
223.635	-19.69
223.869	-10.69
224.104	-24.69
224.338	4.31
224.573	2.31
224.808	-17.69
225.042	-11.69
225.277	-12.69
225.511	11.31
225.746	2.31
225.98	-6.69
226.215	10.31
226.449	16.31
226.683	6.31
226.918	24.31
227.152	26.31
227.387	35.31
227.621	29.31
227.856	30.31
228.09	44.31
228.324	54.31
228.559	54.31
228.793	68.31
229.027	102.31
229.262	104.31
229.496	106.31
229.73	125.31
229.964	154.31
230.199	122.31
230.433	110.31
230.667	103.31
230.901	107.31
231.136	124.31
231.37	99.31
231.604	114.31
231.838	111.31
232.072	110.31
232.306	115.31
232.541	107.31
232.775	107.31
233.009	127.31
233.243	114.31
233.477	108.31
233.711	122.31
233.945	118.31
234.179	122.31
234.413	112.31
234.647	114.31
234.881	114.31
235.115	108.31
235.349	117.31
235.583	108.31
235.817	112.31
236.051	121.31
236.285	120.31
236.519	114.31
236.753	117.31
236.987	137.31
237.221	158.31
237.455	222.31
237.689	172.31
237.922	142.31
238.156	140.31
238.39	137.31
238.624	131.31
238.858	126.31
239.091	115.31
239.325	121.31
239.559	124.31
239.793	119.31
240.027	126.31
240.26	140.31
240.494	154.31
240.728	142.31
240.961	141.31
241.195	144.31
241.429	152.31
241.662	142.31
241.896	136.31
242.13	131.31
242.363	134.31
242.597	141.31
242.83	141.31
243.064	141.31
243.298	144.31
243.531	150.31
243.765	138.31
243.998	149.31
244.232	144.31
244.465	139.31
244.699	147.31
244.932	158.31
245.166	146.31
245.399	140.31
245.633	129.31
245.866	142.31
246.099	137.31
246.333	148.31
246.566	146.31
246.8	141.31
247.033	169.31
247.266	156.31
247.5	150.31
247.733	155.31
247.966	150.31
248.2	180.31
248.433	167.31
248.666	166.31
248.899	175.31
249.133	196.31
249.366	194.31
249.599	195.31
249.832	179.31
250.066	186.31
250.299	182.31
250.532	181.31
250.765	213.31
250.998	208.31
251.231	240.31
251.465	219.31
251.698	216.31
251.931	199.31
252.164	199.31
252.397	190.31
252.63	193.31
252.863	180.31
253.096	199.31
253.329	226.31
253.562	221.31
253.795	211.31
254.028	219.31
254.261	202.31
254.494	219.31
254.727	242.31
254.96	262.31
255.193	278.31
255.426	254.31
255.659	238.31
255.892	227.31
256.124	205.31
256.357	209.31
256.59	207.31
256.823	214.31
257.056	208.31
257.289	207.31
257.521	202.31
257.754	210.31
257.987	200.31
258.22	219.31
258.452	226.31
258.685	207.31
258.918	220.31
259.151	223.31
259.383	212.31
259.616	206.31
259.849	238.31
260.081	224.31
260.314	248.31
260.547	239.31
260.779	235.31
261.012	250.31
261.244	226.31
261.477	221.31
261.71	227.31
261.942	210.31
262.175	245.31
262.407	222.31
262.64	222.31
262.872	231.31
263.105	210.31
263.337	200.31
263.57	220.31
263.802	213.31
264.035	203.31
264.267	198.31
264.499	196.31
264.732	203.31
264.964	218.31
265.197	211.31
265.429	210.31
265.661	206.31
265.894	222.31
266.126	202.31
266.358	215.31
266.591	218.31
266.823	215.31
267.055	204.31
267.287	223.31
267.52	234.31
267.752	217.31
267.984	226.31
268.216	218.31
268.448	220.31
268.681	216.31
268.913	231.31
269.145	267.31
269.377	261.31
269.609	259.31
269.841	259.31
270.073	254.31
270.306	282.31
270.538	313.31
270.77	301.31
271.002	299.31
271.234	272.31
271.466	290.31
271.698	288.31
271.93	300.31
272.162	299.31
272.394	291.31
272.626	322.31
272.858	284.31
273.09	278.31
273.322	278.31
273.553	260.31
273.785	264.31
274.017	248.31
274.249	266.31
274.481	246.31
274.713	252.31
274.945	247.31
275.176	246.31
275.408	254.31
275.64	254.31
275.872	256.31
276.104	246.31
276.335	249.31
276.567	262.31
276.799	293.31
277.031	293.31
277.262	303.31
277.494	302.31
277.726	300.31
277.957	282.31
278.189	273.31
278.421	267.31
278.652	276.31
278.884	270.31
279.115	250.31
279.347	247.31
279.579	264.31
279.81	270.31
280.042	263.31
280.273	246.31
280.505	248.31
280.736	274.31
280.968	263.31
281.199	270.31
281.431	279.31
281.662	267.31
281.894	271.31
282.125	269.31
282.356	282.31
282.588	322.31
282.819	288.31
283.051	271.31
283.282	275.31
283.513	272.31
283.745	262.31
283.976	263.31
284.207	281.31
284.439	266.31
284.67	278.31
284.901	275.31
285.132	283.31
285.364	271.31
285.595	275.31
285.826	269.31
286.057	299.31
286.288	260.31
286.52	298.31
286.751	281.31
286.982	279.31
287.213	274.31
287.444	286.31
287.675	296.31
287.906	281.31
288.138	302.31
288.369	301.31
288.6	299.31
288.831	299.31
289.062	281.31
289.293	283.31
289.524	287.31
289.755	294.31
289.986	272.31
290.217	281.31
290.448	278.31
290.679	282.31
290.91	303.31
291.141	284.31
291.371	283.31
291.602	300.31
291.833	291.31
292.064	275.31
292.295	293.31
292.526	298.31
292.757	298.31
292.987	283.31
293.218	286.31
293.449	299.31
293.68	295.31
293.91	295.31
294.141	299.31
294.372	292.31
294.603	297.31
294.833	301.31
295.064	299.31
295.295	287.31
295.525	275.31
295.756	318.31
295.987	304.31
296.217	316.31
296.448	326.31
296.679	289.31
296.909	307.31
297.14	297.31
297.37	307.31
297.601	310.31
297.831	310.31
298.062	323.31
298.292	314.31
298.523	302.31
298.753	301.31
298.984	290.31
299.214	303.31
299.445	311.31
299.675	308.31
299.905	307.31
300.136	299.31
300.366	310.31
300.597	304.31
300.827	320.31
301.057	333.31
301.288	316.31
301.518	338.31
301.748	326.31
301.979	312.31
302.209	320.31
302.439	332.31
302.669	343.31
302.9	318.31
303.13	322.31
303.36	337.31
303.59	333.31
303.82	349.31
304.051	337.31
304.281	343.31
304.511	326.31
304.741	337.31
304.971	318.31
305.201	315.31
305.431	316.31
305.661	340.31
305.891	315.31
306.121	326.31
306.352	339.31
306.582	325.31
306.812	306.31
307.042	318.31
307.272	332.31
307.502	335.31
307.731	329.31
307.961	333.31
308.191	323.31
308.421	317.31
308.651	326.31
308.881	318.31
309.111	320.31
309.341	334.31
309.571	342.31
309.8	354.31
310.03	348.31
310.26	366.31
310.49	369.31
310.72	376.31
310.949	384.31
311.179	398.31
311.409	378.31
311.639	370.31
311.868	350.31
312.098	370.31
312.328	374.31
312.557	368.31
312.787	376.31
313.017	395.31
313.246	361.31
313.476	349.31
313.706	362.31
313.935	360.31
314.165	380.31
314.394	395.31
314.624	385.31
314.853	375.31
315.083	378.31
315.312	362.31
315.542	386.31
315.771	377.31
316.001	338.31
316.23	362.31
316.46	370.31
316.689	351.31
316.919	380.31
317.148	381.31
317.377	416.31
317.607	379.31
317.836	369.31
318.065	371.31
318.295	378.31
318.524	365.31
318.753	358.31
318.983	372.31
319.212	386.31
319.441	381.31
319.67	391.31
319.9	372.31
320.129	380.31
320.358	364.31
320.587	376.31
320.816	386.31
321.046	382.31
321.275	389.31
321.504	385.31
321.733	405.31
321.962	384.31
322.191	392.31
322.42	411.31
322.649	423.31
322.878	429.31
323.108	425.31
323.337	448.31
323.566	457.31
323.795	495.31
324.024	535.31
324.253	623.31
324.482	859.31
324.71	1381.31
324.939	2007.31
325.168	1767.31
325.397	900.31
325.626	600.31
325.855	503.31
326.084	491.31
326.313	479.31
326.542	471.31
326.77	510.31
326.999	593.31
327.228	802.31
327.457	1236.31
327.686	1512.31
327.914	1000.31
328.143	668.31
328.372	584.31
328.6	554.31
328.829	534.31
329.058	519.31
329.287	545.31
329.515	521.31
329.744	495.31
329.972	506.31
330.201	518.31
330.43	544.31
330.658	550.31
330.887	568.31
331.115	561.31
331.344	510.31
331.572	482.31
331.801	476.31
332.03	501.31
332.258	453.31
332.486	440.31
332.715	451.31
332.943	456.31
333.172	450.31
333.4	455.31
333.629	449.31
333.857	476.31
334.085	504.31
334.314	486.31
334.542	512.31
334.771	540.31
334.999	493.31
335.227	478.31
335.455	457.31
335.684	446.31
335.912	443.31
336.14	457.31
336.369	463.31
336.597	478.31
336.825	457.31
337.053	450.31
337.281	446.31
337.51	435.31
337.738	464.31
337.966	446.31
338.194	459.31
338.422	452.31
338.65	463.31
338.878	414.31
339.106	436.31
339.334	442.31
339.562	421.31
339.79	426.31
340.018	413.31
340.246	429.31
340.474	439.31
340.702	448.31
340.93	443.31
341.158	422.31
341.386	426.31
341.614	428.31
341.842	425.31
342.07	410.31
342.298	419.31
342.526	408.31
342.754	428.31
342.981	413.31
343.209	395.31
343.437	434.31
343.665	424.31
343.893	440.31
344.12	465.31
344.348	448.31
344.576	456.31
344.804	453.31
345.031	459.31
345.259	442.31
345.487	445.31
345.714	452.31
345.942	432.31
346.17	418.31
346.397	419.31
346.625	415.31
346.853	442.31
347.08	431.31
347.308	415.31
347.535	430.31
347.763	440.31
347.99	416.31
348.218	401.31
348.445	438.31
348.673	418.31
348.9	428.31
349.128	422.31
349.355	414.31
349.583	419.31
349.81	400.31
350.037	399.31
350.265	420.31
350.492	413.31
350.72	398.31
350.947	413.31
351.174	434.31
351.402	446.31
351.629	422.31
351.856	420.31
352.083	445.31
352.311	443.31
352.538	444.31
352.765	443.31
352.992	438.31
353.22	411.31
353.447	424.31
353.674	400.31
353.901	400.31
354.128	395.31
354.355	412.31
354.583	419.31
354.81	396.31
355.037	402.31
355.264	395.31
355.491	410.31
355.718	400.31
355.945	396.31
356.172	408.31
356.399	399.31
356.626	416.31
356.853	402.31
357.08	398.31
357.307	406.31
357.534	401.31
357.761	393.31
357.988	419.31
358.215	397.31
358.441	418.31
358.668	393.31
358.895	399.31
359.122	422.31
359.349	410.31
359.576	428.31
359.802	439.31
360.029	482.31
360.256	484.31
360.483	454.31
360.709	439.31
360.936	446.31
361.163	435.31
361.39	440.31
361.616	430.31
361.843	433.31
362.07	431.31
362.296	451.31
362.523	419.31
362.749	412.31
362.976	397.31
363.203	429.31
363.429	419.31
363.656	413.31
363.882	401.31
364.109	419.31
364.335	390.31
364.562	412.31
364.788	419.31
365.015	431.31
365.241	422.31
365.468	428.31
365.694	414.31
365.92	419.31
366.147	399.31
366.373	430.31
366.599	424.31
366.826	409.31
367.052	422.31
367.278	429.31
367.505	425.31
367.731	412.31
367.957	420.31
368.184	412.31
368.41	436.31
368.636	439.31
368.862	413.31
369.089	428.31
369.315	406.31
369.541	421.31
369.767	429.31
369.993	423.31
370.219	451.31
370.445	420.31
370.672	406.31
370.898	425.31
371.124	406.31
371.35	421.31
371.576	426.31
371.802	427.31
372.028	428.31
372.254	411.31
372.48	435.31
372.706	429.31
372.932	436.31
373.158	427.31
373.384	427.31
373.61	432.31
373.835	424.31
374.061	415.31
374.287	431.31
374.513	422.31
374.739	418.31
374.965	421.31
375.191	419.31
375.416	422.31
375.642	450.31
375.868	414.31
376.094	410.31
376.319	411.31
376.545	432.31
376.771	434.31
376.997	430.31
377.222	431.31
377.448	409.31
377.674	430.31
377.899	426.31
378.125	400.31
378.35	424.31
378.576	441.31
378.802	407.31
379.027	436.31
379.253	420.31
379.478	414.31
379.704	438.31
379.929	424.31
380.155	426.31
380.38	418.31
380.606	419.31
380.831	439.31
381.057	410.31
381.282	414.31
381.507	441.31
381.733	449.31
381.958	427.31
382.184	429.31
382.409	441.31
382.634	432.31
382.86	441.31
383.085	448.31
383.31	445.31
383.535	457.31
383.761	439.31
383.986	459.31
384.211	454.31
384.436	479.31
384.662	446.31
384.887	468.31
385.112	452.31
385.337	458.31
385.562	470.31
385.787	474.31
386.013	490.31
386.238	460.31
386.463	470.31
386.688	463.31
386.913	457.31
387.138	476.31
387.363	490.31
387.588	475.31
387.813	472.31
388.038	455.31
388.263	454.31
388.488	479.31
388.713	476.31
388.938	463.31
389.163	492.31
389.387	489.31
389.612	477.31
389.837	481.31
390.062	462.31
390.287	452.31
390.512	480.31
390.736	488.31
390.961	470.31
391.186	479.31
391.411	466.31
391.636	472.31
391.86	492.31
392.085	498.31
392.31	491.31
392.534	489.31
392.759	488.31
392.984	477.31
393.208	496.31
393.433	489.31
393.658	480.31
393.882	487.31
394.107	497.31
394.331	495.31
394.556	458.31
394.78	486.31
395.005	490.31
395.229	468.31
395.454	495.31
395.678	484.31
395.903	477.31
396.127	522.31
396.352	530.31
396.576	504.31
396.801	507.31
397.025	508.31
397.249	488.31
397.474	517.31
397.698	503.31
397.922	492.31
398.147	535.31
398.371	554.31
398.595	573.31
398.82	550.31
399.044	550.31
399.268	583.31
399.492	599.31
399.717	651.31
399.941	666.31
400.165	664.31
400.389	700.31
400.613	624.31
400.837	595.31
401.062	577.31
401.286	546.31
401.51	526.31
401.734	540.31
401.958	558.31
402.182	552.31
402.406	567.31
402.63	567.31
402.854	567.31
403.078	575.31
403.302	592.31
403.526	554.31
403.75	574.31
403.974	568.31
404.198	580.31
404.422	572.31
404.645	560.31
404.869	601.31
405.093	610.31
405.317	681.31
405.541	683.31
405.765	656.31
405.988	604.31
406.212	597.31
406.436	613.31
406.66	622.31
406.883	595.31
407.107	639.31
407.331	692.31
407.555	760.31
407.778	730.31
408.002	694.31
408.226	642.31
408.449	599.31
408.673	634.31
408.896	652.31
409.12	685.31
409.344	668.31
409.567	598.31
409.791	606.31
410.014	600.31
410.238	573.31
410.461	572.31
410.685	598.31
410.908	581.31
411.132	619.31
411.355	655.31
411.578	650.31
411.802	587.31
412.025	574.31
412.249	592.31
412.472	610.31
412.695	644.31
412.919	636.31
413.142	598.31
413.365	575.31
413.589	576.31
413.812	555.31
414.035	558.31
414.258	546.31
414.482	571.31
414.705	555.31
414.928	555.31
415.151	558.31
415.374	552.31
415.597	547.31
415.821	547.31
416.044	549.31
416.267	546.31
416.49	537.31
416.713	536.31
416.936	529.31
417.159	553.31
417.382	556.31
417.605	535.31
417.828	560.31
418.051	543.31
418.274	546.31
418.497	530.31
418.72	544.31
418.943	549.31
419.166	591.31
419.389	581.31
419.611	586.31
419.834	559.31
420.057	580.31
420.28	562.31
420.503	569.31
420.726	582.31
420.948	602.31
421.171	602.31
421.394	662.31
421.617	603.31
421.839	566.31
422.062	584.31
422.285	580.31
422.507	632.31
422.73	720.31
422.953	681.31
423.175	573.31
423.398	584.31
423.621	576.31
423.843	602.31
424.066	617.31
424.288	621.31
424.511	596.31
424.733	681.31
424.956	744.31
425.178	711.31
425.401	706.31
425.623	759.31
425.846	630.31
426.068	607.31
426.291	592.31
426.513	614.31
426.735	627.31
426.958	657.31
427.18	738.31
427.402	873.31
427.625	950.31
427.847	840.31
428.069	712.31
428.292	630.31
428.514	618.31
428.736	570.31
428.958	575.31
429.181	551.31
429.403	553.31
429.625	557.31
429.847	613.31
430.069	677.31
430.292	671.31
430.514	586.31
430.736	568.31
430.958	550.31
431.18	539.31
431.402	534.31
431.624	527.31
431.846	536.31
432.068	521.31
432.29	537.31
432.512	534.31
432.734	547.31
432.956	525.31
433.178	556.31
433.4	547.31
433.622	531.31
433.844	513.31
434.066	530.31
434.287	530.31
434.509	535.31
434.731	564.31
434.953	564.31
435.175	553.31
435.397	592.31
435.618	610.31
435.84	642.31
436.062	706.31
436.284	822.31
436.505	687.31
436.727	626.31
436.949	596.31
437.17	560.31
437.392	547.31
437.614	569.31
437.835	583.31
438.057	699.31
438.278	803.31
438.5	804.31
438.721	895.31
438.943	835.31
439.165	665.31
439.386	616.31
439.608	620.31
439.829	609.31
440.05	634.31
440.272	686.31
440.493	627.31
440.715	609.31
440.936	566.31
441.158	581.31
441.379	570.31
441.6	590.31
441.822	581.31
442.043	651.31
442.264	708.31
442.486	792.31
442.707	662.31
442.928	623.31
443.149	604.31
443.371	643.31
443.592	690.31
443.813	786.31
444.034	831.31
444.255	699.31
444.476	607.31
444.698	606.31
444.919	620.31
445.14	699.31
445.361	674.31
445.582	652.31
445.803	694.31
446.024	828.31
446.245	815.31
446.466	746.31
446.687	656.31
446.908	603.31
447.129	582.31
447.35	530.31
447.571	557.31
447.792	548.31
448.013	545.31
448.234	572.31
448.455	628.31
448.675	732.31
448.896	871.31
449.117	728.31
449.338	693.31
449.559	795.31
449.779	933.31
450	726.31
450.221	598.31
450.442	561.31
450.662	528.31
450.883	530.31
451.104	555.31
451.324	547.31
451.545	511.31
451.766	508.31
451.986	522.31
452.207	500.31
452.428	493.31
452.648	486.31
452.869	480.31
453.089	492.31
453.31	516.31
453.53	508.31
453.751	514.31
453.971	492.31
454.192	509.31
454.412	502.31
454.633	488.31
454.853	486.31
455.073	489.31
455.294	518.31
455.514	582.31
455.734	581.31
455.955	521.31
456.175	487.31
456.395	451.31
456.616	455.31
456.836	481.31
457.056	462.31
457.276	459.31
457.497	488.31
457.717	488.31
457.937	502.31
458.157	503.31
458.377	483.31
458.598	522.31
458.818	592.31
459.038	631.31
459.258	648.31
459.478	581.31
459.698	546.31
459.918	537.31
460.138	543.31
460.358	572.31
460.578	539.31
460.798	568.31
461.018	553.31
461.238	543.31
461.458	548.31
461.678	556.31
461.898	568.31
462.118	566.31
462.338	572.31
462.558	565.31
462.777	569.31
462.997	575.31
463.217	611.31
463.437	607.31
463.657	587.31
463.876	600.31
464.096	576.31
464.316	597.31
464.536	591.31
464.755	596.31
464.975	575.31
465.195	622.31
465.414	676.31
465.634	618.31
465.854	563.31
466.073	559.31
466.293	537.31
466.512	538.31
466.732	536.31
466.951	508.31
467.171	528.31
467.391	525.31
467.61	516.31
467.829	544.31
468.049	535.31
468.268	527.31
468.488	523.31
468.707	518.31
468.927	507.31
469.146	514.31
469.365	508.31
469.585	516.31
469.804	524.31
470.023	504.31
470.243	524.31
470.462	528.31
470.681	551.31
470.901	546.31
471.12	509.31
471.339	541.31
471.558	536.31
471.777	512.31
471.997	535.31
472.216	535.31
472.435	563.31
472.654	559.31
472.873	538.31
473.092	527.31
473.311	535.31
473.53	510.31
473.749	535.31
473.968	586.31
474.187	660.31
474.406	698.31
474.625	576.31
474.844	527.31
475.063	522.31
475.282	540.31
475.501	531.31
475.72	542.31
475.939	528.31
476.158	539.31
476.377	545.31
476.596	554.31
476.814	560.31
477.033	549.31
477.252	552.31
477.471	566.31
477.69	567.31
477.908	573.31
478.127	555.31
478.346	559.31
478.564	583.31
478.783	593.31
479.002	599.31
479.22	610.31
479.439	644.31
479.658	659.31
479.876	647.31
480.095	636.31
480.313	673.31
480.532	640.31
480.751	653.31
480.969	650.31
481.188	670.31
481.406	746.31
481.624	691.31
481.843	620.31
482.061	654.31
482.28	636.31
482.498	614.31
482.717	624.31
482.935	611.31
483.153	616.31
483.372	610.31
483.59	603.31
483.808	622.31
484.027	616.31
484.245	609.31
484.463	619.31
484.681	628.31
484.9	638.31
485.118	606.31
485.336	637.31
485.554	637.31
485.772	635.31
485.99	653.31
486.209	655.31
486.427	656.31
486.645	659.31
486.863	674.31
487.081	662.31
487.299	655.31
487.517	634.31
487.735	634.31
487.953	644.31
488.171	656.31
488.389	676.31
488.607	660.31
488.825	677.31
489.043	684.31
489.261	678.31
489.479	659.31
489.696	669.31
489.914	665.31
490.132	686.31
490.35	717.31
490.568	687.31
490.786	692.31
491.003	707.31
491.221	719.31
491.439	734.31
491.657	743.31
491.874	734.31
492.092	760.31
492.31	751.31
492.527	780.31
492.745	751.31
492.963	770.31
493.18	750.31
493.398	782.31
493.615	788.31
493.833	786.31
494.05	757.31
494.268	771.31
494.485	776.31
494.703	753.31
494.92	775.31
495.138	763.31
495.355	784.31
495.573	805.31
495.79	787.31
496.008	787.31
496.225	791.31
496.442	824.31
496.66	777.31
496.877	793.31
497.094	796.31
497.312	830.31
497.529	815.31
497.746	842.31
497.963	810.31
498.181	859.31
498.398	853.31
498.615	879.31
498.832	871.31
499.049	923.31
499.267	952.31
499.484	969.31
499.701	997.31
499.918	1046.31
500.135	1107.31
500.352	1143.31
500.569	1164.31
500.786	1149.31
501.003	1149.31
501.22	1117.31
501.437	1069.31
501.654	1044.31
