Data from 1966.PennyLincolnUp.Lamp.En5.5.200Scan.071719.P1._HRD10591_14-14-28-914.txt Node
Date: Thu Jul 18 14:14:28 EDT 2019
User: cochatt
Spectrometer: HR+D1059
Trigger mode: 1
Integration Time (sec): 1.000000E-1
Scans to average: 1
Electric dark correction enabled: true
Nonlinearity correction enabled: false
Boxcar width: 0
XAxis mode: Wavelengths
Number of Pixels in Spectrum: 2048
>>>>>Begin Spectral Data<<<<<
223.165	-27.62
223.4	-27.62
223.635	-27.62
223.869	-10.62
224.104	-23.62
224.338	-17.62
224.573	-7.62
224.808	2.38
225.042	-5.62
225.277	-10.62
225.511	-7.62
225.746	7.38
225.98	9.38
226.215	11.38
226.449	10.38
226.683	4.38
226.918	25.38
227.152	40.38
227.387	26.38
227.621	29.38
227.856	36.38
228.09	43.38
228.324	45.38
228.559	52.38
228.793	68.38
229.027	78.38
229.262	81.38
229.496	80.38
229.73	97.38
229.964	110.38
230.199	100.38
230.433	87.38
230.667	102.38
230.901	88.38
231.136	78.38
231.37	102.38
231.604	102.38
231.838	83.38
232.072	101.38
232.306	92.38
232.541	100.38
232.775	87.38
233.009	88.38
233.243	100.38
233.477	89.38
233.711	88.38
233.945	95.38
234.179	88.38
234.413	104.38
234.647	88.38
234.881	90.38
235.115	100.38
235.349	108.38
235.583	94.38
235.817	106.38
236.051	110.38
236.285	108.38
236.519	100.38
236.753	124.38
236.987	110.38
237.221	130.38
237.455	150.38
237.689	130.38
237.922	105.38
238.156	94.38
238.39	91.38
238.624	106.38
238.858	97.38
239.091	104.38
239.325	86.38
239.559	98.38
239.793	102.38
240.027	107.38
240.26	89.38
240.494	126.38
240.728	113.38
240.961	118.38
241.195	114.38
241.429	98.38
241.662	95.38
241.896	92.38
242.13	110.38
242.363	96.38
242.597	110.38
242.83	105.38
243.064	107.38
243.298	109.38
243.531	104.38
243.765	108.38
243.998	101.38
244.232	110.38
244.465	94.38
244.699	107.38
244.932	109.38
245.166	120.38
245.399	100.38
245.633	120.38
245.866	94.38
246.099	100.38
246.333	106.38
246.566	98.38
246.8	123.38
247.033	103.38
247.266	108.38
247.5	113.38
247.733	125.38
247.966	126.38
248.2	120.38
248.433	120.38
248.666	116.38
248.899	130.38
249.133	138.38
249.366	138.38
249.599	123.38
249.832	132.38
250.066	131.38
250.299	120.38
250.532	122.38
250.765	143.38
250.998	142.38
251.231	152.38
251.465	140.38
251.698	134.38
251.931	142.38
252.164	117.38
252.397	132.38
252.63	135.38
252.863	133.38
253.096	156.38
253.329	142.38
253.562	146.38
253.795	141.38
254.028	142.38
254.261	129.38
254.494	139.38
254.727	172.38
254.96	169.38
255.193	159.38
255.426	149.38
255.659	142.38
255.892	141.38
256.124	133.38
256.357	138.38
256.59	141.38
256.823	146.38
257.056	136.38
257.289	157.38
257.521	127.38
257.754	132.38
257.987	139.38
258.22	147.38
258.452	137.38
258.685	122.38
258.918	136.38
259.151	130.38
259.383	145.38
259.616	130.38
259.849	138.38
260.081	158.38
260.314	156.38
260.547	165.38
260.779	150.38
261.012	140.38
261.244	144.38
261.477	141.38
261.71	138.38
261.942	133.38
262.175	148.38
262.407	145.38
262.64	133.38
262.872	144.38
263.105	132.38
263.337	130.38
263.57	129.38
263.802	141.38
264.035	133.38
264.267	143.38
264.499	129.38
264.732	132.38
264.964	140.38
265.197	136.38
265.429	141.38
265.661	139.38
265.894	127.38
266.126	156.38
266.358	142.38
266.591	147.38
266.823	128.38
267.055	133.38
267.287	154.38
267.52	155.38
267.752	135.38
267.984	143.38
268.216	153.38
268.448	144.38
268.681	152.38
268.913	153.38
269.145	175.38
269.377	195.38
269.609	154.38
269.841	158.38
270.073	176.38
270.306	163.38
270.538	190.38
270.77	193.38
271.002	184.38
271.234	180.38
271.466	173.38
271.698	186.38
271.93	169.38
272.162	183.38
272.394	168.38
272.626	189.38
272.858	163.38
273.09	171.38
273.322	171.38
273.553	150.38
273.785	160.38
274.017	155.38
274.249	180.38
274.481	157.38
274.713	158.38
274.945	158.38
275.176	170.38
275.408	150.38
275.64	171.38
275.872	164.38
276.104	145.38
276.335	161.38
276.567	177.38
276.799	175.38
277.031	190.38
277.262	189.38
277.494	190.38
277.726	175.38
277.957	174.38
278.189	164.38
278.421	150.38
278.652	164.38
278.884	157.38
279.115	158.38
279.347	156.38
279.579	156.38
279.81	155.38
280.042	171.38
280.273	172.38
280.505	174.38
280.736	159.38
280.968	164.38
281.199	154.38
281.431	152.38
281.662	154.38
281.894	169.38
282.125	184.38
282.356	163.38
282.588	182.38
282.819	177.38
283.051	152.38
283.282	172.38
283.513	180.38
283.745	162.38
283.976	171.38
284.207	154.38
284.439	164.38
284.67	150.38
284.901	162.38
285.132	163.38
285.364	166.38
285.595	150.38
285.826	164.38
286.057	162.38
286.288	161.38
286.52	167.38
286.751	171.38
286.982	156.38
287.213	161.38
287.444	167.38
287.675	181.38
287.906	187.38
288.138	196.38
288.369	167.38
288.6	180.38
288.831	168.38
289.062	169.38
289.293	172.38
289.524	162.38
289.755	182.38
289.986	177.38
290.217	180.38
290.448	174.38
290.679	157.38
290.91	166.38
291.141	158.38
291.371	175.38
291.602	160.38
291.833	158.38
292.064	172.38
292.295	170.38
292.526	157.38
292.757	161.38
292.987	165.38
293.218	176.38
293.449	196.38
293.68	162.38
293.91	192.38
294.141	178.38
294.372	166.38
294.603	177.38
294.833	183.38
295.064	163.38
295.295	175.38
295.525	176.38
295.756	175.38
295.987	165.38
296.217	201.38
296.448	186.38
296.679	176.38
296.909	183.38
297.14	161.38
297.37	170.38
297.601	173.38
297.831	167.38
298.062	157.38
298.292	174.38
298.523	182.38
298.753	170.38
298.984	180.38
299.214	174.38
299.445	179.38
299.675	175.38
299.905	188.38
300.136	182.38
300.366	160.38
300.597	173.38
300.827	182.38
301.057	176.38
301.288	189.38
301.518	176.38
301.748	187.38
301.979	190.38
302.209	180.38
302.439	187.38
302.669	192.38
302.9	205.38
303.13	171.38
303.36	185.38
303.59	177.38
303.82	181.38
304.051	175.38
304.281	191.38
304.511	186.38
304.741	162.38
304.971	173.38
305.201	173.38
305.431	189.38
305.661	189.38
305.891	196.38
306.121	181.38
306.352	172.38
306.582	200.38
306.812	196.38
307.042	184.38
307.272	183.38
307.502	181.38
307.731	182.38
307.961	180.38
308.191	186.38
308.421	199.38
308.651	192.38
308.881	180.38
309.111	190.38
309.341	200.38
309.571	192.38
309.8	205.38
310.03	199.38
310.26	202.38
310.49	205.38
310.72	212.38
310.949	218.38
311.179	214.38
311.409	204.38
311.639	203.38
311.868	221.38
312.098	217.38
312.328	213.38
312.557	219.38
312.787	228.38
313.017	218.38
313.246	210.38
313.476	209.38
313.706	203.38
313.935	208.38
314.165	228.38
314.394	231.38
314.624	229.38
314.853	203.38
315.083	200.38
315.312	215.38
315.542	196.38
315.771	201.38
316.001	191.38
316.23	207.38
316.46	206.38
316.689	189.38
316.919	200.38
317.148	212.38
317.377	220.38
317.607	217.38
317.836	217.38
318.065	203.38
318.295	195.38
318.524	205.38
318.753	202.38
318.983	210.38
319.212	212.38
319.441	203.38
319.67	215.38
319.9	210.38
320.129	203.38
320.358	207.38
320.587	206.38
320.816	201.38
321.046	213.38
321.275	204.38
321.504	200.38
321.733	208.38
321.962	221.38
322.191	214.38
322.42	226.38
322.649	219.38
322.878	245.38
323.108	238.38
323.337	251.38
323.566	269.38
323.795	293.38
324.024	295.38
324.253	394.38
324.482	548.38
324.71	760.38
324.939	1002.38
325.168	822.38
325.397	447.38
325.626	286.38
325.855	275.38
326.084	244.38
326.313	257.38
326.542	266.38
326.77	274.38
326.999	316.38
327.228	458.38
327.457	700.38
327.686	799.38
327.914	512.38
328.143	361.38
328.372	316.38
328.6	315.38
328.829	291.38
329.058	296.38
329.287	314.38
329.515	298.38
329.744	266.38
329.972	266.38
330.201	290.38
330.43	330.38
330.658	345.38
330.887	354.38
331.115	325.38
331.344	271.38
331.572	250.38
331.801	264.38
332.03	256.38
332.258	254.38
332.486	224.38
332.715	236.38
332.943	241.38
333.172	251.38
333.4	241.38
333.629	242.38
333.857	241.38
334.085	263.38
334.314	277.38
334.542	309.38
334.771	314.38
334.999	274.38
335.227	244.38
335.455	239.38
335.684	225.38
335.912	236.38
336.14	214.38
336.369	234.38
336.597	255.38
336.825	260.38
337.053	234.38
337.281	228.38
337.51	222.38
337.738	235.38
337.966	232.38
338.194	242.38
338.422	232.38
338.65	225.38
338.878	235.38
339.106	220.38
339.334	237.38
339.562	226.38
339.79	224.38
340.018	205.38
340.246	205.38
340.474	216.38
340.702	208.38
340.93	227.38
341.158	222.38
341.386	235.38
341.614	239.38
341.842	235.38
342.07	229.38
342.298	220.38
342.526	216.38
342.754	212.38
342.981	216.38
343.209	213.38
343.437	216.38
343.665	215.38
343.893	237.38
344.12	233.38
344.348	228.38
344.576	219.38
344.804	232.38
345.031	233.38
345.259	230.38
345.487	237.38
345.714	233.38
345.942	216.38
346.17	205.38
346.397	232.38
346.625	231.38
346.853	232.38
347.08	233.38
347.308	208.38
347.535	228.38
347.763	240.38
347.99	234.38
348.218	234.38
348.445	237.38
348.673	232.38
348.9	221.38
349.128	225.38
349.355	208.38
349.583	220.38
349.81	212.38
350.037	214.38
350.265	209.38
350.492	198.38
350.72	218.38
350.947	230.38
351.174	238.38
351.402	229.38
351.629	221.38
351.856	218.38
352.083	238.38
352.311	247.38
352.538	221.38
352.765	238.38
352.992	233.38
353.22	235.38
353.447	221.38
353.674	210.38
353.901	225.38
354.128	201.38
354.355	197.38
354.583	181.38
354.81	210.38
355.037	206.38
355.264	198.38
355.491	200.38
355.718	201.38
355.945	190.38
356.172	202.38
356.399	195.38
356.626	199.38
356.853	195.38
357.08	205.38
357.307	192.38
357.534	183.38
357.761	182.38
357.988	198.38
358.215	209.38
358.441	208.38
358.668	191.38
358.895	191.38
359.122	193.38
359.349	213.38
359.576	210.38
359.802	227.38
360.029	261.38
360.256	264.38
360.483	235.38
360.709	217.38
360.936	224.38
361.163	215.38
361.39	225.38
361.616	220.38
361.843	204.38
362.07	222.38
362.296	213.38
362.523	245.38
362.749	217.38
362.976	223.38
363.203	220.38
363.429	220.38
363.656	217.38
363.882	223.38
364.109	205.38
364.335	198.38
364.562	207.38
364.788	206.38
365.015	191.38
365.241	208.38
365.468	206.38
365.694	206.38
365.92	211.38
366.147	201.38
366.373	194.38
366.599	207.38
366.826	201.38
367.052	190.38
367.278	200.38
367.505	197.38
367.731	203.38
367.957	198.38
368.184	212.38
368.41	188.38
368.636	221.38
368.862	213.38
369.089	218.38
369.315	198.38
369.541	212.38
369.767	205.38
369.993	221.38
370.219	188.38
370.445	210.38
370.672	199.38
370.898	210.38
371.124	205.38
371.35	202.38
371.576	206.38
371.802	180.38
372.028	207.38
372.254	200.38
372.48	200.38
372.706	201.38
372.932	203.38
373.158	188.38
373.384	218.38
373.61	213.38
373.835	202.38
374.061	208.38
374.287	208.38
374.513	222.38
374.739	217.38
374.965	203.38
375.191	216.38
375.416	224.38
375.642	193.38
375.868	206.38
376.094	201.38
376.319	218.38
376.545	201.38
376.771	184.38
376.997	196.38
377.222	200.38
377.448	210.38
377.674	218.38
377.899	216.38
378.125	202.38
378.35	214.38
378.576	213.38
378.802	178.38
379.027	174.38
379.253	212.38
379.478	208.38
379.704	215.38
379.929	188.38
380.155	218.38
380.38	220.38
380.606	189.38
380.831	210.38
381.057	193.38
381.282	198.38
381.507	203.38
381.733	192.38
381.958	214.38
382.184	201.38
382.409	206.38
382.634	203.38
382.86	203.38
383.085	195.38
383.31	204.38
383.535	210.38
383.761	223.38
383.986	212.38
384.211	202.38
384.436	208.38
384.662	218.38
384.887	207.38
385.112	220.38
385.337	220.38
385.562	225.38
385.787	210.38
386.013	234.38
386.238	210.38
386.463	224.38
386.688	199.38
386.913	209.38
387.138	213.38
387.363	214.38
387.588	214.38
387.813	221.38
388.038	220.38
388.263	209.38
388.488	219.38
388.713	212.38
388.938	217.38
389.163	204.38
389.387	219.38
389.612	182.38
389.837	208.38
390.062	224.38
390.287	215.38
390.512	207.38
390.736	221.38
390.961	223.38
391.186	233.38
391.411	209.38
391.636	223.38
391.86	222.38
392.085	216.38
392.31	234.38
392.534	235.38
392.759	231.38
392.984	227.38
393.208	215.38
393.433	224.38
393.658	209.38
393.882	213.38
394.107	232.38
394.331	210.38
394.556	209.38
394.78	214.38
395.005	227.38
395.229	232.38
395.454	213.38
395.678	205.38
395.903	212.38
396.127	244.38
396.352	250.38
396.576	235.38
396.801	212.38
397.025	222.38
397.249	228.38
397.474	253.38
397.698	238.38
397.922	238.38
398.147	233.38
398.371	238.38
398.595	248.38
398.82	254.38
399.044	250.38
399.268	258.38
399.492	269.38
399.717	293.38
399.941	291.38
400.165	279.38
400.389	283.38
400.613	257.38
400.837	267.38
401.062	253.38
401.286	235.38
401.51	245.38
401.734	250.38
401.958	242.38
402.182	260.38
402.406	273.38
402.63	266.38
402.854	258.38
403.078	254.38
403.302	245.38
403.526	263.38
403.75	256.38
403.974	247.38
404.198	246.38
404.422	267.38
404.645	257.38
404.869	272.38
405.093	280.38
405.317	295.38
405.541	305.38
405.765	283.38
405.988	272.38
406.212	279.38
406.436	272.38
406.66	297.38
406.883	281.38
407.107	285.38
407.331	312.38
407.555	318.38
407.778	316.38
408.002	299.38
408.226	278.38
408.449	251.38
408.673	253.38
408.896	283.38
409.12	296.38
409.344	286.38
409.567	255.38
409.791	244.38
410.014	260.38
410.238	239.38
410.461	254.38
410.685	243.38
410.908	262.38
411.132	283.38
411.355	295.38
411.578	269.38
411.802	264.38
412.025	260.38
412.249	266.38
412.472	269.38
412.695	273.38
412.919	254.38
413.142	257.38
413.365	256.38
413.589	248.38
413.812	243.38
414.035	248.38
414.258	238.38
414.482	236.38
414.705	229.38
414.928	245.38
415.151	249.38
415.374	236.38
415.597	252.38
415.821	223.38
416.044	238.38
416.267	251.38
416.49	256.38
416.713	248.38
416.936	252.38
417.159	244.38
417.382	251.38
417.605	247.38
417.828	265.38
418.051	261.38
418.274	256.38
418.497	242.38
418.72	228.38
418.943	237.38
419.166	256.38
419.389	273.38
419.611	268.38
419.834	269.38
420.057	257.38
420.28	259.38
420.503	246.38
420.726	249.38
420.948	237.38
421.171	281.38
421.394	282.38
421.617	269.38
421.839	250.38
422.062	262.38
422.285	252.38
422.507	275.38
422.73	316.38
422.953	288.38
423.175	258.38
423.398	260.38
423.621	274.38
423.843	281.38
424.066	260.38
424.288	264.38
424.511	262.38
424.733	311.38
424.956	331.38
425.178	288.38
425.401	306.38
425.623	337.38
425.846	291.38
426.068	270.38
426.291	239.38
426.513	247.38
426.735	258.38
426.958	278.38
427.18	324.38
427.402	379.38
427.625	404.38
427.847	380.38
428.069	308.38
428.292	294.38
428.514	239.38
428.736	261.38
428.958	256.38
429.181	241.38
429.403	242.38
429.625	230.38
429.847	278.38
430.069	282.38
430.292	304.38
430.514	256.38
430.736	251.38
430.958	248.38
431.18	241.38
431.402	251.38
431.624	245.38
431.846	234.38
432.068	239.38
432.29	233.38
432.512	245.38
432.734	260.38
432.956	261.38
433.178	237.38
433.4	242.38
433.622	249.38
433.844	249.38
434.066	233.38
434.287	227.38
434.509	242.38
434.731	253.38
434.953	253.38
435.175	247.38
435.397	265.38
435.618	262.38
435.84	292.38
436.062	331.38
436.284	346.38
436.505	299.38
436.727	268.38
436.949	263.38
437.17	256.38
437.392	248.38
437.614	263.38
437.835	282.38
438.057	324.38
438.278	351.38
438.5	361.38
438.721	401.38
438.943	358.38
439.165	294.38
439.386	286.38
439.608	286.38
439.829	278.38
440.05	275.38
440.272	314.38
440.493	274.38
440.715	257.38
440.936	258.38
441.158	260.38
441.379	264.38
441.6	265.38
441.822	272.38
442.043	293.38
442.264	336.38
442.486	338.38
442.707	281.38
442.928	273.38
443.149	277.38
443.371	296.38
443.592	312.38
443.813	352.38
444.034	362.38
444.255	300.38
444.476	286.38
444.698	269.38
444.919	271.38
445.14	351.38
445.361	310.38
445.582	299.38
445.803	331.38
446.024	361.38
446.245	357.38
446.466	336.38
446.687	285.38
446.908	278.38
447.129	269.38
447.35	247.38
447.571	263.38
447.792	240.38
448.013	243.38
448.234	266.38
448.455	282.38
448.675	337.38
448.896	355.38
449.117	304.38
449.338	296.38
449.559	353.38
449.779	388.38
450	293.38
450.221	272.38
450.442	263.38
450.662	260.38
450.883	265.38
451.104	278.38
451.324	270.38
451.545	253.38
451.766	248.38
451.986	240.38
452.207	237.38
452.428	218.38
452.648	239.38
452.869	242.38
453.089	238.38
453.31	237.38
453.53	245.38
453.751	214.38
453.971	239.38
454.192	253.38
454.412	253.38
454.633	245.38
454.853	225.38
455.073	240.38
455.294	242.38
455.514	267.38
455.734	260.38
455.955	219.38
456.175	217.38
456.395	213.38
456.616	219.38
456.836	212.38
457.056	208.38
457.276	217.38
457.497	215.38
457.717	213.38
457.937	213.38
458.157	206.38
458.377	222.38
458.598	249.38
458.818	271.38
459.038	336.38
459.258	325.38
459.478	271.38
459.698	238.38
459.918	229.38
460.138	238.38
460.358	235.38
460.578	232.38
460.798	245.38
461.018	262.38
461.238	251.38
461.458	239.38
461.678	214.38
461.898	239.38
462.118	221.38
462.338	261.38
462.558	238.38
462.777	239.38
462.997	238.38
463.217	248.38
463.437	240.38
463.657	241.38
463.876	252.38
464.096	252.38
464.316	260.38
464.536	255.38
464.755	251.38
464.975	257.38
465.195	296.38
465.414	350.38
465.634	289.38
465.854	265.38
466.073	252.38
466.293	238.38
466.512	228.38
466.732	240.38
466.951	233.38
467.171	232.38
467.391	228.38
467.61	232.38
467.829	239.38
468.049	257.38
468.268	240.38
468.488	235.38
468.707	231.38
468.927	222.38
469.146	234.38
469.365	238.38
469.585	226.38
469.804	229.38
470.023	248.38
470.243	234.38
470.462	250.38
470.681	246.38
470.901	268.38
471.12	236.38
471.339	233.38
471.558	242.38
471.777	258.38
471.997	234.38
472.216	233.38
472.435	274.38
472.654	282.38
472.873	246.38
473.092	239.38
473.311	226.38
473.53	235.38
473.749	261.38
473.968	255.38
474.187	326.38
474.406	312.38
474.625	253.38
474.844	240.38
475.063	244.38
475.282	225.38
475.501	252.38
475.72	244.38
475.939	237.38
476.158	228.38
476.377	253.38
476.596	235.38
476.814	237.38
477.033	255.38
477.252	246.38
477.471	261.38
477.69	226.38
477.908	225.38
478.127	278.38
478.346	253.38
478.564	247.38
478.783	252.38
479.002	270.38
479.22	262.38
479.439	267.38
479.658	300.38
479.876	294.38
480.095	285.38
480.313	298.38
480.532	285.38
480.751	293.38
480.969	286.38
481.188	349.38
481.406	385.38
481.624	294.38
481.843	278.38
482.061	275.38
482.28	262.38
482.498	272.38
482.717	254.38
482.935	297.38
483.153	271.38
483.372	275.38
483.59	280.38
483.808	285.38
484.027	281.38
484.245	287.38
484.463	272.38
484.681	276.38
484.9	268.38
485.118	284.38
485.336	285.38
485.554	280.38
485.772	291.38
485.99	281.38
486.209	280.38
486.427	251.38
486.645	289.38
486.863	285.38
487.081	295.38
487.299	293.38
487.517	311.38
487.735	284.38
487.953	287.38
488.171	293.38
488.389	264.38
488.607	290.38
488.825	279.38
489.043	300.38
489.261	272.38
489.479	286.38
489.696	293.38
489.914	286.38
490.132	278.38
490.35	298.38
490.568	323.38
490.786	303.38
491.003	302.38
491.221	322.38
491.439	332.38
491.657	332.38
491.874	339.38
492.092	349.38
492.31	355.38
492.527	332.38
492.745	342.38
492.963	339.38
493.18	336.38
493.398	366.38
493.615	376.38
493.833	349.38
494.05	353.38
494.268	342.38
494.485	343.38
494.703	348.38
494.92	345.38
495.138	329.38
495.355	335.38
495.573	352.38
495.79	344.38
496.008	334.38
496.225	336.38
496.442	334.38
496.66	361.38
496.877	323.38
497.094	330.38
497.312	339.38
497.529	343.38
497.746	342.38
497.963	356.38
498.181	361.38
498.398	350.38
498.615	372.38
498.832	373.38
499.049	365.38
499.267	366.38
499.484	405.38
499.701	404.38
499.918	415.38
500.135	441.38
500.352	442.38
500.569	444.38
500.786	426.38
501.003	449.38
501.22	448.38
501.437	405.38
501.654	397.38
501.871	425.38
502.088	393.38
502.305	375.38
502.522	376.38
