Data from 1966.PennyLincolnUp.Lamp.En5.5.200Scan.071719.P1._HRD10591_14-15-20-942.txt Node
Date: Thu Jul 18 14:15:20 EDT 2019
User: cochatt
Spectrometer: HR+D1059
Trigger mode: 1
Integration Time (sec): 1.000000E-1
Scans to average: 1
Electric dark correction enabled: true
Nonlinearity correction enabled: false
Boxcar width: 0
XAxis mode: Wavelengths
Number of Pixels in Spectrum: 2048
>>>>>Begin Spectral Data<<<<<
223.165	3.06
223.4	3.06
223.635	3.06
223.869	-19.94
224.104	-17.94
224.338	-16.94
224.573	-14.94
224.808	-7.94
225.042	-22.94
225.277	-0.94
225.511	13.06
225.746	-2.94
225.98	11.06
226.215	7.06
226.449	13.06
226.683	7.06
226.918	26.06
227.152	24.06
227.387	44.06
227.621	42.06
227.856	40.06
228.09	45.06
228.324	42.06
228.559	50.06
228.793	65.06
229.027	73.06
229.262	88.06
229.496	90.06
229.73	111.06
229.964	119.06
230.199	101.06
230.433	91.06
230.667	92.06
230.901	96.06
231.136	90.06
231.37	90.06
231.604	89.06
231.838	98.06
232.072	80.06
232.306	96.06
232.541	106.06
232.775	100.06
233.009	115.06
233.243	90.06
233.477	109.06
233.711	81.06
233.945	101.06
234.179	103.06
234.413	106.06
234.647	88.06
234.881	102.06
235.115	109.06
235.349	104.06
235.583	99.06
235.817	96.06
236.051	94.06
236.285	98.06
236.519	109.06
236.753	110.06
236.987	112.06
237.221	125.06
237.455	140.06
237.689	112.06
237.922	102.06
238.156	88.06
238.39	95.06
238.624	92.06
238.858	103.06
239.091	111.06
239.325	107.06
239.559	105.06
239.793	114.06
240.027	97.06
240.26	104.06
240.494	124.06
240.728	92.06
240.961	94.06
241.195	107.06
241.429	106.06
241.662	102.06
241.896	101.06
242.13	102.06
242.363	96.06
242.597	107.06
242.83	101.06
243.064	104.06
243.298	112.06
243.531	96.06
243.765	97.06
243.998	113.06
244.232	101.06
244.465	105.06
244.699	112.06
244.932	105.06
245.166	98.06
245.399	103.06
245.633	102.06
245.866	128.06
246.099	107.06
246.333	110.06
246.566	114.06
246.8	110.06
247.033	114.06
247.266	110.06
247.5	133.06
247.733	125.06
247.966	123.06
248.2	119.06
248.433	133.06
248.666	132.06
248.899	137.06
249.133	138.06
249.366	143.06
249.599	134.06
249.832	128.06
250.066	113.06
250.299	128.06
250.532	134.06
250.765	151.06
250.998	154.06
251.231	154.06
251.465	147.06
251.698	130.06
251.931	133.06
252.164	137.06
252.397	135.06
252.63	132.06
252.863	130.06
253.096	153.06
253.329	139.06
253.562	151.06
253.795	141.06
254.028	151.06
254.261	156.06
254.494	153.06
254.727	171.06
254.96	174.06
255.193	170.06
255.426	171.06
255.659	145.06
255.892	147.06
256.124	154.06
256.357	138.06
256.59	147.06
256.823	137.06
257.056	151.06
257.289	146.06
257.521	135.06
257.754	143.06
257.987	142.06
258.22	145.06
258.452	142.06
258.685	136.06
258.918	138.06
259.151	131.06
259.383	134.06
259.616	138.06
259.849	147.06
260.081	141.06
260.314	163.06
260.547	175.06
260.779	148.06
261.012	143.06
261.244	143.06
261.477	142.06
261.71	128.06
261.942	141.06
262.175	149.06
262.407	151.06
262.64	139.06
262.872	136.06
263.105	138.06
263.337	132.06
263.57	153.06
263.802	157.06
264.035	143.06
264.267	130.06
264.499	142.06
264.732	127.06
264.964	137.06
265.197	147.06
265.429	129.06
265.661	128.06
265.894	134.06
266.126	144.06
266.358	133.06
266.591	136.06
266.823	145.06
267.055	145.06
267.287	141.06
267.52	138.06
267.752	141.06
267.984	120.06
268.216	158.06
268.448	150.06
268.681	142.06
268.913	145.06
269.145	177.06
269.377	174.06
269.609	169.06
269.841	161.06
270.073	172.06
270.306	181.06
270.538	194.06
270.77	181.06
271.002	188.06
271.234	181.06
271.466	198.06
271.698	185.06
271.93	183.06
272.162	175.06
272.394	192.06
272.626	176.06
272.858	171.06
273.09	162.06
273.322	171.06
273.553	163.06
273.785	160.06
274.017	171.06
274.249	162.06
274.481	151.06
274.713	163.06
274.945	162.06
275.176	165.06
275.408	173.06
275.64	164.06
275.872	157.06
276.104	165.06
276.335	161.06
276.567	175.06
276.799	178.06
277.031	199.06
277.262	199.06
277.494	195.06
277.726	189.06
277.957	166.06
278.189	182.06
278.421	149.06
278.652	158.06
278.884	155.06
279.115	174.06
279.347	161.06
279.579	154.06
279.81	144.06
280.042	162.06
280.273	175.06
280.505	162.06
280.736	174.06
280.968	170.06
281.199	163.06
281.431	156.06
281.662	154.06
281.894	162.06
282.125	165.06
282.356	175.06
282.588	190.06
282.819	170.06
283.051	164.06
283.282	150.06
283.513	164.06
283.745	173.06
283.976	176.06
284.207	191.06
284.439	168.06
284.67	176.06
284.901	172.06
285.132	180.06
285.364	164.06
285.595	168.06
285.826	188.06
286.057	168.06
286.288	179.06
286.52	179.06
286.751	169.06
286.982	165.06
287.213	170.06
287.444	171.06
287.675	171.06
287.906	179.06
288.138	188.06
288.369	173.06
288.6	179.06
288.831	181.06
289.062	181.06
289.293	187.06
289.524	180.06
289.755	181.06
289.986	172.06
290.217	181.06
290.448	156.06
290.679	167.06
290.91	179.06
291.141	174.06
291.371	193.06
291.602	168.06
291.833	178.06
292.064	167.06
292.295	182.06
292.526	146.06
292.757	175.06
292.987	175.06
293.218	181.06
293.449	177.06
293.68	170.06
293.91	177.06
294.141	171.06
294.372	196.06
294.603	174.06
294.833	178.06
295.064	177.06
295.295	187.06
295.525	174.06
295.756	178.06
295.987	187.06
296.217	192.06
296.448	191.06
296.679	191.06
296.909	192.06
297.14	185.06
297.37	195.06
297.601	179.06
297.831	189.06
298.062	198.06
298.292	190.06
298.523	169.06
298.753	183.06
298.984	191.06
299.214	174.06
299.445	172.06
299.675	199.06
299.905	199.06
300.136	178.06
300.366	184.06
300.597	174.06
300.827	206.06
301.057	178.06
301.288	186.06
301.518	201.06
301.748	205.06
301.979	186.06
302.209	197.06
302.439	202.06
302.669	197.06
302.9	192.06
303.13	177.06
303.36	202.06
303.59	203.06
303.82	210.06
304.051	206.06
304.281	184.06
304.511	203.06
304.741	183.06
304.971	190.06
305.201	189.06
305.431	200.06
305.661	181.06
305.891	193.06
306.121	201.06
306.352	186.06
306.582	207.06
306.812	192.06
307.042	199.06
307.272	195.06
307.502	195.06
307.731	200.06
307.961	184.06
308.191	189.06
308.421	181.06
308.651	201.06
308.881	191.06
309.111	206.06
309.341	204.06
309.571	194.06
309.8	198.06
310.03	217.06
310.26	212.06
310.49	211.06
310.72	217.06
310.949	222.06
311.179	238.06
311.409	218.06
311.639	213.06
311.868	210.06
312.098	217.06
312.328	222.06
312.557	217.06
312.787	253.06
313.017	236.06
313.246	216.06
313.476	199.06
313.706	193.06
313.935	226.06
314.165	224.06
314.394	230.06
314.624	216.06
314.853	218.06
315.083	236.06
315.312	217.06
315.542	214.06
315.771	210.06
316.001	206.06
316.23	210.06
316.46	204.06
316.689	211.06
316.919	215.06
317.148	207.06
317.377	227.06
317.607	216.06
317.836	201.06
318.065	209.06
318.295	203.06
318.524	229.06
318.753	210.06
318.983	225.06
319.212	214.06
319.441	204.06
319.67	226.06
319.9	208.06
320.129	215.06
320.358	211.06
320.587	214.06
320.816	223.06
321.046	207.06
321.275	219.06
321.504	229.06
321.733	207.06
321.962	235.06
322.191	235.06
322.42	248.06
322.649	261.06
322.878	239.06
323.108	255.06
323.337	251.06
323.566	270.06
323.795	298.06
324.024	309.06
324.253	373.06
324.482	540.06
324.71	824.06
324.939	1078.06
325.168	870.06
325.397	457.06
325.626	317.06
325.855	285.06
326.084	263.06
326.313	268.06
326.542	266.06
326.77	288.06
326.999	370.06
327.228	492.06
327.457	711.06
327.686	799.06
327.914	537.06
328.143	383.06
328.372	346.06
328.6	330.06
328.829	301.06
329.058	321.06
329.287	321.06
329.515	314.06
329.744	281.06
329.972	297.06
330.201	301.06
330.43	331.06
330.658	355.06
330.887	343.06
331.115	330.06
331.344	281.06
331.572	258.06
331.801	287.06
332.03	271.06
332.258	257.06
332.486	225.06
332.715	258.06
332.943	238.06
333.172	247.06
333.4	239.06
333.629	267.06
333.857	269.06
334.085	275.06
334.314	267.06
334.542	325.06
334.771	326.06
334.999	289.06
335.227	275.06
335.455	264.06
335.684	268.06
335.912	243.06
336.14	247.06
336.369	231.06
336.597	245.06
336.825	259.06
337.053	245.06
337.281	226.06
337.51	209.06
337.738	230.06
337.966	247.06
338.194	237.06
338.422	238.06
338.65	236.06
338.878	218.06
339.106	239.06
339.334	247.06
339.562	226.06
339.79	237.06
340.018	229.06
340.246	224.06
340.474	233.06
340.702	242.06
340.93	225.06
341.158	233.06
341.386	231.06
341.614	228.06
341.842	222.06
342.07	242.06
342.298	222.06
342.526	236.06
342.754	214.06
342.981	215.06
343.209	226.06
343.437	211.06
343.665	225.06
343.893	234.06
344.12	253.06
344.348	240.06
344.576	232.06
344.804	239.06
345.031	241.06
345.259	246.06
345.487	231.06
345.714	232.06
345.942	216.06
346.17	222.06
346.397	240.06
346.625	223.06
346.853	243.06
347.08	238.06
347.308	235.06
347.535	230.06
347.763	234.06
347.99	235.06
348.218	255.06
348.445	239.06
348.673	224.06
348.9	225.06
349.128	234.06
349.355	237.06
349.583	225.06
349.81	202.06
350.037	218.06
350.265	240.06
350.492	236.06
350.72	221.06
350.947	223.06
351.174	241.06
351.402	233.06
351.629	242.06
351.856	230.06
352.083	230.06
352.311	241.06
352.538	229.06
352.765	245.06
352.992	247.06
353.22	222.06
353.447	245.06
353.674	228.06
353.901	220.06
354.128	215.06
354.355	208.06
354.583	207.06
354.81	208.06
355.037	207.06
355.264	213.06
355.491	225.06
355.718	219.06
355.945	219.06
356.172	211.06
356.399	220.06
356.626	194.06
356.853	205.06
357.08	204.06
357.307	225.06
357.534	204.06
357.761	217.06
357.988	197.06
358.215	206.06
358.441	198.06
358.668	207.06
358.895	202.06
359.122	207.06
359.349	214.06
359.576	245.06
359.802	230.06
360.029	267.06
360.256	276.06
360.483	250.06
360.709	249.06
360.936	236.06
361.163	227.06
361.39	235.06
361.616	221.06
361.843	229.06
362.07	216.06
362.296	199.06
362.523	222.06
362.749	213.06
362.976	219.06
363.203	214.06
363.429	208.06
363.656	225.06
363.882	221.06
364.109	216.06
364.335	213.06
364.562	213.06
364.788	208.06
365.015	215.06
365.241	214.06
365.468	214.06
365.694	237.06
365.92	221.06
366.147	207.06
366.373	221.06
366.599	229.06
366.826	211.06
367.052	208.06
367.278	207.06
367.505	214.06
367.731	228.06
367.957	222.06
368.184	227.06
368.41	212.06
368.636	231.06
368.862	222.06
369.089	217.06
369.315	225.06
369.541	213.06
369.767	219.06
369.993	221.06
370.219	211.06
370.445	204.06
370.672	212.06
370.898	219.06
371.124	237.06
371.35	211.06
371.576	205.06
371.802	212.06
372.028	208.06
372.254	232.06
372.48	227.06
372.706	217.06
372.932	217.06
373.158	212.06
373.384	217.06
373.61	209.06
373.835	216.06
374.061	208.06
374.287	226.06
374.513	221.06
374.739	220.06
374.965	215.06
375.191	200.06
375.416	216.06
375.642	208.06
375.868	215.06
376.094	211.06
376.319	216.06
376.545	214.06
376.771	195.06
376.997	215.06
377.222	205.06
377.448	220.06
377.674	221.06
377.899	210.06
378.125	227.06
378.35	201.06
378.576	209.06
378.802	211.06
379.027	204.06
379.253	203.06
379.478	211.06
379.704	223.06
379.929	225.06
380.155	219.06
380.38	224.06
380.606	222.06
380.831	234.06
381.057	226.06
381.282	225.06
381.507	218.06
381.733	201.06
381.958	201.06
382.184	205.06
382.409	206.06
382.634	211.06
382.86	203.06
383.085	240.06
383.31	230.06
383.535	208.06
383.761	215.06
383.986	231.06
384.211	218.06
384.436	208.06
384.662	215.06
384.887	215.06
385.112	216.06
385.337	217.06
385.562	227.06
385.787	217.06
386.013	237.06
386.238	233.06
386.463	223.06
386.688	232.06
386.913	211.06
387.138	223.06
387.363	221.06
387.588	226.06
387.813	236.06
388.038	213.06
388.263	218.06
388.488	214.06
388.713	240.06
388.938	204.06
389.163	222.06
389.387	225.06
389.612	231.06
389.837	227.06
390.062	231.06
390.287	223.06
390.512	234.06
390.736	230.06
390.961	213.06
391.186	216.06
391.411	224.06
391.636	223.06
391.86	232.06
392.085	229.06
392.31	237.06
392.534	250.06
392.759	228.06
392.984	235.06
393.208	229.06
393.433	238.06
393.658	250.06
393.882	225.06
394.107	213.06
394.331	221.06
394.556	208.06
394.78	228.06
395.005	207.06
395.229	229.06
395.454	225.06
395.678	238.06
395.903	255.06
396.127	263.06
396.352	250.06
396.576	221.06
396.801	240.06
397.025	238.06
397.249	225.06
397.474	233.06
397.698	236.06
397.922	256.06
398.147	262.06
398.371	278.06
398.595	258.06
398.82	255.06
399.044	239.06
399.268	245.06
399.492	281.06
399.717	294.06
399.941	308.06
400.165	310.06
400.389	307.06
400.613	279.06
400.837	270.06
401.062	251.06
401.286	241.06
401.51	257.06
401.734	256.06
401.958	249.06
402.182	254.06
402.406	263.06
402.63	254.06
402.854	249.06
403.078	257.06
403.302	270.06
403.526	262.06
403.75	264.06
403.974	281.06
404.198	271.06
404.422	260.06
404.645	267.06
404.869	278.06
405.093	277.06
405.317	306.06
405.541	312.06
405.765	266.06
405.988	284.06
406.212	289.06
406.436	327.06
406.66	325.06
406.883	289.06
407.107	285.06
407.331	327.06
407.555	345.06
407.778	347.06
408.002	297.06
408.226	295.06
408.449	286.06
408.673	304.06
408.896	279.06
409.12	319.06
409.344	307.06
409.567	270.06
409.791	295.06
410.014	252.06
410.238	279.06
410.461	267.06
410.685	270.06
410.908	267.06
411.132	283.06
411.355	318.06
411.578	273.06
411.802	278.06
412.025	253.06
412.249	273.06
412.472	283.06
412.695	282.06
412.919	283.06
413.142	272.06
413.365	271.06
413.589	261.06
413.812	248.06
414.035	251.06
414.258	250.06
414.482	253.06
414.705	246.06
414.928	244.06
415.151	265.06
415.374	253.06
415.597	249.06
415.821	239.06
416.044	252.06
416.267	246.06
416.49	258.06
416.713	247.06
416.936	259.06
417.159	243.06
417.382	254.06
417.605	270.06
417.828	273.06
418.051	262.06
418.274	276.06
418.497	257.06
418.72	260.06
418.943	267.06
419.166	258.06
419.389	278.06
419.611	265.06
419.834	261.06
420.057	262.06
420.28	276.06
420.503	274.06
420.726	275.06
420.948	280.06
421.171	290.06
421.394	310.06
421.617	271.06
421.839	270.06
422.062	260.06
422.285	274.06
422.507	284.06
422.73	326.06
422.953	317.06
423.175	286.06
423.398	269.06
423.621	281.06
423.843	277.06
424.066	275.06
424.288	297.06
424.511	317.06
424.733	321.06
424.956	345.06
425.178	316.06
425.401	343.06
425.623	329.06
425.846	300.06
426.068	281.06
426.291	272.06
426.513	273.06
426.735	287.06
426.958	297.06
427.18	328.06
427.402	362.06
427.625	426.06
427.847	379.06
428.069	307.06
428.292	290.06
428.514	275.06
428.736	255.06
428.958	255.06
429.181	249.06
429.403	264.06
429.625	267.06
429.847	283.06
430.069	323.06
430.292	312.06
430.514	252.06
430.736	265.06
430.958	269.06
431.18	252.06
431.402	264.06
431.624	254.06
431.846	265.06
432.068	245.06
432.29	245.06
432.512	250.06
432.734	237.06
432.956	239.06
433.178	271.06
433.4	247.06
433.622	251.06
433.844	270.06
434.066	253.06
434.287	256.06
434.509	245.06
434.731	247.06
434.953	271.06
435.175	279.06
435.397	283.06
435.618	289.06
435.84	296.06
436.062	339.06
436.284	362.06
436.505	301.06
436.727	280.06
436.949	271.06
437.17	277.06
437.392	254.06
437.614	286.06
437.835	285.06
438.057	327.06
438.278	370.06
438.5	350.06
438.721	385.06
438.943	363.06
439.165	299.06
439.386	287.06
439.608	294.06
439.829	295.06
440.05	295.06
440.272	310.06
440.493	306.06
440.715	283.06
440.936	276.06
441.158	259.06
441.379	269.06
441.6	265.06
441.822	297.06
442.043	307.06
442.264	343.06
442.486	353.06
442.707	317.06
442.928	306.06
443.149	302.06
443.371	307.06
443.592	324.06
443.813	346.06
444.034	377.06
444.255	309.06
444.476	285.06
444.698	276.06
444.919	285.06
445.14	381.06
445.361	334.06
445.582	304.06
445.803	340.06
446.024	378.06
446.245	400.06
446.466	325.06
446.687	289.06
446.908	293.06
447.129	265.06
447.35	262.06
447.571	263.06
447.792	265.06
448.013	280.06
448.234	271.06
448.455	287.06
448.675	343.06
448.896	364.06
449.117	323.06
449.338	296.06
449.559	357.06
449.779	370.06
450	322.06
450.221	270.06
450.442	262.06
450.662	276.06
450.883	244.06
451.104	268.06
451.324	261.06
451.545	250.06
451.766	244.06
451.986	237.06
452.207	254.06
452.428	253.06
452.648	250.06
452.869	241.06
453.089	250.06
453.31	250.06
453.53	246.06
453.751	246.06
453.971	239.06
454.192	249.06
454.412	253.06
454.633	233.06
454.853	230.06
455.073	228.06
455.294	250.06
455.514	290.06
455.734	275.06
455.955	246.06
456.175	230.06
456.395	218.06
456.616	218.06
456.836	216.06
457.056	228.06
457.276	219.06
457.497	224.06
457.717	236.06
457.937	224.06
458.157	231.06
458.377	229.06
458.598	250.06
458.818	297.06
459.038	331.06
459.258	301.06
459.478	261.06
459.698	240.06
459.918	252.06
460.138	241.06
460.358	254.06
460.578	253.06
460.798	263.06
461.018	269.06
461.238	257.06
461.458	250.06
461.678	240.06
461.898	261.06
462.118	260.06
462.338	242.06
462.558	265.06
462.777	262.06
462.997	254.06
463.217	266.06
463.437	272.06
463.657	275.06
463.876	273.06
464.096	253.06
464.316	286.06
464.536	275.06
464.755	266.06
464.975	295.06
465.195	317.06
465.414	360.06
465.634	299.06
465.854	285.06
466.073	264.06
466.293	254.06
466.512	258.06
466.732	237.06
466.951	224.06
467.171	237.06
467.391	252.06
467.61	239.06
467.829	257.06
468.049	263.06
468.268	254.06
468.488	240.06
468.707	224.06
468.927	228.06
469.146	228.06
469.365	238.06
469.585	242.06
469.804	241.06
470.023	263.06
470.243	263.06
470.462	250.06
470.681	266.06
470.901	258.06
471.12	258.06
471.339	243.06
471.558	276.06
471.777	255.06
471.997	240.06
472.216	237.06
472.435	293.06
472.654	276.06
472.873	239.06
473.092	261.06
473.311	277.06
473.53	232.06
473.749	249.06
473.968	272.06
474.187	319.06
474.406	322.06
474.625	277.06
474.844	274.06
475.063	247.06
475.282	238.06
475.501	249.06
475.72	249.06
475.939	250.06
476.158	237.06
476.377	258.06
476.596	239.06
476.814	266.06
477.033	263.06
477.252	253.06
477.471	252.06
477.69	264.06
477.908	241.06
478.127	282.06
478.346	267.06
478.564	277.06
478.783	262.06
479.002	270.06
479.22	284.06
479.439	296.06
479.658	272.06
479.876	286.06
480.095	298.06
480.313	302.06
480.532	286.06
480.751	319.06
480.969	305.06
481.188	380.06
481.406	373.06
481.624	328.06
481.843	313.06
482.061	291.06
482.28	285.06
482.498	290.06
482.717	275.06
482.935	270.06
483.153	297.06
483.372	271.06
483.59	288.06
483.808	280.06
484.027	267.06
484.245	285.06
484.463	284.06
484.681	295.06
484.9	291.06
485.118	304.06
485.336	298.06
485.554	294.06
485.772	302.06
485.99	289.06
486.209	286.06
486.427	290.06
486.645	295.06
486.863	289.06
487.081	323.06
487.299	291.06
487.517	295.06
487.735	314.06
487.953	299.06
488.171	294.06
488.389	302.06
488.607	286.06
488.825	298.06
489.043	309.06
489.261	305.06
489.479	298.06
489.696	317.06
489.914	322.06
490.132	327.06
490.35	318.06
490.568	321.06
490.786	329.06
491.003	342.06
491.221	351.06
491.439	378.06
491.657	342.06
491.874	359.06
492.092	366.06
492.31	377.06
492.527	360.06
492.745	346.06
492.963	366.06
493.18	334.06
493.398	360.06
493.615	372.06
493.833	361.06
494.05	373.06
494.268	357.06
494.485	361.06
494.703	363.06
494.92	362.06
495.138	357.06
495.355	352.06
495.573	358.06
495.79	383.06
496.008	365.06
496.225	345.06
496.442	351.06
496.66	351.06
496.877	345.06
497.094	350.06
497.312	362.06
497.529	350.06
497.746	353.06
497.963	383.06
498.181	368.06
498.398	363.06
498.615	376.06
498.832	377.06
499.049	370.06
499.267	382.06
499.484	394.06
499.701	425.06
499.918	441.06
500.135	450.06
500.352	448.06
500.569	471.06
500.786	466.06
501.003	470.06
501.22	461.06
501.437	437.06
501.654	429.06
501.871	415.06
502.088	414.06
502.305	399.06
502.522	399.06
