Data from 1966.PennyLincolnUp.Lamp.En5.5.200Scan.071719.P1._HRD10591_14-14-04-914.txt Node
Date: Thu Jul 18 14:14:04 EDT 2019
User: cochatt
Spectrometer: HR+D1059
Trigger mode: 1
Integration Time (sec): 1.000000E-1
Scans to average: 1
Electric dark correction enabled: true
Nonlinearity correction enabled: false
Boxcar width: 0
XAxis mode: Wavelengths
Number of Pixels in Spectrum: 2048
>>>>>Begin Spectral Data<<<<<
223.165	-22.75
223.4	-22.75
223.635	-22.75
223.869	-16.75
224.104	-20.75
224.338	-10.75
224.573	-19.75
224.808	-8.75
225.042	-14.75
225.277	1.25
225.511	-5.75
225.746	-2.75
225.98	5.25
226.215	12.25
226.449	25.25
226.683	32.25
226.918	27.25
227.152	19.25
227.387	35.25
227.621	43.25
227.856	48.25
228.09	44.25
228.324	62.25
228.559	60.25
228.793	62.25
229.027	84.25
229.262	85.25
229.496	89.25
229.73	108.25
229.964	116.25
230.199	88.25
230.433	91.25
230.667	84.25
230.901	85.25
231.136	85.25
231.37	96.25
231.604	82.25
231.838	86.25
232.072	82.25
232.306	101.25
232.541	111.25
232.775	101.25
233.009	83.25
233.243	92.25
233.477	92.25
233.711	102.25
233.945	105.25
234.179	97.25
234.413	81.25
234.647	94.25
234.881	100.25
235.115	95.25
235.349	90.25
235.583	92.25
235.817	96.25
236.051	111.25
236.285	103.25
236.519	86.25
236.753	103.25
236.987	93.25
237.221	125.25
237.455	146.25
237.689	133.25
237.922	94.25
238.156	86.25
238.39	105.25
238.624	94.25
238.858	101.25
239.091	91.25
239.325	93.25
239.559	98.25
239.793	104.25
240.027	97.25
240.26	100.25
240.494	121.25
240.728	103.25
240.961	114.25
241.195	112.25
241.429	97.25
241.662	110.25
241.896	91.25
242.13	103.25
242.363	112.25
242.597	86.25
242.83	97.25
243.064	107.25
243.298	102.25
243.531	102.25
243.765	104.25
243.998	108.25
244.232	106.25
244.465	99.25
244.699	101.25
244.932	111.25
245.166	113.25
245.399	105.25
245.633	117.25
245.866	94.25
246.099	100.25
246.333	113.25
246.566	88.25
246.8	119.25
247.033	101.25
247.266	113.25
247.5	132.25
247.733	132.25
247.966	116.25
248.2	125.25
248.433	123.25
248.666	126.25
248.899	118.25
249.133	132.25
249.366	131.25
249.599	127.25
249.832	132.25
250.066	128.25
250.299	129.25
250.532	124.25
250.765	129.25
250.998	128.25
251.231	125.25
251.465	130.25
251.698	127.25
251.931	128.25
252.164	125.25
252.397	124.25
252.63	129.25
252.863	140.25
253.096	136.25
253.329	130.25
253.562	143.25
253.795	130.25
254.028	125.25
254.261	122.25
254.494	128.25
254.727	165.25
254.96	178.25
255.193	167.25
255.426	142.25
255.659	132.25
255.892	133.25
256.124	144.25
256.357	142.25
256.59	144.25
256.823	132.25
257.056	127.25
257.289	135.25
257.521	129.25
257.754	135.25
257.987	133.25
258.22	134.25
258.452	118.25
258.685	141.25
258.918	134.25
259.151	141.25
259.383	149.25
259.616	144.25
259.849	125.25
260.081	135.25
260.314	160.25
260.547	141.25
260.779	150.25
261.012	149.25
261.244	138.25
261.477	148.25
261.71	140.25
261.942	140.25
262.175	145.25
262.407	146.25
262.64	137.25
262.872	150.25
263.105	140.25
263.337	133.25
263.57	150.25
263.802	147.25
264.035	141.25
264.267	141.25
264.499	128.25
264.732	132.25
264.964	138.25
265.197	135.25
265.429	143.25
265.661	129.25
265.894	126.25
266.126	144.25
266.358	143.25
266.591	143.25
266.823	160.25
267.055	144.25
267.287	142.25
267.52	135.25
267.752	129.25
267.984	136.25
268.216	133.25
268.448	142.25
268.681	157.25
268.913	156.25
269.145	162.25
269.377	176.25
269.609	161.25
269.841	163.25
270.073	152.25
270.306	176.25
270.538	185.25
270.77	186.25
271.002	174.25
271.234	168.25
271.466	182.25
271.698	167.25
271.93	207.25
272.162	195.25
272.394	194.25
272.626	173.25
272.858	176.25
273.09	174.25
273.322	163.25
273.553	169.25
273.785	144.25
274.017	144.25
274.249	150.25
274.481	161.25
274.713	164.25
274.945	174.25
275.176	156.25
275.408	149.25
275.64	152.25
275.872	142.25
276.104	160.25
276.335	150.25
276.567	152.25
276.799	172.25
277.031	182.25
277.262	189.25
277.494	192.25
277.726	176.25
277.957	183.25
278.189	172.25
278.421	160.25
278.652	153.25
278.884	162.25
279.115	156.25
279.347	144.25
279.579	173.25
279.81	169.25
280.042	158.25
280.273	147.25
280.505	158.25
280.736	155.25
280.968	166.25
281.199	165.25
281.431	155.25
281.662	156.25
281.894	168.25
282.125	150.25
282.356	173.25
282.588	193.25
282.819	204.25
283.051	164.25
283.282	158.25
283.513	177.25
283.745	156.25
283.976	166.25
284.207	160.25
284.439	166.25
284.67	161.25
284.901	166.25
285.132	172.25
285.364	152.25
285.595	161.25
285.826	154.25
286.057	174.25
286.288	184.25
286.52	188.25
286.751	168.25
286.982	169.25
287.213	164.25
287.444	158.25
287.675	183.25
287.906	172.25
288.138	183.25
288.369	185.25
288.6	188.25
288.831	165.25
289.062	175.25
289.293	175.25
289.524	170.25
289.755	169.25
289.986	165.25
290.217	176.25
290.448	172.25
290.679	178.25
290.91	172.25
291.141	161.25
291.371	175.25
291.602	164.25
291.833	178.25
292.064	173.25
292.295	168.25
292.526	159.25
292.757	177.25
292.987	166.25
293.218	165.25
293.449	170.25
293.68	161.25
293.91	155.25
294.141	161.25
294.372	180.25
294.603	161.25
294.833	162.25
295.064	155.25
295.295	170.25
295.525	170.25
295.756	199.25
295.987	174.25
296.217	198.25
296.448	203.25
296.679	189.25
296.909	177.25
297.14	177.25
297.37	188.25
297.601	174.25
297.831	178.25
298.062	171.25
298.292	170.25
298.523	173.25
298.753	184.25
298.984	170.25
299.214	168.25
299.445	175.25
299.675	168.25
299.905	199.25
300.136	181.25
300.366	179.25
300.597	184.25
300.827	188.25
301.057	175.25
301.288	180.25
301.518	195.25
301.748	182.25
301.979	177.25
302.209	180.25
302.439	192.25
302.669	184.25
302.9	191.25
303.13	169.25
303.36	196.25
303.59	202.25
303.82	185.25
304.051	201.25
304.281	181.25
304.511	181.25
304.741	194.25
304.971	189.25
305.201	193.25
305.431	187.25
305.661	189.25
305.891	179.25
306.121	188.25
306.352	189.25
306.582	201.25
306.812	184.25
307.042	167.25
307.272	168.25
307.502	194.25
307.731	197.25
307.961	172.25
308.191	188.25
308.421	177.25
308.651	183.25
308.881	180.25
309.111	180.25
309.341	188.25
309.571	191.25
309.8	207.25
310.03	217.25
310.26	221.25
310.49	210.25
310.72	213.25
310.949	224.25
311.179	211.25
311.409	199.25
311.639	209.25
311.868	206.25
312.098	210.25
312.328	200.25
312.557	212.25
312.787	221.25
313.017	215.25
313.246	226.25
313.476	193.25
313.706	217.25
313.935	205.25
314.165	218.25
314.394	225.25
314.624	224.25
314.853	204.25
315.083	210.25
315.312	224.25
315.542	207.25
315.771	197.25
316.001	196.25
316.23	204.25
316.46	201.25
316.689	203.25
316.919	220.25
317.148	222.25
317.377	204.25
317.607	209.25
317.836	214.25
318.065	210.25
318.295	208.25
318.524	206.25
318.753	207.25
318.983	194.25
319.212	210.25
319.441	218.25
319.67	220.25
319.9	201.25
320.129	216.25
320.358	220.25
320.587	217.25
320.816	213.25
321.046	207.25
321.275	231.25
321.504	211.25
321.733	221.25
321.962	217.25
322.191	224.25
322.42	229.25
322.649	221.25
322.878	226.25
323.108	237.25
323.337	260.25
323.566	275.25
323.795	255.25
324.024	294.25
324.253	356.25
324.482	496.25
324.71	744.25
324.939	976.25
325.168	785.25
325.397	431.25
325.626	301.25
325.855	264.25
326.084	252.25
326.313	247.25
326.542	254.25
326.77	292.25
326.999	341.25
327.228	452.25
327.457	643.25
327.686	748.25
327.914	493.25
328.143	348.25
328.372	318.25
328.6	322.25
328.829	294.25
329.058	308.25
329.287	307.25
329.515	285.25
329.744	275.25
329.972	264.25
330.201	288.25
330.43	305.25
330.658	322.25
330.887	319.25
331.115	302.25
331.344	284.25
331.572	252.25
331.801	261.25
332.03	258.25
332.258	239.25
332.486	242.25
332.715	254.25
332.943	254.25
333.172	235.25
333.4	246.25
333.629	247.25
333.857	248.25
334.085	273.25
334.314	289.25
334.542	285.25
334.771	308.25
334.999	277.25
335.227	251.25
335.455	233.25
335.684	244.25
335.912	244.25
336.14	244.25
336.369	229.25
336.597	231.25
336.825	234.25
337.053	227.25
337.281	239.25
337.51	250.25
337.738	245.25
337.966	228.25
338.194	229.25
338.422	234.25
338.65	231.25
338.878	229.25
339.106	235.25
339.334	247.25
339.562	230.25
339.79	212.25
340.018	230.25
340.246	221.25
340.474	218.25
340.702	227.25
340.93	242.25
341.158	231.25
341.386	223.25
341.614	229.25
341.842	230.25
342.07	239.25
342.298	231.25
342.526	210.25
342.754	229.25
342.981	224.25
343.209	231.25
343.437	226.25
343.665	239.25
343.893	225.25
344.12	251.25
344.348	236.25
344.576	225.25
344.804	242.25
345.031	253.25
345.259	238.25
345.487	229.25
345.714	222.25
345.942	208.25
346.17	211.25
346.397	225.25
346.625	217.25
346.853	234.25
347.08	235.25
347.308	218.25
347.535	236.25
347.763	221.25
347.99	226.25
348.218	228.25
348.445	221.25
348.673	227.25
348.9	219.25
349.128	226.25
349.355	203.25
349.583	197.25
349.81	219.25
350.037	218.25
350.265	222.25
350.492	217.25
350.72	211.25
350.947	214.25
351.174	229.25
351.402	215.25
351.629	225.25
351.856	225.25
352.083	225.25
352.311	240.25
352.538	238.25
352.765	239.25
352.992	231.25
353.22	215.25
353.447	216.25
353.674	221.25
353.901	227.25
354.128	212.25
354.355	214.25
354.583	206.25
354.81	218.25
355.037	207.25
355.264	202.25
355.491	198.25
355.718	193.25
355.945	202.25
356.172	212.25
356.399	197.25
356.626	183.25
356.853	188.25
357.08	206.25
357.307	209.25
357.534	202.25
357.761	209.25
357.988	219.25
358.215	209.25
358.441	210.25
358.668	211.25
358.895	198.25
359.122	202.25
359.349	198.25
359.576	205.25
359.802	223.25
360.029	264.25
360.256	250.25
360.483	249.25
360.709	216.25
360.936	210.25
361.163	208.25
361.39	206.25
361.616	231.25
361.843	237.25
362.07	216.25
362.296	230.25
362.523	224.25
362.749	217.25
362.976	218.25
363.203	213.25
363.429	210.25
363.656	206.25
363.882	214.25
364.109	209.25
364.335	206.25
364.562	204.25
364.788	224.25
365.015	194.25
365.241	200.25
365.468	207.25
365.694	225.25
365.92	219.25
366.147	208.25
366.373	209.25
366.599	207.25
366.826	214.25
367.052	209.25
367.278	208.25
367.505	206.25
367.731	214.25
367.957	205.25
368.184	192.25
368.41	207.25
368.636	215.25
368.862	233.25
369.089	230.25
369.315	204.25
369.541	216.25
369.767	212.25
369.993	194.25
370.219	222.25
370.445	205.25
370.672	215.25
370.898	202.25
371.124	201.25
371.35	214.25
371.576	219.25
371.802	205.25
372.028	196.25
372.254	206.25
372.48	198.25
372.706	201.25
372.932	203.25
373.158	211.25
373.384	204.25
373.61	199.25
373.835	204.25
374.061	204.25
374.287	201.25
374.513	187.25
374.739	217.25
374.965	207.25
375.191	215.25
375.416	214.25
375.642	193.25
375.868	210.25
376.094	217.25
376.319	203.25
376.545	208.25
376.771	213.25
376.997	203.25
377.222	215.25
377.448	209.25
377.674	222.25
377.899	202.25
378.125	217.25
378.35	211.25
378.576	205.25
378.802	195.25
379.027	215.25
379.253	205.25
379.478	220.25
379.704	205.25
379.929	194.25
380.155	204.25
380.38	201.25
380.606	210.25
380.831	204.25
381.057	216.25
381.282	210.25
381.507	216.25
381.733	217.25
381.958	201.25
382.184	232.25
382.409	230.25
382.634	217.25
382.86	194.25
383.085	209.25
383.31	221.25
383.535	211.25
383.761	212.25
383.986	209.25
384.211	209.25
384.436	218.25
384.662	225.25
384.887	220.25
385.112	228.25
385.337	203.25
385.562	226.25
385.787	227.25
386.013	240.25
386.238	230.25
386.463	222.25
386.688	219.25
386.913	231.25
387.138	231.25
387.363	211.25
387.588	230.25
387.813	218.25
388.038	226.25
388.263	215.25
388.488	220.25
388.713	222.25
388.938	228.25
389.163	227.25
389.387	212.25
389.612	215.25
389.837	207.25
390.062	206.25
390.287	212.25
390.512	220.25
390.736	230.25
390.961	222.25
391.186	227.25
391.411	215.25
391.636	218.25
391.86	229.25
392.085	220.25
392.31	223.25
392.534	218.25
392.759	221.25
392.984	218.25
393.208	223.25
393.433	214.25
393.658	249.25
393.882	215.25
394.107	222.25
394.331	212.25
394.556	204.25
394.78	221.25
395.005	220.25
395.229	223.25
395.454	245.25
395.678	235.25
395.903	233.25
396.127	231.25
396.352	236.25
396.576	231.25
396.801	240.25
397.025	236.25
397.249	225.25
397.474	224.25
397.698	220.25
397.922	250.25
398.147	234.25
398.371	219.25
398.595	227.25
398.82	227.25
399.044	241.25
399.268	261.25
399.492	262.25
399.717	274.25
399.941	283.25
400.165	301.25
400.389	298.25
400.613	277.25
400.837	272.25
401.062	254.25
401.286	242.25
401.51	251.25
401.734	246.25
401.958	258.25
402.182	264.25
402.406	273.25
402.63	266.25
402.854	259.25
403.078	251.25
403.302	249.25
403.526	264.25
403.75	255.25
403.974	263.25
404.198	239.25
404.422	286.25
404.645	244.25
404.869	266.25
405.093	275.25
405.317	298.25
405.541	330.25
405.765	298.25
405.988	274.25
406.212	262.25
406.436	292.25
406.66	292.25
406.883	277.25
407.107	299.25
407.331	317.25
407.555	317.25
407.778	329.25
408.002	290.25
408.226	272.25
408.449	285.25
408.673	275.25
408.896	273.25
409.12	295.25
409.344	285.25
409.567	254.25
409.791	265.25
410.014	265.25
410.238	275.25
410.461	254.25
410.685	268.25
410.908	269.25
411.132	271.25
411.355	296.25
411.578	271.25
411.802	274.25
412.025	261.25
412.249	268.25
412.472	282.25
412.695	283.25
412.919	274.25
413.142	256.25
413.365	270.25
413.589	248.25
413.812	242.25
414.035	248.25
414.258	244.25
414.482	262.25
414.705	245.25
414.928	246.25
415.151	247.25
415.374	266.25
415.597	236.25
415.821	231.25
416.044	255.25
416.267	257.25
416.49	236.25
416.713	233.25
416.936	258.25
417.159	239.25
417.382	259.25
417.605	258.25
417.828	256.25
418.051	254.25
418.274	246.25
418.497	253.25
418.72	264.25
418.943	263.25
419.166	268.25
419.389	256.25
419.611	275.25
419.834	258.25
420.057	262.25
420.28	285.25
420.503	268.25
420.726	261.25
420.948	264.25
421.171	288.25
421.394	281.25
421.617	256.25
421.839	248.25
422.062	272.25
422.285	275.25
422.507	284.25
422.73	309.25
422.953	300.25
423.175	278.25
423.398	273.25
423.621	260.25
423.843	284.25
424.066	279.25
424.288	275.25
424.511	290.25
424.733	299.25
424.956	319.25
425.178	308.25
425.401	322.25
425.623	325.25
425.846	274.25
426.068	278.25
426.291	272.25
426.513	258.25
426.735	268.25
426.958	310.25
427.18	335.25
427.402	372.25
427.625	405.25
427.847	370.25
428.069	308.25
428.292	293.25
428.514	274.25
428.736	251.25
428.958	268.25
429.181	254.25
429.403	250.25
429.625	251.25
429.847	279.25
430.069	303.25
430.292	292.25
430.514	261.25
430.736	277.25
430.958	246.25
431.18	257.25
431.402	238.25
431.624	228.25
431.846	230.25
432.068	239.25
432.29	243.25
432.512	250.25
432.734	240.25
432.956	253.25
433.178	272.25
433.4	241.25
433.622	248.25
433.844	260.25
434.066	234.25
434.287	248.25
434.509	264.25
434.731	250.25
434.953	229.25
435.175	272.25
435.397	278.25
435.618	260.25
435.84	281.25
436.062	305.25
436.284	325.25
436.505	285.25
436.727	264.25
436.949	261.25
437.17	238.25
437.392	246.25
437.614	258.25
437.835	263.25
438.057	301.25
438.278	358.25
438.5	344.25
438.721	385.25
438.943	351.25
439.165	295.25
439.386	292.25
439.608	285.25
439.829	276.25
440.05	287.25
440.272	304.25
440.493	275.25
440.715	275.25
440.936	261.25
441.158	252.25
441.379	243.25
441.6	271.25
441.822	265.25
442.043	302.25
442.264	330.25
442.486	328.25
442.707	295.25
442.928	282.25
443.149	285.25
443.371	289.25
443.592	315.25
443.813	368.25
444.034	373.25
444.255	305.25
444.476	262.25
444.698	266.25
444.919	277.25
445.14	366.25
445.361	330.25
445.582	301.25
445.803	338.25
446.024	355.25
446.245	365.25
446.466	342.25
446.687	295.25
446.908	287.25
447.129	273.25
447.35	252.25
447.571	257.25
447.792	264.25
448.013	260.25
448.234	238.25
448.455	288.25
448.675	333.25
448.896	360.25
449.117	312.25
449.338	296.25
449.559	338.25
449.779	384.25
450	310.25
450.221	273.25
450.442	273.25
450.662	257.25
450.883	263.25
451.104	283.25
451.324	268.25
451.545	238.25
451.766	248.25
451.986	235.25
452.207	241.25
452.428	220.25
452.648	226.25
452.869	231.25
453.089	244.25
453.31	227.25
453.53	236.25
453.751	240.25
453.971	222.25
454.192	252.25
454.412	257.25
454.633	228.25
454.853	219.25
455.073	230.25
455.294	238.25
455.514	270.25
455.734	254.25
455.955	219.25
456.175	222.25
456.395	232.25
456.616	221.25
456.836	210.25
457.056	213.25
457.276	205.25
457.497	212.25
457.717	214.25
457.937	229.25
458.157	238.25
458.377	226.25
458.598	221.25
458.818	277.25
459.038	343.25
459.258	311.25
459.478	257.25
459.698	248.25
459.918	253.25
460.138	252.25
460.358	237.25
460.578	236.25
460.798	249.25
461.018	239.25
461.238	252.25
461.458	243.25
461.678	254.25
461.898	232.25
462.118	246.25
462.338	262.25
462.558	253.25
462.777	247.25
462.997	269.25
463.217	277.25
463.437	281.25
463.657	247.25
463.876	251.25
464.096	249.25
464.316	270.25
464.536	259.25
464.755	268.25
464.975	267.25
465.195	305.25
465.414	348.25
465.634	294.25
465.854	261.25
466.073	257.25
466.293	229.25
466.512	234.25
466.732	228.25
466.951	239.25
467.171	231.25
467.391	249.25
467.61	253.25
467.829	250.25
468.049	249.25
468.268	261.25
468.488	234.25
468.707	233.25
468.927	241.25
469.146	226.25
469.365	231.25
469.585	237.25
469.804	234.25
470.023	260.25
470.243	241.25
470.462	232.25
470.681	260.25
470.901	246.25
471.12	249.25
471.339	244.25
471.558	225.25
471.777	216.25
471.997	232.25
472.216	246.25
472.435	275.25
472.654	252.25
472.873	248.25
473.092	229.25
473.311	243.25
473.53	226.25
473.749	235.25
473.968	266.25
474.187	336.25
474.406	319.25
474.625	237.25
474.844	235.25
475.063	243.25
475.282	222.25
475.501	245.25
475.72	247.25
475.939	237.25
476.158	246.25
476.377	232.25
476.596	257.25
476.814	244.25
477.033	258.25
477.252	250.25
477.471	225.25
477.69	235.25
477.908	250.25
478.127	260.25
478.346	258.25
478.564	261.25
478.783	265.25
479.002	276.25
479.22	270.25
479.439	278.25
479.658	292.25
479.876	266.25
480.095	295.25
480.313	297.25
480.532	287.25
480.751	301.25
480.969	292.25
481.188	344.25
481.406	370.25
481.624	304.25
481.843	285.25
482.061	287.25
482.28	278.25
482.498	284.25
482.717	267.25
482.935	271.25
483.153	269.25
483.372	269.25
483.59	275.25
483.808	265.25
484.027	291.25
484.245	294.25
484.463	263.25
484.681	285.25
484.9	284.25
485.118	285.25
485.336	273.25
485.554	278.25
485.772	276.25
485.99	279.25
486.209	280.25
486.427	290.25
486.645	276.25
486.863	300.25
487.081	290.25
487.299	286.25
487.517	301.25
487.735	293.25
487.953	297.25
488.171	306.25
488.389	268.25
488.607	285.25
488.825	321.25
489.043	280.25
489.261	302.25
489.479	308.25
489.696	278.25
489.914	298.25
490.132	311.25
490.35	308.25
490.568	303.25
490.786	312.25
491.003	309.25
491.221	320.25
491.439	345.25
491.657	354.25
491.874	340.25
492.092	350.25
492.31	344.25
492.527	348.25
492.745	340.25
492.963	332.25
493.18	341.25
493.398	351.25
493.615	357.25
493.833	338.25
494.05	346.25
494.268	342.25
494.485	330.25
494.703	344.25
494.92	355.25
495.138	348.25
495.355	352.25
495.573	348.25
495.79	341.25
496.008	357.25
496.225	353.25
496.442	341.25
496.66	346.25
496.877	336.25
497.094	329.25
497.312	337.25
497.529	343.25
497.746	364.25
497.963	343.25
498.181	368.25
498.398	369.25
498.615	353.25
498.832	365.25
499.049	391.25
499.267	383.25
499.484	377.25
499.701	410.25
499.918	413.25
500.135	426.25
500.352	468.25
500.569	466.25
500.786	467.25
501.003	444.25
501.22	443.25
501.437	440.25
501.654	410.25
501.871	420.25
502.088	394.25
502.305	384.25
502.522	345.25
