Data from 1966.PennyLincolnUp.Lamp.En5.5.200Scan.071719.P1.Scan2.head_HRD10591_14-16-57-070.txt Node
Date: Thu Jul 18 14:16:57 EDT 2019
User: cochatt
Spectrometer: HR+D1059
Trigger mode: 1
Integration Time (sec): 1.000000E-1
Scans to average: 1
Electric dark correction enabled: true
Nonlinearity correction enabled: false
Boxcar width: 0
XAxis mode: Wavelengths
Number of Pixels in Spectrum: 2048
>>>>>Begin Spectral Data<<<<<
223.165	-23.44
223.4	-23.44
223.635	-23.44
223.869	-22.44
224.104	-25.44
224.338	-5.44
224.573	-11.44
224.808	-11.44
225.042	-11.44
225.277	-3.44
225.511	-2.44
225.746	17.56
225.98	12.56
226.215	7.56
226.449	10.56
226.683	15.56
226.918	29.56
227.152	23.56
227.387	30.56
227.621	34.56
227.856	44.56
228.09	55.56
228.324	41.56
228.559	51.56
228.793	58.56
229.027	96.56
229.262	105.56
229.496	89.56
229.73	114.56
229.964	125.56
230.199	128.56
230.433	100.56
230.667	116.56
230.901	106.56
231.136	91.56
231.37	115.56
231.604	122.56
231.838	108.56
232.072	102.56
232.306	94.56
232.541	100.56
232.775	109.56
233.009	109.56
233.243	106.56
233.477	119.56
233.711	108.56
233.945	117.56
234.179	108.56
234.413	122.56
234.647	120.56
234.881	124.56
235.115	121.56
235.349	113.56
235.583	108.56
235.817	103.56
236.051	106.56
236.285	122.56
236.519	124.56
236.753	125.56
236.987	137.56
237.221	172.56
237.455	208.56
237.689	154.56
237.922	131.56
238.156	138.56
238.39	117.56
238.624	101.56
238.858	122.56
239.091	107.56
239.325	115.56
239.559	103.56
239.793	110.56
240.027	119.56
240.26	126.56
240.494	141.56
240.728	147.56
240.961	141.56
241.195	130.56
241.429	134.56
241.662	131.56
241.896	122.56
242.13	122.56
242.363	106.56
242.597	146.56
242.83	122.56
243.064	132.56
243.298	116.56
243.531	135.56
243.765	129.56
243.998	136.56
244.232	132.56
244.465	130.56
244.699	142.56
244.932	136.56
245.166	148.56
245.399	138.56
245.633	128.56
245.866	131.56
246.099	164.56
246.333	150.56
246.566	156.56
246.8	131.56
247.033	144.56
247.266	157.56
247.5	152.56
247.733	155.56
247.966	174.56
248.2	150.56
248.433	160.56
248.666	162.56
248.899	169.56
249.133	174.56
249.366	176.56
249.599	166.56
249.832	178.56
250.066	179.56
250.299	173.56
250.532	163.56
250.765	181.56
250.998	190.56
251.231	193.56
251.465	191.56
251.698	192.56
251.931	167.56
252.164	180.56
252.397	173.56
252.63	197.56
252.863	198.56
253.096	186.56
253.329	184.56
253.562	211.56
253.795	188.56
254.028	206.56
254.261	191.56
254.494	214.56
254.727	207.56
254.96	239.56
255.193	239.56
255.426	211.56
255.659	212.56
255.892	217.56
256.124	212.56
256.357	207.56
256.59	203.56
256.823	190.56
257.056	195.56
257.289	171.56
257.521	198.56
257.754	218.56
257.987	196.56
258.22	193.56
258.452	184.56
258.685	187.56
258.918	186.56
259.151	201.56
259.383	206.56
259.616	225.56
259.849	205.56
260.081	219.56
260.314	243.56
260.547	236.56
260.779	210.56
261.012	217.56
261.244	206.56
261.477	220.56
261.71	190.56
261.942	223.56
262.175	212.56
262.407	205.56
262.64	197.56
262.872	190.56
263.105	189.56
263.337	201.56
263.57	197.56
263.802	198.56
264.035	187.56
264.267	206.56
264.499	201.56
264.732	188.56
264.964	197.56
265.197	199.56
265.429	191.56
265.661	192.56
265.894	198.56
266.126	186.56
266.358	207.56
266.591	197.56
266.823	206.56
267.055	198.56
267.287	199.56
267.52	214.56
267.752	222.56
267.984	206.56
268.216	209.56
268.448	217.56
268.681	218.56
268.913	217.56
269.145	222.56
269.377	244.56
269.609	227.56
269.841	240.56
270.073	232.56
270.306	263.56
270.538	279.56
270.77	265.56
271.002	260.56
271.234	267.56
271.466	275.56
271.698	278.56
271.93	261.56
272.162	276.56
272.394	266.56
272.626	254.56
272.858	271.56
273.09	266.56
273.322	252.56
273.553	242.56
273.785	240.56
274.017	226.56
274.249	237.56
274.481	250.56
274.713	236.56
274.945	243.56
275.176	233.56
275.408	242.56
275.64	255.56
275.872	232.56
276.104	236.56
276.335	233.56
276.567	241.56
276.799	248.56
277.031	281.56
277.262	301.56
277.494	281.56
277.726	276.56
277.957	268.56
278.189	246.56
278.421	254.56
278.652	253.56
278.884	242.56
279.115	234.56
279.347	252.56
279.579	241.56
279.81	257.56
280.042	255.56
280.273	248.56
280.505	250.56
280.736	231.56
280.968	244.56
281.199	232.56
281.431	258.56
281.662	254.56
281.894	243.56
282.125	245.56
282.356	263.56
282.588	264.56
282.819	275.56
283.051	246.56
283.282	251.56
283.513	253.56
283.745	243.56
283.976	268.56
284.207	285.56
284.439	276.56
284.67	256.56
284.901	258.56
285.132	255.56
285.364	259.56
285.595	269.56
285.826	268.56
286.057	270.56
286.288	264.56
286.52	260.56
286.751	255.56
286.982	280.56
287.213	250.56
287.444	269.56
287.675	258.56
287.906	271.56
288.138	297.56
288.369	292.56
288.6	280.56
288.831	285.56
289.062	265.56
289.293	280.56
289.524	276.56
289.755	261.56
289.986	267.56
290.217	266.56
290.448	268.56
290.679	256.56
290.91	282.56
291.141	270.56
291.371	274.56
291.602	265.56
291.833	262.56
292.064	271.56
292.295	270.56
292.526	268.56
292.757	267.56
292.987	278.56
293.218	269.56
293.449	276.56
293.68	262.56
293.91	286.56
294.141	263.56
294.372	285.56
294.603	266.56
294.833	262.56
295.064	271.56
295.295	274.56
295.525	287.56
295.756	280.56
295.987	264.56
296.217	309.56
296.448	288.56
296.679	274.56
296.909	284.56
297.14	267.56
297.37	282.56
297.601	264.56
297.831	281.56
298.062	278.56
298.292	280.56
298.523	282.56
298.753	300.56
298.984	274.56
299.214	288.56
299.445	281.56
299.675	297.56
299.905	305.56
300.136	281.56
300.366	299.56
300.597	289.56
300.827	312.56
301.057	308.56
301.288	299.56
301.518	313.56
301.748	300.56
301.979	314.56
302.209	310.56
302.439	295.56
302.669	314.56
302.9	304.56
303.13	290.56
303.36	313.56
303.59	320.56
303.82	332.56
304.051	316.56
304.281	299.56
304.511	302.56
304.741	287.56
304.971	312.56
305.201	294.56
305.431	300.56
305.661	295.56
305.891	281.56
306.121	299.56
306.352	289.56
306.582	309.56
306.812	316.56
307.042	311.56
307.272	312.56
307.502	289.56
307.731	319.56
307.961	312.56
308.191	308.56
308.421	310.56
308.651	319.56
308.881	312.56
309.111	320.56
309.341	330.56
309.571	317.56
309.8	338.56
310.03	349.56
310.26	330.56
310.49	332.56
310.72	355.56
310.949	374.56
311.179	373.56
311.409	330.56
311.639	344.56
311.868	340.56
312.098	337.56
312.328	347.56
312.557	349.56
312.787	367.56
313.017	360.56
313.246	366.56
313.476	347.56
313.706	331.56
313.935	353.56
314.165	353.56
314.394	363.56
314.624	354.56
314.853	365.56
315.083	363.56
315.312	347.56
315.542	322.56
315.771	338.56
316.001	344.56
316.23	344.56
316.46	351.56
316.689	352.56
316.919	346.56
317.148	376.56
317.377	368.56
317.607	353.56
317.836	363.56
318.065	353.56
318.295	368.56
318.524	353.56
318.753	343.56
318.983	354.56
319.212	357.56
319.441	353.56
319.67	336.56
319.9	343.56
320.129	375.56
320.358	352.56
320.587	359.56
320.816	330.56
321.046	358.56
321.275	370.56
321.504	357.56
321.733	362.56
321.962	355.56
322.191	368.56
322.42	386.56
322.649	410.56
322.878	405.56
323.108	386.56
323.337	425.56
323.566	442.56
323.795	444.56
324.024	480.56
324.253	557.56
324.482	793.56
324.71	1230.56
324.939	1788.56
325.168	1602.56
325.397	818.56
325.626	541.56
325.855	467.56
326.084	461.56
326.313	430.56
326.542	425.56
326.77	473.56
326.999	535.56
327.228	730.56
327.457	1106.56
327.686	1384.56
327.914	897.56
328.143	610.56
328.372	525.56
328.6	489.56
328.829	468.56
329.058	481.56
329.287	501.56
329.515	454.56
329.744	455.56
329.972	444.56
330.201	465.56
330.43	487.56
330.658	496.56
330.887	537.56
331.115	513.56
331.344	434.56
331.572	449.56
331.801	454.56
332.03	455.56
332.258	429.56
332.486	406.56
332.715	414.56
332.943	443.56
333.172	433.56
333.4	432.56
333.629	442.56
333.857	442.56
334.085	460.56
334.314	467.56
334.542	477.56
334.771	494.56
334.999	459.56
335.227	455.56
335.455	423.56
335.684	422.56
335.912	390.56
336.14	395.56
336.369	416.56
336.597	423.56
336.825	442.56
337.053	407.56
337.281	411.56
337.51	414.56
337.738	414.56
337.966	413.56
338.194	428.56
338.422	402.56
338.65	416.56
338.878	412.56
339.106	398.56
339.334	412.56
339.562	409.56
339.79	392.56
340.018	409.56
340.246	404.56
340.474	424.56
340.702	446.56
340.93	387.56
341.158	397.56
341.386	372.56
341.614	400.56
341.842	400.56
342.07	402.56
342.298	413.56
342.526	396.56
342.754	411.56
342.981	401.56
343.209	377.56
343.437	420.56
343.665	398.56
343.893	417.56
344.12	418.56
344.348	426.56
344.576	418.56
344.804	419.56
345.031	403.56
345.259	426.56
345.487	427.56
345.714	426.56
345.942	412.56
346.17	391.56
346.397	375.56
346.625	385.56
346.853	406.56
347.08	379.56
347.308	404.56
347.535	390.56
347.763	393.56
347.99	389.56
348.218	396.56
348.445	391.56
348.673	397.56
348.9	397.56
349.128	385.56
349.355	378.56
349.583	411.56
349.81	396.56
350.037	382.56
350.265	373.56
350.492	386.56
350.72	385.56
350.947	398.56
351.174	416.56
351.402	422.56
351.629	406.56
351.856	412.56
352.083	401.56
352.311	403.56
352.538	386.56
352.765	402.56
352.992	386.56
353.22	410.56
353.447	398.56
353.674	394.56
353.901	390.56
354.128	377.56
354.355	371.56
354.583	384.56
354.81	389.56
355.037	362.56
355.264	372.56
355.491	384.56
355.718	382.56
355.945	380.56
356.172	371.56
356.399	356.56
356.626	368.56
356.853	398.56
357.08	384.56
357.307	370.56
357.534	369.56
357.761	368.56
357.988	371.56
358.215	374.56
358.441	361.56
358.668	370.56
358.895	361.56
359.122	397.56
359.349	384.56
359.576	392.56
359.802	401.56
360.029	445.56
360.256	448.56
360.483	428.56
360.709	404.56
360.936	421.56
361.163	408.56
361.39	416.56
361.616	399.56
361.843	393.56
362.07	383.56
362.296	389.56
362.523	389.56
362.749	393.56
362.976	403.56
363.203	415.56
363.429	383.56
363.656	405.56
363.882	381.56
364.109	388.56
364.335	404.56
364.562	386.56
364.788	383.56
365.015	398.56
365.241	390.56
365.468	399.56
365.694	401.56
365.92	405.56
366.147	391.56
366.373	386.56
366.599	395.56
366.826	382.56
367.052	400.56
367.278	396.56
367.505	388.56
367.731	393.56
367.957	376.56
368.184	387.56
368.41	394.56
368.636	406.56
368.862	416.56
369.089	396.56
369.315	402.56
369.541	384.56
369.767	392.56
369.993	386.56
370.219	382.56
370.445	405.56
370.672	381.56
370.898	394.56
371.124	404.56
371.35	384.56
371.576	395.56
371.802	380.56
372.028	388.56
372.254	422.56
372.48	401.56
372.706	396.56
372.932	393.56
373.158	400.56
373.384	400.56
373.61	406.56
373.835	394.56
374.061	387.56
374.287	409.56
374.513	396.56
374.739	412.56
374.965	409.56
375.191	413.56
375.416	422.56
375.642	400.56
375.868	384.56
376.094	409.56
376.319	406.56
376.545	390.56
376.771	399.56
376.997	393.56
377.222	422.56
377.448	390.56
377.674	393.56
377.899	410.56
378.125	403.56
378.35	381.56
378.576	391.56
378.802	394.56
379.027	406.56
379.253	396.56
379.478	401.56
379.704	411.56
379.929	409.56
380.155	402.56
380.38	405.56
380.606	417.56
380.831	403.56
381.057	409.56
381.282	395.56
381.507	412.56
381.733	420.56
381.958	412.56
382.184	385.56
382.409	406.56
382.634	415.56
382.86	414.56
383.085	406.56
383.31	429.56
383.535	419.56
383.761	437.56
383.986	429.56
384.211	435.56
384.436	431.56
384.662	427.56
384.887	434.56
385.112	436.56
385.337	452.56
385.562	460.56
385.787	450.56
386.013	461.56
386.238	456.56
386.463	473.56
386.688	452.56
386.913	445.56
387.138	434.56
387.363	437.56
387.588	443.56
387.813	467.56
388.038	465.56
388.263	452.56
388.488	446.56
388.713	436.56
388.938	448.56
389.163	442.56
389.387	450.56
389.612	452.56
389.837	454.56
390.062	449.56
390.287	457.56
390.512	448.56
390.736	470.56
390.961	435.56
391.186	426.56
391.411	461.56
391.636	455.56
391.86	466.56
392.085	456.56
392.31	458.56
392.534	446.56
392.759	462.56
392.984	445.56
393.208	449.56
393.433	477.56
393.658	469.56
393.882	449.56
394.107	444.56
394.331	448.56
394.556	484.56
394.78	459.56
395.005	448.56
395.229	436.56
395.454	459.56
395.678	486.56
395.903	460.56
396.127	485.56
396.352	482.56
396.576	470.56
396.801	475.56
397.025	482.56
397.249	484.56
397.474	492.56
397.698	489.56
397.922	501.56
398.147	502.56
398.371	515.56
398.595	499.56
398.82	516.56
399.044	530.56
399.268	548.56
399.492	558.56
399.717	603.56
399.941	629.56
400.165	648.56
400.389	638.56
400.613	591.56
400.837	551.56
401.062	524.56
401.286	523.56
401.51	531.56
401.734	492.56
401.958	503.56
402.182	528.56
402.406	494.56
402.63	540.56
402.854	522.56
403.078	523.56
403.302	525.56
403.526	557.56
403.75	532.56
403.974	544.56
404.198	525.56
404.422	542.56
404.645	536.56
404.869	546.56
405.093	595.56
405.317	625.56
405.541	670.56
405.765	601.56
405.988	581.56
406.212	579.56
406.436	587.56
406.66	585.56
406.883	571.56
407.107	591.56
407.331	633.56
407.555	705.56
407.778	683.56
408.002	646.56
408.226	610.56
408.449	580.56
408.673	610.56
408.896	608.56
409.12	661.56
409.344	595.56
409.567	578.56
409.791	548.56
410.014	562.56
410.238	533.56
410.461	552.56
410.685	547.56
410.908	549.56
411.132	593.56
411.355	632.56
411.578	576.56
411.802	548.56
412.025	523.56
412.249	542.56
412.472	584.56
412.695	618.56
412.919	595.56
413.142	532.56
413.365	534.56
413.589	535.56
413.812	538.56
414.035	522.56
414.258	504.56
414.482	486.56
414.705	500.56
414.928	504.56
415.151	544.56
415.374	520.56
415.597	505.56
415.821	515.56
416.044	527.56
416.267	519.56
416.49	510.56
416.713	493.56
416.936	503.56
417.159	522.56
417.382	497.56
417.605	525.56
417.828	534.56
418.051	528.56
418.274	498.56
418.497	497.56
418.72	501.56
418.943	499.56
419.166	517.56
419.389	553.56
419.611	523.56
419.834	539.56
420.057	537.56
420.28	560.56
420.503	525.56
420.726	539.56
420.948	542.56
421.171	564.56
421.394	589.56
421.617	554.56
421.839	535.56
422.062	523.56
422.285	532.56
422.507	611.56
422.73	664.56
422.953	663.56
423.175	585.56
423.398	560.56
423.621	572.56
423.843	579.56
424.066	594.56
424.288	595.56
424.511	584.56
424.733	628.56
424.956	709.56
425.178	705.56
425.401	690.56
425.623	705.56
425.846	600.56
426.068	554.56
426.291	550.56
426.513	556.56
426.735	567.56
426.958	600.56
427.18	676.56
427.402	816.56
427.625	865.56
427.847	768.56
428.069	675.56
428.292	612.56
428.514	578.56
428.736	560.56
428.958	548.56
429.181	525.56
429.403	524.56
429.625	541.56
429.847	558.56
430.069	633.56
430.292	634.56
430.514	549.56
430.736	535.56
430.958	522.56
431.18	501.56
431.402	501.56
431.624	489.56
431.846	500.56
432.068	500.56
432.29	506.56
432.512	515.56
432.734	516.56
432.956	498.56
433.178	502.56
433.4	492.56
433.622	508.56
433.844	504.56
434.066	497.56
434.287	469.56
434.509	520.56
434.731	511.56
434.953	518.56
435.175	542.56
435.397	566.56
435.618	554.56
435.84	603.56
436.062	666.56
436.284	750.56
436.505	631.56
436.727	583.56
436.949	538.56
437.17	548.56
437.392	512.56
437.614	526.56
437.835	572.56
438.057	646.56
438.278	735.56
438.5	734.56
438.721	845.56
438.943	797.56
439.165	639.56
439.386	566.56
439.608	580.56
439.829	573.56
440.05	553.56
440.272	642.56
440.493	576.56
440.715	523.56
440.936	539.56
441.158	535.56
441.379	525.56
441.6	541.56
441.822	554.56
442.043	594.56
442.264	667.56
442.486	728.56
442.707	642.56
442.928	581.56
443.149	580.56
443.371	573.56
443.592	622.56
443.813	764.56
444.034	803.56
444.255	659.56
444.476	583.56
444.698	573.56
444.919	581.56
445.14	683.56
445.361	614.56
445.582	605.56
445.803	658.56
446.024	763.56
446.245	768.56
446.466	704.56
446.687	585.56
446.908	565.56
447.129	542.56
447.35	516.56
447.571	519.56
447.792	516.56
448.013	513.56
448.234	553.56
448.455	574.56
448.675	677.56
448.896	784.56
449.117	662.56
449.338	641.56
449.559	763.56
449.779	846.56
450	673.56
450.221	558.56
450.442	544.56
450.662	503.56
450.883	531.56
451.104	512.56
451.324	521.56
451.545	504.56
451.766	490.56
451.986	472.56
452.207	471.56
452.428	464.56
452.648	460.56
452.869	458.56
453.089	481.56
453.31	458.56
453.53	470.56
453.751	455.56
453.971	462.56
454.192	479.56
454.412	462.56
454.633	452.56
454.853	466.56
455.073	481.56
455.294	484.56
455.514	570.56
455.734	537.56
455.955	496.56
456.175	468.56
456.395	462.56
456.616	448.56
456.836	450.56
457.056	437.56
457.276	445.56
457.497	462.56
457.717	447.56
457.937	450.56
458.157	475.56
458.377	478.56
458.598	487.56
458.818	537.56
459.038	621.56
459.258	625.56
459.478	542.56
459.698	530.56
459.918	507.56
460.138	486.56
460.358	521.56
460.578	544.56
460.798	525.56
461.018	519.56
461.238	529.56
461.458	527.56
461.678	537.56
461.898	524.56
462.118	520.56
462.338	514.56
462.558	547.56
462.777	528.56
462.997	573.56
463.217	560.56
463.437	569.56
463.657	552.56
463.876	547.56
464.096	563.56
464.316	554.56
464.536	563.56
464.755	561.56
464.975	554.56
465.195	590.56
465.414	636.56
465.634	575.56
465.854	528.56
466.073	538.56
466.293	504.56
466.512	482.56
466.732	502.56
466.951	504.56
467.171	478.56
467.391	482.56
467.61	495.56
467.829	487.56
468.049	494.56
468.268	500.56
468.488	491.56
468.707	471.56
468.927	472.56
469.146	473.56
469.365	447.56
469.585	473.56
469.804	497.56
470.023	477.56
470.243	489.56
470.462	503.56
470.681	502.56
470.901	506.56
471.12	504.56
471.339	491.56
471.558	500.56
471.777	486.56
471.997	497.56
472.216	477.56
472.435	526.56
472.654	509.56
472.873	498.56
473.092	505.56
473.311	489.56
473.53	478.56
473.749	488.56
473.968	536.56
474.187	604.56
474.406	651.56
474.625	540.56
474.844	528.56
475.063	514.56
475.282	482.56
475.501	504.56
475.72	498.56
475.939	502.56
476.158	493.56
476.377	538.56
476.596	502.56
476.814	510.56
477.033	524.56
477.252	522.56
477.471	534.56
477.69	534.56
477.908	531.56
478.127	540.56
478.346	552.56
478.564	540.56
478.783	563.56
479.002	559.56
479.22	570.56
479.439	579.56
479.658	589.56
479.876	587.56
480.095	587.56
480.313	659.56
480.532	616.56
480.751	602.56
480.969	601.56
481.188	641.56
481.406	684.56
481.624	603.56
481.843	591.56
482.061	616.56
482.28	581.56
482.498	580.56
482.717	561.56
482.935	582.56
483.153	569.56
483.372	572.56
483.59	574.56
483.808	571.56
484.027	587.56
484.245	582.56
484.463	576.56
484.681	597.56
484.9	580.56
485.118	606.56
485.336	603.56
485.554	601.56
485.772	585.56
485.99	604.56
486.209	589.56
486.427	587.56
486.645	597.56
486.863	633.56
487.081	635.56
487.299	631.56
487.517	627.56
487.735	616.56
487.953	619.56
488.171	630.56
488.389	604.56
488.607	609.56
488.825	636.56
489.043	613.56
489.261	611.56
489.479	636.56
489.696	634.56
489.914	646.56
490.132	627.56
490.35	640.56
490.568	637.56
490.786	655.56
491.003	653.56
491.221	678.56
491.439	672.56
491.657	688.56
491.874	708.56
492.092	716.56
492.31	708.56
492.527	683.56
492.745	709.56
492.963	702.56
493.18	710.56
493.398	734.56
493.615	730.56
493.833	745.56
494.05	708.56
494.268	724.56
494.485	726.56
494.703	728.56
494.92	718.56
495.138	730.56
495.355	716.56
495.573	749.56
495.79	727.56
496.008	740.56
496.225	731.56
496.442	738.56
496.66	725.56
496.877	694.56
497.094	753.56
497.312	760.56
497.529	757.56
497.746	771.56
497.963	754.56
498.181	804.56
498.398	792.56
498.615	805.56
498.832	857.56
499.049	841.56
499.267	881.56
499.484	905.56
499.701	920.56
499.918	962.56
500.135	1007.56
500.352	1061.56
500.569	1095.56
500.786	1092.56
501.003	1081.56
501.22	1030.56
501.437	1018.56
501.654	989.56
