Data from 1966.PennyLincolnUp.Lamp.En5.5.200Scan.071719.P1._HRD10591_14-13-16-913.txt Node
Date: Thu Jul 18 14:13:16 EDT 2019
User: cochatt
Spectrometer: HR+D1059
Trigger mode: 1
Integration Time (sec): 1.000000E-1
Scans to average: 1
Electric dark correction enabled: true
Nonlinearity correction enabled: false
Boxcar width: 0
XAxis mode: Wavelengths
Number of Pixels in Spectrum: 2048
>>>>>Begin Spectral Data<<<<<
223.165	-14.94
223.4	-14.94
223.635	-14.94
223.869	-19.94
224.104	-8.94
224.338	-2.94
224.573	-11.94
224.808	-17.94
225.042	-25.94
225.277	-3.94
225.511	-10.94
225.746	2.06
225.98	14.06
226.215	4.06
226.449	18.06
226.683	21.06
226.918	27.06
227.152	31.06
227.387	63.06
227.621	37.06
227.856	33.06
228.09	32.06
228.324	56.06
228.559	69.06
228.793	66.06
229.027	81.06
229.262	88.06
229.496	97.06
229.73	94.06
229.964	89.06
230.199	103.06
230.433	92.06
230.667	78.06
230.901	88.06
231.136	91.06
231.37	88.06
231.604	80.06
231.838	88.06
232.072	84.06
232.306	91.06
232.541	102.06
232.775	96.06
233.009	92.06
233.243	97.06
233.477	113.06
233.711	98.06
233.945	99.06
234.179	93.06
234.413	96.06
234.647	94.06
234.881	94.06
235.115	99.06
235.349	98.06
235.583	87.06
235.817	89.06
236.051	88.06
236.285	97.06
236.519	108.06
236.753	87.06
236.987	102.06
237.221	110.06
237.455	141.06
237.689	113.06
237.922	109.06
238.156	97.06
238.39	97.06
238.624	89.06
238.858	103.06
239.091	104.06
239.325	102.06
239.559	82.06
239.793	85.06
240.027	98.06
240.26	106.06
240.494	118.06
240.728	111.06
240.961	101.06
241.195	107.06
241.429	119.06
241.662	94.06
241.896	88.06
242.13	107.06
242.363	117.06
242.597	107.06
242.83	99.06
243.064	109.06
243.298	98.06
243.531	92.06
243.765	105.06
243.998	99.06
244.232	100.06
244.465	106.06
244.699	104.06
244.932	105.06
245.166	107.06
245.399	114.06
245.633	105.06
245.866	104.06
246.099	106.06
246.333	102.06
246.566	100.06
246.8	112.06
247.033	100.06
247.266	119.06
247.5	108.06
247.733	102.06
247.966	121.06
248.2	133.06
248.433	110.06
248.666	127.06
248.899	117.06
249.133	133.06
249.366	123.06
249.599	122.06
249.832	118.06
250.066	124.06
250.299	124.06
250.532	109.06
250.765	124.06
250.998	137.06
251.231	127.06
251.465	131.06
251.698	112.06
251.931	119.06
252.164	131.06
252.397	115.06
252.63	117.06
252.863	120.06
253.096	138.06
253.329	133.06
253.562	138.06
253.795	137.06
254.028	143.06
254.261	126.06
254.494	151.06
254.727	164.06
254.96	168.06
255.193	150.06
255.426	145.06
255.659	133.06
255.892	139.06
256.124	138.06
256.357	150.06
256.59	136.06
256.823	129.06
257.056	138.06
257.289	119.06
257.521	135.06
257.754	117.06
257.987	135.06
258.22	129.06
258.452	136.06
258.685	125.06
258.918	126.06
259.151	131.06
259.383	131.06
259.616	146.06
259.849	146.06
260.081	142.06
260.314	142.06
260.547	151.06
260.779	146.06
261.012	151.06
261.244	132.06
261.477	139.06
261.71	123.06
261.942	147.06
262.175	151.06
262.407	152.06
262.64	135.06
262.872	116.06
263.105	138.06
263.337	121.06
263.57	134.06
263.802	135.06
264.035	141.06
264.267	142.06
264.499	127.06
264.732	146.06
264.964	132.06
265.197	130.06
265.429	140.06
265.661	138.06
265.894	128.06
266.126	143.06
266.358	127.06
266.591	146.06
266.823	142.06
267.055	148.06
267.287	143.06
267.52	151.06
267.752	129.06
267.984	139.06
268.216	144.06
268.448	136.06
268.681	155.06
268.913	128.06
269.145	148.06
269.377	157.06
269.609	157.06
269.841	171.06
270.073	181.06
270.306	189.06
270.538	185.06
270.77	191.06
271.002	179.06
271.234	163.06
271.466	157.06
271.698	167.06
271.93	185.06
272.162	179.06
272.394	168.06
272.626	169.06
272.858	138.06
273.09	159.06
273.322	157.06
273.553	147.06
273.785	164.06
274.017	162.06
274.249	151.06
274.481	158.06
274.713	149.06
274.945	144.06
275.176	139.06
275.408	159.06
275.64	147.06
275.872	146.06
276.104	146.06
276.335	152.06
276.567	162.06
276.799	163.06
277.031	175.06
277.262	191.06
277.494	168.06
277.726	156.06
277.957	169.06
278.189	155.06
278.421	143.06
278.652	159.06
278.884	142.06
279.115	151.06
279.347	162.06
279.579	148.06
279.81	150.06
280.042	145.06
280.273	162.06
280.505	158.06
280.736	173.06
280.968	159.06
281.199	161.06
281.431	152.06
281.662	155.06
281.894	135.06
282.125	156.06
282.356	176.06
282.588	156.06
282.819	174.06
283.051	170.06
283.282	163.06
283.513	169.06
283.745	163.06
283.976	166.06
284.207	158.06
284.439	172.06
284.67	168.06
284.901	161.06
285.132	167.06
285.364	148.06
285.595	149.06
285.826	153.06
286.057	155.06
286.288	163.06
286.52	174.06
286.751	143.06
286.982	173.06
287.213	162.06
287.444	160.06
287.675	143.06
287.906	165.06
288.138	171.06
288.369	175.06
288.6	161.06
288.831	183.06
289.062	166.06
289.293	166.06
289.524	147.06
289.755	158.06
289.986	164.06
290.217	174.06
290.448	166.06
290.679	159.06
290.91	165.06
291.141	167.06
291.371	166.06
291.602	171.06
291.833	163.06
292.064	164.06
292.295	161.06
292.526	179.06
292.757	165.06
292.987	161.06
293.218	174.06
293.449	175.06
293.68	150.06
293.91	160.06
294.141	173.06
294.372	154.06
294.603	171.06
294.833	168.06
295.064	167.06
295.295	167.06
295.525	164.06
295.756	176.06
295.987	188.06
296.217	187.06
296.448	191.06
296.679	171.06
296.909	173.06
297.14	169.06
297.37	174.06
297.601	183.06
297.831	166.06
298.062	170.06
298.292	170.06
298.523	180.06
298.753	166.06
298.984	171.06
299.214	159.06
299.445	168.06
299.675	169.06
299.905	163.06
300.136	180.06
300.366	170.06
300.597	185.06
300.827	174.06
301.057	172.06
301.288	188.06
301.518	176.06
301.748	172.06
301.979	175.06
302.209	183.06
302.439	166.06
302.669	179.06
302.9	187.06
303.13	174.06
303.36	175.06
303.59	184.06
303.82	197.06
304.051	173.06
304.281	163.06
304.511	185.06
304.741	176.06
304.971	167.06
305.201	187.06
305.431	190.06
305.661	161.06
305.891	177.06
306.121	173.06
306.352	192.06
306.582	192.06
306.812	190.06
307.042	184.06
307.272	186.06
307.502	173.06
307.731	187.06
307.961	197.06
308.191	183.06
308.421	197.06
308.651	192.06
308.881	195.06
309.111	197.06
309.341	169.06
309.571	180.06
309.8	189.06
310.03	207.06
310.26	191.06
310.49	192.06
310.72	215.06
310.949	227.06
311.179	208.06
311.409	195.06
311.639	211.06
311.868	195.06
312.098	178.06
312.328	197.06
312.557	212.06
312.787	194.06
313.017	222.06
313.246	209.06
313.476	201.06
313.706	206.06
313.935	194.06
314.165	218.06
314.394	201.06
314.624	207.06
314.853	202.06
315.083	192.06
315.312	198.06
315.542	204.06
315.771	191.06
316.001	217.06
316.23	199.06
316.46	198.06
316.689	194.06
316.919	194.06
317.148	217.06
317.377	200.06
317.607	192.06
317.836	192.06
318.065	200.06
318.295	199.06
318.524	189.06
318.753	179.06
318.983	192.06
319.212	210.06
319.441	190.06
319.67	193.06
319.9	197.06
320.129	201.06
320.358	201.06
320.587	209.06
320.816	201.06
321.046	212.06
321.275	188.06
321.504	208.06
321.733	223.06
321.962	212.06
322.191	218.06
322.42	218.06
322.649	230.06
322.878	210.06
323.108	246.06
323.337	258.06
323.566	248.06
323.795	271.06
324.024	289.06
324.253	334.06
324.482	491.06
324.71	734.06
324.939	965.06
325.168	750.06
325.397	406.06
325.626	289.06
325.855	238.06
326.084	244.06
326.313	231.06
326.542	252.06
326.77	279.06
326.999	325.06
327.228	435.06
327.457	639.06
327.686	706.06
327.914	483.06
328.143	318.06
328.372	299.06
328.6	281.06
328.829	287.06
329.058	307.06
329.287	313.06
329.515	274.06
329.744	261.06
329.972	269.06
330.201	253.06
330.43	298.06
330.658	309.06
330.887	314.06
331.115	309.06
331.344	268.06
331.572	255.06
331.801	271.06
332.03	244.06
332.258	226.06
332.486	236.06
332.715	216.06
332.943	231.06
333.172	236.06
333.4	224.06
333.629	247.06
333.857	268.06
334.085	263.06
334.314	241.06
334.542	291.06
334.771	294.06
334.999	265.06
335.227	224.06
335.455	242.06
335.684	218.06
335.912	220.06
336.14	253.06
336.369	238.06
336.597	236.06
336.825	243.06
337.053	238.06
337.281	222.06
337.51	232.06
337.738	222.06
337.966	219.06
338.194	236.06
338.422	235.06
338.65	214.06
338.878	206.06
339.106	228.06
339.334	225.06
339.562	203.06
339.79	209.06
340.018	207.06
340.246	205.06
340.474	215.06
340.702	228.06
340.93	212.06
341.158	199.06
341.386	237.06
341.614	217.06
341.842	225.06
342.07	205.06
342.298	221.06
342.526	225.06
342.754	207.06
342.981	218.06
343.209	216.06
343.437	220.06
343.665	230.06
343.893	230.06
344.12	228.06
344.348	207.06
344.576	222.06
344.804	218.06
345.031	225.06
345.259	231.06
345.487	235.06
345.714	232.06
345.942	209.06
346.17	212.06
346.397	220.06
346.625	217.06
346.853	204.06
347.08	223.06
347.308	214.06
347.535	209.06
347.763	205.06
347.99	203.06
348.218	213.06
348.445	227.06
348.673	229.06
348.9	224.06
349.128	213.06
349.355	197.06
349.583	204.06
349.81	211.06
350.037	216.06
350.265	201.06
350.492	207.06
350.72	209.06
350.947	215.06
351.174	228.06
351.402	208.06
351.629	205.06
351.856	222.06
352.083	222.06
352.311	226.06
352.538	230.06
352.765	223.06
352.992	217.06
353.22	212.06
353.447	219.06
353.674	221.06
353.901	205.06
354.128	192.06
354.355	200.06
354.583	199.06
354.81	199.06
355.037	188.06
355.264	187.06
355.491	196.06
355.718	203.06
355.945	187.06
356.172	199.06
356.399	192.06
356.626	197.06
356.853	186.06
357.08	190.06
357.307	203.06
357.534	205.06
357.761	205.06
357.988	200.06
358.215	204.06
358.441	193.06
358.668	201.06
358.895	183.06
359.122	220.06
359.349	216.06
359.576	207.06
359.802	237.06
360.029	244.06
360.256	248.06
360.483	246.06
360.709	211.06
360.936	202.06
361.163	199.06
361.39	220.06
361.616	215.06
361.843	209.06
362.07	221.06
362.296	214.06
362.523	207.06
362.749	199.06
362.976	224.06
363.203	208.06
363.429	216.06
363.656	207.06
363.882	203.06
364.109	215.06
364.335	210.06
364.562	204.06
364.788	200.06
365.015	208.06
365.241	223.06
365.468	209.06
365.694	191.06
365.92	214.06
366.147	191.06
366.373	196.06
366.599	183.06
366.826	196.06
367.052	194.06
367.278	193.06
367.505	190.06
367.731	199.06
367.957	209.06
368.184	218.06
368.41	203.06
368.636	197.06
368.862	196.06
369.089	207.06
369.315	197.06
369.541	213.06
369.767	205.06
369.993	190.06
370.219	219.06
370.445	188.06
370.672	229.06
370.898	188.06
371.124	201.06
371.35	211.06
371.576	203.06
371.802	203.06
372.028	204.06
372.254	207.06
372.48	198.06
372.706	202.06
372.932	185.06
373.158	207.06
373.384	205.06
373.61	201.06
373.835	201.06
374.061	188.06
374.287	201.06
374.513	207.06
374.739	203.06
374.965	213.06
375.191	215.06
375.416	199.06
375.642	204.06
375.868	201.06
376.094	203.06
376.319	196.06
376.545	214.06
376.771	194.06
376.997	199.06
377.222	190.06
377.448	188.06
377.674	212.06
377.899	220.06
378.125	201.06
378.35	203.06
378.576	199.06
378.802	193.06
379.027	203.06
379.253	216.06
379.478	199.06
379.704	200.06
379.929	185.06
380.155	196.06
380.38	195.06
380.606	214.06
380.831	206.06
381.057	215.06
381.282	202.06
381.507	211.06
381.733	208.06
381.958	199.06
382.184	219.06
382.409	202.06
382.634	211.06
382.86	199.06
383.085	208.06
383.31	207.06
383.535	204.06
383.761	205.06
383.986	223.06
384.211	207.06
384.436	207.06
384.662	207.06
384.887	229.06
385.112	203.06
385.337	226.06
385.562	224.06
385.787	213.06
386.013	223.06
386.238	216.06
386.463	218.06
386.688	206.06
386.913	228.06
387.138	235.06
387.363	208.06
387.588	228.06
387.813	206.06
388.038	216.06
388.263	219.06
388.488	227.06
388.713	228.06
388.938	210.06
389.163	206.06
389.387	213.06
389.612	203.06
389.837	212.06
390.062	222.06
390.287	214.06
390.512	206.06
390.736	201.06
390.961	207.06
391.186	222.06
391.411	223.06
391.636	218.06
391.86	220.06
392.085	207.06
392.31	233.06
392.534	219.06
392.759	227.06
392.984	208.06
393.208	220.06
393.433	219.06
393.658	203.06
393.882	205.06
394.107	213.06
394.331	225.06
394.556	207.06
394.78	210.06
395.005	231.06
395.229	211.06
395.454	214.06
395.678	221.06
395.903	219.06
396.127	227.06
396.352	227.06
396.576	218.06
396.801	212.06
397.025	209.06
397.249	228.06
397.474	239.06
397.698	238.06
397.922	237.06
398.147	229.06
398.371	241.06
398.595	247.06
398.82	226.06
399.044	261.06
399.268	267.06
399.492	248.06
399.717	261.06
399.941	287.06
400.165	282.06
400.389	294.06
400.613	270.06
400.837	253.06
401.062	248.06
401.286	255.06
401.51	257.06
401.734	233.06
401.958	243.06
402.182	252.06
402.406	257.06
402.63	265.06
402.854	241.06
403.078	268.06
403.302	259.06
403.526	251.06
403.75	248.06
403.974	263.06
404.198	257.06
404.422	250.06
404.645	226.06
404.869	271.06
405.093	286.06
405.317	293.06
405.541	293.06
405.765	279.06
405.988	265.06
406.212	260.06
406.436	284.06
406.66	272.06
406.883	284.06
407.107	283.06
407.331	301.06
407.555	336.06
407.778	318.06
408.002	294.06
408.226	262.06
408.449	273.06
408.673	270.06
408.896	279.06
409.12	291.06
409.344	285.06
409.567	236.06
409.791	261.06
410.014	232.06
410.238	268.06
410.461	261.06
410.685	265.06
410.908	271.06
411.132	289.06
411.355	280.06
411.578	263.06
411.802	260.06
412.025	235.06
412.249	262.06
412.472	268.06
412.695	273.06
412.919	284.06
413.142	234.06
413.365	236.06
413.589	242.06
413.812	234.06
414.035	250.06
414.258	243.06
414.482	253.06
414.705	251.06
414.928	262.06
415.151	221.06
415.374	251.06
415.597	220.06
415.821	240.06
416.044	250.06
416.267	252.06
416.49	246.06
416.713	235.06
416.936	254.06
417.159	229.06
417.382	236.06
417.605	249.06
417.828	257.06
418.051	265.06
418.274	249.06
418.497	249.06
418.72	240.06
418.943	233.06
419.166	250.06
419.389	239.06
419.611	235.06
419.834	252.06
420.057	264.06
420.28	262.06
420.503	249.06
420.726	247.06
420.948	257.06
421.171	253.06
421.394	273.06
421.617	245.06
421.839	250.06
422.062	261.06
422.285	255.06
422.507	272.06
422.73	313.06
422.953	299.06
423.175	245.06
423.398	259.06
423.621	252.06
423.843	273.06
424.066	255.06
424.288	267.06
424.511	281.06
424.733	303.06
424.956	324.06
425.178	326.06
425.401	292.06
425.623	309.06
425.846	265.06
426.068	271.06
426.291	257.06
426.513	246.06
426.735	273.06
426.958	273.06
427.18	331.06
427.402	381.06
427.625	407.06
427.847	356.06
428.069	313.06
428.292	271.06
428.514	267.06
428.736	243.06
428.958	249.06
429.181	243.06
429.403	240.06
429.625	263.06
429.847	259.06
430.069	279.06
430.292	276.06
430.514	229.06
430.736	247.06
430.958	239.06
431.18	240.06
431.402	245.06
431.624	208.06
431.846	233.06
432.068	243.06
432.29	218.06
432.512	248.06
432.734	230.06
432.956	246.06
433.178	234.06
433.4	243.06
433.622	238.06
433.844	237.06
434.066	230.06
434.287	230.06
434.509	234.06
434.731	237.06
434.953	237.06
435.175	255.06
435.397	262.06
435.618	290.06
435.84	272.06
436.062	324.06
436.284	328.06
436.505	279.06
436.727	280.06
436.949	270.06
437.17	254.06
437.392	243.06
437.614	256.06
437.835	267.06
438.057	324.06
438.278	360.06
438.5	348.06
438.721	344.06
438.943	347.06
439.165	269.06
439.386	261.06
439.608	282.06
439.829	280.06
440.05	281.06
440.272	295.06
440.493	278.06
440.715	259.06
440.936	248.06
441.158	264.06
441.379	271.06
441.6	270.06
441.822	268.06
442.043	284.06
442.264	320.06
442.486	334.06
442.707	291.06
442.928	274.06
443.149	283.06
443.371	282.06
443.592	311.06
443.813	336.06
444.034	352.06
444.255	302.06
444.476	281.06
444.698	283.06
444.919	271.06
445.14	350.06
445.361	311.06
445.582	285.06
445.803	333.06
446.024	357.06
446.245	359.06
446.466	324.06
446.687	286.06
446.908	255.06
447.129	251.06
447.35	242.06
447.571	254.06
447.792	232.06
448.013	251.06
448.234	263.06
448.455	265.06
448.675	304.06
448.896	347.06
449.117	311.06
449.338	286.06
449.559	346.06
449.779	356.06
450	295.06
450.221	257.06
450.442	240.06
450.662	227.06
450.883	253.06
451.104	267.06
451.324	266.06
451.545	246.06
451.766	229.06
451.986	218.06
452.207	240.06
452.428	224.06
452.648	234.06
452.869	227.06
453.089	225.06
453.31	233.06
453.53	228.06
453.751	211.06
453.971	235.06
454.192	248.06
454.412	244.06
454.633	228.06
454.853	229.06
455.073	220.06
455.294	235.06
455.514	272.06
455.734	267.06
455.955	221.06
456.175	227.06
456.395	210.06
456.616	222.06
456.836	221.06
457.056	208.06
457.276	223.06
457.497	207.06
457.717	207.06
457.937	206.06
458.157	206.06
458.377	224.06
458.598	230.06
458.818	287.06
459.038	324.06
459.258	303.06
459.478	247.06
459.698	238.06
459.918	241.06
460.138	231.06
460.358	247.06
460.578	220.06
460.798	229.06
461.018	232.06
461.238	256.06
461.458	239.06
461.678	239.06
461.898	243.06
462.118	230.06
462.338	259.06
462.558	245.06
462.777	242.06
462.997	255.06
463.217	265.06
463.437	272.06
463.657	254.06
463.876	243.06
464.096	259.06
464.316	267.06
464.536	246.06
464.755	252.06
464.975	273.06
465.195	283.06
465.414	338.06
465.634	291.06
465.854	231.06
466.073	238.06
466.293	235.06
466.512	228.06
466.732	225.06
466.951	231.06
467.171	219.06
467.391	245.06
467.61	241.06
467.829	246.06
468.049	243.06
468.268	240.06
468.488	233.06
468.707	224.06
468.927	221.06
469.146	218.06
469.365	230.06
469.585	205.06
469.804	247.06
470.023	238.06
470.243	237.06
470.462	242.06
470.681	249.06
470.901	240.06
471.12	243.06
471.339	231.06
471.558	236.06
471.777	236.06
471.997	228.06
472.216	240.06
472.435	276.06
472.654	267.06
472.873	246.06
473.092	244.06
473.311	245.06
473.53	233.06
473.749	225.06
473.968	248.06
474.187	296.06
474.406	294.06
474.625	261.06
474.844	240.06
475.063	235.06
475.282	240.06
475.501	203.06
475.72	224.06
475.939	224.06
476.158	235.06
476.377	231.06
476.596	237.06
476.814	249.06
477.033	234.06
477.252	230.06
477.471	254.06
477.69	258.06
477.908	261.06
478.127	243.06
478.346	253.06
478.564	238.06
478.783	253.06
479.002	267.06
479.22	250.06
479.439	280.06
479.658	267.06
479.876	295.06
480.095	271.06
480.313	289.06
480.532	269.06
480.751	272.06
480.969	282.06
481.188	323.06
481.406	358.06
481.624	300.06
481.843	280.06
482.061	271.06
482.28	265.06
482.498	262.06
482.717	261.06
482.935	266.06
483.153	279.06
483.372	269.06
483.59	269.06
483.808	242.06
484.027	272.06
484.245	257.06
484.463	265.06
484.681	266.06
484.9	269.06
485.118	272.06
485.336	266.06
485.554	249.06
485.772	271.06
485.99	270.06
486.209	284.06
486.427	288.06
486.645	270.06
486.863	287.06
487.081	299.06
487.299	286.06
487.517	286.06
487.735	294.06
487.953	310.06
488.171	286.06
488.389	288.06
488.607	277.06
488.825	289.06
489.043	308.06
489.261	278.06
489.479	291.06
489.696	295.06
489.914	290.06
490.132	294.06
490.35	301.06
490.568	308.06
490.786	303.06
491.003	317.06
491.221	325.06
491.439	333.06
491.657	323.06
491.874	327.06
492.092	343.06
492.31	336.06
492.527	329.06
492.745	323.06
492.963	324.06
493.18	339.06
493.398	334.06
493.615	350.06
493.833	345.06
494.05	352.06
494.268	335.06
494.485	347.06
494.703	328.06
494.92	325.06
495.138	334.06
495.355	334.06
495.573	335.06
495.79	336.06
496.008	323.06
496.225	336.06
496.442	339.06
496.66	347.06
496.877	337.06
497.094	344.06
497.312	333.06
497.529	367.06
497.746	353.06
497.963	336.06
498.181	350.06
498.398	322.06
498.615	348.06
498.832	349.06
499.049	356.06
499.267	383.06
499.484	371.06
499.701	395.06
499.918	398.06
500.135	425.06
500.352	471.06
500.569	461.06
500.786	450.06
501.003	436.06
501.22	403.06
501.437	426.06
501.654	428.06
501.871	424.06
502.088	404.06
502.305	375.06
502.522	377.06
