Data from 1966.PennyLincolnUp.Lamp.En5.5.200Scan.071719.P1._HRD10591_14-14-23-914.txt Node
Date: Thu Jul 18 14:14:23 EDT 2019
User: cochatt
Spectrometer: HR+D1059
Trigger mode: 1
Integration Time (sec): 1.000000E-1
Scans to average: 1
Electric dark correction enabled: true
Nonlinearity correction enabled: false
Boxcar width: 0
XAxis mode: Wavelengths
Number of Pixels in Spectrum: 2048
>>>>>Begin Spectral Data<<<<<
223.165	-15.56
223.4	-15.56
223.635	-15.56
223.869	-8.56
224.104	-18.56
224.338	-5.56
224.573	-25.56
224.808	-20.56
225.042	2.44
225.277	7.44
225.511	-13.56
225.746	-1.56
225.98	12.44
226.215	12.44
226.449	6.44
226.683	11.44
226.918	32.44
227.152	24.44
227.387	26.44
227.621	34.44
227.856	57.44
228.09	37.44
228.324	50.44
228.559	55.44
228.793	60.44
229.027	80.44
229.262	94.44
229.496	88.44
229.73	112.44
229.964	111.44
230.199	95.44
230.433	81.44
230.667	93.44
230.901	90.44
231.136	95.44
231.37	95.44
231.604	102.44
231.838	100.44
232.072	96.44
232.306	89.44
232.541	90.44
232.775	95.44
233.009	91.44
233.243	86.44
233.477	87.44
233.711	94.44
233.945	96.44
234.179	80.44
234.413	96.44
234.647	89.44
234.881	91.44
235.115	108.44
235.349	99.44
235.583	113.44
235.817	93.44
236.051	112.44
236.285	98.44
236.519	108.44
236.753	100.44
236.987	102.44
237.221	135.44
237.455	149.44
237.689	136.44
237.922	109.44
238.156	103.44
238.39	104.44
238.624	107.44
238.858	99.44
239.091	92.44
239.325	103.44
239.559	108.44
239.793	102.44
240.027	109.44
240.26	102.44
240.494	114.44
240.728	99.44
240.961	116.44
241.195	101.44
241.429	101.44
241.662	89.44
241.896	107.44
242.13	106.44
242.363	97.44
242.597	99.44
242.83	118.44
243.064	95.44
243.298	107.44
243.531	108.44
243.765	103.44
243.998	102.44
244.232	98.44
244.465	117.44
244.699	116.44
244.932	100.44
245.166	104.44
245.399	99.44
245.633	107.44
245.866	117.44
246.099	103.44
246.333	104.44
246.566	114.44
246.8	107.44
247.033	120.44
247.266	108.44
247.5	108.44
247.733	130.44
247.966	110.44
248.2	109.44
248.433	117.44
248.666	114.44
248.899	110.44
249.133	141.44
249.366	140.44
249.599	134.44
249.832	118.44
250.066	123.44
250.299	126.44
250.532	135.44
250.765	123.44
250.998	130.44
251.231	131.44
251.465	139.44
251.698	131.44
251.931	128.44
252.164	129.44
252.397	125.44
252.63	136.44
252.863	150.44
253.096	144.44
253.329	151.44
253.562	138.44
253.795	154.44
254.028	147.44
254.261	122.44
254.494	135.44
254.727	156.44
254.96	176.44
255.193	149.44
255.426	142.44
255.659	149.44
255.892	138.44
256.124	139.44
256.357	136.44
256.59	148.44
256.823	139.44
257.056	126.44
257.289	133.44
257.521	129.44
257.754	135.44
257.987	122.44
258.22	143.44
258.452	137.44
258.685	123.44
258.918	131.44
259.151	138.44
259.383	135.44
259.616	143.44
259.849	142.44
260.081	156.44
260.314	164.44
260.547	162.44
260.779	160.44
261.012	152.44
261.244	143.44
261.477	142.44
261.71	127.44
261.942	144.44
262.175	159.44
262.407	139.44
262.64	137.44
262.872	137.44
263.105	135.44
263.337	139.44
263.57	149.44
263.802	133.44
264.035	125.44
264.267	137.44
264.499	134.44
264.732	134.44
264.964	144.44
265.197	142.44
265.429	144.44
265.661	136.44
265.894	142.44
266.126	143.44
266.358	136.44
266.591	144.44
266.823	154.44
267.055	149.44
267.287	135.44
267.52	145.44
267.752	132.44
267.984	145.44
268.216	149.44
268.448	145.44
268.681	148.44
268.913	152.44
269.145	163.44
269.377	152.44
269.609	180.44
269.841	173.44
270.073	160.44
270.306	187.44
270.538	201.44
270.77	171.44
271.002	178.44
271.234	178.44
271.466	185.44
271.698	181.44
271.93	176.44
272.162	198.44
272.394	183.44
272.626	176.44
272.858	180.44
273.09	167.44
273.322	184.44
273.553	155.44
273.785	144.44
274.017	164.44
274.249	150.44
274.481	176.44
274.713	159.44
274.945	157.44
275.176	155.44
275.408	152.44
275.64	152.44
275.872	170.44
276.104	154.44
276.335	178.44
276.567	181.44
276.799	187.44
277.031	169.44
277.262	198.44
277.494	193.44
277.726	195.44
277.957	169.44
278.189	153.44
278.421	157.44
278.652	160.44
278.884	161.44
279.115	151.44
279.347	167.44
279.579	163.44
279.81	151.44
280.042	161.44
280.273	169.44
280.505	156.44
280.736	181.44
280.968	174.44
281.199	168.44
281.431	152.44
281.662	168.44
281.894	166.44
282.125	162.44
282.356	177.44
282.588	167.44
282.819	191.44
283.051	159.44
283.282	154.44
283.513	149.44
283.745	158.44
283.976	168.44
284.207	165.44
284.439	184.44
284.67	168.44
284.901	158.44
285.132	168.44
285.364	179.44
285.595	175.44
285.826	182.44
286.057	167.44
286.288	160.44
286.52	159.44
286.751	164.44
286.982	178.44
287.213	171.44
287.444	166.44
287.675	162.44
287.906	179.44
288.138	171.44
288.369	172.44
288.6	188.44
288.831	187.44
289.062	158.44
289.293	182.44
289.524	165.44
289.755	162.44
289.986	175.44
290.217	181.44
290.448	185.44
290.679	152.44
290.91	186.44
291.141	170.44
291.371	181.44
291.602	168.44
291.833	160.44
292.064	163.44
292.295	170.44
292.526	190.44
292.757	171.44
292.987	175.44
293.218	173.44
293.449	173.44
293.68	171.44
293.91	179.44
294.141	175.44
294.372	158.44
294.603	163.44
294.833	170.44
295.064	189.44
295.295	178.44
295.525	162.44
295.756	185.44
295.987	184.44
296.217	191.44
296.448	195.44
296.679	190.44
296.909	176.44
297.14	198.44
297.37	170.44
297.601	179.44
297.831	180.44
298.062	171.44
298.292	164.44
298.523	171.44
298.753	194.44
298.984	173.44
299.214	188.44
299.445	196.44
299.675	175.44
299.905	196.44
300.136	173.44
300.366	172.44
300.597	186.44
300.827	184.44
301.057	192.44
301.288	197.44
301.518	164.44
301.748	184.44
301.979	197.44
302.209	192.44
302.439	186.44
302.669	192.44
302.9	197.44
303.13	190.44
303.36	184.44
303.59	190.44
303.82	200.44
304.051	192.44
304.281	187.44
304.511	168.44
304.741	188.44
304.971	172.44
305.201	190.44
305.431	203.44
305.661	184.44
305.891	182.44
306.121	198.44
306.352	192.44
306.582	213.44
306.812	167.44
307.042	183.44
307.272	193.44
307.502	172.44
307.731	204.44
307.961	185.44
308.191	181.44
308.421	187.44
308.651	208.44
308.881	202.44
309.111	191.44
309.341	187.44
309.571	204.44
309.8	213.44
310.03	217.44
310.26	206.44
310.49	209.44
310.72	217.44
310.949	229.44
311.179	240.44
311.409	190.44
311.639	223.44
311.868	222.44
312.098	210.44
312.328	216.44
312.557	221.44
312.787	227.44
313.017	244.44
313.246	221.44
313.476	219.44
313.706	213.44
313.935	206.44
314.165	212.44
314.394	226.44
314.624	232.44
314.853	212.44
315.083	222.44
315.312	206.44
315.542	202.44
315.771	207.44
316.001	211.44
316.23	205.44
316.46	206.44
316.689	214.44
316.919	212.44
317.148	207.44
317.377	236.44
317.607	210.44
317.836	216.44
318.065	226.44
318.295	219.44
318.524	207.44
318.753	201.44
318.983	207.44
319.212	215.44
319.441	198.44
319.67	206.44
319.9	202.44
320.129	211.44
320.358	202.44
320.587	221.44
320.816	221.44
321.046	223.44
321.275	221.44
321.504	232.44
321.733	223.44
321.962	216.44
322.191	221.44
322.42	251.44
322.649	256.44
322.878	260.44
323.108	245.44
323.337	276.44
323.566	262.44
323.795	298.44
324.024	318.44
324.253	378.44
324.482	535.44
324.71	821.44
324.939	1114.44
325.168	870.44
325.397	444.44
325.626	338.44
325.855	271.44
326.084	264.44
326.313	268.44
326.542	265.44
326.77	298.44
326.999	354.44
327.228	486.44
327.457	723.44
327.686	822.44
327.914	534.44
328.143	358.44
328.372	347.44
328.6	320.44
328.829	314.44
329.058	308.44
329.287	340.44
329.515	304.44
329.744	296.44
329.972	283.44
330.201	284.44
330.43	314.44
330.658	322.44
330.887	330.44
331.115	326.44
331.344	288.44
331.572	276.44
331.801	260.44
332.03	272.44
332.258	242.44
332.486	221.44
332.715	244.44
332.943	247.44
333.172	244.44
333.4	238.44
333.629	245.44
333.857	247.44
334.085	278.44
334.314	306.44
334.542	307.44
334.771	318.44
334.999	286.44
335.227	263.44
335.455	261.44
335.684	247.44
335.912	236.44
336.14	228.44
336.369	230.44
336.597	269.44
336.825	247.44
337.053	244.44
337.281	241.44
337.51	230.44
337.738	261.44
337.966	245.44
338.194	244.44
338.422	257.44
338.65	231.44
338.878	230.44
339.106	228.44
339.334	232.44
339.562	222.44
339.79	224.44
340.018	229.44
340.246	244.44
340.474	226.44
340.702	235.44
340.93	243.44
341.158	225.44
341.386	239.44
341.614	232.44
341.842	232.44
342.07	204.44
342.298	203.44
342.526	220.44
342.754	219.44
342.981	224.44
343.209	224.44
343.437	226.44
343.665	227.44
343.893	234.44
344.12	235.44
344.348	234.44
344.576	236.44
344.804	230.44
345.031	236.44
345.259	256.44
345.487	232.44
345.714	234.44
345.942	236.44
346.17	224.44
346.397	245.44
346.625	212.44
346.853	226.44
347.08	215.44
347.308	221.44
347.535	224.44
347.763	226.44
347.99	235.44
348.218	230.44
348.445	242.44
348.673	250.44
348.9	226.44
349.128	228.44
349.355	228.44
349.583	212.44
349.81	211.44
350.037	208.44
350.265	205.44
350.492	200.44
350.72	219.44
350.947	211.44
351.174	229.44
351.402	246.44
351.629	221.44
351.856	218.44
352.083	223.44
352.311	227.44
352.538	236.44
352.765	232.44
352.992	246.44
353.22	239.44
353.447	210.44
353.674	233.44
353.901	223.44
354.128	212.44
354.355	224.44
354.583	209.44
354.81	216.44
355.037	220.44
355.264	189.44
355.491	216.44
355.718	215.44
355.945	215.44
356.172	203.44
356.399	212.44
356.626	200.44
356.853	188.44
357.08	197.44
357.307	202.44
357.534	206.44
357.761	197.44
357.988	206.44
358.215	201.44
358.441	213.44
358.668	218.44
358.895	225.44
359.122	204.44
359.349	215.44
359.576	226.44
359.802	234.44
360.029	266.44
360.256	280.44
360.483	251.44
360.709	255.44
360.936	213.44
361.163	206.44
361.39	215.44
361.616	210.44
361.843	220.44
362.07	227.44
362.296	223.44
362.523	211.44
362.749	218.44
362.976	221.44
363.203	202.44
363.429	218.44
363.656	223.44
363.882	204.44
364.109	218.44
364.335	210.44
364.562	214.44
364.788	201.44
365.015	198.44
365.241	216.44
365.468	211.44
365.694	214.44
365.92	220.44
366.147	210.44
366.373	213.44
366.599	215.44
366.826	216.44
367.052	215.44
367.278	219.44
367.505	196.44
367.731	211.44
367.957	214.44
368.184	228.44
368.41	214.44
368.636	221.44
368.862	212.44
369.089	221.44
369.315	225.44
369.541	213.44
369.767	207.44
369.993	226.44
370.219	204.44
370.445	209.44
370.672	205.44
370.898	210.44
371.124	213.44
371.35	212.44
371.576	214.44
371.802	211.44
372.028	215.44
372.254	214.44
372.48	215.44
372.706	212.44
372.932	211.44
373.158	202.44
373.384	215.44
373.61	213.44
373.835	216.44
374.061	213.44
374.287	204.44
374.513	207.44
374.739	225.44
374.965	214.44
375.191	193.44
375.416	212.44
375.642	208.44
375.868	198.44
376.094	206.44
376.319	199.44
376.545	206.44
376.771	216.44
376.997	218.44
377.222	198.44
377.448	211.44
377.674	208.44
377.899	219.44
378.125	219.44
378.35	207.44
378.576	198.44
378.802	204.44
379.027	215.44
379.253	199.44
379.478	209.44
379.704	212.44
379.929	218.44
380.155	200.44
380.38	219.44
380.606	206.44
380.831	204.44
381.057	227.44
381.282	220.44
381.507	227.44
381.733	206.44
381.958	205.44
382.184	206.44
382.409	211.44
382.634	218.44
382.86	206.44
383.085	207.44
383.31	214.44
383.535	210.44
383.761	224.44
383.986	209.44
384.211	216.44
384.436	215.44
384.662	216.44
384.887	231.44
385.112	224.44
385.337	204.44
385.562	219.44
385.787	212.44
386.013	220.44
386.238	238.44
386.463	223.44
386.688	207.44
386.913	219.44
387.138	230.44
387.363	221.44
387.588	226.44
387.813	210.44
388.038	215.44
388.263	204.44
388.488	223.44
388.713	207.44
388.938	217.44
389.163	226.44
389.387	223.44
389.612	218.44
389.837	219.44
390.062	228.44
390.287	238.44
390.512	238.44
390.736	222.44
390.961	211.44
391.186	219.44
391.411	224.44
391.636	225.44
391.86	224.44
392.085	226.44
392.31	238.44
392.534	236.44
392.759	240.44
392.984	240.44
393.208	221.44
393.433	234.44
393.658	229.44
393.882	226.44
394.107	221.44
394.331	208.44
394.556	216.44
394.78	215.44
395.005	220.44
395.229	231.44
395.454	229.44
395.678	229.44
395.903	244.44
396.127	236.44
396.352	245.44
396.576	248.44
396.801	226.44
397.025	205.44
397.249	236.44
397.474	234.44
397.698	238.44
397.922	238.44
398.147	247.44
398.371	250.44
398.595	240.44
398.82	244.44
399.044	239.44
399.268	260.44
399.492	267.44
399.717	290.44
399.941	288.44
400.165	299.44
400.389	292.44
400.613	270.44
400.837	264.44
401.062	240.44
401.286	255.44
401.51	258.44
401.734	240.44
401.958	248.44
402.182	265.44
402.406	282.44
402.63	261.44
402.854	269.44
403.078	267.44
403.302	272.44
403.526	262.44
403.75	268.44
403.974	268.44
404.198	263.44
404.422	262.44
404.645	247.44
404.869	267.44
405.093	286.44
405.317	308.44
405.541	317.44
405.765	288.44
405.988	276.44
406.212	297.44
406.436	290.44
406.66	319.44
406.883	279.44
407.107	289.44
407.331	323.44
407.555	346.44
407.778	341.44
408.002	306.44
408.226	287.44
408.449	260.44
408.673	271.44
408.896	275.44
409.12	320.44
409.344	295.44
409.567	260.44
409.791	262.44
410.014	242.44
410.238	250.44
410.461	271.44
410.685	254.44
410.908	267.44
411.132	294.44
411.355	306.44
411.578	306.44
411.802	274.44
412.025	273.44
412.249	251.44
412.472	282.44
412.695	312.44
412.919	298.44
413.142	256.44
413.365	246.44
413.589	260.44
413.812	259.44
414.035	247.44
414.258	227.44
414.482	256.44
414.705	265.44
414.928	262.44
415.151	266.44
415.374	259.44
415.597	244.44
415.821	254.44
416.044	236.44
416.267	262.44
416.49	237.44
416.713	249.44
416.936	254.44
417.159	249.44
417.382	253.44
417.605	259.44
417.828	275.44
418.051	260.44
418.274	258.44
418.497	241.44
418.72	239.44
418.943	246.44
419.166	250.44
419.389	269.44
419.611	276.44
419.834	268.44
420.057	277.44
420.28	278.44
420.503	277.44
420.726	258.44
420.948	268.44
421.171	286.44
421.394	267.44
421.617	273.44
421.839	264.44
422.062	272.44
422.285	273.44
422.507	302.44
422.73	323.44
422.953	309.44
423.175	280.44
423.398	261.44
423.621	284.44
423.843	278.44
424.066	284.44
424.288	285.44
424.511	283.44
424.733	320.44
424.956	346.44
425.178	331.44
425.401	326.44
425.623	327.44
425.846	287.44
426.068	291.44
426.291	276.44
426.513	287.44
426.735	279.44
426.958	291.44
427.18	335.44
427.402	396.44
427.625	436.44
427.847	382.44
428.069	335.44
428.292	296.44
428.514	275.44
428.736	276.44
428.958	276.44
429.181	264.44
429.403	258.44
429.625	258.44
429.847	264.44
430.069	303.44
430.292	306.44
430.514	254.44
430.736	271.44
430.958	239.44
431.18	260.44
431.402	233.44
431.624	256.44
431.846	242.44
432.068	243.44
432.29	254.44
432.512	238.44
432.734	246.44
432.956	259.44
433.178	267.44
433.4	270.44
433.622	246.44
433.844	252.44
434.066	258.44
434.287	262.44
434.509	252.44
434.731	268.44
434.953	268.44
435.175	278.44
435.397	289.44
435.618	274.44
435.84	282.44
436.062	346.44
436.284	359.44
436.505	304.44
436.727	290.44
436.949	280.44
437.17	276.44
437.392	242.44
437.614	269.44
437.835	276.44
438.057	354.44
438.278	363.44
438.5	354.44
438.721	378.44
438.943	354.44
439.165	317.44
439.386	286.44
439.608	291.44
439.829	302.44
440.05	296.44
440.272	324.44
440.493	300.44
440.715	278.44
440.936	282.44
441.158	277.44
441.379	263.44
441.6	281.44
441.822	284.44
442.043	292.44
442.264	361.44
442.486	362.44
442.707	320.44
442.928	306.44
443.149	300.44
443.371	317.44
443.592	331.44
443.813	368.44
444.034	361.44
444.255	306.44
444.476	295.44
444.698	291.44
444.919	278.44
445.14	372.44
445.361	342.44
445.582	315.44
445.803	339.44
446.024	370.44
446.245	377.44
446.466	345.44
446.687	290.44
446.908	277.44
447.129	277.44
447.35	272.44
447.571	272.44
447.792	271.44
448.013	253.44
448.234	260.44
448.455	306.44
448.675	337.44
448.896	388.44
449.117	326.44
449.338	310.44
449.559	354.44
449.779	394.44
450	320.44
450.221	258.44
450.442	255.44
450.662	254.44
450.883	260.44
451.104	276.44
451.324	279.44
451.545	253.44
451.766	231.44
451.986	253.44
452.207	252.44
452.428	238.44
452.648	246.44
452.869	228.44
453.089	244.44
453.31	237.44
453.53	239.44
453.751	236.44
453.971	233.44
454.192	256.44
454.412	253.44
454.633	243.44
454.853	254.44
455.073	232.44
455.294	244.44
455.514	271.44
455.734	249.44
455.955	239.44
456.175	242.44
456.395	233.44
456.616	235.44
456.836	226.44
457.056	213.44
457.276	223.44
457.497	220.44
457.717	237.44
457.937	230.44
458.157	222.44
458.377	230.44
458.598	267.44
458.818	296.44
459.038	358.44
459.258	312.44
459.478	268.44
459.698	250.44
459.918	245.44
460.138	240.44
460.358	235.44
460.578	244.44
460.798	261.44
461.018	249.44
461.238	244.44
461.458	270.44
461.678	245.44
461.898	259.44
462.118	269.44
462.338	246.44
462.558	248.44
462.777	269.44
462.997	268.44
463.217	266.44
463.437	272.44
463.657	272.44
463.876	280.44
464.096	261.44
464.316	238.44
464.536	277.44
464.755	294.44
464.975	279.44
465.195	323.44
465.414	351.44
465.634	297.44
465.854	275.44
466.073	265.44
466.293	250.44
466.512	244.44
466.732	246.44
466.951	239.44
467.171	237.44
467.391	238.44
467.61	269.44
467.829	281.44
468.049	268.44
468.268	260.44
468.488	237.44
468.707	226.44
468.927	227.44
469.146	234.44
469.365	233.44
469.585	239.44
469.804	258.44
470.023	249.44
470.243	247.44
470.462	247.44
470.681	253.44
470.901	264.44
471.12	268.44
471.339	248.44
471.558	248.44
471.777	239.44
471.997	249.44
472.216	266.44
472.435	278.44
472.654	270.44
472.873	256.44
473.092	243.44
473.311	246.44
473.53	247.44
473.749	258.44
473.968	275.44
474.187	315.44
474.406	323.44
474.625	260.44
474.844	251.44
475.063	235.44
475.282	232.44
475.501	255.44
475.72	256.44
475.939	241.44
476.158	252.44
476.377	240.44
476.596	238.44
476.814	247.44
477.033	267.44
477.252	262.44
477.471	261.44
477.69	251.44
477.908	279.44
478.127	263.44
478.346	259.44
478.564	286.44
478.783	281.44
479.002	274.44
479.22	275.44
479.439	290.44
479.658	298.44
479.876	299.44
480.095	276.44
480.313	299.44
480.532	292.44
480.751	319.44
480.969	322.44
481.188	341.44
481.406	401.44
481.624	326.44
481.843	312.44
482.061	290.44
482.28	292.44
482.498	275.44
482.717	288.44
482.935	287.44
483.153	264.44
483.372	290.44
483.59	278.44
483.808	270.44
484.027	278.44
484.245	300.44
484.463	278.44
484.681	312.44
484.9	309.44
485.118	283.44
485.336	277.44
485.554	284.44
485.772	302.44
485.99	281.44
486.209	287.44
486.427	291.44
486.645	298.44
486.863	322.44
487.081	307.44
487.299	300.44
487.517	310.44
487.735	304.44
487.953	307.44
488.171	299.44
488.389	292.44
488.607	300.44
488.825	295.44
489.043	306.44
489.261	301.44
489.479	302.44
489.696	303.44
489.914	317.44
490.132	325.44
490.35	312.44
490.568	312.44
490.786	316.44
491.003	310.44
491.221	324.44
491.439	355.44
491.657	365.44
491.874	363.44
492.092	357.44
492.31	386.44
492.527	357.44
492.745	366.44
492.963	356.44
493.18	355.44
493.398	365.44
493.615	358.44
493.833	359.44
494.05	370.44
494.268	341.44
494.485	338.44
494.703	347.44
494.92	354.44
495.138	348.44
495.355	370.44
495.573	372.44
495.79	344.44
496.008	351.44
496.225	339.44
496.442	363.44
496.66	365.44
496.877	343.44
497.094	341.44
497.312	366.44
497.529	350.44
497.746	360.44
497.963	352.44
498.181	373.44
498.398	374.44
498.615	391.44
498.832	391.44
499.049	371.44
499.267	399.44
499.484	407.44
499.701	399.44
499.918	425.44
500.135	452.44
500.352	458.44
500.569	468.44
500.786	472.44
501.003	465.44
501.22	448.44
501.437	424.44
501.654	440.44
501.871	423.44
502.088	412.44
502.305	417.44
502.522	383.44
