Data from 1966.PennyLincolnUp.Lamp.En5.5.200Scan.071719.P1._HRD10591_14-13-23-913.txt Node
Date: Thu Jul 18 14:13:23 EDT 2019
User: cochatt
Spectrometer: HR+D1059
Trigger mode: 1
Integration Time (sec): 1.000000E-1
Scans to average: 1
Electric dark correction enabled: true
Nonlinearity correction enabled: false
Boxcar width: 0
XAxis mode: Wavelengths
Number of Pixels in Spectrum: 2048
>>>>>Begin Spectral Data<<<<<
223.165	-20.75
223.4	-20.75
223.635	-20.75
223.869	-11.75
224.104	-18.75
224.338	-11.75
224.573	-6.75
224.808	-18.75
225.042	-13.75
225.277	-7.75
225.511	3.25
225.746	10.25
225.98	3.25
226.215	11.25
226.449	13.25
226.683	17.25
226.918	26.25
227.152	25.25
227.387	26.25
227.621	37.25
227.856	43.25
228.09	48.25
228.324	39.25
228.559	58.25
228.793	65.25
229.027	71.25
229.262	90.25
229.496	66.25
229.73	97.25
229.964	120.25
230.199	89.25
230.433	84.25
230.667	93.25
230.901	86.25
231.136	79.25
231.37	84.25
231.604	96.25
231.838	86.25
232.072	91.25
232.306	100.25
232.541	93.25
232.775	89.25
233.009	96.25
233.243	88.25
233.477	84.25
233.711	82.25
233.945	96.25
234.179	86.25
234.413	88.25
234.647	105.25
234.881	99.25
235.115	96.25
235.349	97.25
235.583	94.25
235.817	96.25
236.051	93.25
236.285	98.25
236.519	104.25
236.753	97.25
236.987	113.25
237.221	128.25
237.455	151.25
237.689	109.25
237.922	105.25
238.156	97.25
238.39	87.25
238.624	87.25
238.858	76.25
239.091	86.25
239.325	90.25
239.559	85.25
239.793	96.25
240.027	104.25
240.26	101.25
240.494	98.25
240.728	98.25
240.961	114.25
241.195	96.25
241.429	96.25
241.662	102.25
241.896	92.25
242.13	84.25
242.363	101.25
242.597	100.25
242.83	109.25
243.064	110.25
243.298	103.25
243.531	110.25
243.765	104.25
243.998	92.25
244.232	117.25
244.465	107.25
244.699	112.25
244.932	102.25
245.166	104.25
245.399	96.25
245.633	97.25
245.866	101.25
246.099	108.25
246.333	107.25
246.566	118.25
246.8	107.25
247.033	104.25
247.266	107.25
247.5	102.25
247.733	118.25
247.966	117.25
248.2	134.25
248.433	131.25
248.666	130.25
248.899	132.25
249.133	128.25
249.366	125.25
249.599	112.25
249.832	113.25
250.066	125.25
250.299	107.25
250.532	130.25
250.765	135.25
250.998	143.25
251.231	137.25
251.465	148.25
251.698	124.25
251.931	118.25
252.164	114.25
252.397	110.25
252.63	120.25
252.863	116.25
253.096	134.25
253.329	132.25
253.562	124.25
253.795	116.25
254.028	152.25
254.261	138.25
254.494	127.25
254.727	147.25
254.96	173.25
255.193	142.25
255.426	144.25
255.659	142.25
255.892	156.25
256.124	152.25
256.357	125.25
256.59	125.25
256.823	134.25
257.056	137.25
257.289	129.25
257.521	132.25
257.754	129.25
257.987	118.25
258.22	135.25
258.452	128.25
258.685	130.25
258.918	110.25
259.151	128.25
259.383	122.25
259.616	140.25
259.849	136.25
260.081	170.25
260.314	147.25
260.547	141.25
260.779	154.25
261.012	158.25
261.244	134.25
261.477	131.25
261.71	131.25
261.942	136.25
262.175	142.25
262.407	137.25
262.64	142.25
262.872	132.25
263.105	127.25
263.337	142.25
263.57	125.25
263.802	116.25
264.035	130.25
264.267	132.25
264.499	130.25
264.732	127.25
264.964	134.25
265.197	149.25
265.429	140.25
265.661	136.25
265.894	124.25
266.126	133.25
266.358	135.25
266.591	134.25
266.823	134.25
267.055	148.25
267.287	146.25
267.52	132.25
267.752	148.25
267.984	132.25
268.216	149.25
268.448	137.25
268.681	138.25
268.913	143.25
269.145	158.25
269.377	163.25
269.609	167.25
269.841	148.25
270.073	162.25
270.306	167.25
270.538	190.25
270.77	182.25
271.002	184.25
271.234	160.25
271.466	182.25
271.698	164.25
271.93	181.25
272.162	181.25
272.394	173.25
272.626	152.25
272.858	168.25
273.09	153.25
273.322	165.25
273.553	157.25
273.785	154.25
274.017	160.25
274.249	154.25
274.481	125.25
274.713	154.25
274.945	149.25
275.176	167.25
275.408	145.25
275.64	150.25
275.872	148.25
276.104	172.25
276.335	177.25
276.567	165.25
276.799	165.25
277.031	173.25
277.262	189.25
277.494	187.25
277.726	177.25
277.957	168.25
278.189	166.25
278.421	150.25
278.652	158.25
278.884	170.25
279.115	157.25
279.347	158.25
279.579	143.25
279.81	141.25
280.042	147.25
280.273	146.25
280.505	149.25
280.736	146.25
280.968	148.25
281.199	163.25
281.431	156.25
281.662	156.25
281.894	160.25
282.125	154.25
282.356	162.25
282.588	160.25
282.819	190.25
283.051	150.25
283.282	155.25
283.513	173.25
283.745	147.25
283.976	162.25
284.207	158.25
284.439	153.25
284.67	149.25
284.901	168.25
285.132	154.25
285.364	157.25
285.595	158.25
285.826	150.25
286.057	153.25
286.288	159.25
286.52	167.25
286.751	153.25
286.982	161.25
287.213	163.25
287.444	163.25
287.675	153.25
287.906	165.25
288.138	162.25
288.369	182.25
288.6	168.25
288.831	165.25
289.062	169.25
289.293	155.25
289.524	161.25
289.755	172.25
289.986	160.25
290.217	153.25
290.448	168.25
290.679	168.25
290.91	161.25
291.141	153.25
291.371	179.25
291.602	164.25
291.833	157.25
292.064	162.25
292.295	166.25
292.526	158.25
292.757	161.25
292.987	172.25
293.218	167.25
293.449	174.25
293.68	159.25
293.91	150.25
294.141	154.25
294.372	168.25
294.603	164.25
294.833	161.25
295.064	168.25
295.295	155.25
295.525	169.25
295.756	169.25
295.987	179.25
296.217	172.25
296.448	178.25
296.679	183.25
296.909	178.25
297.14	166.25
297.37	177.25
297.601	172.25
297.831	180.25
298.062	167.25
298.292	166.25
298.523	181.25
298.753	160.25
298.984	168.25
299.214	172.25
299.445	164.25
299.675	176.25
299.905	172.25
300.136	172.25
300.366	167.25
300.597	171.25
300.827	173.25
301.057	179.25
301.288	186.25
301.518	197.25
301.748	184.25
301.979	169.25
302.209	184.25
302.439	187.25
302.669	160.25
302.9	170.25
303.13	192.25
303.36	179.25
303.59	186.25
303.82	184.25
304.051	196.25
304.281	169.25
304.511	191.25
304.741	182.25
304.971	185.25
305.201	170.25
305.431	162.25
305.661	161.25
305.891	183.25
306.121	182.25
306.352	184.25
306.582	197.25
306.812	170.25
307.042	190.25
307.272	187.25
307.502	192.25
307.731	180.25
307.961	182.25
308.191	183.25
308.421	191.25
308.651	184.25
308.881	185.25
309.111	188.25
309.341	192.25
309.571	181.25
309.8	191.25
310.03	209.25
310.26	200.25
310.49	194.25
310.72	211.25
310.949	212.25
311.179	193.25
311.409	212.25
311.639	209.25
311.868	198.25
312.098	203.25
312.328	201.25
312.557	222.25
312.787	232.25
313.017	215.25
313.246	206.25
313.476	213.25
313.706	194.25
313.935	200.25
314.165	219.25
314.394	218.25
314.624	215.25
314.853	211.25
315.083	197.25
315.312	206.25
315.542	197.25
315.771	202.25
316.001	194.25
316.23	204.25
316.46	198.25
316.689	214.25
316.919	209.25
317.148	218.25
317.377	206.25
317.607	210.25
317.836	211.25
318.065	204.25
318.295	188.25
318.524	212.25
318.753	193.25
318.983	203.25
319.212	199.25
319.441	210.25
319.67	204.25
319.9	205.25
320.129	198.25
320.358	192.25
320.587	198.25
320.816	210.25
321.046	207.25
321.275	228.25
321.504	192.25
321.733	221.25
321.962	211.25
322.191	201.25
322.42	232.25
322.649	235.25
322.878	245.25
323.108	227.25
323.337	250.25
323.566	262.25
323.795	252.25
324.024	272.25
324.253	343.25
324.482	489.25
324.71	716.25
324.939	940.25
325.168	772.25
325.397	404.25
325.626	280.25
325.855	247.25
326.084	240.25
326.313	256.25
326.542	241.25
326.77	266.25
326.999	320.25
327.228	445.25
327.457	629.25
327.686	704.25
327.914	476.25
328.143	342.25
328.372	301.25
328.6	307.25
328.829	274.25
329.058	304.25
329.287	288.25
329.515	278.25
329.744	272.25
329.972	264.25
330.201	275.25
330.43	318.25
330.658	325.25
330.887	332.25
331.115	309.25
331.344	276.25
331.572	246.25
331.801	249.25
332.03	251.25
332.258	219.25
332.486	235.25
332.715	240.25
332.943	230.25
333.172	231.25
333.4	210.25
333.629	234.25
333.857	231.25
334.085	265.25
334.314	263.25
334.542	282.25
334.771	293.25
334.999	277.25
335.227	241.25
335.455	248.25
335.684	228.25
335.912	231.25
336.14	221.25
336.369	225.25
336.597	237.25
336.825	252.25
337.053	214.25
337.281	221.25
337.51	217.25
337.738	219.25
337.966	223.25
338.194	226.25
338.422	227.25
338.65	216.25
338.878	218.25
339.106	236.25
339.334	214.25
339.562	219.25
339.79	225.25
340.018	222.25
340.246	238.25
340.474	229.25
340.702	224.25
340.93	209.25
341.158	212.25
341.386	218.25
341.614	217.25
341.842	220.25
342.07	225.25
342.298	209.25
342.526	205.25
342.754	212.25
342.981	217.25
343.209	211.25
343.437	217.25
343.665	199.25
343.893	207.25
344.12	204.25
344.348	233.25
344.576	215.25
344.804	214.25
345.031	239.25
345.259	236.25
345.487	222.25
345.714	221.25
345.942	218.25
346.17	216.25
346.397	198.25
346.625	208.25
346.853	200.25
347.08	204.25
347.308	209.25
347.535	205.25
347.763	211.25
347.99	203.25
348.218	219.25
348.445	238.25
348.673	222.25
348.9	209.25
349.128	212.25
349.355	206.25
349.583	193.25
349.81	188.25
350.037	202.25
350.265	200.25
350.492	217.25
350.72	197.25
350.947	223.25
351.174	210.25
351.402	225.25
351.629	224.25
351.856	216.25
352.083	209.25
352.311	218.25
352.538	212.25
352.765	227.25
352.992	221.25
353.22	230.25
353.447	211.25
353.674	213.25
353.901	209.25
354.128	209.25
354.355	196.25
354.583	197.25
354.81	213.25
355.037	196.25
355.264	198.25
355.491	194.25
355.718	205.25
355.945	197.25
356.172	218.25
356.399	190.25
356.626	200.25
356.853	194.25
357.08	202.25
357.307	197.25
357.534	206.25
357.761	196.25
357.988	209.25
358.215	194.25
358.441	208.25
358.668	203.25
358.895	203.25
359.122	219.25
359.349	191.25
359.576	225.25
359.802	230.25
360.029	241.25
360.256	248.25
360.483	244.25
360.709	203.25
360.936	227.25
361.163	222.25
361.39	198.25
361.616	223.25
361.843	187.25
362.07	198.25
362.296	225.25
362.523	207.25
362.749	209.25
362.976	203.25
363.203	195.25
363.429	194.25
363.656	206.25
363.882	211.25
364.109	189.25
364.335	199.25
364.562	203.25
364.788	193.25
365.015	209.25
365.241	212.25
365.468	202.25
365.694	216.25
365.92	210.25
366.147	210.25
366.373	212.25
366.599	195.25
366.826	214.25
367.052	212.25
367.278	212.25
367.505	220.25
367.731	187.25
367.957	209.25
368.184	206.25
368.41	202.25
368.636	221.25
368.862	224.25
369.089	208.25
369.315	197.25
369.541	207.25
369.767	205.25
369.993	204.25
370.219	209.25
370.445	210.25
370.672	203.25
370.898	203.25
371.124	213.25
371.35	190.25
371.576	227.25
371.802	207.25
372.028	180.25
372.254	205.25
372.48	200.25
372.706	203.25
372.932	198.25
373.158	203.25
373.384	212.25
373.61	212.25
373.835	200.25
374.061	199.25
374.287	205.25
374.513	201.25
374.739	211.25
374.965	204.25
375.191	195.25
375.416	196.25
375.642	216.25
375.868	192.25
376.094	209.25
376.319	198.25
376.545	180.25
376.771	205.25
376.997	200.25
377.222	196.25
377.448	197.25
377.674	193.25
377.899	210.25
378.125	202.25
378.35	186.25
378.576	187.25
378.802	192.25
379.027	193.25
379.253	216.25
379.478	194.25
379.704	196.25
379.929	178.25
380.155	193.25
380.38	197.25
380.606	223.25
380.831	182.25
381.057	208.25
381.282	205.25
381.507	193.25
381.733	228.25
381.958	199.25
382.184	206.25
382.409	198.25
382.634	209.25
382.86	198.25
383.085	206.25
383.31	198.25
383.535	211.25
383.761	205.25
383.986	203.25
384.211	212.25
384.436	210.25
384.662	211.25
384.887	211.25
385.112	216.25
385.337	207.25
385.562	213.25
385.787	218.25
386.013	219.25
386.238	212.25
386.463	210.25
386.688	212.25
386.913	219.25
387.138	208.25
387.363	224.25
387.588	222.25
387.813	205.25
388.038	204.25
388.263	209.25
388.488	204.25
388.713	227.25
388.938	235.25
389.163	214.25
389.387	217.25
389.612	201.25
389.837	213.25
390.062	220.25
390.287	212.25
390.512	210.25
390.736	225.25
390.961	230.25
391.186	220.25
391.411	212.25
391.636	228.25
391.86	219.25
392.085	228.25
392.31	227.25
392.534	230.25
392.759	216.25
392.984	210.25
393.208	221.25
393.433	199.25
393.658	211.25
393.882	222.25
394.107	216.25
394.331	205.25
394.556	205.25
394.78	208.25
395.005	223.25
395.229	241.25
395.454	213.25
395.678	216.25
395.903	231.25
396.127	226.25
396.352	231.25
396.576	229.25
396.801	212.25
397.025	224.25
397.249	229.25
397.474	210.25
397.698	222.25
397.922	226.25
398.147	230.25
398.371	237.25
398.595	242.25
398.82	261.25
399.044	234.25
399.268	260.25
399.492	274.25
399.717	287.25
399.941	284.25
400.165	296.25
400.389	290.25
400.613	264.25
400.837	233.25
401.062	256.25
401.286	246.25
401.51	235.25
401.734	236.25
401.958	242.25
402.182	256.25
402.406	266.25
402.63	234.25
402.854	265.25
403.078	250.25
403.302	243.25
403.526	251.25
403.75	257.25
403.974	253.25
404.198	261.25
404.422	266.25
404.645	274.25
404.869	268.25
405.093	281.25
405.317	298.25
405.541	304.25
405.765	262.25
405.988	264.25
406.212	270.25
406.436	296.25
406.66	301.25
406.883	281.25
407.107	286.25
407.331	298.25
407.555	320.25
407.778	308.25
408.002	281.25
408.226	269.25
408.449	281.25
408.673	280.25
408.896	295.25
409.12	300.25
409.344	295.25
409.567	265.25
409.791	262.25
410.014	269.25
410.238	257.25
410.461	244.25
410.685	247.25
410.908	253.25
411.132	267.25
411.355	296.25
411.578	267.25
411.802	245.25
412.025	251.25
412.249	266.25
412.472	267.25
412.695	286.25
412.919	273.25
413.142	246.25
413.365	245.25
413.589	236.25
413.812	255.25
414.035	222.25
414.258	240.25
414.482	230.25
414.705	245.25
414.928	240.25
415.151	229.25
415.374	228.25
415.597	236.25
415.821	237.25
416.044	243.25
416.267	259.25
416.49	233.25
416.713	242.25
416.936	245.25
417.159	260.25
417.382	241.25
417.605	264.25
417.828	236.25
418.051	253.25
418.274	250.25
418.497	259.25
418.72	245.25
418.943	238.25
419.166	243.25
419.389	250.25
419.611	252.25
419.834	264.25
420.057	242.25
420.28	264.25
420.503	272.25
420.726	261.25
420.948	266.25
421.171	265.25
421.394	267.25
421.617	260.25
421.839	257.25
422.062	256.25
422.285	247.25
422.507	291.25
422.73	304.25
422.953	297.25
423.175	266.25
423.398	274.25
423.621	274.25
423.843	282.25
424.066	273.25
424.288	256.25
424.511	278.25
424.733	300.25
424.956	311.25
425.178	309.25
425.401	309.25
425.623	292.25
425.846	297.25
426.068	277.25
426.291	265.25
426.513	279.25
426.735	281.25
426.958	286.25
427.18	321.25
427.402	361.25
427.625	397.25
427.847	354.25
428.069	296.25
428.292	290.25
428.514	249.25
428.736	272.25
428.958	245.25
429.181	246.25
429.403	263.25
429.625	254.25
429.847	274.25
430.069	310.25
430.292	279.25
430.514	264.25
430.736	241.25
430.958	254.25
431.18	255.25
431.402	229.25
431.624	227.25
431.846	235.25
432.068	241.25
432.29	226.25
432.512	244.25
432.734	267.25
432.956	247.25
433.178	239.25
433.4	241.25
433.622	266.25
433.844	249.25
434.066	244.25
434.287	242.25
434.509	219.25
434.731	258.25
434.953	241.25
435.175	261.25
435.397	278.25
435.618	251.25
435.84	299.25
436.062	320.25
436.284	347.25
436.505	284.25
436.727	246.25
436.949	240.25
437.17	267.25
437.392	238.25
437.614	253.25
437.835	273.25
438.057	320.25
438.278	329.25
438.5	347.25
438.721	362.25
438.943	359.25
439.165	286.25
439.386	253.25
439.608	279.25
439.829	276.25
440.05	289.25
440.272	295.25
440.493	274.25
440.715	247.25
440.936	269.25
441.158	248.25
441.379	254.25
441.6	257.25
441.822	270.25
442.043	290.25
442.264	310.25
442.486	334.25
442.707	280.25
442.928	288.25
443.149	276.25
443.371	291.25
443.592	311.25
443.813	337.25
444.034	360.25
444.255	314.25
444.476	289.25
444.698	286.25
444.919	276.25
445.14	358.25
445.361	308.25
445.582	288.25
445.803	332.25
446.024	361.25
446.245	382.25
446.466	324.25
446.687	304.25
446.908	275.25
447.129	252.25
447.35	256.25
447.571	247.25
447.792	248.25
448.013	244.25
448.234	245.25
448.455	269.25
448.675	330.25
448.896	358.25
449.117	289.25
449.338	293.25
449.559	344.25
449.779	363.25
450	300.25
450.221	267.25
450.442	248.25
450.662	262.25
450.883	259.25
451.104	283.25
451.324	254.25
451.545	248.25
451.766	252.25
451.986	216.25
452.207	235.25
452.428	228.25
452.648	240.25
452.869	225.25
453.089	216.25
453.31	242.25
453.53	253.25
453.751	221.25
453.971	221.25
454.192	264.25
454.412	224.25
454.633	227.25
454.853	228.25
455.073	233.25
455.294	253.25
455.514	274.25
455.734	255.25
455.955	240.25
456.175	200.25
456.395	225.25
456.616	202.25
456.836	202.25
457.056	214.25
457.276	209.25
457.497	213.25
457.717	225.25
457.937	227.25
458.157	213.25
458.377	223.25
458.598	238.25
458.818	276.25
459.038	316.25
459.258	297.25
459.478	271.25
459.698	240.25
459.918	241.25
460.138	227.25
460.358	234.25
460.578	246.25
460.798	243.25
461.018	256.25
461.238	248.25
461.458	248.25
461.678	230.25
461.898	245.25
462.118	234.25
462.338	258.25
462.558	233.25
462.777	261.25
462.997	233.25
463.217	252.25
463.437	258.25
463.657	237.25
463.876	258.25
464.096	257.25
464.316	253.25
464.536	258.25
464.755	248.25
464.975	276.25
465.195	300.25
465.414	354.25
465.634	295.25
465.854	271.25
466.073	256.25
466.293	243.25
466.512	242.25
466.732	224.25
466.951	224.25
467.171	224.25
467.391	233.25
467.61	247.25
467.829	244.25
468.049	245.25
468.268	238.25
468.488	222.25
468.707	210.25
468.927	235.25
469.146	217.25
469.365	226.25
469.585	216.25
469.804	250.25
470.023	252.25
470.243	240.25
470.462	238.25
470.681	251.25
470.901	251.25
471.12	225.25
471.339	234.25
471.558	222.25
471.777	233.25
471.997	227.25
472.216	254.25
472.435	285.25
472.654	249.25
472.873	229.25
473.092	232.25
473.311	242.25
473.53	259.25
473.749	244.25
473.968	261.25
474.187	301.25
474.406	301.25
474.625	265.25
474.844	237.25
475.063	256.25
475.282	236.25
475.501	232.25
475.72	238.25
475.939	233.25
476.158	243.25
476.377	237.25
476.596	231.25
476.814	259.25
477.033	256.25
477.252	266.25
477.471	252.25
477.69	256.25
477.908	258.25
478.127	253.25
478.346	249.25
478.564	244.25
478.783	264.25
479.002	252.25
479.22	263.25
479.439	288.25
479.658	260.25
479.876	271.25
480.095	282.25
480.313	297.25
480.532	281.25
480.751	302.25
480.969	306.25
481.188	357.25
481.406	361.25
481.624	294.25
481.843	291.25
482.061	272.25
482.28	262.25
482.498	260.25
482.717	247.25
482.935	266.25
483.153	291.25
483.372	263.25
483.59	271.25
483.808	248.25
484.027	278.25
484.245	248.25
484.463	268.25
484.681	249.25
484.9	266.25
485.118	270.25
485.336	286.25
485.554	301.25
485.772	282.25
485.99	293.25
486.209	275.25
486.427	278.25
486.645	290.25
486.863	309.25
487.081	283.25
487.299	276.25
487.517	321.25
487.735	284.25
487.953	296.25
488.171	293.25
488.389	284.25
488.607	299.25
488.825	293.25
489.043	289.25
489.261	291.25
489.479	304.25
489.696	292.25
489.914	289.25
490.132	293.25
490.35	304.25
490.568	304.25
490.786	287.25
491.003	317.25
491.221	332.25
491.439	333.25
491.657	339.25
491.874	327.25
492.092	335.25
492.31	349.25
492.527	329.25
492.745	327.25
492.963	338.25
493.18	338.25
493.398	337.25
493.615	352.25
493.833	346.25
494.05	336.25
494.268	336.25
494.485	333.25
494.703	348.25
494.92	345.25
495.138	329.25
495.355	327.25
495.573	350.25
495.79	334.25
496.008	344.25
496.225	347.25
496.442	346.25
496.66	333.25
496.877	340.25
497.094	324.25
497.312	321.25
497.529	345.25
497.746	338.25
497.963	356.25
498.181	349.25
498.398	349.25
498.615	368.25
498.832	345.25
499.049	376.25
499.267	380.25
499.484	395.25
499.701	398.25
499.918	420.25
500.135	416.25
500.352	428.25
500.569	455.25
500.786	455.25
501.003	449.25
501.22	420.25
501.437	428.25
501.654	413.25
501.871	428.25
502.088	406.25
502.305	390.25
502.522	377.25
