Data from 1966.PennyLincolnUp.Lamp.En5.5.200Scan.071719.P1.Scan2.head_HRD10591_14-16-31-036.txt Node
Date: Thu Jul 18 14:16:31 EDT 2019
User: cochatt
Spectrometer: HR+D1059
Trigger mode: 1
Integration Time (sec): 1.000000E-1
Scans to average: 1
Electric dark correction enabled: true
Nonlinearity correction enabled: false
Boxcar width: 0
XAxis mode: Wavelengths
Number of Pixels in Spectrum: 2048
>>>>>Begin Spectral Data<<<<<
223.165	-34.06
223.4	-34.06
223.635	-34.06
223.869	-19.06
224.104	-27.06
224.338	-17.06
224.573	-16.06
224.808	-16.06
225.042	-14.06
225.277	-5.06
225.511	0.94
225.746	9.94
225.98	11.94
226.215	12.94
226.449	10.94
226.683	30.94
226.918	32.94
227.152	37.94
227.387	28.94
227.621	17.94
227.856	43.94
228.09	44.94
228.324	37.94
228.559	35.94
228.793	63.94
229.027	93.94
229.262	92.94
229.496	100.94
229.73	112.94
229.964	121.94
230.199	109.94
230.433	103.94
230.667	100.94
230.901	98.94
231.136	106.94
231.37	117.94
231.604	100.94
231.838	93.94
232.072	91.94
232.306	94.94
232.541	100.94
232.775	97.94
233.009	120.94
233.243	108.94
233.477	102.94
233.711	112.94
233.945	104.94
234.179	122.94
234.413	107.94
234.647	103.94
234.881	95.94
235.115	104.94
235.349	120.94
235.583	101.94
235.817	109.94
236.051	123.94
236.285	115.94
236.519	103.94
236.753	115.94
236.987	112.94
237.221	152.94
237.455	204.94
237.689	159.94
237.922	135.94
238.156	115.94
238.39	109.94
238.624	112.94
238.858	116.94
239.091	111.94
239.325	120.94
239.559	108.94
239.793	113.94
240.027	121.94
240.26	118.94
240.494	133.94
240.728	139.94
240.961	129.94
241.195	118.94
241.429	148.94
241.662	124.94
241.896	123.94
242.13	116.94
242.363	120.94
242.597	130.94
242.83	116.94
243.064	122.94
243.298	135.94
243.531	123.94
243.765	134.94
243.998	133.94
244.232	123.94
244.465	132.94
244.699	133.94
244.932	131.94
245.166	122.94
245.399	119.94
245.633	120.94
245.866	137.94
246.099	134.94
246.333	133.94
246.566	149.94
246.8	139.94
247.033	149.94
247.266	137.94
247.5	167.94
247.733	140.94
247.966	156.94
248.2	160.94
248.433	154.94
248.666	155.94
248.899	164.94
249.133	164.94
249.366	172.94
249.599	178.94
249.832	165.94
250.066	172.94
250.299	149.94
250.532	162.94
250.765	169.94
250.998	186.94
251.231	187.94
251.465	185.94
251.698	166.94
251.931	162.94
252.164	177.94
252.397	177.94
252.63	171.94
252.863	192.94
253.096	192.94
253.329	196.94
253.562	178.94
253.795	175.94
254.028	189.94
254.261	183.94
254.494	173.94
254.727	212.94
254.96	226.94
255.193	197.94
255.426	198.94
255.659	179.94
255.892	183.94
256.124	197.94
256.357	200.94
256.59	185.94
256.823	170.94
257.056	169.94
257.289	188.94
257.521	178.94
257.754	177.94
257.987	193.94
258.22	178.94
258.452	175.94
258.685	180.94
258.918	179.94
259.151	180.94
259.383	188.94
259.616	195.94
259.849	191.94
260.081	196.94
260.314	203.94
260.547	225.94
260.779	211.94
261.012	202.94
261.244	192.94
261.477	210.94
261.71	195.94
261.942	201.94
262.175	201.94
262.407	184.94
262.64	188.94
262.872	188.94
263.105	190.94
263.337	191.94
263.57	185.94
263.802	164.94
264.035	175.94
264.267	191.94
264.499	199.94
264.732	187.94
264.964	197.94
265.197	199.94
265.429	191.94
265.661	191.94
265.894	191.94
266.126	177.94
266.358	199.94
266.591	188.94
266.823	196.94
267.055	181.94
267.287	193.94
267.52	192.94
267.752	198.94
267.984	201.94
268.216	207.94
268.448	202.94
268.681	211.94
268.913	211.94
269.145	224.94
269.377	212.94
269.609	226.94
269.841	220.94
270.073	225.94
270.306	224.94
270.538	248.94
270.77	252.94
271.002	245.94
271.234	233.94
271.466	239.94
271.698	243.94
271.93	247.94
272.162	267.94
272.394	261.94
272.626	248.94
272.858	217.94
273.09	229.94
273.322	228.94
273.553	217.94
273.785	228.94
274.017	228.94
274.249	226.94
274.481	223.94
274.713	257.94
274.945	239.94
275.176	212.94
275.408	223.94
275.64	229.94
275.872	211.94
276.104	223.94
276.335	237.94
276.567	241.94
276.799	245.94
277.031	262.94
277.262	263.94
277.494	266.94
277.726	241.94
277.957	231.94
278.189	235.94
278.421	207.94
278.652	215.94
278.884	229.94
279.115	233.94
279.347	235.94
279.579	230.94
279.81	227.94
280.042	224.94
280.273	219.94
280.505	257.94
280.736	261.94
280.968	232.94
281.199	223.94
281.431	229.94
281.662	244.94
281.894	252.94
282.125	239.94
282.356	252.94
282.588	281.94
282.819	240.94
283.051	234.94
283.282	255.94
283.513	239.94
283.745	236.94
283.976	239.94
284.207	236.94
284.439	260.94
284.67	254.94
284.901	240.94
285.132	236.94
285.364	243.94
285.595	243.94
285.826	244.94
286.057	233.94
286.288	234.94
286.52	252.94
286.751	261.94
286.982	247.94
287.213	245.94
287.444	239.94
287.675	246.94
287.906	266.94
288.138	271.94
288.369	251.94
288.6	265.94
288.831	252.94
289.062	245.94
289.293	265.94
289.524	242.94
289.755	247.94
289.986	267.94
290.217	246.94
290.448	257.94
290.679	257.94
290.91	256.94
291.141	265.94
291.371	272.94
291.602	268.94
291.833	258.94
292.064	255.94
292.295	256.94
292.526	248.94
292.757	256.94
292.987	270.94
293.218	252.94
293.449	258.94
293.68	248.94
293.91	246.94
294.141	260.94
294.372	255.94
294.603	246.94
294.833	257.94
295.064	268.94
295.295	264.94
295.525	260.94
295.756	271.94
295.987	280.94
296.217	289.94
296.448	275.94
296.679	275.94
296.909	262.94
297.14	263.94
297.37	266.94
297.601	280.94
297.831	283.94
298.062	267.94
298.292	269.94
298.523	275.94
298.753	274.94
298.984	246.94
299.214	284.94
299.445	260.94
299.675	277.94
299.905	291.94
300.136	275.94
300.366	271.94
300.597	280.94
300.827	269.94
301.057	290.94
301.288	285.94
301.518	271.94
301.748	284.94
301.979	286.94
302.209	274.94
302.439	293.94
302.669	289.94
302.9	272.94
303.13	286.94
303.36	276.94
303.59	290.94
303.82	298.94
304.051	293.94
304.281	291.94
304.511	279.94
304.741	295.94
304.971	277.94
305.201	291.94
305.431	276.94
305.661	292.94
305.891	289.94
306.121	304.94
306.352	304.94
306.582	296.94
306.812	285.94
307.042	284.94
307.272	293.94
307.502	299.94
307.731	301.94
307.961	303.94
308.191	295.94
308.421	290.94
308.651	318.94
308.881	292.94
309.111	305.94
309.341	298.94
309.571	298.94
309.8	317.94
310.03	309.94
310.26	315.94
310.49	322.94
310.72	315.94
310.949	340.94
311.179	338.94
311.409	310.94
311.639	315.94
311.868	337.94
312.098	315.94
312.328	317.94
312.557	341.94
312.787	320.94
313.017	333.94
313.246	320.94
313.476	313.94
313.706	308.94
313.935	335.94
314.165	317.94
314.394	335.94
314.624	336.94
314.853	330.94
315.083	336.94
315.312	346.94
315.542	322.94
315.771	324.94
316.001	314.94
316.23	326.94
316.46	329.94
316.689	330.94
316.919	337.94
317.148	340.94
317.377	336.94
317.607	344.94
317.836	359.94
318.065	357.94
318.295	315.94
318.524	324.94
318.753	323.94
318.983	334.94
319.212	327.94
319.441	323.94
319.67	340.94
319.9	343.94
320.129	345.94
320.358	335.94
320.587	344.94
320.816	314.94
321.046	345.94
321.275	330.94
321.504	351.94
321.733	344.94
321.962	329.94
322.191	352.94
322.42	361.94
322.649	358.94
322.878	378.94
323.108	371.94
323.337	364.94
323.566	379.94
323.795	383.94
324.024	416.94
324.253	496.94
324.482	636.94
324.71	1077.94
324.939	1545.94
325.168	1344.94
325.397	680.94
325.626	486.94
325.855	426.94
326.084	403.94
326.313	411.94
326.542	409.94
326.77	425.94
326.999	506.94
327.228	636.94
327.457	951.94
327.686	1202.94
327.914	752.94
328.143	507.94
328.372	454.94
328.6	428.94
328.829	431.94
329.058	426.94
329.287	435.94
329.515	415.94
329.744	416.94
329.972	391.94
330.201	419.94
330.43	439.94
330.658	435.94
330.887	483.94
331.115	448.94
331.344	424.94
331.572	385.94
331.801	372.94
332.03	403.94
332.258	405.94
332.486	376.94
332.715	377.94
332.943	408.94
333.172	392.94
333.4	398.94
333.629	415.94
333.857	406.94
334.085	417.94
334.314	433.94
334.542	454.94
334.771	461.94
334.999	452.94
335.227	411.94
335.455	419.94
335.684	425.94
335.912	389.94
336.14	385.94
336.369	403.94
336.597	405.94
336.825	390.94
337.053	423.94
337.281	385.94
337.51	403.94
337.738	404.94
337.966	397.94
338.194	395.94
338.422	375.94
338.65	380.94
338.878	401.94
339.106	403.94
339.334	382.94
339.562	383.94
339.79	376.94
340.018	384.94
340.246	357.94
340.474	403.94
340.702	392.94
340.93	373.94
341.158	384.94
341.386	378.94
341.614	384.94
341.842	377.94
342.07	384.94
342.298	381.94
342.526	391.94
342.754	389.94
342.981	391.94
343.209	378.94
343.437	381.94
343.665	396.94
343.893	391.94
344.12	395.94
344.348	405.94
344.576	409.94
344.804	407.94
345.031	398.94
345.259	401.94
345.487	401.94
345.714	364.94
345.942	383.94
346.17	371.94
346.397	372.94
346.625	380.94
346.853	369.94
347.08	375.94
347.308	389.94
347.535	376.94
347.763	388.94
347.99	375.94
348.218	363.94
348.445	369.94
348.673	357.94
348.9	375.94
349.128	362.94
349.355	362.94
349.583	367.94
349.81	359.94
350.037	342.94
350.265	343.94
350.492	384.94
350.72	373.94
350.947	380.94
351.174	380.94
351.402	386.94
351.629	388.94
351.856	373.94
352.083	390.94
352.311	385.94
352.538	351.94
352.765	365.94
352.992	381.94
353.22	376.94
353.447	363.94
353.674	377.94
353.901	364.94
354.128	364.94
354.355	362.94
354.583	370.94
354.81	371.94
355.037	367.94
355.264	377.94
355.491	344.94
355.718	341.94
355.945	352.94
356.172	356.94
356.399	357.94
356.626	365.94
356.853	370.94
357.08	371.94
357.307	360.94
357.534	378.94
357.761	365.94
357.988	379.94
358.215	371.94
358.441	382.94
358.668	369.94
358.895	378.94
359.122	375.94
359.349	376.94
359.576	380.94
359.802	378.94
360.029	403.94
360.256	411.94
360.483	398.94
360.709	385.94
360.936	372.94
361.163	366.94
361.39	383.94
361.616	370.94
361.843	391.94
362.07	369.94
362.296	378.94
362.523	355.94
362.749	356.94
362.976	357.94
363.203	385.94
363.429	366.94
363.656	377.94
363.882	363.94
364.109	364.94
364.335	360.94
364.562	379.94
364.788	373.94
365.015	357.94
365.241	376.94
365.468	381.94
365.694	401.94
365.92	380.94
366.147	369.94
366.373	373.94
366.599	361.94
366.826	376.94
367.052	361.94
367.278	397.94
367.505	360.94
367.731	372.94
367.957	370.94
368.184	374.94
368.41	388.94
368.636	384.94
368.862	405.94
369.089	374.94
369.315	373.94
369.541	393.94
369.767	378.94
369.993	376.94
370.219	373.94
370.445	377.94
370.672	382.94
370.898	365.94
371.124	383.94
371.35	388.94
371.576	410.94
371.802	388.94
372.028	371.94
372.254	396.94
372.48	400.94
372.706	397.94
372.932	381.94
373.158	390.94
373.384	393.94
373.61	372.94
373.835	375.94
374.061	394.94
374.287	397.94
374.513	415.94
374.739	398.94
374.965	388.94
375.191	379.94
375.416	377.94
375.642	376.94
375.868	403.94
376.094	378.94
376.319	400.94
376.545	393.94
376.771	391.94
376.997	408.94
377.222	403.94
377.448	405.94
377.674	405.94
377.899	376.94
378.125	374.94
378.35	378.94
378.576	405.94
378.802	370.94
379.027	393.94
379.253	377.94
379.478	377.94
379.704	388.94
379.929	391.94
380.155	389.94
380.38	391.94
380.606	403.94
380.831	387.94
381.057	413.94
381.282	398.94
381.507	383.94
381.733	395.94
381.958	401.94
382.184	397.94
382.409	390.94
382.634	413.94
382.86	401.94
383.085	405.94
383.31	400.94
383.535	398.94
383.761	402.94
383.986	400.94
384.211	419.94
384.436	407.94
384.662	420.94
384.887	414.94
385.112	424.94
385.337	423.94
385.562	420.94
385.787	436.94
386.013	435.94
386.238	448.94
386.463	442.94
386.688	459.94
386.913	428.94
387.138	421.94
387.363	437.94
387.588	443.94
387.813	422.94
388.038	451.94
388.263	438.94
388.488	428.94
388.713	440.94
388.938	435.94
389.163	428.94
389.387	435.94
389.612	431.94
389.837	422.94
390.062	414.94
390.287	433.94
390.512	439.94
390.736	425.94
390.961	450.94
391.186	456.94
391.411	428.94
391.636	437.94
391.86	450.94
392.085	450.94
392.31	453.94
392.534	465.94
392.759	439.94
392.984	457.94
393.208	459.94
393.433	492.94
393.658	477.94
393.882	467.94
394.107	450.94
394.331	453.94
394.556	414.94
394.78	435.94
395.005	445.94
395.229	457.94
395.454	462.94
395.678	459.94
395.903	472.94
396.127	471.94
396.352	479.94
396.576	481.94
396.801	461.94
397.025	491.94
397.249	497.94
397.474	493.94
397.698	476.94
397.922	483.94
398.147	488.94
398.371	507.94
398.595	501.94
398.82	477.94
399.044	499.94
399.268	496.94
399.492	563.94
399.717	595.94
399.941	627.94
400.165	618.94
400.389	629.94
400.613	580.94
400.837	541.94
401.062	545.94
401.286	521.94
401.51	512.94
401.734	513.94
401.958	521.94
402.182	501.94
402.406	512.94
402.63	525.94
402.854	493.94
403.078	508.94
403.302	515.94
403.526	530.94
403.75	507.94
403.974	521.94
404.198	510.94
404.422	522.94
404.645	518.94
404.869	519.94
405.093	552.94
405.317	571.94
405.541	598.94
405.765	567.94
405.988	546.94
406.212	556.94
406.436	553.94
406.66	572.94
406.883	561.94
407.107	587.94
407.331	615.94
407.555	640.94
407.778	683.94
408.002	628.94
408.226	581.94
408.449	588.94
408.673	585.94
408.896	582.94
409.12	615.94
409.344	585.94
409.567	553.94
409.791	517.94
410.014	540.94
410.238	521.94
410.461	519.94
410.685	525.94
410.908	546.94
411.132	557.94
411.355	599.94
411.578	548.94
411.802	501.94
412.025	519.94
412.249	529.94
412.472	524.94
412.695	571.94
412.919	556.94
413.142	529.94
413.365	495.94
413.589	516.94
413.812	502.94
414.035	511.94
414.258	515.94
414.482	516.94
414.705	485.94
414.928	495.94
415.151	500.94
415.374	508.94
415.597	489.94
415.821	489.94
416.044	479.94
416.267	498.94
416.49	495.94
416.713	482.94
416.936	487.94
417.159	470.94
417.382	474.94
417.605	504.94
417.828	487.94
418.051	481.94
418.274	505.94
418.497	487.94
418.72	503.94
418.943	480.94
419.166	495.94
419.389	535.94
419.611	506.94
419.834	528.94
420.057	533.94
420.28	526.94
420.503	499.94
420.726	517.94
420.948	506.94
421.171	547.94
421.394	584.94
421.617	529.94
421.839	511.94
422.062	520.94
422.285	527.94
422.507	560.94
422.73	680.94
422.953	635.94
423.175	566.94
423.398	531.94
423.621	531.94
423.843	535.94
424.066	544.94
424.288	524.94
424.511	543.94
424.733	611.94
424.956	685.94
425.178	639.94
425.401	637.94
425.623	674.94
425.846	589.94
426.068	530.94
426.291	545.94
426.513	535.94
426.735	539.94
426.958	589.94
427.18	664.94
427.402	778.94
427.625	845.94
427.847	694.94
428.069	589.94
428.292	565.94
428.514	536.94
428.736	503.94
428.958	475.94
429.181	489.94
429.403	502.94
429.625	517.94
429.847	548.94
430.069	596.94
430.292	575.94
430.514	527.94
430.736	503.94
430.958	485.94
431.18	484.94
431.402	494.94
431.624	461.94
431.846	452.94
432.068	493.94
432.29	497.94
432.512	487.94
432.734	507.94
432.956	483.94
433.178	490.94
433.4	504.94
433.622	470.94
433.844	491.94
434.066	457.94
434.287	480.94
434.509	500.94
434.731	499.94
434.953	500.94
435.175	519.94
435.397	519.94
435.618	552.94
435.84	568.94
436.062	636.94
436.284	710.94
436.505	601.94
436.727	537.94
436.949	508.94
437.17	505.94
437.392	500.94
437.614	501.94
437.835	517.94
438.057	611.94
438.278	719.94
438.5	680.94
438.721	779.94
438.943	749.94
439.165	605.94
439.386	549.94
439.608	536.94
439.829	537.94
440.05	533.94
440.272	600.94
440.493	551.94
440.715	511.94
440.936	515.94
441.158	502.94
441.379	525.94
441.6	525.94
441.822	522.94
442.043	554.94
442.264	633.94
442.486	695.94
442.707	579.94
442.928	550.94
443.149	555.94
443.371	563.94
443.592	623.94
443.813	688.94
444.034	772.94
444.255	627.94
444.476	559.94
444.698	539.94
444.919	549.94
445.14	649.94
445.361	609.94
445.582	581.94
445.803	647.94
446.024	711.94
446.245	709.94
446.466	659.94
446.687	563.94
446.908	532.94
447.129	484.94
447.35	474.94
447.571	503.94
447.792	507.94
448.013	485.94
448.234	496.94
448.455	549.94
448.675	669.94
448.896	757.94
449.117	635.94
449.338	614.94
449.559	685.94
449.779	823.94
450	660.94
450.221	534.94
450.442	495.94
450.662	481.94
450.883	465.94
451.104	475.94
451.324	479.94
451.545	460.94
451.766	454.94
451.986	467.94
452.207	445.94
452.428	461.94
452.648	435.94
452.869	429.94
453.089	433.94
453.31	437.94
453.53	437.94
453.751	429.94
453.971	445.94
454.192	433.94
454.412	444.94
454.633	447.94
454.853	434.94
455.073	456.94
455.294	462.94
455.514	512.94
455.734	521.94
455.955	468.94
456.175	449.94
456.395	445.94
456.616	443.94
456.836	428.94
457.056	419.94
457.276	445.94
457.497	424.94
457.717	429.94
457.937	446.94
458.157	453.94
458.377	458.94
458.598	461.94
458.818	485.94
459.038	547.94
459.258	572.94
459.478	489.94
459.698	488.94
459.918	478.94
460.138	495.94
460.358	487.94
460.578	473.94
460.798	500.94
461.018	517.94
461.238	514.94
461.458	487.94
461.678	511.94
461.898	525.94
462.118	487.94
462.338	529.94
462.558	532.94
462.777	536.94
462.997	555.94
463.217	560.94
463.437	563.94
463.657	533.94
463.876	545.94
464.096	560.94
464.316	551.94
464.536	545.94
464.755	556.94
464.975	547.94
465.195	554.94
465.414	590.94
465.634	549.94
465.854	521.94
466.073	503.94
466.293	471.94
466.512	496.94
466.732	471.94
466.951	461.94
467.171	479.94
467.391	472.94
467.61	470.94
467.829	482.94
468.049	463.94
468.268	460.94
468.488	456.94
468.707	464.94
468.927	453.94
469.146	435.94
469.365	462.94
469.585	459.94
469.804	472.94
470.023	455.94
470.243	471.94
470.462	466.94
470.681	494.94
470.901	515.94
471.12	476.94
471.339	469.94
471.558	495.94
471.777	468.94
471.997	461.94
472.216	498.94
472.435	486.94
472.654	463.94
472.873	469.94
473.092	471.94
473.311	471.94
473.53	450.94
473.749	488.94
473.968	521.94
474.187	564.94
474.406	594.94
474.625	516.94
474.844	489.94
475.063	468.94
475.282	465.94
475.501	496.94
475.72	473.94
475.939	483.94
476.158	512.94
476.377	484.94
476.596	504.94
476.814	511.94
477.033	491.94
477.252	519.94
477.471	513.94
477.69	514.94
477.908	526.94
478.127	537.94
478.346	544.94
478.564	562.94
478.783	567.94
479.002	544.94
479.22	567.94
479.439	569.94
479.658	581.94
479.876	572.94
480.095	589.94
480.313	588.94
480.532	573.94
480.751	610.94
480.969	581.94
481.188	602.94
481.406	616.94
481.624	595.94
481.843	585.94
482.061	555.94
482.28	580.94
482.498	580.94
482.717	554.94
482.935	549.94
483.153	551.94
483.372	569.94
483.59	576.94
483.808	571.94
484.027	546.94
484.245	549.94
484.463	545.94
484.681	595.94
484.9	574.94
485.118	579.94
485.336	586.94
485.554	616.94
485.772	582.94
485.99	584.94
486.209	577.94
486.427	569.94
486.645	589.94
486.863	586.94
487.081	584.94
487.299	590.94
487.517	591.94
487.735	575.94
487.953	606.94
488.171	602.94
488.389	593.94
488.607	611.94
488.825	602.94
489.043	597.94
489.261	590.94
489.479	600.94
489.696	603.94
489.914	623.94
490.132	617.94
490.35	611.94
490.568	618.94
490.786	633.94
491.003	643.94
491.221	661.94
491.439	641.94
491.657	675.94
491.874	647.94
492.092	652.94
492.31	669.94
492.527	676.94
492.745	662.94
492.963	670.94
493.18	680.94
493.398	691.94
493.615	682.94
493.833	701.94
494.05	672.94
494.268	667.94
494.485	677.94
494.703	683.94
494.92	671.94
495.138	693.94
495.355	715.94
495.573	713.94
495.79	698.94
496.008	719.94
496.225	692.94
496.442	678.94
496.66	704.94
496.877	719.94
497.094	713.94
497.312	705.94
497.529	715.94
497.746	732.94
497.963	780.94
498.181	778.94
498.398	787.94
498.615	828.94
498.832	829.94
499.049	826.94
499.267	846.94
499.484	887.94
499.701	940.94
499.918	971.94
500.135	987.94
500.352	1054.94
500.569	1054.94
500.786	1075.94
501.003	1044.94
501.22	1005.94
501.437	981.94
501.654	966.94
501.871	928.94
