Data from 1966.PennyLincolnUp.Lamp.En5.5.200Scan.071719.P1._HRD10591_14-14-09-914.txt Node
Date: Thu Jul 18 14:14:09 EDT 2019
User: cochatt
Spectrometer: HR+D1059
Trigger mode: 1
Integration Time (sec): 1.000000E-1
Scans to average: 1
Electric dark correction enabled: true
Nonlinearity correction enabled: false
Boxcar width: 0
XAxis mode: Wavelengths
Number of Pixels in Spectrum: 2048
>>>>>Begin Spectral Data<<<<<
223.165	-20.38
223.4	-20.38
223.635	-20.38
223.869	-27.38
224.104	-32.38
224.338	-7.38
224.573	-13.38
224.808	-16.38
225.042	-9.38
225.277	6.62
225.511	-3.38
225.746	-3.38
225.98	3.62
226.215	18.62
226.449	22.62
226.683	26.62
226.918	26.62
227.152	28.62
227.387	30.62
227.621	41.62
227.856	43.62
228.09	50.62
228.324	50.62
228.559	59.62
228.793	54.62
229.027	70.62
229.262	80.62
229.496	74.62
229.73	89.62
229.964	100.62
230.199	92.62
230.433	74.62
230.667	95.62
230.901	82.62
231.136	89.62
231.37	99.62
231.604	90.62
231.838	93.62
232.072	83.62
232.306	97.62
232.541	96.62
232.775	107.62
233.009	98.62
233.243	90.62
233.477	90.62
233.711	92.62
233.945	84.62
234.179	85.62
234.413	99.62
234.647	93.62
234.881	87.62
235.115	101.62
235.349	95.62
235.583	95.62
235.817	92.62
236.051	89.62
236.285	121.62
236.519	93.62
236.753	105.62
236.987	122.62
237.221	115.62
237.455	154.62
237.689	120.62
237.922	105.62
238.156	91.62
238.39	90.62
238.624	104.62
238.858	110.62
239.091	86.62
239.325	98.62
239.559	92.62
239.793	104.62
240.027	106.62
240.26	121.62
240.494	124.62
240.728	119.62
240.961	118.62
241.195	118.62
241.429	108.62
241.662	96.62
241.896	112.62
242.13	103.62
242.363	91.62
242.597	99.62
242.83	99.62
243.064	101.62
243.298	99.62
243.531	78.62
243.765	109.62
243.998	99.62
244.232	106.62
244.465	89.62
244.699	99.62
244.932	84.62
245.166	110.62
245.399	115.62
245.633	108.62
245.866	112.62
246.099	108.62
246.333	119.62
246.566	111.62
246.8	106.62
247.033	114.62
247.266	111.62
247.5	96.62
247.733	116.62
247.966	116.62
248.2	127.62
248.433	112.62
248.666	121.62
248.899	118.62
249.133	107.62
249.366	136.62
249.599	125.62
249.832	118.62
250.066	124.62
250.299	120.62
250.532	127.62
250.765	142.62
250.998	130.62
251.231	131.62
251.465	146.62
251.698	126.62
251.931	133.62
252.164	116.62
252.397	119.62
252.63	139.62
252.863	131.62
253.096	129.62
253.329	130.62
253.562	138.62
253.795	134.62
254.028	131.62
254.261	136.62
254.494	139.62
254.727	138.62
254.96	183.62
255.193	156.62
255.426	148.62
255.659	144.62
255.892	144.62
256.124	136.62
256.357	139.62
256.59	142.62
256.823	151.62
257.056	135.62
257.289	130.62
257.521	150.62
257.754	146.62
257.987	126.62
258.22	144.62
258.452	130.62
258.685	127.62
258.918	132.62
259.151	125.62
259.383	141.62
259.616	139.62
259.849	135.62
260.081	134.62
260.314	175.62
260.547	136.62
260.779	144.62
261.012	146.62
261.244	138.62
261.477	130.62
261.71	143.62
261.942	150.62
262.175	142.62
262.407	151.62
262.64	140.62
262.872	128.62
263.105	125.62
263.337	134.62
263.57	142.62
263.802	130.62
264.035	146.62
264.267	141.62
264.499	136.62
264.732	140.62
264.964	123.62
265.197	144.62
265.429	132.62
265.661	132.62
265.894	148.62
266.126	135.62
266.358	131.62
266.591	136.62
266.823	140.62
267.055	132.62
267.287	152.62
267.52	136.62
267.752	148.62
267.984	132.62
268.216	142.62
268.448	125.62
268.681	148.62
268.913	150.62
269.145	170.62
269.377	173.62
269.609	153.62
269.841	156.62
270.073	175.62
270.306	164.62
270.538	175.62
270.77	174.62
271.002	173.62
271.234	169.62
271.466	173.62
271.698	185.62
271.93	183.62
272.162	192.62
272.394	175.62
272.626	184.62
272.858	166.62
273.09	167.62
273.322	152.62
273.553	164.62
273.785	179.62
274.017	164.62
274.249	151.62
274.481	158.62
274.713	173.62
274.945	175.62
275.176	158.62
275.408	153.62
275.64	179.62
275.872	145.62
276.104	163.62
276.335	156.62
276.567	163.62
276.799	193.62
277.031	174.62
277.262	190.62
277.494	178.62
277.726	173.62
277.957	162.62
278.189	162.62
278.421	160.62
278.652	158.62
278.884	163.62
279.115	163.62
279.347	166.62
279.579	146.62
279.81	142.62
280.042	157.62
280.273	161.62
280.505	168.62
280.736	170.62
280.968	152.62
281.199	155.62
281.431	165.62
281.662	166.62
281.894	157.62
282.125	173.62
282.356	181.62
282.588	186.62
282.819	178.62
283.051	150.62
283.282	172.62
283.513	162.62
283.745	164.62
283.976	180.62
284.207	156.62
284.439	173.62
284.67	159.62
284.901	172.62
285.132	183.62
285.364	182.62
285.595	167.62
285.826	180.62
286.057	160.62
286.288	155.62
286.52	169.62
286.751	150.62
286.982	155.62
287.213	164.62
287.444	163.62
287.675	165.62
287.906	184.62
288.138	172.62
288.369	180.62
288.6	179.62
288.831	179.62
289.062	167.62
289.293	162.62
289.524	158.62
289.755	179.62
289.986	178.62
290.217	166.62
290.448	189.62
290.679	188.62
290.91	169.62
291.141	166.62
291.371	164.62
291.602	171.62
291.833	179.62
292.064	182.62
292.295	182.62
292.526	174.62
292.757	165.62
292.987	160.62
293.218	180.62
293.449	170.62
293.68	182.62
293.91	175.62
294.141	168.62
294.372	182.62
294.603	175.62
294.833	180.62
295.064	155.62
295.295	165.62
295.525	148.62
295.756	186.62
295.987	190.62
296.217	186.62
296.448	187.62
296.679	190.62
296.909	159.62
297.14	171.62
297.37	182.62
297.601	180.62
297.831	163.62
298.062	175.62
298.292	169.62
298.523	182.62
298.753	183.62
298.984	194.62
299.214	167.62
299.445	173.62
299.675	182.62
299.905	195.62
300.136	191.62
300.366	194.62
300.597	182.62
300.827	184.62
301.057	182.62
301.288	192.62
301.518	200.62
301.748	194.62
301.979	194.62
302.209	170.62
302.439	185.62
302.669	192.62
302.9	187.62
303.13	189.62
303.36	189.62
303.59	190.62
303.82	193.62
304.051	194.62
304.281	175.62
304.511	199.62
304.741	174.62
304.971	169.62
305.201	179.62
305.431	172.62
305.661	178.62
305.891	190.62
306.121	186.62
306.352	192.62
306.582	191.62
306.812	189.62
307.042	205.62
307.272	185.62
307.502	192.62
307.731	196.62
307.961	190.62
308.191	189.62
308.421	184.62
308.651	185.62
308.881	203.62
309.111	206.62
309.341	196.62
309.571	193.62
309.8	196.62
310.03	200.62
310.26	206.62
310.49	204.62
310.72	197.62
310.949	210.62
311.179	215.62
311.409	197.62
311.639	211.62
311.868	205.62
312.098	201.62
312.328	211.62
312.557	220.62
312.787	234.62
313.017	234.62
313.246	200.62
313.476	197.62
313.706	214.62
313.935	219.62
314.165	207.62
314.394	205.62
314.624	220.62
314.853	210.62
315.083	210.62
315.312	204.62
315.542	204.62
315.771	188.62
316.001	204.62
316.23	219.62
316.46	214.62
316.689	218.62
316.919	201.62
317.148	216.62
317.377	210.62
317.607	200.62
317.836	199.62
318.065	210.62
318.295	205.62
318.524	212.62
318.753	207.62
318.983	210.62
319.212	220.62
319.441	222.62
319.67	207.62
319.9	197.62
320.129	194.62
320.358	219.62
320.587	215.62
320.816	211.62
321.046	220.62
321.275	222.62
321.504	219.62
321.733	232.62
321.962	220.62
322.191	237.62
322.42	225.62
322.649	230.62
322.878	254.62
323.108	237.62
323.337	262.62
323.566	274.62
323.795	279.62
324.024	288.62
324.253	374.62
324.482	508.62
324.71	762.62
324.939	1065.62
325.168	863.62
325.397	446.62
325.626	304.62
325.855	269.62
326.084	258.62
326.313	263.62
326.542	273.62
326.77	286.62
326.999	351.62
327.228	450.62
327.457	683.62
327.686	782.62
327.914	512.62
328.143	352.62
328.372	324.62
328.6	307.62
328.829	289.62
329.058	310.62
329.287	330.62
329.515	290.62
329.744	265.62
329.972	277.62
330.201	286.62
330.43	311.62
330.658	332.62
330.887	341.62
331.115	328.62
331.344	291.62
331.572	252.62
331.801	254.62
332.03	268.62
332.258	261.62
332.486	246.62
332.715	238.62
332.943	234.62
333.172	240.62
333.4	247.62
333.629	258.62
333.857	235.62
334.085	253.62
334.314	288.62
334.542	299.62
334.771	312.62
334.999	270.62
335.227	256.62
335.455	226.62
335.684	253.62
335.912	252.62
336.14	238.62
336.369	232.62
336.597	229.62
336.825	257.62
337.053	229.62
337.281	249.62
337.51	246.62
337.738	244.62
337.966	226.62
338.194	221.62
338.422	222.62
338.65	244.62
338.878	229.62
339.106	235.62
339.334	228.62
339.562	227.62
339.79	236.62
340.018	235.62
340.246	225.62
340.474	237.62
340.702	231.62
340.93	211.62
341.158	221.62
341.386	227.62
341.614	221.62
341.842	231.62
342.07	223.62
342.298	226.62
342.526	230.62
342.754	236.62
342.981	215.62
343.209	227.62
343.437	217.62
343.665	230.62
343.893	234.62
344.12	233.62
344.348	237.62
344.576	236.62
344.804	237.62
345.031	250.62
345.259	232.62
345.487	234.62
345.714	227.62
345.942	231.62
346.17	231.62
346.397	223.62
346.625	213.62
346.853	239.62
347.08	220.62
347.308	215.62
347.535	218.62
347.763	233.62
347.99	223.62
348.218	226.62
348.445	238.62
348.673	232.62
348.9	247.62
349.128	229.62
349.355	220.62
349.583	220.62
349.81	219.62
350.037	219.62
350.265	204.62
350.492	192.62
350.72	211.62
350.947	230.62
351.174	224.62
351.402	218.62
351.629	231.62
351.856	213.62
352.083	213.62
352.311	212.62
352.538	233.62
352.765	232.62
352.992	234.62
353.22	237.62
353.447	231.62
353.674	208.62
353.901	218.62
354.128	200.62
354.355	192.62
354.583	203.62
354.81	222.62
355.037	208.62
355.264	214.62
355.491	204.62
355.718	212.62
355.945	222.62
356.172	190.62
356.399	211.62
356.626	198.62
356.853	216.62
357.08	199.62
357.307	212.62
357.534	213.62
357.761	205.62
357.988	212.62
358.215	205.62
358.441	213.62
358.668	208.62
358.895	221.62
359.122	208.62
359.349	220.62
359.576	214.62
359.802	232.62
360.029	263.62
360.256	253.62
360.483	247.62
360.709	215.62
360.936	218.62
361.163	228.62
361.39	229.62
361.616	218.62
361.843	230.62
362.07	224.62
362.296	220.62
362.523	211.62
362.749	222.62
362.976	228.62
363.203	225.62
363.429	221.62
363.656	202.62
363.882	203.62
364.109	212.62
364.335	230.62
364.562	218.62
364.788	198.62
365.015	210.62
365.241	211.62
365.468	233.62
365.694	198.62
365.92	212.62
366.147	219.62
366.373	205.62
366.599	210.62
366.826	205.62
367.052	204.62
367.278	218.62
367.505	211.62
367.731	210.62
367.957	195.62
368.184	202.62
368.41	203.62
368.636	227.62
368.862	243.62
369.089	209.62
369.315	219.62
369.541	215.62
369.767	207.62
369.993	207.62
370.219	213.62
370.445	209.62
370.672	194.62
370.898	198.62
371.124	212.62
371.35	204.62
371.576	206.62
371.802	199.62
372.028	194.62
372.254	203.62
372.48	204.62
372.706	204.62
372.932	208.62
373.158	219.62
373.384	218.62
373.61	205.62
373.835	222.62
374.061	206.62
374.287	203.62
374.513	208.62
374.739	214.62
374.965	228.62
375.191	220.62
375.416	189.62
375.642	206.62
375.868	212.62
376.094	201.62
376.319	206.62
376.545	199.62
376.771	188.62
376.997	204.62
377.222	193.62
377.448	205.62
377.674	216.62
377.899	219.62
378.125	200.62
378.35	201.62
378.576	195.62
378.802	203.62
379.027	199.62
379.253	205.62
379.478	214.62
379.704	217.62
379.929	214.62
380.155	217.62
380.38	222.62
380.606	211.62
380.831	188.62
381.057	213.62
381.282	202.62
381.507	204.62
381.733	217.62
381.958	212.62
382.184	196.62
382.409	220.62
382.634	219.62
382.86	232.62
383.085	202.62
383.31	206.62
383.535	209.62
383.761	218.62
383.986	215.62
384.211	205.62
384.436	205.62
384.662	229.62
384.887	244.62
385.112	217.62
385.337	212.62
385.562	214.62
385.787	223.62
386.013	242.62
386.238	217.62
386.463	220.62
386.688	227.62
386.913	223.62
387.138	219.62
387.363	209.62
387.588	246.62
387.813	222.62
388.038	214.62
388.263	218.62
388.488	236.62
388.713	217.62
388.938	239.62
389.163	220.62
389.387	219.62
389.612	220.62
389.837	230.62
390.062	225.62
390.287	219.62
390.512	208.62
390.736	219.62
390.961	231.62
391.186	218.62
391.411	216.62
391.636	237.62
391.86	242.62
392.085	221.62
392.31	220.62
392.534	235.62
392.759	229.62
392.984	215.62
393.208	245.62
393.433	219.62
393.658	235.62
393.882	209.62
394.107	220.62
394.331	217.62
394.556	211.62
394.78	226.62
395.005	231.62
395.229	221.62
395.454	234.62
395.678	223.62
395.903	227.62
396.127	245.62
396.352	244.62
396.576	242.62
396.801	230.62
397.025	222.62
397.249	222.62
397.474	241.62
397.698	253.62
397.922	234.62
398.147	258.62
398.371	242.62
398.595	252.62
398.82	266.62
399.044	258.62
399.268	255.62
399.492	276.62
399.717	274.62
399.941	300.62
400.165	299.62
400.389	306.62
400.613	260.62
400.837	264.62
401.062	251.62
401.286	242.62
401.51	264.62
401.734	265.62
401.958	255.62
402.182	245.62
402.406	250.62
402.63	264.62
402.854	270.62
403.078	260.62
403.302	251.62
403.526	283.62
403.75	271.62
403.974	284.62
404.198	254.62
404.422	266.62
404.645	264.62
404.869	272.62
405.093	282.62
405.317	319.62
405.541	312.62
405.765	318.62
405.988	280.62
406.212	297.62
406.436	308.62
406.66	302.62
406.883	284.62
407.107	282.62
407.331	316.62
407.555	332.62
407.778	336.62
408.002	320.62
408.226	307.62
408.449	276.62
408.673	286.62
408.896	295.62
409.12	306.62
409.344	310.62
409.567	278.62
409.791	244.62
410.014	255.62
410.238	245.62
410.461	234.62
410.685	271.62
410.908	272.62
411.132	276.62
411.355	308.62
411.578	294.62
411.802	267.62
412.025	266.62
412.249	262.62
412.472	262.62
412.695	282.62
412.919	293.62
413.142	253.62
413.365	252.62
413.589	245.62
413.812	246.62
414.035	255.62
414.258	234.62
414.482	233.62
414.705	249.62
414.928	256.62
415.151	244.62
415.374	238.62
415.597	256.62
415.821	234.62
416.044	255.62
416.267	252.62
416.49	249.62
416.713	239.62
416.936	232.62
417.159	237.62
417.382	247.62
417.605	248.62
417.828	256.62
418.051	272.62
418.274	253.62
418.497	257.62
418.72	246.62
418.943	247.62
419.166	282.62
419.389	264.62
419.611	262.62
419.834	266.62
420.057	277.62
420.28	255.62
420.503	244.62
420.726	272.62
420.948	270.62
421.171	281.62
421.394	296.62
421.617	262.62
421.839	272.62
422.062	258.62
422.285	273.62
422.507	292.62
422.73	334.62
422.953	312.62
423.175	288.62
423.398	266.62
423.621	282.62
423.843	275.62
424.066	282.62
424.288	286.62
424.511	288.62
424.733	309.62
424.956	336.62
425.178	344.62
425.401	346.62
425.623	330.62
425.846	280.62
426.068	278.62
426.291	267.62
426.513	276.62
426.735	275.62
426.958	318.62
427.18	330.62
427.402	412.62
427.625	424.62
427.847	381.62
428.069	320.62
428.292	306.62
428.514	258.62
428.736	252.62
428.958	237.62
429.181	252.62
429.403	261.62
429.625	258.62
429.847	273.62
430.069	310.62
430.292	316.62
430.514	278.62
430.736	262.62
430.958	266.62
431.18	231.62
431.402	234.62
431.624	239.62
431.846	244.62
432.068	253.62
432.29	242.62
432.512	244.62
432.734	263.62
432.956	259.62
433.178	253.62
433.4	260.62
433.622	235.62
433.844	249.62
434.066	242.62
434.287	222.62
434.509	235.62
434.731	258.62
434.953	240.62
435.175	264.62
435.397	294.62
435.618	290.62
435.84	291.62
436.062	334.62
436.284	336.62
436.505	298.62
436.727	272.62
436.949	282.62
437.17	247.62
437.392	262.62
437.614	267.62
437.835	284.62
438.057	335.62
438.278	369.62
438.5	382.62
438.721	382.62
438.943	356.62
439.165	308.62
439.386	284.62
439.608	283.62
439.829	282.62
440.05	288.62
440.272	322.62
440.493	292.62
440.715	277.62
440.936	265.62
441.158	262.62
441.379	272.62
441.6	279.62
441.822	289.62
442.043	302.62
442.264	363.62
442.486	354.62
442.707	314.62
442.928	283.62
443.149	290.62
443.371	301.62
443.592	320.62
443.813	347.62
444.034	388.62
444.255	320.62
444.476	289.62
444.698	268.62
444.919	275.62
445.14	380.62
445.361	324.62
445.582	315.62
445.803	335.62
446.024	377.62
446.245	371.62
446.466	344.62
446.687	295.62
446.908	280.62
447.129	244.62
447.35	243.62
447.571	251.62
447.792	251.62
448.013	254.62
448.234	266.62
448.455	274.62
448.675	344.62
448.896	388.62
449.117	328.62
449.338	306.62
449.559	358.62
449.779	367.62
450	314.62
450.221	286.62
450.442	248.62
450.662	236.62
450.883	254.62
451.104	270.62
451.324	275.62
451.545	257.62
451.766	237.62
451.986	249.62
452.207	244.62
452.428	235.62
452.648	233.62
452.869	238.62
453.089	253.62
453.31	255.62
453.53	253.62
453.751	214.62
453.971	250.62
454.192	260.62
454.412	227.62
454.633	245.62
454.853	247.62
455.073	235.62
455.294	248.62
455.514	286.62
455.734	273.62
455.955	233.62
456.175	226.62
456.395	228.62
456.616	214.62
456.836	230.62
457.056	227.62
457.276	198.62
457.497	195.62
457.717	223.62
457.937	220.62
458.157	220.62
458.377	233.62
458.598	246.62
458.818	268.62
459.038	326.62
459.258	323.62
459.478	260.62
459.698	250.62
459.918	250.62
460.138	248.62
460.358	242.62
460.578	249.62
460.798	260.62
461.018	260.62
461.238	240.62
461.458	237.62
461.678	252.62
461.898	250.62
462.118	237.62
462.338	249.62
462.558	262.62
462.777	264.62
462.997	276.62
463.217	278.62
463.437	284.62
463.657	266.62
463.876	270.62
464.096	255.62
464.316	261.62
464.536	280.62
464.755	269.62
464.975	270.62
465.195	319.62
465.414	350.62
465.634	281.62
465.854	272.62
466.073	246.62
466.293	250.62
466.512	246.62
466.732	248.62
466.951	236.62
467.171	245.62
467.391	252.62
467.61	262.62
467.829	262.62
468.049	255.62
468.268	253.62
468.488	247.62
468.707	241.62
468.927	250.62
469.146	230.62
469.365	246.62
469.585	238.62
469.804	246.62
470.023	239.62
470.243	242.62
470.462	248.62
470.681	247.62
470.901	251.62
471.12	245.62
471.339	254.62
471.558	260.62
471.777	258.62
471.997	248.62
472.216	239.62
472.435	274.62
472.654	266.62
472.873	238.62
473.092	237.62
473.311	244.62
473.53	242.62
473.749	252.62
473.968	283.62
474.187	294.62
474.406	327.62
474.625	251.62
474.844	247.62
475.063	249.62
475.282	248.62
475.501	254.62
475.72	256.62
475.939	232.62
476.158	239.62
476.377	255.62
476.596	254.62
476.814	255.62
477.033	246.62
477.252	271.62
477.471	263.62
477.69	259.62
477.908	277.62
478.127	262.62
478.346	279.62
478.564	274.62
478.783	281.62
479.002	266.62
479.22	272.62
479.439	281.62
479.658	292.62
479.876	296.62
480.095	299.62
480.313	290.62
480.532	301.62
480.751	288.62
480.969	311.62
481.188	356.62
481.406	404.62
481.624	303.62
481.843	297.62
482.061	293.62
482.28	276.62
482.498	285.62
482.717	276.62
482.935	284.62
483.153	278.62
483.372	281.62
483.59	266.62
483.808	290.62
484.027	280.62
484.245	276.62
484.463	281.62
484.681	300.62
484.9	282.62
485.118	290.62
485.336	285.62
485.554	290.62
485.772	282.62
485.99	288.62
486.209	295.62
486.427	294.62
486.645	291.62
486.863	310.62
487.081	295.62
487.299	302.62
487.517	295.62
487.735	285.62
487.953	327.62
488.171	314.62
488.389	290.62
488.607	316.62
488.825	291.62
489.043	296.62
489.261	300.62
489.479	316.62
489.696	313.62
489.914	321.62
490.132	313.62
490.35	313.62
490.568	314.62
490.786	334.62
491.003	339.62
491.221	332.62
491.439	335.62
491.657	328.62
491.874	345.62
492.092	360.62
492.31	370.62
492.527	354.62
492.745	365.62
492.963	357.62
493.18	335.62
493.398	349.62
493.615	361.62
493.833	345.62
494.05	365.62
494.268	350.62
494.485	383.62
494.703	347.62
494.92	364.62
495.138	346.62
495.355	347.62
495.573	332.62
495.79	343.62
496.008	345.62
496.225	344.62
496.442	344.62
496.66	347.62
496.877	368.62
497.094	364.62
497.312	343.62
497.529	362.62
497.746	323.62
497.963	354.62
498.181	370.62
498.398	368.62
498.615	386.62
498.832	399.62
499.049	396.62
499.267	385.62
499.484	411.62
499.701	417.62
499.918	421.62
500.135	440.62
500.352	482.62
500.569	487.62
500.786	459.62
501.003	466.62
501.22	461.62
501.437	419.62
501.654	427.62
501.871	437.62
502.088	404.62
502.305	414.62
502.522	381.62
