Data from 1966.PennyLincolnUp.Lamp.En5.5.200Scan.071719.P1.Scan2.head_HRD10591_14-17-22-103.txt Node
Date: Thu Jul 18 14:17:22 EDT 2019
User: cochatt
Spectrometer: HR+D1059
Trigger mode: 1
Integration Time (sec): 1.000000E-1
Scans to average: 1
Electric dark correction enabled: true
Nonlinearity correction enabled: false
Boxcar width: 0
XAxis mode: Wavelengths
Number of Pixels in Spectrum: 2048
>>>>>Begin Spectral Data<<<<<
223.165	-15.75
223.4	-15.75
223.635	-15.75
223.869	-8.75
224.104	-18.75
224.338	15.25
224.573	-17.75
224.808	-15.75
225.042	-4.75
225.277	-0.75
225.511	-6.75
225.746	-11.75
225.98	7.25
226.215	17.25
226.449	1.25
226.683	28.25
226.918	14.25
227.152	17.25
227.387	43.25
227.621	35.25
227.856	35.25
228.09	50.25
228.324	53.25
228.559	72.25
228.793	63.25
229.027	91.25
229.262	116.25
229.496	115.25
229.73	111.25
229.964	144.25
230.199	135.25
230.433	109.25
230.667	99.25
230.901	104.25
231.136	116.25
231.37	124.25
231.604	112.25
231.838	90.25
232.072	103.25
232.306	112.25
232.541	116.25
232.775	108.25
233.009	110.25
233.243	110.25
233.477	112.25
233.711	121.25
233.945	115.25
234.179	122.25
234.413	115.25
234.647	122.25
234.881	118.25
235.115	113.25
235.349	113.25
235.583	117.25
235.817	128.25
236.051	124.25
236.285	131.25
236.519	131.25
236.753	133.25
236.987	143.25
237.221	168.25
237.455	231.25
237.689	173.25
237.922	161.25
238.156	141.25
238.39	125.25
238.624	127.25
238.858	123.25
239.091	126.25
239.325	137.25
239.559	129.25
239.793	115.25
240.027	125.25
240.26	138.25
240.494	152.25
240.728	143.25
240.961	139.25
241.195	142.25
241.429	136.25
241.662	148.25
241.896	131.25
242.13	131.25
242.363	128.25
242.597	130.25
242.83	134.25
243.064	144.25
243.298	145.25
243.531	132.25
243.765	135.25
243.998	130.25
244.232	130.25
244.465	149.25
244.699	147.25
244.932	134.25
245.166	151.25
245.399	136.25
245.633	141.25
245.866	148.25
246.099	146.25
246.333	138.25
246.566	142.25
246.8	158.25
247.033	171.25
247.266	167.25
247.5	144.25
247.733	145.25
247.966	165.25
248.2	158.25
248.433	151.25
248.666	199.25
248.899	181.25
249.133	196.25
249.366	208.25
249.599	199.25
249.832	181.25
250.066	185.25
250.299	186.25
250.532	189.25
250.765	191.25
250.998	221.25
251.231	231.25
251.465	197.25
251.698	199.25
251.931	192.25
252.164	180.25
252.397	185.25
252.63	190.25
252.863	205.25
253.096	200.25
253.329	225.25
253.562	222.25
253.795	213.25
254.028	209.25
254.261	207.25
254.494	209.25
254.727	247.25
254.96	267.25
255.193	257.25
255.426	237.25
255.659	217.25
255.892	225.25
256.124	223.25
256.357	225.25
256.59	216.25
256.823	215.25
257.056	209.25
257.289	218.25
257.521	201.25
257.754	191.25
257.987	208.25
258.22	207.25
258.452	204.25
258.685	196.25
258.918	200.25
259.151	207.25
259.383	223.25
259.616	210.25
259.849	218.25
260.081	233.25
260.314	240.25
260.547	259.25
260.779	234.25
261.012	212.25
261.244	215.25
261.477	221.25
261.71	213.25
261.942	220.25
262.175	212.25
262.407	217.25
262.64	203.25
262.872	199.25
263.105	204.25
263.337	207.25
263.57	203.25
263.802	203.25
264.035	204.25
264.267	207.25
264.499	212.25
264.732	205.25
264.964	214.25
265.197	206.25
265.429	217.25
265.661	210.25
265.894	207.25
266.126	217.25
266.358	211.25
266.591	229.25
266.823	227.25
267.055	213.25
267.287	236.25
267.52	221.25
267.752	222.25
267.984	218.25
268.216	218.25
268.448	230.25
268.681	219.25
268.913	240.25
269.145	234.25
269.377	259.25
269.609	277.25
269.841	270.25
270.073	288.25
270.306	285.25
270.538	298.25
270.77	293.25
271.002	286.25
271.234	293.25
271.466	303.25
271.698	297.25
271.93	293.25
272.162	305.25
272.394	304.25
272.626	297.25
272.858	272.25
273.09	247.25
273.322	273.25
273.553	257.25
273.785	251.25
274.017	250.25
274.249	257.25
274.481	248.25
274.713	251.25
274.945	256.25
275.176	251.25
275.408	257.25
275.64	255.25
275.872	258.25
276.104	281.25
276.335	249.25
276.567	247.25
276.799	270.25
277.031	311.25
277.262	325.25
277.494	297.25
277.726	277.25
277.957	281.25
278.189	272.25
278.421	259.25
278.652	241.25
278.884	265.25
279.115	250.25
279.347	270.25
279.579	254.25
279.81	247.25
280.042	249.25
280.273	259.25
280.505	248.25
280.736	261.25
280.968	255.25
281.199	244.25
281.431	252.25
281.662	278.25
281.894	261.25
282.125	268.25
282.356	283.25
282.588	280.25
282.819	291.25
283.051	275.25
283.282	263.25
283.513	273.25
283.745	281.25
283.976	259.25
284.207	283.25
284.439	281.25
284.67	277.25
284.901	267.25
285.132	272.25
285.364	278.25
285.595	287.25
285.826	281.25
286.057	280.25
286.288	267.25
286.52	285.25
286.751	275.25
286.982	281.25
287.213	271.25
287.444	276.25
287.675	277.25
287.906	285.25
288.138	296.25
288.369	284.25
288.6	297.25
288.831	295.25
289.062	288.25
289.293	293.25
289.524	276.25
289.755	294.25
289.986	293.25
290.217	285.25
290.448	273.25
290.679	279.25
290.91	296.25
291.141	285.25
291.371	296.25
291.602	299.25
291.833	299.25
292.064	309.25
292.295	290.25
292.526	285.25
292.757	291.25
292.987	287.25
293.218	296.25
293.449	273.25
293.68	264.25
293.91	273.25
294.141	269.25
294.372	280.25
294.603	287.25
294.833	295.25
295.064	292.25
295.295	270.25
295.525	293.25
295.756	291.25
295.987	298.25
296.217	302.25
296.448	314.25
296.679	315.25
296.909	297.25
297.14	290.25
297.37	298.25
297.601	301.25
297.831	303.25
298.062	312.25
298.292	283.25
298.523	292.25
298.753	301.25
298.984	298.25
299.214	309.25
299.445	301.25
299.675	309.25
299.905	312.25
300.136	316.25
300.366	305.25
300.597	296.25
300.827	318.25
301.057	326.25
301.288	339.25
301.518	324.25
301.748	326.25
301.979	312.25
302.209	311.25
302.439	318.25
302.669	322.25
302.9	317.25
303.13	313.25
303.36	320.25
303.59	343.25
303.82	325.25
304.051	323.25
304.281	318.25
304.511	315.25
304.741	327.25
304.971	309.25
305.201	320.25
305.431	324.25
305.661	302.25
305.891	333.25
306.121	323.25
306.352	344.25
306.582	326.25
306.812	344.25
307.042	310.25
307.272	337.25
307.502	322.25
307.731	309.25
307.961	328.25
308.191	329.25
308.421	308.25
308.651	316.25
308.881	325.25
309.111	333.25
309.341	340.25
309.571	371.25
309.8	355.25
310.03	365.25
310.26	364.25
310.49	355.25
310.72	347.25
310.949	379.25
311.179	381.25
311.409	374.25
311.639	356.25
311.868	363.25
312.098	365.25
312.328	369.25
312.557	375.25
312.787	381.25
313.017	392.25
313.246	373.25
313.476	357.25
313.706	354.25
313.935	360.25
314.165	380.25
314.394	377.25
314.624	375.25
314.853	387.25
315.083	382.25
315.312	371.25
315.542	367.25
315.771	365.25
316.001	367.25
316.23	363.25
316.46	366.25
316.689	376.25
316.919	347.25
317.148	381.25
317.377	371.25
317.607	382.25
317.836	370.25
318.065	389.25
318.295	365.25
318.524	369.25
318.753	359.25
318.983	352.25
319.212	377.25
319.441	391.25
319.67	385.25
319.9	367.25
320.129	367.25
320.358	379.25
320.587	390.25
320.816	393.25
321.046	408.25
321.275	380.25
321.504	383.25
321.733	381.25
321.962	373.25
322.191	394.25
322.42	428.25
322.649	415.25
322.878	426.25
323.108	429.25
323.337	442.25
323.566	462.25
323.795	497.25
324.024	511.25
324.253	629.25
324.482	868.25
324.71	1333.25
324.939	1981.25
325.168	1764.25
325.397	864.25
325.626	603.25
325.855	524.25
326.084	501.25
326.313	475.25
326.542	479.25
326.77	525.25
326.999	585.25
327.228	829.25
327.457	1200.25
327.686	1519.25
327.914	1017.25
328.143	652.25
328.372	599.25
328.6	551.25
328.829	501.25
329.058	517.25
329.287	543.25
329.515	528.25
329.744	499.25
329.972	489.25
330.201	499.25
330.43	535.25
330.658	508.25
330.887	563.25
331.115	571.25
331.344	503.25
331.572	491.25
331.801	471.25
332.03	470.25
332.258	462.25
332.486	456.25
332.715	443.25
332.943	459.25
333.172	448.25
333.4	466.25
333.629	470.25
333.857	452.25
334.085	467.25
334.314	497.25
334.542	526.25
334.771	536.25
334.999	496.25
335.227	469.25
335.455	471.25
335.684	469.25
335.912	451.25
336.14	425.25
336.369	441.25
336.597	438.25
336.825	444.25
337.053	435.25
337.281	439.25
337.51	439.25
337.738	453.25
337.966	432.25
338.194	454.25
338.422	444.25
338.65	425.25
338.878	429.25
339.106	414.25
339.334	418.25
339.562	432.25
339.79	428.25
340.018	437.25
340.246	455.25
340.474	452.25
340.702	431.25
340.93	414.25
341.158	434.25
341.386	439.25
341.614	422.25
341.842	437.25
342.07	397.25
342.298	435.25
342.526	414.25
342.754	429.25
342.981	429.25
343.209	420.25
343.437	419.25
343.665	418.25
343.893	430.25
344.12	457.25
344.348	432.25
344.576	449.25
344.804	428.25
345.031	443.25
345.259	465.25
345.487	434.25
345.714	431.25
345.942	438.25
346.17	443.25
346.397	416.25
346.625	415.25
346.853	417.25
347.08	415.25
347.308	435.25
347.535	432.25
347.763	427.25
347.99	436.25
348.218	427.25
348.445	443.25
348.673	414.25
348.9	422.25
349.128	415.25
349.355	411.25
349.583	401.25
349.81	411.25
350.037	413.25
350.265	392.25
350.492	399.25
350.72	386.25
350.947	425.25
351.174	411.25
351.402	425.25
351.629	432.25
351.856	415.25
352.083	415.25
352.311	428.25
352.538	426.25
352.765	417.25
352.992	441.25
353.22	413.25
353.447	437.25
353.674	423.25
353.901	415.25
354.128	386.25
354.355	393.25
354.583	395.25
354.81	393.25
355.037	397.25
355.264	397.25
355.491	400.25
355.718	381.25
355.945	411.25
356.172	399.25
356.399	394.25
356.626	393.25
356.853	403.25
357.08	395.25
357.307	378.25
357.534	391.25
357.761	405.25
357.988	412.25
358.215	391.25
358.441	405.25
358.668	406.25
358.895	405.25
359.122	409.25
359.349	400.25
359.576	421.25
359.802	429.25
360.029	448.25
360.256	475.25
360.483	448.25
360.709	421.25
360.936	429.25
361.163	421.25
361.39	427.25
361.616	426.25
361.843	427.25
362.07	430.25
362.296	409.25
362.523	414.25
362.749	412.25
362.976	407.25
363.203	423.25
363.429	391.25
363.656	402.25
363.882	410.25
364.109	400.25
364.335	408.25
364.562	408.25
364.788	413.25
365.015	403.25
365.241	408.25
365.468	413.25
365.694	398.25
365.92	409.25
366.147	417.25
366.373	425.25
366.599	407.25
366.826	406.25
367.052	409.25
367.278	391.25
367.505	402.25
367.731	427.25
367.957	406.25
368.184	412.25
368.41	412.25
368.636	421.25
368.862	422.25
369.089	426.25
369.315	423.25
369.541	411.25
369.767	428.25
369.993	413.25
370.219	415.25
370.445	412.25
370.672	405.25
370.898	416.25
371.124	417.25
371.35	421.25
371.576	406.25
371.802	414.25
372.028	441.25
372.254	407.25
372.48	395.25
372.706	433.25
372.932	395.25
373.158	424.25
373.384	429.25
373.61	416.25
373.835	429.25
374.061	413.25
374.287	430.25
374.513	421.25
374.739	424.25
374.965	431.25
375.191	436.25
375.416	434.25
375.642	411.25
375.868	422.25
376.094	420.25
376.319	415.25
376.545	425.25
376.771	437.25
376.997	409.25
377.222	425.25
377.448	415.25
377.674	427.25
377.899	435.25
378.125	413.25
378.35	407.25
378.576	425.25
378.802	415.25
379.027	426.25
379.253	413.25
379.478	423.25
379.704	415.25
379.929	416.25
380.155	416.25
380.38	439.25
380.606	419.25
380.831	411.25
381.057	425.25
381.282	429.25
381.507	441.25
381.733	440.25
381.958	426.25
382.184	431.25
382.409	429.25
382.634	441.25
382.86	426.25
383.085	422.25
383.31	433.25
383.535	435.25
383.761	447.25
383.986	440.25
384.211	457.25
384.436	439.25
384.662	464.25
384.887	459.25
385.112	461.25
385.337	468.25
385.562	451.25
385.787	462.25
386.013	452.25
386.238	475.25
386.463	459.25
386.688	467.25
386.913	455.25
387.138	444.25
387.363	457.25
387.588	468.25
387.813	468.25
388.038	455.25
388.263	479.25
388.488	459.25
388.713	452.25
388.938	462.25
389.163	481.25
389.387	489.25
389.612	444.25
389.837	474.25
390.062	462.25
390.287	464.25
390.512	471.25
390.736	473.25
390.961	451.25
391.186	468.25
391.411	476.25
391.636	469.25
391.86	482.25
392.085	484.25
392.31	487.25
392.534	506.25
392.759	503.25
392.984	493.25
393.208	475.25
393.433	481.25
393.658	484.25
393.882	470.25
394.107	489.25
394.331	483.25
394.556	494.25
394.78	484.25
395.005	467.25
395.229	494.25
395.454	479.25
395.678	487.25
395.903	502.25
396.127	523.25
396.352	510.25
396.576	500.25
396.801	486.25
397.025	499.25
397.249	490.25
397.474	488.25
397.698	520.25
397.922	531.25
398.147	557.25
398.371	542.25
398.595	523.25
398.82	537.25
399.044	541.25
399.268	592.25
399.492	583.25
399.717	636.25
399.941	666.25
400.165	671.25
400.389	686.25
400.613	632.25
400.837	591.25
401.062	570.25
401.286	575.25
401.51	545.25
401.734	536.25
401.958	556.25
402.182	563.25
402.406	560.25
402.63	552.25
402.854	558.25
403.078	564.25
403.302	551.25
403.526	568.25
403.75	582.25
403.974	576.25
404.198	559.25
404.422	570.25
404.645	573.25
404.869	598.25
405.093	619.25
405.317	645.25
405.541	687.25
405.765	634.25
405.988	592.25
406.212	615.25
406.436	612.25
406.66	638.25
406.883	627.25
407.107	620.25
407.331	681.25
407.555	735.25
407.778	737.25
408.002	657.25
408.226	649.25
408.449	630.25
408.673	621.25
408.896	643.25
409.12	706.25
409.344	662.25
409.567	594.25
409.791	564.25
410.014	567.25
410.238	557.25
410.461	561.25
410.685	605.25
410.908	579.25
411.132	629.25
411.355	653.25
411.578	645.25
411.802	589.25
412.025	574.25
412.249	597.25
412.472	612.25
412.695	613.25
412.919	644.25
413.142	581.25
413.365	544.25
413.589	552.25
413.812	538.25
414.035	534.25
414.258	541.25
414.482	565.25
414.705	540.25
414.928	545.25
415.151	526.25
415.374	552.25
415.597	540.25
415.821	545.25
416.044	536.25
416.267	522.25
416.49	543.25
416.713	531.25
416.936	527.25
417.159	534.25
417.382	522.25
417.605	547.25
417.828	547.25
418.051	544.25
418.274	551.25
418.497	515.25
418.72	528.25
418.943	526.25
419.166	552.25
419.389	581.25
419.611	590.25
419.834	549.25
420.057	559.25
420.28	564.25
420.503	539.25
420.726	560.25
420.948	559.25
421.171	640.25
421.394	644.25
421.617	581.25
421.839	560.25
422.062	560.25
422.285	559.25
422.507	638.25
422.73	701.25
422.953	701.25
423.175	606.25
423.398	579.25
423.621	579.25
423.843	602.25
424.066	630.25
424.288	587.25
424.511	620.25
424.733	667.25
424.956	762.25
425.178	711.25
425.401	729.25
425.623	728.25
425.846	650.25
426.068	603.25
426.291	593.25
426.513	584.25
426.735	598.25
426.958	628.25
427.18	738.25
427.402	875.25
427.625	923.25
427.847	837.25
428.069	699.25
428.292	656.25
428.514	611.25
428.736	576.25
428.958	558.25
429.181	549.25
429.403	538.25
429.625	572.25
429.847	577.25
430.069	660.25
430.292	643.25
430.514	553.25
430.736	548.25
430.958	559.25
431.18	534.25
431.402	529.25
431.624	493.25
431.846	537.25
432.068	519.25
432.29	554.25
432.512	535.25
432.734	544.25
432.956	533.25
433.178	551.25
433.4	542.25
433.622	551.25
433.844	513.25
434.066	533.25
434.287	537.25
434.509	545.25
434.731	542.25
434.953	580.25
435.175	555.25
435.397	574.25
435.618	599.25
435.84	635.25
436.062	730.25
436.284	821.25
436.505	653.25
436.727	617.25
436.949	591.25
437.17	556.25
437.392	581.25
437.614	573.25
437.835	596.25
438.057	669.25
438.278	823.25
438.5	783.25
438.721	884.25
438.943	860.25
439.165	658.25
439.386	640.25
439.608	609.25
439.829	594.25
440.05	636.25
440.272	668.25
440.493	628.25
440.715	609.25
440.936	585.25
441.158	571.25
441.379	557.25
441.6	546.25
441.822	592.25
442.043	646.25
442.264	717.25
442.486	773.25
442.707	652.25
442.928	615.25
443.149	628.25
443.371	629.25
443.592	668.25
443.813	777.25
444.034	858.25
444.255	705.25
444.476	634.25
444.698	612.25
444.919	623.25
445.14	702.25
445.361	659.25
445.582	656.25
445.803	708.25
446.024	790.25
446.245	819.25
446.466	726.25
446.687	637.25
446.908	585.25
447.129	575.25
447.35	554.25
447.571	554.25
447.792	540.25
448.013	545.25
448.234	566.25
448.455	625.25
448.675	734.25
448.896	846.25
449.117	719.25
449.338	684.25
449.559	805.25
449.779	928.25
450	730.25
450.221	627.25
450.442	565.25
450.662	511.25
450.883	570.25
451.104	546.25
451.324	559.25
451.545	525.25
451.766	516.25
451.986	480.25
452.207	463.25
452.428	485.25
452.648	499.25
452.869	487.25
453.089	492.25
453.31	510.25
453.53	506.25
453.751	495.25
453.971	496.25
454.192	517.25
454.412	489.25
454.633	494.25
454.853	496.25
455.073	484.25
455.294	528.25
455.514	585.25
455.734	580.25
455.955	503.25
456.175	471.25
456.395	462.25
456.616	466.25
456.836	473.25
457.056	460.25
457.276	461.25
457.497	464.25
457.717	468.25
457.937	455.25
458.157	481.25
458.377	476.25
458.598	496.25
458.818	569.25
459.038	639.25
459.258	671.25
459.478	584.25
459.698	527.25
459.918	535.25
460.138	541.25
460.358	537.25
460.578	540.25
460.798	547.25
461.018	550.25
461.238	543.25
461.458	541.25
461.678	534.25
461.898	550.25
462.118	537.25
462.338	559.25
462.558	561.25
462.777	568.25
462.997	559.25
463.217	601.25
463.437	603.25
463.657	590.25
463.876	586.25
464.096	599.25
464.316	571.25
464.536	570.25
464.755	580.25
464.975	603.25
465.195	634.25
465.414	653.25
465.634	611.25
465.854	562.25
466.073	543.25
466.293	519.25
466.512	520.25
466.732	513.25
466.951	501.25
467.171	516.25
467.391	516.25
467.61	525.25
467.829	542.25
468.049	527.25
468.268	523.25
468.488	521.25
468.707	478.25
468.927	504.25
469.146	509.25
469.365	501.25
469.585	515.25
469.804	518.25
470.023	533.25
470.243	521.25
470.462	535.25
470.681	537.25
470.901	527.25
471.12	539.25
471.339	508.25
471.558	511.25
471.777	518.25
471.997	533.25
472.216	524.25
472.435	543.25
472.654	540.25
472.873	528.25
473.092	510.25
473.311	516.25
473.53	512.25
473.749	535.25
473.968	554.25
474.187	657.25
474.406	691.25
474.625	568.25
474.844	545.25
475.063	515.25
475.282	533.25
475.501	514.25
475.72	530.25
475.939	539.25
476.158	558.25
476.377	505.25
476.596	539.25
476.814	554.25
477.033	563.25
477.252	571.25
477.471	541.25
477.69	567.25
477.908	564.25
478.127	583.25
478.346	556.25
478.564	583.25
478.783	577.25
479.002	556.25
479.22	598.25
479.439	605.25
479.658	645.25
479.876	622.25
480.095	631.25
480.313	650.25
480.532	651.25
480.751	619.25
480.969	655.25
481.188	699.25
481.406	737.25
481.624	672.25
481.843	638.25
482.061	624.25
482.28	629.25
482.498	612.25
482.717	609.25
482.935	593.25
483.153	615.25
483.372	595.25
483.59	631.25
483.808	593.25
484.027	631.25
484.245	627.25
484.463	613.25
484.681	625.25
484.9	633.25
485.118	621.25
485.336	614.25
485.554	628.25
485.772	626.25
485.99	643.25
486.209	627.25
486.427	620.25
486.645	631.25
486.863	657.25
487.081	647.25
487.299	656.25
487.517	647.25
487.735	636.25
487.953	640.25
488.171	653.25
488.389	654.25
488.607	652.25
488.825	652.25
489.043	653.25
489.261	653.25
489.479	662.25
489.696	677.25
489.914	660.25
490.132	686.25
490.35	688.25
490.568	687.25
490.786	707.25
491.003	686.25
491.221	702.25
491.439	737.25
491.657	724.25
491.874	731.25
492.092	758.25
492.31	741.25
492.527	757.25
492.745	758.25
492.963	762.25
493.18	752.25
493.398	747.25
493.615	775.25
493.833	755.25
494.05	784.25
494.268	768.25
494.485	780.25
494.703	779.25
494.92	767.25
495.138	758.25
495.355	749.25
495.573	791.25
495.79	773.25
496.008	788.25
496.225	739.25
496.442	767.25
496.66	775.25
496.877	795.25
497.094	803.25
497.312	795.25
497.529	836.25
497.746	821.25
497.963	808.25
498.181	857.25
498.398	847.25
498.615	876.25
498.832	908.25
499.049	927.25
499.267	994.25
499.484	987.25
499.701	1000.25
499.918	1033.25
500.135	1048.25
500.352	1113.25
500.569	1148.25
500.786	1139.25
501.003	1120.25
501.22	1090.25
501.437	1061.25
501.654	1017.25
