Data from 1966.PennyLincolnUp.Lamp.En5.5.200Scan.071719.P1.Scan2.head_HRD10591_14-19-45-292.txt Node
Date: Thu Jul 18 14:19:45 EDT 2019
User: cochatt
Spectrometer: HR+D1059
Trigger mode: 1
Integration Time (sec): 1.000000E-1
Scans to average: 1
Electric dark correction enabled: true
Nonlinearity correction enabled: false
Boxcar width: 0
XAxis mode: Wavelengths
Number of Pixels in Spectrum: 2048
>>>>>Begin Spectral Data<<<<<
223.165	-4.19
223.4	-4.19
223.635	-4.19
223.869	-26.19
224.104	-21.19
224.338	-9.19
224.573	-30.19
224.808	-25.19
225.042	-20.19
225.277	-2.19
225.511	-6.19
225.746	2.81
225.98	14.81
226.215	18.81
226.449	20.81
226.683	22.81
226.918	24.81
227.152	39.81
227.387	41.81
227.621	28.81
227.856	36.81
228.09	38.81
228.324	56.81
228.559	59.81
228.793	64.81
229.027	92.81
229.262	106.81
229.496	126.81
229.73	130.81
229.964	156.81
230.199	123.81
230.433	107.81
230.667	123.81
230.901	106.81
231.136	103.81
231.37	118.81
231.604	114.81
231.838	118.81
232.072	110.81
232.306	104.81
232.541	112.81
232.775	112.81
233.009	125.81
233.243	120.81
233.477	103.81
233.711	115.81
233.945	109.81
234.179	112.81
234.413	109.81
234.647	112.81
234.881	118.81
235.115	104.81
235.349	124.81
235.583	124.81
235.817	120.81
236.051	126.81
236.285	140.81
236.519	122.81
236.753	133.81
236.987	156.81
237.221	196.81
237.455	246.81
237.689	181.81
237.922	154.81
238.156	160.81
238.39	132.81
238.624	141.81
238.858	124.81
239.091	127.81
239.325	122.81
239.559	120.81
239.793	123.81
240.027	146.81
240.26	156.81
240.494	165.81
240.728	161.81
240.961	151.81
241.195	139.81
241.429	142.81
241.662	147.81
241.896	122.81
242.13	127.81
242.363	125.81
242.597	138.81
242.83	139.81
243.064	134.81
243.298	139.81
243.531	144.81
243.765	139.81
243.998	147.81
244.232	143.81
244.465	148.81
244.699	153.81
244.932	152.81
245.166	144.81
245.399	166.81
245.633	157.81
245.866	146.81
246.099	155.81
246.333	168.81
246.566	164.81
246.8	164.81
247.033	154.81
247.266	168.81
247.5	171.81
247.733	174.81
247.966	183.81
248.2	194.81
248.433	170.81
248.666	170.81
248.899	190.81
249.133	190.81
249.366	216.81
249.599	208.81
249.832	186.81
250.066	192.81
250.299	188.81
250.532	200.81
250.765	208.81
250.998	230.81
251.231	233.81
251.465	211.81
251.698	212.81
251.931	196.81
252.164	213.81
252.397	213.81
252.63	215.81
252.863	208.81
253.096	212.81
253.329	224.81
253.562	212.81
253.795	225.81
254.028	216.81
254.261	216.81
254.494	245.81
254.727	282.81
254.96	314.81
255.193	280.81
255.426	253.81
255.659	234.81
255.892	242.81
256.124	237.81
256.357	242.81
256.59	245.81
256.823	211.81
257.056	238.81
257.289	230.81
257.521	221.81
257.754	228.81
257.987	225.81
258.22	234.81
258.452	212.81
258.685	224.81
258.918	220.81
259.151	223.81
259.383	229.81
259.616	226.81
259.849	253.81
260.081	240.81
260.314	267.81
260.547	296.81
260.779	251.81
261.012	262.81
261.244	230.81
261.477	225.81
261.71	232.81
261.942	230.81
262.175	251.81
262.407	236.81
262.64	237.81
262.872	219.81
263.105	219.81
263.337	228.81
263.57	222.81
263.802	216.81
264.035	212.81
264.267	199.81
264.499	225.81
264.732	225.81
264.964	226.81
265.197	215.81
265.429	218.81
265.661	218.81
265.894	230.81
266.126	240.81
266.358	229.81
266.591	215.81
266.823	250.81
267.055	246.81
267.287	227.81
267.52	245.81
267.752	224.81
267.984	246.81
268.216	232.81
268.448	248.81
268.681	229.81
268.913	235.81
269.145	267.81
269.377	296.81
269.609	279.81
269.841	274.81
270.073	269.81
270.306	311.81
270.538	322.81
270.77	328.81
271.002	330.81
271.234	297.81
271.466	291.81
271.698	324.81
271.93	312.81
272.162	337.81
272.394	331.81
272.626	322.81
272.858	308.81
273.09	310.81
273.322	293.81
273.553	292.81
273.785	284.81
274.017	284.81
274.249	275.81
274.481	272.81
274.713	277.81
274.945	290.81
275.176	297.81
275.408	288.81
275.64	284.81
275.872	266.81
276.104	289.81
276.335	278.81
276.567	296.81
276.799	302.81
277.031	311.81
277.262	340.81
277.494	330.81
277.726	319.81
277.957	286.81
278.189	297.81
278.421	302.81
278.652	290.81
278.884	305.81
279.115	280.81
279.347	286.81
279.579	294.81
279.81	284.81
280.042	282.81
280.273	287.81
280.505	285.81
280.736	290.81
280.968	299.81
281.199	278.81
281.431	296.81
281.662	292.81
281.894	310.81
282.125	283.81
282.356	308.81
282.588	309.81
282.819	339.81
283.051	314.81
283.282	290.81
283.513	296.81
283.745	282.81
283.976	311.81
284.207	290.81
284.439	299.81
284.67	299.81
284.901	279.81
285.132	292.81
285.364	277.81
285.595	297.81
285.826	284.81
286.057	301.81
286.288	310.81
286.52	310.81
286.751	307.81
286.982	311.81
287.213	296.81
287.444	307.81
287.675	310.81
287.906	304.81
288.138	327.81
288.369	314.81
288.6	322.81
288.831	315.81
289.062	305.81
289.293	315.81
289.524	326.81
289.755	327.81
289.986	298.81
290.217	332.81
290.448	300.81
290.679	306.81
290.91	330.81
291.141	320.81
291.371	314.81
291.602	313.81
291.833	298.81
292.064	312.81
292.295	308.81
292.526	288.81
292.757	312.81
292.987	318.81
293.218	301.81
293.449	309.81
293.68	326.81
293.91	308.81
294.141	307.81
294.372	321.81
294.603	300.81
294.833	310.81
295.064	299.81
295.295	322.81
295.525	305.81
295.756	320.81
295.987	295.81
296.217	338.81
296.448	354.81
296.679	301.81
296.909	300.81
297.14	296.81
297.37	298.81
297.601	331.81
297.831	307.81
298.062	291.81
298.292	320.81
298.523	338.81
298.753	319.81
298.984	331.81
299.214	292.81
299.445	336.81
299.675	311.81
299.905	340.81
300.136	316.81
300.366	331.81
300.597	316.81
300.827	321.81
301.057	371.81
301.288	344.81
301.518	349.81
301.748	349.81
301.979	352.81
302.209	350.81
302.439	348.81
302.669	349.81
302.9	342.81
303.13	331.81
303.36	345.81
303.59	353.81
303.82	361.81
304.051	350.81
304.281	317.81
304.511	358.81
304.741	344.81
304.971	344.81
305.201	338.81
305.431	350.81
305.661	364.81
305.891	348.81
306.121	372.81
306.352	373.81
306.582	380.81
306.812	350.81
307.042	355.81
307.272	352.81
307.502	342.81
307.731	380.81
307.961	353.81
308.191	364.81
308.421	349.81
308.651	356.81
308.881	366.81
309.111	364.81
309.341	374.81
309.571	378.81
309.8	372.81
310.03	405.81
310.26	396.81
310.49	401.81
310.72	404.81
310.949	416.81
311.179	409.81
311.409	404.81
311.639	379.81
311.868	395.81
312.098	390.81
312.328	418.81
312.557	412.81
312.787	432.81
313.017	418.81
313.246	402.81
313.476	402.81
313.706	390.81
313.935	404.81
314.165	430.81
314.394	414.81
314.624	428.81
314.853	419.81
315.083	411.81
315.312	417.81
315.542	404.81
315.771	394.81
316.001	398.81
316.23	403.81
316.46	388.81
316.689	395.81
316.919	402.81
317.148	410.81
317.377	406.81
317.607	382.81
317.836	405.81
318.065	407.81
318.295	407.81
318.524	405.81
318.753	389.81
318.983	395.81
319.212	398.81
319.441	408.81
319.67	420.81
319.9	400.81
320.129	396.81
320.358	414.81
320.587	407.81
320.816	416.81
321.046	435.81
321.275	420.81
321.504	442.81
321.733	428.81
321.962	442.81
322.191	432.81
322.42	462.81
322.649	469.81
322.878	472.81
323.108	495.81
323.337	496.81
323.566	518.81
323.795	562.81
324.024	581.81
324.253	729.81
324.482	998.81
324.71	1603.81
324.939	2398.81
325.168	2050.81
325.397	1003.81
325.626	671.81
325.855	566.81
326.084	539.81
326.313	524.81
326.542	516.81
326.77	571.81
326.999	667.81
327.228	928.81
327.457	1452.81
327.686	1828.81
327.914	1178.81
328.143	748.81
328.372	650.81
328.6	633.81
328.829	597.81
329.058	612.81
329.287	632.81
329.515	597.81
329.744	557.81
329.972	548.81
330.201	566.81
330.43	615.81
330.658	635.81
330.887	648.81
331.115	636.81
331.344	560.81
331.572	523.81
331.801	533.81
332.03	534.81
332.258	537.81
332.486	480.81
332.715	478.81
332.943	492.81
333.172	488.81
333.4	474.81
333.629	509.81
333.857	514.81
334.085	541.81
334.314	552.81
334.542	570.81
334.771	616.81
334.999	571.81
335.227	532.81
335.455	516.81
335.684	528.81
335.912	475.81
336.14	475.81
336.369	478.81
336.597	480.81
336.825	507.81
337.053	484.81
337.281	464.81
337.51	476.81
337.738	485.81
337.966	475.81
338.194	468.81
338.422	477.81
338.65	458.81
338.878	471.81
339.106	455.81
339.334	476.81
339.562	463.81
339.79	482.81
340.018	478.81
340.246	457.81
340.474	468.81
340.702	487.81
340.93	481.81
341.158	457.81
341.386	472.81
341.614	462.81
341.842	468.81
342.07	451.81
342.298	466.81
342.526	464.81
342.754	436.81
342.981	451.81
343.209	456.81
343.437	457.81
343.665	475.81
343.893	470.81
344.12	481.81
344.348	479.81
344.576	482.81
344.804	487.81
345.031	503.81
345.259	514.81
345.487	492.81
345.714	488.81
345.942	452.81
346.17	474.81
346.397	454.81
346.625	462.81
346.853	449.81
347.08	454.81
347.308	455.81
347.535	453.81
347.763	459.81
347.99	466.81
348.218	454.81
348.445	483.81
348.673	475.81
348.9	464.81
349.128	469.81
349.355	455.81
349.583	443.81
349.81	441.81
350.037	426.81
350.265	446.81
350.492	443.81
350.72	453.81
350.947	434.81
351.174	461.81
351.402	458.81
351.629	461.81
351.856	448.81
352.083	483.81
352.311	480.81
352.538	476.81
352.765	477.81
352.992	451.81
353.22	479.81
353.447	460.81
353.674	447.81
353.901	433.81
354.128	439.81
354.355	432.81
354.583	421.81
354.81	432.81
355.037	436.81
355.264	461.81
355.491	431.81
355.718	424.81
355.945	434.81
356.172	414.81
356.399	411.81
356.626	418.81
356.853	461.81
357.08	424.81
357.307	420.81
357.534	427.81
357.761	439.81
357.988	434.81
358.215	430.81
358.441	427.81
358.668	432.81
358.895	417.81
359.122	443.81
359.349	425.81
359.576	454.81
359.802	483.81
360.029	527.81
360.256	499.81
360.483	519.81
360.709	486.81
360.936	446.81
361.163	455.81
361.39	462.81
361.616	447.81
361.843	448.81
362.07	468.81
362.296	459.81
362.523	472.81
362.749	464.81
362.976	460.81
363.203	444.81
363.429	452.81
363.656	449.81
363.882	455.81
364.109	435.81
364.335	442.81
364.562	437.81
364.788	445.81
365.015	445.81
365.241	442.81
365.468	463.81
365.694	460.81
365.92	455.81
366.147	440.81
366.373	441.81
366.599	448.81
366.826	446.81
367.052	434.81
367.278	438.81
367.505	440.81
367.731	446.81
367.957	455.81
368.184	454.81
368.41	460.81
368.636	458.81
368.862	481.81
369.089	463.81
369.315	465.81
369.541	468.81
369.767	451.81
369.993	439.81
370.219	450.81
370.445	462.81
370.672	447.81
370.898	445.81
371.124	434.81
371.35	464.81
371.576	433.81
371.802	440.81
372.028	454.81
372.254	454.81
372.48	468.81
372.706	451.81
372.932	450.81
373.158	474.81
373.384	466.81
373.61	459.81
373.835	441.81
374.061	453.81
374.287	473.81
374.513	469.81
374.739	443.81
374.965	451.81
375.191	440.81
375.416	480.81
375.642	439.81
375.868	470.81
376.094	449.81
376.319	459.81
376.545	458.81
376.771	457.81
376.997	446.81
377.222	448.81
377.448	470.81
377.674	429.81
377.899	442.81
378.125	427.81
378.35	436.81
378.576	456.81
378.802	464.81
379.027	448.81
379.253	451.81
379.478	465.81
379.704	473.81
379.929	457.81
380.155	456.81
380.38	453.81
380.606	461.81
380.831	467.81
381.057	466.81
381.282	465.81
381.507	442.81
381.733	467.81
381.958	458.81
382.184	468.81
382.409	468.81
382.634	457.81
382.86	473.81
383.085	466.81
383.31	451.81
383.535	454.81
383.761	492.81
383.986	460.81
384.211	469.81
384.436	477.81
384.662	468.81
384.887	490.81
385.112	494.81
385.337	493.81
385.562	499.81
385.787	504.81
386.013	519.81
386.238	514.81
386.463	509.81
386.688	507.81
386.913	481.81
387.138	504.81
387.363	493.81
387.588	523.81
387.813	506.81
388.038	515.81
388.263	504.81
388.488	515.81
388.713	507.81
388.938	532.81
389.163	530.81
389.387	520.81
389.612	509.81
389.837	501.81
390.062	501.81
390.287	512.81
390.512	497.81
390.736	494.81
390.961	512.81
391.186	500.81
391.411	478.81
391.636	516.81
391.86	521.81
392.085	532.81
392.31	524.81
392.534	515.81
392.759	524.81
392.984	504.81
393.208	522.81
393.433	508.81
393.658	502.81
393.882	525.81
394.107	524.81
394.331	524.81
394.556	530.81
394.78	508.81
395.005	523.81
395.229	508.81
395.454	540.81
395.678	522.81
395.903	562.81
396.127	561.81
396.352	552.81
396.576	512.81
396.801	510.81
397.025	545.81
397.249	534.81
397.474	548.81
397.698	540.81
397.922	566.81
398.147	573.81
398.371	588.81
398.595	555.81
398.82	582.81
399.044	582.81
399.268	610.81
399.492	653.81
399.717	670.81
399.941	686.81
400.165	723.81
400.389	722.81
400.613	671.81
400.837	624.81
401.062	619.81
401.286	600.81
401.51	589.81
401.734	568.81
401.958	588.81
402.182	587.81
402.406	605.81
402.63	615.81
402.854	591.81
403.078	616.81
403.302	614.81
403.526	635.81
403.75	620.81
403.974	631.81
404.198	614.81
404.422	619.81
404.645	639.81
404.869	650.81
405.093	641.81
405.317	708.81
405.541	756.81
405.765	702.81
405.988	665.81
406.212	666.81
406.436	642.81
406.66	665.81
406.883	659.81
407.107	692.81
407.331	733.81
407.555	835.81
407.778	850.81
408.002	757.81
408.226	698.81
408.449	658.81
408.673	679.81
408.896	709.81
409.12	740.81
409.344	706.81
409.567	651.81
409.791	618.81
410.014	614.81
410.238	627.81
410.461	603.81
410.685	616.81
410.908	644.81
411.132	662.81
411.355	725.81
411.578	676.81
411.802	618.81
412.025	611.81
412.249	622.81
412.472	662.81
412.695	692.81
412.919	705.81
413.142	631.81
413.365	618.81
413.589	592.81
413.812	572.81
414.035	596.81
414.258	585.81
414.482	594.81
414.705	594.81
414.928	584.81
415.151	564.81
415.374	592.81
415.597	582.81
415.821	581.81
416.044	601.81
416.267	581.81
416.49	586.81
416.713	563.81
416.936	582.81
417.159	575.81
417.382	568.81
417.605	598.81
417.828	606.81
418.051	615.81
418.274	596.81
418.497	589.81
418.72	571.81
418.943	594.81
419.166	604.81
419.389	632.81
419.611	636.81
419.834	634.81
420.057	612.81
420.28	612.81
420.503	607.81
420.726	589.81
420.948	603.81
421.171	664.81
421.394	709.81
421.617	656.81
421.839	603.81
422.062	607.81
422.285	612.81
422.507	707.81
422.73	775.81
422.953	745.81
423.175	680.81
423.398	652.81
423.621	628.81
423.843	678.81
424.066	665.81
424.288	636.81
424.511	676.81
424.733	724.81
424.956	832.81
425.178	798.81
425.401	792.81
425.623	820.81
425.846	707.81
426.068	658.81
426.291	634.81
426.513	641.81
426.735	644.81
426.958	714.81
427.18	796.81
427.402	960.81
427.625	1062.81
427.847	887.81
428.069	781.81
428.292	687.81
428.514	642.81
428.736	619.81
428.958	599.81
429.181	579.81
429.403	578.81
429.625	617.81
429.847	628.81
430.069	729.81
430.292	736.81
430.514	620.81
430.736	626.81
430.958	582.81
431.18	591.81
431.402	605.81
431.624	573.81
431.846	580.81
432.068	566.81
432.29	556.81
432.512	565.81
432.734	569.81
432.956	585.81
433.178	557.81
433.4	566.81
433.622	561.81
433.844	594.81
434.066	556.81
434.287	586.81
434.509	595.81
434.731	600.81
434.953	611.81
435.175	633.81
435.397	608.81
435.618	651.81
435.84	716.81
436.062	798.81
436.284	889.81
436.505	764.81
436.727	658.81
436.949	629.81
437.17	614.81
437.392	594.81
437.614	621.81
437.835	676.81
438.057	794.81
438.278	889.81
438.5	890.81
438.721	976.81
438.943	925.81
439.165	712.81
439.386	664.81
439.608	653.81
439.829	649.81
440.05	692.81
440.272	736.81
440.493	690.81
440.715	654.81
440.936	624.81
441.158	609.81
441.379	608.81
441.6	636.81
441.822	654.81
442.043	692.81
442.264	796.81
442.486	829.81
442.707	739.81
442.928	678.81
443.149	692.81
443.371	681.81
443.592	738.81
443.813	855.81
444.034	944.81
444.255	772.81
444.476	690.81
444.698	689.81
444.919	663.81
445.14	785.81
445.361	735.81
445.582	700.81
445.803	774.81
446.024	900.81
446.245	930.81
446.466	822.81
446.687	710.81
446.908	665.81
447.129	622.81
447.35	604.81
447.571	607.81
447.792	577.81
448.013	597.81
448.234	625.81
448.455	696.81
448.675	843.81
448.896	938.81
449.117	788.81
449.338	739.81
449.559	873.81
449.779	1016.81
450	774.81
450.221	659.81
450.442	610.81
450.662	588.81
450.883	576.81
451.104	603.81
451.324	611.81
451.545	614.81
451.766	565.81
451.986	554.81
452.207	532.81
452.428	527.81
452.648	557.81
452.869	556.81
453.089	561.81
453.31	556.81
453.53	530.81
453.751	541.81
453.971	544.81
454.192	557.81
454.412	543.81
454.633	536.81
454.853	517.81
455.073	512.81
455.294	547.81
455.514	664.81
455.734	621.81
455.955	516.81
456.175	509.81
456.395	506.81
456.616	488.81
456.836	523.81
457.056	484.81
457.276	501.81
457.497	520.81
457.717	505.81
457.937	516.81
458.157	516.81
458.377	541.81
458.598	566.81
458.818	584.81
459.038	692.81
459.258	708.81
459.478	640.81
459.698	578.81
459.918	586.81
460.138	562.81
460.358	577.81
460.578	587.81
460.798	580.81
461.018	613.81
461.238	570.81
461.458	570.81
461.678	600.81
461.898	604.81
462.118	574.81
462.338	597.81
462.558	606.81
462.777	622.81
462.997	635.81
463.217	631.81
463.437	673.81
463.657	638.81
463.876	644.81
464.096	645.81
464.316	632.81
464.536	648.81
464.755	622.81
464.975	630.81
465.195	677.81
465.414	726.81
465.634	683.81
465.854	606.81
466.073	599.81
466.293	550.81
466.512	557.81
466.732	553.81
466.951	564.81
467.171	562.81
467.391	572.81
467.61	564.81
467.829	588.81
468.049	566.81
468.268	542.81
468.488	531.81
468.707	527.81
468.927	529.81
469.146	531.81
469.365	540.81
469.585	552.81
469.804	547.81
470.023	556.81
470.243	565.81
470.462	566.81
470.681	577.81
470.901	580.81
471.12	576.81
471.339	560.81
471.558	561.81
471.777	560.81
471.997	567.81
472.216	585.81
472.435	598.81
472.654	600.81
472.873	569.81
473.092	545.81
473.311	550.81
473.53	556.81
473.749	585.81
473.968	605.81
474.187	724.81
474.406	762.81
474.625	640.81
474.844	580.81
475.063	560.81
475.282	547.81
475.501	564.81
475.72	586.81
475.939	573.81
476.158	598.81
476.377	581.81
476.596	564.81
476.814	586.81
477.033	606.81
477.252	582.81
477.471	614.81
477.69	615.81
477.908	625.81
478.127	628.81
478.346	621.81
478.564	618.81
478.783	641.81
479.002	634.81
479.22	653.81
479.439	644.81
479.658	658.81
479.876	692.81
480.095	669.81
480.313	703.81
480.532	688.81
480.751	716.81
480.969	721.81
481.188	752.81
481.406	834.81
481.624	712.81
481.843	699.81
482.061	669.81
482.28	695.81
482.498	664.81
482.717	670.81
482.935	680.81
483.153	661.81
483.372	678.81
483.59	651.81
483.808	663.81
484.027	674.81
484.245	673.81
484.463	670.81
484.681	658.81
484.9	691.81
485.118	674.81
485.336	665.81
485.554	668.81
485.772	679.81
485.99	677.81
486.209	700.81
486.427	685.81
486.645	681.81
486.863	720.81
487.081	709.81
487.299	696.81
487.517	709.81
487.735	692.81
487.953	698.81
488.171	736.81
488.389	720.81
488.607	714.81
488.825	694.81
489.043	728.81
489.261	727.81
489.479	722.81
489.696	727.81
489.914	728.81
490.132	711.81
490.35	725.81
490.568	724.81
490.786	748.81
491.003	755.81
491.221	782.81
491.439	782.81
491.657	809.81
491.874	840.81
492.092	826.81
492.31	824.81
492.527	834.81
492.745	841.81
492.963	828.81
493.18	836.81
493.398	830.81
493.615	837.81
493.833	868.81
494.05	856.81
494.268	840.81
494.485	820.81
494.703	838.81
494.92	857.81
495.138	844.81
495.355	857.81
495.573	849.81
495.79	862.81
496.008	878.81
496.225	859.81
496.442	857.81
496.66	853.81
496.877	844.81
497.094	842.81
497.312	845.81
497.529	881.81
497.746	896.81
497.963	896.81
498.181	936.81
498.398	958.81
498.615	960.81
498.832	979.81
499.049	985.81
499.267	1019.81
499.484	1061.81
499.701	1075.81
499.918	1142.81
500.135	1182.81
500.352	1225.81
500.569	1217.81
500.786	1241.81
501.003	1236.81
501.22	1187.81
501.437	1148.81
501.654	1140.81
