Data from 1966.PennyLincolnUp.Lamp.En5.5.200Scan.071719.P1._HRD10591_14-12-28-912.txt Node
Date: Thu Jul 18 14:12:28 EDT 2019
User: cochatt
Spectrometer: HR+D1059
Trigger mode: 1
Integration Time (sec): 1.000000E-1
Scans to average: 1
Electric dark correction enabled: true
Nonlinearity correction enabled: false
Boxcar width: 0
XAxis mode: Wavelengths
Number of Pixels in Spectrum: 2048
>>>>>Begin Spectral Data<<<<<
223.165	-14.12
223.4	-14.12
223.635	-14.12
223.869	-22.12
224.104	-10.12
224.338	-16.12
224.573	-14.12
224.808	-12.12
225.042	-5.12
225.277	-7.12
225.511	-2.12
225.746	7.88
225.98	6.88
226.215	6.88
226.449	26.88
226.683	9.88
226.918	23.88
227.152	20.88
227.387	33.88
227.621	26.88
227.856	43.88
228.09	42.88
228.324	59.88
228.559	57.88
228.793	46.88
229.027	67.88
229.262	74.88
229.496	83.88
229.73	93.88
229.964	98.88
230.199	91.88
230.433	84.88
230.667	84.88
230.901	86.88
231.136	79.88
231.37	89.88
231.604	79.88
231.838	83.88
232.072	91.88
232.306	90.88
232.541	82.88
232.775	85.88
233.009	99.88
233.243	93.88
233.477	91.88
233.711	95.88
233.945	96.88
234.179	83.88
234.413	102.88
234.647	89.88
234.881	85.88
235.115	101.88
235.349	88.88
235.583	98.88
235.817	97.88
236.051	95.88
236.285	90.88
236.519	97.88
236.753	100.88
236.987	98.88
237.221	129.88
237.455	138.88
237.689	133.88
237.922	89.88
238.156	95.88
238.39	88.88
238.624	101.88
238.858	99.88
239.091	106.88
239.325	94.88
239.559	96.88
239.793	98.88
240.027	109.88
240.26	109.88
240.494	119.88
240.728	93.88
240.961	94.88
241.195	113.88
241.429	99.88
241.662	102.88
241.896	99.88
242.13	88.88
242.363	103.88
242.597	98.88
242.83	92.88
243.064	96.88
243.298	92.88
243.531	95.88
243.765	98.88
243.998	86.88
244.232	106.88
244.465	116.88
244.699	107.88
244.932	89.88
245.166	85.88
245.399	90.88
245.633	112.88
245.866	111.88
246.099	123.88
246.333	90.88
246.566	95.88
246.8	109.88
247.033	93.88
247.266	116.88
247.5	96.88
247.733	122.88
247.966	110.88
248.2	115.88
248.433	113.88
248.666	116.88
248.899	126.88
249.133	122.88
249.366	136.88
249.599	123.88
249.832	106.88
250.066	107.88
250.299	114.88
250.532	129.88
250.765	135.88
250.998	121.88
251.231	142.88
251.465	139.88
251.698	118.88
251.931	110.88
252.164	126.88
252.397	123.88
252.63	122.88
252.863	126.88
253.096	127.88
253.329	140.88
253.562	140.88
253.795	120.88
254.028	126.88
254.261	120.88
254.494	120.88
254.727	141.88
254.96	161.88
255.193	147.88
255.426	134.88
255.659	135.88
255.892	154.88
256.124	141.88
256.357	125.88
256.59	134.88
256.823	125.88
257.056	129.88
257.289	126.88
257.521	123.88
257.754	125.88
257.987	124.88
258.22	132.88
258.452	139.88
258.685	119.88
258.918	125.88
259.151	122.88
259.383	113.88
259.616	129.88
259.849	124.88
260.081	137.88
260.314	148.88
260.547	162.88
260.779	148.88
261.012	137.88
261.244	124.88
261.477	140.88
261.71	108.88
261.942	123.88
262.175	121.88
262.407	143.88
262.64	121.88
262.872	123.88
263.105	130.88
263.337	129.88
263.57	126.88
263.802	126.88
264.035	116.88
264.267	121.88
264.499	133.88
264.732	127.88
264.964	117.88
265.197	126.88
265.429	138.88
265.661	130.88
265.894	119.88
266.126	125.88
266.358	114.88
266.591	131.88
266.823	129.88
267.055	136.88
267.287	135.88
267.52	141.88
267.752	154.88
267.984	125.88
268.216	132.88
268.448	153.88
268.681	149.88
268.913	132.88
269.145	157.88
269.377	161.88
269.609	144.88
269.841	149.88
270.073	163.88
270.306	145.88
270.538	187.88
270.77	178.88
271.002	171.88
271.234	161.88
271.466	169.88
271.698	165.88
271.93	180.88
272.162	183.88
272.394	171.88
272.626	163.88
272.858	151.88
273.09	141.88
273.322	157.88
273.553	143.88
273.785	148.88
274.017	146.88
274.249	151.88
274.481	133.88
274.713	161.88
274.945	156.88
275.176	140.88
275.408	145.88
275.64	150.88
275.872	159.88
276.104	145.88
276.335	162.88
276.567	152.88
276.799	155.88
277.031	164.88
277.262	180.88
277.494	158.88
277.726	171.88
277.957	159.88
278.189	163.88
278.421	155.88
278.652	149.88
278.884	158.88
279.115	148.88
279.347	149.88
279.579	135.88
279.81	154.88
280.042	155.88
280.273	162.88
280.505	161.88
280.736	153.88
280.968	152.88
281.199	137.88
281.431	148.88
281.662	151.88
281.894	160.88
282.125	166.88
282.356	158.88
282.588	165.88
282.819	158.88
283.051	155.88
283.282	151.88
283.513	159.88
283.745	160.88
283.976	152.88
284.207	156.88
284.439	161.88
284.67	149.88
284.901	154.88
285.132	153.88
285.364	155.88
285.595	158.88
285.826	162.88
286.057	169.88
286.288	152.88
286.52	155.88
286.751	149.88
286.982	156.88
287.213	159.88
287.444	157.88
287.675	163.88
287.906	169.88
288.138	167.88
288.369	160.88
288.6	188.88
288.831	153.88
289.062	155.88
289.293	166.88
289.524	153.88
289.755	154.88
289.986	165.88
290.217	149.88
290.448	153.88
290.679	157.88
290.91	165.88
291.141	172.88
291.371	170.88
291.602	162.88
291.833	154.88
292.064	161.88
292.295	157.88
292.526	169.88
292.757	162.88
292.987	162.88
293.218	162.88
293.449	162.88
293.68	152.88
293.91	177.88
294.141	164.88
294.372	153.88
294.603	156.88
294.833	149.88
295.064	162.88
295.295	172.88
295.525	179.88
295.756	166.88
295.987	163.88
296.217	174.88
296.448	174.88
296.679	158.88
296.909	156.88
297.14	174.88
297.37	158.88
297.601	159.88
297.831	168.88
298.062	169.88
298.292	177.88
298.523	180.88
298.753	165.88
298.984	171.88
299.214	161.88
299.445	181.88
299.675	171.88
299.905	161.88
300.136	159.88
300.366	166.88
300.597	166.88
300.827	167.88
301.057	176.88
301.288	166.88
301.518	177.88
301.748	183.88
301.979	174.88
302.209	179.88
302.439	179.88
302.669	179.88
302.9	182.88
303.13	183.88
303.36	191.88
303.59	178.88
303.82	172.88
304.051	170.88
304.281	162.88
304.511	173.88
304.741	163.88
304.971	178.88
305.201	174.88
305.431	169.88
305.661	177.88
305.891	173.88
306.121	179.88
306.352	172.88
306.582	177.88
306.812	177.88
307.042	171.88
307.272	165.88
307.502	178.88
307.731	196.88
307.961	183.88
308.191	164.88
308.421	173.88
308.651	172.88
308.881	174.88
309.111	191.88
309.341	193.88
309.571	174.88
309.8	183.88
310.03	186.88
310.26	187.88
310.49	189.88
310.72	177.88
310.949	201.88
311.179	211.88
311.409	204.88
311.639	177.88
311.868	173.88
312.098	183.88
312.328	187.88
312.557	214.88
312.787	198.88
313.017	200.88
313.246	205.88
313.476	198.88
313.706	186.88
313.935	187.88
314.165	200.88
314.394	203.88
314.624	210.88
314.853	205.88
315.083	205.88
315.312	191.88
315.542	186.88
315.771	182.88
316.001	174.88
316.23	197.88
316.46	185.88
316.689	181.88
316.919	215.88
317.148	197.88
317.377	197.88
317.607	202.88
317.836	187.88
318.065	190.88
318.295	197.88
318.524	185.88
318.753	189.88
318.983	187.88
319.212	196.88
319.441	190.88
319.67	171.88
319.9	201.88
320.129	197.88
320.358	186.88
320.587	193.88
320.816	208.88
321.046	207.88
321.275	190.88
321.504	189.88
321.733	189.88
321.962	194.88
322.191	205.88
322.42	207.88
322.649	212.88
322.878	229.88
323.108	213.88
323.337	226.88
323.566	249.88
323.795	256.88
324.024	287.88
324.253	316.88
324.482	433.88
324.71	707.88
324.939	887.88
325.168	702.88
325.397	382.88
325.626	290.88
325.855	262.88
326.084	217.88
326.313	231.88
326.542	240.88
326.77	257.88
326.999	327.88
327.228	404.88
327.457	574.88
327.686	675.88
327.914	433.88
328.143	308.88
328.372	275.88
328.6	275.88
328.829	257.88
329.058	289.88
329.287	277.88
329.515	238.88
329.744	238.88
329.972	240.88
330.201	250.88
330.43	289.88
330.658	287.88
330.887	308.88
331.115	293.88
331.344	267.88
331.572	238.88
331.801	234.88
332.03	217.88
332.258	222.88
332.486	221.88
332.715	251.88
332.943	220.88
333.172	231.88
333.4	213.88
333.629	221.88
333.857	247.88
334.085	237.88
334.314	248.88
334.542	275.88
334.771	270.88
334.999	233.88
335.227	232.88
335.455	219.88
335.684	223.88
335.912	217.88
336.14	230.88
336.369	204.88
336.597	228.88
336.825	222.88
337.053	215.88
337.281	219.88
337.51	222.88
337.738	224.88
337.966	218.88
338.194	216.88
338.422	212.88
338.65	231.88
338.878	227.88
339.106	184.88
339.334	219.88
339.562	199.88
339.79	212.88
340.018	214.88
340.246	214.88
340.474	214.88
340.702	201.88
340.93	219.88
341.158	218.88
341.386	201.88
341.614	202.88
341.842	203.88
342.07	222.88
342.298	208.88
342.526	200.88
342.754	205.88
342.981	190.88
343.209	201.88
343.437	219.88
343.665	232.88
343.893	221.88
344.12	206.88
344.348	226.88
344.576	200.88
344.804	218.88
345.031	214.88
345.259	238.88
345.487	213.88
345.714	218.88
345.942	194.88
346.17	212.88
346.397	201.88
346.625	191.88
346.853	208.88
347.08	207.88
347.308	202.88
347.535	213.88
347.763	192.88
347.99	215.88
348.218	192.88
348.445	211.88
348.673	215.88
348.9	187.88
349.128	205.88
349.355	181.88
349.583	184.88
349.81	173.88
350.037	189.88
350.265	205.88
350.492	200.88
350.72	198.88
350.947	204.88
351.174	191.88
351.402	209.88
351.629	220.88
351.856	210.88
352.083	218.88
352.311	200.88
352.538	220.88
352.765	202.88
352.992	234.88
353.22	208.88
353.447	193.88
353.674	208.88
353.901	213.88
354.128	205.88
354.355	217.88
354.583	192.88
354.81	186.88
355.037	198.88
355.264	212.88
355.491	194.88
355.718	195.88
355.945	199.88
356.172	191.88
356.399	179.88
356.626	181.88
356.853	181.88
357.08	203.88
357.307	192.88
357.534	205.88
357.761	191.88
357.988	194.88
358.215	194.88
358.441	196.88
358.668	198.88
358.895	196.88
359.122	197.88
359.349	197.88
359.576	213.88
359.802	218.88
360.029	237.88
360.256	231.88
360.483	207.88
360.709	200.88
360.936	202.88
361.163	201.88
361.39	202.88
361.616	205.88
361.843	210.88
362.07	218.88
362.296	204.88
362.523	209.88
362.749	202.88
362.976	194.88
363.203	196.88
363.429	194.88
363.656	205.88
363.882	195.88
364.109	209.88
364.335	195.88
364.562	201.88
364.788	198.88
365.015	211.88
365.241	196.88
365.468	191.88
365.694	201.88
365.92	199.88
366.147	201.88
366.373	193.88
366.599	201.88
366.826	185.88
367.052	188.88
367.278	185.88
367.505	198.88
367.731	200.88
367.957	200.88
368.184	189.88
368.41	211.88
368.636	189.88
368.862	207.88
369.089	205.88
369.315	200.88
369.541	199.88
369.767	187.88
369.993	209.88
370.219	201.88
370.445	184.88
370.672	197.88
370.898	170.88
371.124	196.88
371.35	191.88
371.576	210.88
371.802	184.88
372.028	178.88
372.254	184.88
372.48	198.88
372.706	207.88
372.932	191.88
373.158	206.88
373.384	192.88
373.61	190.88
373.835	190.88
374.061	195.88
374.287	204.88
374.513	212.88
374.739	191.88
374.965	195.88
375.191	209.88
375.416	184.88
375.642	201.88
375.868	191.88
376.094	208.88
376.319	203.88
376.545	200.88
376.771	177.88
376.997	194.88
377.222	190.88
377.448	205.88
377.674	189.88
377.899	188.88
378.125	195.88
378.35	202.88
378.576	204.88
378.802	188.88
379.027	182.88
379.253	193.88
379.478	185.88
379.704	195.88
379.929	189.88
380.155	214.88
380.38	193.88
380.606	197.88
380.831	199.88
381.057	209.88
381.282	201.88
381.507	199.88
381.733	189.88
381.958	203.88
382.184	220.88
382.409	213.88
382.634	211.88
382.86	199.88
383.085	182.88
383.31	199.88
383.535	209.88
383.761	193.88
383.986	202.88
384.211	209.88
384.436	200.88
384.662	214.88
384.887	210.88
385.112	202.88
385.337	221.88
385.562	205.88
385.787	193.88
386.013	220.88
386.238	233.88
386.463	229.88
386.688	210.88
386.913	201.88
387.138	206.88
387.363	215.88
387.588	217.88
387.813	194.88
388.038	213.88
388.263	220.88
388.488	203.88
388.713	226.88
388.938	206.88
389.163	208.88
389.387	201.88
389.612	206.88
389.837	213.88
390.062	219.88
390.287	212.88
390.512	215.88
390.736	213.88
390.961	208.88
391.186	203.88
391.411	213.88
391.636	224.88
391.86	211.88
392.085	210.88
392.31	227.88
392.534	218.88
392.759	212.88
392.984	195.88
393.208	225.88
393.433	228.88
393.658	236.88
393.882	226.88
394.107	233.88
394.331	221.88
394.556	211.88
394.78	211.88
395.005	214.88
395.229	215.88
395.454	212.88
395.678	222.88
395.903	229.88
396.127	218.88
396.352	229.88
396.576	221.88
396.801	220.88
397.025	243.88
397.249	232.88
397.474	234.88
397.698	218.88
397.922	219.88
398.147	236.88
398.371	242.88
398.595	222.88
398.82	237.88
399.044	219.88
399.268	246.88
399.492	267.88
399.717	281.88
399.941	285.88
400.165	272.88
400.389	297.88
400.613	259.88
400.837	239.88
401.062	246.88
401.286	250.88
401.51	250.88
401.734	228.88
401.958	227.88
402.182	219.88
402.406	245.88
402.63	258.88
402.854	244.88
403.078	238.88
403.302	243.88
403.526	249.88
403.75	258.88
403.974	243.88
404.198	250.88
404.422	233.88
404.645	242.88
404.869	238.88
405.093	266.88
405.317	277.88
405.541	305.88
405.765	266.88
405.988	247.88
406.212	290.88
406.436	280.88
406.66	277.88
406.883	265.88
407.107	281.88
407.331	295.88
407.555	305.88
407.778	311.88
408.002	315.88
408.226	271.88
408.449	259.88
408.673	259.88
408.896	274.88
409.12	286.88
409.344	280.88
409.567	236.88
409.791	258.88
410.014	262.88
410.238	260.88
410.461	233.88
410.685	258.88
410.908	239.88
411.132	275.88
411.355	270.88
411.578	269.88
411.802	244.88
412.025	234.88
412.249	257.88
412.472	258.88
412.695	270.88
412.919	273.88
413.142	245.88
413.365	254.88
413.589	233.88
413.812	243.88
414.035	233.88
414.258	249.88
414.482	227.88
414.705	228.88
414.928	230.88
415.151	224.88
415.374	246.88
415.597	237.88
415.821	241.88
416.044	234.88
416.267	236.88
416.49	216.88
416.713	238.88
416.936	233.88
417.159	226.88
417.382	229.88
417.605	257.88
417.828	246.88
418.051	258.88
418.274	239.88
418.497	227.88
418.72	227.88
418.943	258.88
419.166	241.88
419.389	283.88
419.611	252.88
419.834	258.88
420.057	259.88
420.28	258.88
420.503	247.88
420.726	242.88
420.948	249.88
421.171	258.88
421.394	269.88
421.617	262.88
421.839	249.88
422.062	242.88
422.285	252.88
422.507	281.88
422.73	315.88
422.953	280.88
423.175	243.88
423.398	247.88
423.621	249.88
423.843	265.88
424.066	265.88
424.288	271.88
424.511	276.88
424.733	273.88
424.956	323.88
425.178	313.88
425.401	297.88
425.623	289.88
425.846	272.88
426.068	258.88
426.291	266.88
426.513	252.88
426.735	262.88
426.958	291.88
427.18	324.88
427.402	358.88
427.625	380.88
427.847	346.88
428.069	302.88
428.292	265.88
428.514	247.88
428.736	248.88
428.958	232.88
429.181	238.88
429.403	251.88
429.625	266.88
429.847	253.88
430.069	298.88
430.292	275.88
430.514	247.88
430.736	247.88
430.958	236.88
431.18	222.88
431.402	223.88
431.624	220.88
431.846	223.88
432.068	223.88
432.29	239.88
432.512	225.88
432.734	252.88
432.956	245.88
433.178	223.88
433.4	235.88
433.622	230.88
433.844	232.88
434.066	224.88
434.287	238.88
434.509	214.88
434.731	233.88
434.953	237.88
435.175	272.88
435.397	270.88
435.618	265.88
435.84	281.88
436.062	319.88
436.284	333.88
436.505	280.88
436.727	253.88
436.949	238.88
437.17	259.88
437.392	255.88
437.614	254.88
437.835	269.88
438.057	296.88
438.278	312.88
438.5	347.88
438.721	351.88
438.943	330.88
439.165	290.88
439.386	267.88
439.608	254.88
439.829	237.88
440.05	283.88
440.272	298.88
440.493	285.88
440.715	252.88
440.936	229.88
441.158	236.88
441.379	225.88
441.6	255.88
441.822	285.88
442.043	301.88
442.264	303.88
442.486	335.88
442.707	276.88
442.928	270.88
443.149	291.88
443.371	252.88
443.592	289.88
443.813	305.88
444.034	341.88
444.255	299.88
444.476	258.88
444.698	254.88
444.919	253.88
445.14	368.88
445.361	317.88
445.582	281.88
445.803	312.88
446.024	352.88
446.245	350.88
446.466	328.88
446.687	270.88
446.908	265.88
447.129	247.88
447.35	248.88
447.571	245.88
447.792	235.88
448.013	235.88
448.234	250.88
448.455	257.88
448.675	322.88
448.896	350.88
449.117	285.88
449.338	273.88
449.559	322.88
449.779	362.88
450	284.88
450.221	247.88
450.442	222.88
450.662	230.88
450.883	237.88
451.104	262.88
451.324	257.88
451.545	237.88
451.766	220.88
451.986	233.88
452.207	206.88
452.428	215.88
452.648	236.88
452.869	217.88
453.089	240.88
453.31	225.88
453.53	242.88
453.751	215.88
453.971	210.88
454.192	242.88
454.412	215.88
454.633	208.88
454.853	238.88
455.073	210.88
455.294	227.88
455.514	259.88
455.734	262.88
455.955	221.88
456.175	220.88
456.395	206.88
456.616	202.88
456.836	203.88
457.056	204.88
457.276	195.88
457.497	206.88
457.717	203.88
457.937	208.88
458.157	215.88
458.377	215.88
458.598	226.88
458.818	255.88
459.038	292.88
459.258	300.88
459.478	276.88
459.698	224.88
459.918	211.88
460.138	224.88
460.358	236.88
460.578	217.88
460.798	233.88
461.018	231.88
461.238	241.88
461.458	232.88
461.678	231.88
461.898	225.88
462.118	235.88
462.338	234.88
462.558	253.88
462.777	241.88
462.997	230.88
463.217	258.88
463.437	266.88
463.657	244.88
463.876	236.88
464.096	237.88
464.316	242.88
464.536	253.88
464.755	249.88
464.975	261.88
465.195	288.88
465.414	311.88
465.634	271.88
465.854	241.88
466.073	227.88
466.293	234.88
466.512	226.88
466.732	216.88
466.951	219.88
467.171	213.88
467.391	230.88
467.61	222.88
467.829	234.88
468.049	242.88
468.268	225.88
468.488	219.88
468.707	222.88
468.927	211.88
469.146	225.88
469.365	220.88
469.585	225.88
469.804	213.88
470.023	228.88
470.243	236.88
470.462	236.88
470.681	247.88
470.901	246.88
471.12	234.88
471.339	230.88
471.558	233.88
471.777	229.88
471.997	226.88
472.216	230.88
472.435	273.88
472.654	251.88
472.873	235.88
473.092	225.88
473.311	228.88
473.53	213.88
473.749	237.88
473.968	258.88
474.187	268.88
474.406	297.88
474.625	248.88
474.844	221.88
475.063	213.88
475.282	227.88
475.501	228.88
475.72	215.88
475.939	231.88
476.158	224.88
476.377	220.88
476.596	242.88
476.814	230.88
477.033	239.88
477.252	250.88
477.471	229.88
477.69	241.88
477.908	239.88
478.127	251.88
478.346	218.88
478.564	244.88
478.783	257.88
479.002	267.88
479.22	241.88
479.439	253.88
479.658	260.88
479.876	267.88
480.095	261.88
480.313	277.88
480.532	271.88
480.751	277.88
480.969	276.88
481.188	327.88
481.406	342.88
481.624	304.88
481.843	273.88
482.061	269.88
482.28	257.88
482.498	254.88
482.717	243.88
482.935	247.88
483.153	267.88
483.372	274.88
483.59	260.88
483.808	257.88
484.027	262.88
484.245	271.88
484.463	261.88
484.681	265.88
484.9	281.88
485.118	274.88
485.336	254.88
485.554	255.88
485.772	262.88
485.99	276.88
486.209	259.88
486.427	251.88
486.645	277.88
486.863	277.88
487.081	277.88
487.299	278.88
487.517	271.88
487.735	290.88
487.953	299.88
488.171	266.88
488.389	287.88
488.607	281.88
488.825	282.88
489.043	257.88
489.261	278.88
489.479	271.88
489.696	284.88
489.914	269.88
490.132	301.88
490.35	292.88
490.568	277.88
490.786	294.88
491.003	302.88
491.221	321.88
491.439	315.88
491.657	321.88
491.874	309.88
492.092	328.88
492.31	321.88
492.527	307.88
492.745	344.88
492.963	309.88
493.18	325.88
493.398	327.88
493.615	326.88
493.833	322.88
494.05	336.88
494.268	314.88
494.485	328.88
494.703	325.88
494.92	317.88
495.138	311.88
495.355	303.88
495.573	315.88
495.79	297.88
496.008	334.88
496.225	326.88
496.442	329.88
496.66	327.88
496.877	326.88
497.094	322.88
497.312	325.88
497.529	331.88
497.746	328.88
497.963	341.88
498.181	342.88
498.398	360.88
498.615	365.88
498.832	366.88
499.049	352.88
499.267	366.88
499.484	369.88
499.701	395.88
499.918	395.88
500.135	402.88
500.352	434.88
500.569	449.88
500.786	444.88
501.003	438.88
501.22	435.88
501.437	404.88
501.654	392.88
501.871	391.88
502.088	379.88
502.305	362.88
502.522	351.88
502.739	333.88
