Data from 1966.PennyLincolnUp.Lamp.En5.5.200Scan.071719.P1.Scan2.head_HRD10591_14-19-30-272.txt Node
Date: Thu Jul 18 14:19:30 EDT 2019
User: cochatt
Spectrometer: HR+D1059
Trigger mode: 1
Integration Time (sec): 1.000000E-1
Scans to average: 1
Electric dark correction enabled: true
Nonlinearity correction enabled: false
Boxcar width: 0
XAxis mode: Wavelengths
Number of Pixels in Spectrum: 2048
>>>>>Begin Spectral Data<<<<<
223.165	-10.56
223.4	-10.56
223.635	-10.56
223.869	-15.56
224.104	-24.56
224.338	-12.56
224.573	-4.56
224.808	-21.56
225.042	-15.56
225.277	-12.56
225.511	-7.56
225.746	8.44
225.98	10.44
226.215	13.44
226.449	5.44
226.683	22.44
226.918	37.44
227.152	27.44
227.387	43.44
227.621	42.44
227.856	56.44
228.09	41.44
228.324	56.44
228.559	52.44
228.793	51.44
229.027	105.44
229.262	117.44
229.496	127.44
229.73	146.44
229.964	170.44
230.199	129.44
230.433	135.44
230.667	111.44
230.901	122.44
231.136	117.44
231.37	102.44
231.604	115.44
231.838	112.44
232.072	122.44
232.306	115.44
232.541	124.44
232.775	134.44
233.009	112.44
233.243	103.44
233.477	115.44
233.711	118.44
233.945	121.44
234.179	128.44
234.413	112.44
234.647	121.44
234.881	125.44
235.115	134.44
235.349	118.44
235.583	122.44
235.817	119.44
236.051	122.44
236.285	128.44
236.519	139.44
236.753	133.44
236.987	132.44
237.221	204.44
237.455	239.44
237.689	195.44
237.922	165.44
238.156	131.44
238.39	132.44
238.624	147.44
238.858	131.44
239.091	151.44
239.325	122.44
239.559	115.44
239.793	139.44
240.027	158.44
240.26	146.44
240.494	158.44
240.728	176.44
240.961	161.44
241.195	142.44
241.429	137.44
241.662	140.44
241.896	148.44
242.13	139.44
242.363	135.44
242.597	131.44
242.83	150.44
243.064	139.44
243.298	141.44
243.531	157.44
243.765	136.44
243.998	155.44
244.232	151.44
244.465	149.44
244.699	160.44
244.932	135.44
245.166	158.44
245.399	168.44
245.633	176.44
245.866	156.44
246.099	159.44
246.333	149.44
246.566	166.44
246.8	166.44
247.033	163.44
247.266	171.44
247.5	170.44
247.733	177.44
247.966	187.44
248.2	169.44
248.433	177.44
248.666	197.44
248.899	200.44
249.133	213.44
249.366	214.44
249.599	207.44
249.832	194.44
250.066	186.44
250.299	188.44
250.532	197.44
250.765	228.44
250.998	236.44
251.231	240.44
251.465	219.44
251.698	231.44
251.931	219.44
252.164	199.44
252.397	195.44
252.63	201.44
252.863	191.44
253.096	231.44
253.329	253.44
253.562	259.44
253.795	229.44
254.028	215.44
254.261	232.44
254.494	253.44
254.727	281.44
254.96	311.44
255.193	291.44
255.426	255.44
255.659	232.44
255.892	233.44
256.124	256.44
256.357	233.44
256.59	240.44
256.823	229.44
257.056	210.44
257.289	222.44
257.521	214.44
257.754	228.44
257.987	208.44
258.22	230.44
258.452	208.44
258.685	229.44
258.918	214.44
259.151	219.44
259.383	221.44
259.616	213.44
259.849	231.44
260.081	258.44
260.314	269.44
260.547	269.44
260.779	249.44
261.012	230.44
261.244	240.44
261.477	248.44
261.71	237.44
261.942	243.44
262.175	234.44
262.407	240.44
262.64	216.44
262.872	238.44
263.105	220.44
263.337	238.44
263.57	214.44
263.802	216.44
264.035	229.44
264.267	218.44
264.499	222.44
264.732	235.44
264.964	234.44
265.197	220.44
265.429	214.44
265.661	228.44
265.894	221.44
266.126	216.44
266.358	211.44
266.591	244.44
266.823	228.44
267.055	231.44
267.287	247.44
267.52	233.44
267.752	216.44
267.984	238.44
268.216	239.44
268.448	249.44
268.681	247.44
268.913	256.44
269.145	271.44
269.377	286.44
269.609	299.44
269.841	303.44
270.073	293.44
270.306	303.44
270.538	355.44
270.77	326.44
271.002	308.44
271.234	300.44
271.466	306.44
271.698	317.44
271.93	341.44
272.162	317.44
272.394	336.44
272.626	307.44
272.858	309.44
273.09	281.44
273.322	283.44
273.553	278.44
273.785	289.44
274.017	270.44
274.249	275.44
274.481	264.44
274.713	283.44
274.945	271.44
275.176	270.44
275.408	281.44
275.64	270.44
275.872	275.44
276.104	283.44
276.335	279.44
276.567	270.44
276.799	293.44
277.031	302.44
277.262	347.44
277.494	329.44
277.726	317.44
277.957	294.44
278.189	283.44
278.421	287.44
278.652	287.44
278.884	279.44
279.115	282.44
279.347	272.44
279.579	277.44
279.81	293.44
280.042	274.44
280.273	269.44
280.505	271.44
280.736	272.44
280.968	268.44
281.199	273.44
281.431	303.44
281.662	273.44
281.894	292.44
282.125	297.44
282.356	302.44
282.588	326.44
282.819	313.44
283.051	283.44
283.282	292.44
283.513	294.44
283.745	289.44
283.976	292.44
284.207	294.44
284.439	292.44
284.67	288.44
284.901	289.44
285.132	295.44
285.364	288.44
285.595	307.44
285.826	297.44
286.057	307.44
286.288	288.44
286.52	297.44
286.751	301.44
286.982	287.44
287.213	294.44
287.444	288.44
287.675	290.44
287.906	304.44
288.138	318.44
288.369	311.44
288.6	325.44
288.831	306.44
289.062	305.44
289.293	319.44
289.524	293.44
289.755	308.44
289.986	298.44
290.217	281.44
290.448	319.44
290.679	296.44
290.91	308.44
291.141	295.44
291.371	291.44
291.602	307.44
291.833	303.44
292.064	319.44
292.295	303.44
292.526	309.44
292.757	291.44
292.987	298.44
293.218	300.44
293.449	301.44
293.68	292.44
293.91	316.44
294.141	304.44
294.372	328.44
294.603	315.44
294.833	305.44
295.064	316.44
295.295	293.44
295.525	288.44
295.756	336.44
295.987	305.44
296.217	369.44
296.448	348.44
296.679	330.44
296.909	319.44
297.14	314.44
297.37	324.44
297.601	313.44
297.831	326.44
298.062	325.44
298.292	304.44
298.523	332.44
298.753	327.44
298.984	316.44
299.214	321.44
299.445	330.44
299.675	312.44
299.905	319.44
300.136	341.44
300.366	333.44
300.597	332.44
300.827	332.44
301.057	329.44
301.288	332.44
301.518	332.44
301.748	336.44
301.979	329.44
302.209	352.44
302.439	359.44
302.669	357.44
302.9	378.44
303.13	346.44
303.36	343.44
303.59	346.44
303.82	347.44
304.051	348.44
304.281	359.44
304.511	341.44
304.741	319.44
304.971	360.44
305.201	336.44
305.431	348.44
305.661	345.44
305.891	348.44
306.121	335.44
306.352	339.44
306.582	355.44
306.812	347.44
307.042	334.44
307.272	376.44
307.502	363.44
307.731	356.44
307.961	363.44
308.191	355.44
308.421	381.44
308.651	352.44
308.881	343.44
309.111	348.44
309.341	374.44
309.571	371.44
309.8	374.44
310.03	387.44
310.26	389.44
310.49	396.44
310.72	403.44
310.949	399.44
311.179	415.44
311.409	388.44
311.639	408.44
311.868	390.44
312.098	402.44
312.328	405.44
312.557	424.44
312.787	441.44
313.017	427.44
313.246	423.44
313.476	385.44
313.706	407.44
313.935	400.44
314.165	402.44
314.394	423.44
314.624	429.44
314.853	400.44
315.083	388.44
315.312	386.44
315.542	384.44
315.771	388.44
316.001	403.44
316.23	395.44
316.46	374.44
316.689	373.44
316.919	384.44
317.148	415.44
317.377	417.44
317.607	419.44
317.836	389.44
318.065	405.44
318.295	404.44
318.524	402.44
318.753	422.44
318.983	395.44
319.212	403.44
319.441	390.44
319.67	412.44
319.9	408.44
320.129	405.44
320.358	406.44
320.587	389.44
320.816	410.44
321.046	421.44
321.275	424.44
321.504	416.44
321.733	428.44
321.962	431.44
322.191	397.44
322.42	449.44
322.649	458.44
322.878	471.44
323.108	467.44
323.337	476.44
323.566	540.44
323.795	544.44
324.024	583.44
324.253	708.44
324.482	989.44
324.71	1588.44
324.939	2357.44
325.168	2034.44
325.397	1002.44
325.626	677.44
325.855	552.44
326.084	529.44
326.313	547.44
326.542	552.44
326.77	561.44
326.999	678.44
327.228	906.44
327.457	1395.44
327.686	1785.44
327.914	1139.44
328.143	751.44
328.372	656.44
328.6	622.44
328.829	583.44
329.058	609.44
329.287	623.44
329.515	581.44
329.744	543.44
329.972	547.44
330.201	554.44
330.43	605.44
330.658	607.44
330.887	647.44
331.115	627.44
331.344	556.44
331.572	543.44
331.801	505.44
332.03	512.44
332.258	480.44
332.486	504.44
332.715	478.44
332.943	507.44
333.172	494.44
333.4	502.44
333.629	500.44
333.857	520.44
334.085	501.44
334.314	543.44
334.542	563.44
334.771	607.44
334.999	555.44
335.227	517.44
335.455	511.44
335.684	486.44
335.912	484.44
336.14	478.44
336.369	481.44
336.597	491.44
336.825	483.44
337.053	484.44
337.281	478.44
337.51	487.44
337.738	475.44
337.966	488.44
338.194	477.44
338.422	478.44
338.65	470.44
338.878	456.44
339.106	445.44
339.334	458.44
339.562	455.44
339.79	467.44
340.018	458.44
340.246	448.44
340.474	456.44
340.702	466.44
340.93	476.44
341.158	481.44
341.386	471.44
341.614	455.44
341.842	452.44
342.07	464.44
342.298	443.44
342.526	433.44
342.754	433.44
342.981	452.44
343.209	437.44
343.437	451.44
343.665	464.44
343.893	478.44
344.12	469.44
344.348	468.44
344.576	476.44
344.804	476.44
345.031	488.44
345.259	477.44
345.487	475.44
345.714	473.44
345.942	458.44
346.17	460.44
346.397	448.44
346.625	456.44
346.853	442.44
347.08	441.44
347.308	462.44
347.535	441.44
347.763	463.44
347.99	467.44
348.218	451.44
348.445	485.44
348.673	458.44
348.9	458.44
349.128	449.44
349.355	432.44
349.583	433.44
349.81	440.44
350.037	446.44
350.265	442.44
350.492	456.44
350.72	454.44
350.947	420.44
351.174	442.44
351.402	461.44
351.629	451.44
351.856	463.44
352.083	453.44
352.311	457.44
352.538	452.44
352.765	472.44
352.992	449.44
353.22	464.44
353.447	452.44
353.674	426.44
353.901	434.44
354.128	445.44
354.355	433.44
354.583	437.44
354.81	439.44
355.037	432.44
355.264	418.44
355.491	427.44
355.718	420.44
355.945	439.44
356.172	420.44
356.399	405.44
356.626	405.44
356.853	442.44
357.08	420.44
357.307	408.44
357.534	416.44
357.761	413.44
357.988	427.44
358.215	435.44
358.441	413.44
358.668	424.44
358.895	428.44
359.122	436.44
359.349	471.44
359.576	465.44
359.802	460.44
360.029	491.44
360.256	503.44
360.483	488.44
360.709	466.44
360.936	455.44
361.163	453.44
361.39	445.44
361.616	447.44
361.843	452.44
362.07	465.44
362.296	456.44
362.523	460.44
362.749	451.44
362.976	440.44
363.203	464.44
363.429	443.44
363.656	457.44
363.882	425.44
364.109	431.44
364.335	445.44
364.562	457.44
364.788	443.44
365.015	435.44
365.241	431.44
365.468	451.44
365.694	435.44
365.92	459.44
366.147	459.44
366.373	440.44
366.599	424.44
366.826	439.44
367.052	448.44
367.278	425.44
367.505	424.44
367.731	438.44
367.957	440.44
368.184	417.44
368.41	439.44
368.636	471.44
368.862	458.44
369.089	470.44
369.315	454.44
369.541	435.44
369.767	439.44
369.993	453.44
370.219	462.44
370.445	447.44
370.672	441.44
370.898	445.44
371.124	437.44
371.35	447.44
371.576	420.44
371.802	430.44
372.028	453.44
372.254	426.44
372.48	446.44
372.706	423.44
372.932	431.44
373.158	441.44
373.384	455.44
373.61	445.44
373.835	443.44
374.061	451.44
374.287	443.44
374.513	435.44
374.739	478.44
374.965	477.44
375.191	462.44
375.416	456.44
375.642	444.44
375.868	460.44
376.094	456.44
376.319	427.44
376.545	437.44
376.771	459.44
376.997	451.44
377.222	439.44
377.448	441.44
377.674	441.44
377.899	453.44
378.125	437.44
378.35	453.44
378.576	433.44
378.802	420.44
379.027	460.44
379.253	462.44
379.478	438.44
379.704	455.44
379.929	445.44
380.155	437.44
380.38	471.44
380.606	440.44
380.831	429.44
381.057	464.44
381.282	442.44
381.507	446.44
381.733	459.44
381.958	466.44
382.184	447.44
382.409	448.44
382.634	469.44
382.86	455.44
383.085	450.44
383.31	477.44
383.535	476.44
383.761	469.44
383.986	492.44
384.211	486.44
384.436	475.44
384.662	478.44
384.887	493.44
385.112	471.44
385.337	486.44
385.562	480.44
385.787	485.44
386.013	522.44
386.238	494.44
386.463	518.44
386.688	478.44
386.913	495.44
387.138	491.44
387.363	502.44
387.588	513.44
387.813	503.44
388.038	511.44
388.263	525.44
388.488	497.44
388.713	511.44
388.938	515.44
389.163	499.44
389.387	473.44
389.612	473.44
389.837	471.44
390.062	521.44
390.287	503.44
390.512	488.44
390.736	505.44
390.961	533.44
391.186	494.44
391.411	487.44
391.636	523.44
391.86	504.44
392.085	514.44
392.31	513.44
392.534	505.44
392.759	513.44
392.984	524.44
393.208	494.44
393.433	528.44
393.658	497.44
393.882	493.44
394.107	537.44
394.331	511.44
394.556	493.44
394.78	523.44
395.005	523.44
395.229	504.44
395.454	527.44
395.678	541.44
395.903	540.44
396.127	543.44
396.352	557.44
396.576	504.44
396.801	526.44
397.025	546.44
397.249	515.44
397.474	521.44
397.698	549.44
397.922	559.44
398.147	561.44
398.371	580.44
398.595	546.44
398.82	572.44
399.044	596.44
399.268	595.44
399.492	613.44
399.717	670.44
399.941	697.44
400.165	711.44
400.389	716.44
400.613	664.44
400.837	607.44
401.062	599.44
401.286	601.44
401.51	591.44
401.734	586.44
401.958	575.44
402.182	588.44
402.406	606.44
402.63	597.44
402.854	592.44
403.078	619.44
403.302	571.44
403.526	597.44
403.75	604.44
403.974	613.44
404.198	600.44
404.422	589.44
404.645	617.44
404.869	624.44
405.093	653.44
405.317	688.44
405.541	726.44
405.765	669.44
405.988	655.44
406.212	643.44
406.436	651.44
406.66	656.44
406.883	660.44
407.107	665.44
407.331	729.44
407.555	792.44
407.778	819.44
408.002	755.44
408.226	667.44
408.449	673.44
408.673	668.44
408.896	709.44
409.12	742.44
409.344	683.44
409.567	636.44
409.791	629.44
410.014	635.44
410.238	609.44
410.461	614.44
410.685	605.44
410.908	644.44
411.132	677.44
411.355	681.44
411.578	658.44
411.802	632.44
412.025	605.44
412.249	623.44
412.472	652.44
412.695	672.44
412.919	656.44
413.142	634.44
413.365	617.44
413.589	599.44
413.812	572.44
414.035	595.44
414.258	578.44
414.482	573.44
414.705	585.44
414.928	570.44
415.151	569.44
415.374	587.44
415.597	576.44
415.821	583.44
416.044	595.44
416.267	580.44
416.49	577.44
416.713	554.44
416.936	571.44
417.159	567.44
417.382	560.44
417.605	591.44
417.828	600.44
418.051	590.44
418.274	593.44
418.497	574.44
418.72	584.44
418.943	584.44
419.166	581.44
419.389	613.44
419.611	623.44
419.834	616.44
420.057	613.44
420.28	617.44
420.503	606.44
420.726	612.44
420.948	617.44
421.171	671.44
421.394	712.44
421.617	633.44
421.839	594.44
422.062	589.44
422.285	620.44
422.507	696.44
422.73	756.44
422.953	757.44
423.175	662.44
423.398	607.44
423.621	639.44
423.843	641.44
424.066	657.44
424.288	659.44
424.511	692.44
424.733	733.44
424.956	821.44
425.178	778.44
425.401	767.44
425.623	808.44
425.846	692.44
426.068	655.44
426.291	652.44
426.513	651.44
426.735	636.44
426.958	693.44
427.18	795.44
427.402	930.44
427.625	1023.44
427.847	899.44
428.069	804.44
428.292	704.44
428.514	646.44
428.736	614.44
428.958	628.44
429.181	597.44
429.403	585.44
429.625	596.44
429.847	640.44
430.069	711.44
430.292	689.44
430.514	628.44
430.736	592.44
430.958	586.44
431.18	582.44
431.402	570.44
431.624	565.44
431.846	559.44
432.068	539.44
432.29	563.44
432.512	564.44
432.734	582.44
432.956	583.44
433.178	585.44
433.4	586.44
433.622	568.44
433.844	579.44
434.066	567.44
434.287	556.44
434.509	575.44
434.731	581.44
434.953	588.44
435.175	623.44
435.397	643.44
435.618	645.44
435.84	687.44
436.062	772.44
436.284	887.44
436.505	716.44
436.727	669.44
436.949	616.44
437.17	597.44
437.392	618.44
437.614	609.44
437.835	675.44
438.057	772.44
438.278	832.44
438.5	919.44
438.721	954.44
438.943	913.44
439.165	726.44
439.386	655.44
439.608	656.44
439.829	643.44
440.05	665.44
440.272	741.44
440.493	661.44
440.715	646.44
440.936	615.44
441.158	631.44
441.379	594.44
441.6	622.44
441.822	659.44
442.043	716.44
442.264	782.44
442.486	828.44
442.707	691.44
442.928	693.44
443.149	680.44
443.371	680.44
443.592	737.44
443.813	849.44
444.034	906.44
444.255	787.44
444.476	685.44
444.698	643.44
444.919	640.44
445.14	744.44
445.361	704.44
445.582	683.44
445.803	784.44
446.024	912.44
446.245	909.44
446.466	804.44
446.687	701.44
446.908	651.44
447.129	617.44
447.35	597.44
447.571	576.44
447.792	556.44
448.013	598.44
448.234	619.44
448.455	668.44
448.675	793.44
448.896	913.44
449.117	785.44
449.338	745.44
449.559	864.44
449.779	997.44
450	787.44
450.221	639.44
450.442	609.44
450.662	594.44
450.883	583.44
451.104	577.44
451.324	574.44
451.545	563.44
451.766	567.44
451.986	537.44
452.207	551.44
452.428	523.44
452.648	549.44
452.869	538.44
453.089	552.44
453.31	542.44
453.53	531.44
453.751	536.44
453.971	545.44
454.192	557.44
454.412	543.44
454.633	534.44
454.853	506.44
455.073	516.44
455.294	547.44
455.514	647.44
455.734	611.44
455.955	547.44
456.175	505.44
456.395	497.44
456.616	496.44
456.836	516.44
457.056	527.44
457.276	486.44
457.497	509.44
457.717	492.44
457.937	512.44
458.157	523.44
458.377	510.44
458.598	556.44
458.818	601.44
459.038	688.44
459.258	725.44
459.478	638.44
459.698	583.44
459.918	569.44
460.138	558.44
460.358	588.44
460.578	569.44
460.798	566.44
461.018	568.44
461.238	577.44
461.458	583.44
461.678	588.44
461.898	595.44
462.118	589.44
462.338	622.44
462.558	601.44
462.777	629.44
462.997	627.44
463.217	625.44
463.437	637.44
463.657	635.44
463.876	612.44
464.096	629.44
464.316	608.44
464.536	624.44
464.755	632.44
464.975	627.44
465.195	614.44
465.414	732.44
465.634	677.44
465.854	610.44
466.073	594.44
466.293	567.44
466.512	556.44
466.732	539.44
466.951	540.44
467.171	548.44
467.391	563.44
467.61	553.44
467.829	577.44
468.049	578.44
468.268	557.44
468.488	534.44
468.707	540.44
468.927	552.44
469.146	539.44
469.365	529.44
469.585	517.44
469.804	520.44
470.023	561.44
470.243	555.44
470.462	544.44
470.681	581.44
470.901	584.44
471.12	556.44
471.339	555.44
471.558	580.44
471.777	585.44
471.997	549.44
472.216	565.44
472.435	598.44
472.654	582.44
472.873	588.44
473.092	559.44
473.311	555.44
473.53	557.44
473.749	564.44
473.968	615.44
474.187	714.44
474.406	741.44
474.625	605.44
474.844	552.44
475.063	545.44
475.282	565.44
475.501	571.44
475.72	577.44
475.939	556.44
476.158	576.44
476.377	559.44
476.596	569.44
476.814	601.44
477.033	607.44
477.252	605.44
477.471	588.44
477.69	599.44
477.908	587.44
478.127	624.44
478.346	624.44
478.564	625.44
478.783	621.44
479.002	633.44
479.22	648.44
479.439	660.44
479.658	657.44
479.876	667.44
480.095	678.44
480.313	709.44
480.532	672.44
480.751	688.44
480.969	677.44
481.188	740.44
481.406	795.44
481.624	696.44
481.843	673.44
482.061	677.44
482.28	693.44
482.498	636.44
482.717	684.44
482.935	648.44
483.153	641.44
483.372	659.44
483.59	649.44
483.808	656.44
484.027	667.44
484.245	647.44
484.463	677.44
484.681	669.44
484.9	648.44
485.118	659.44
485.336	655.44
485.554	692.44
485.772	683.44
485.99	689.44
486.209	682.44
486.427	684.44
486.645	684.44
486.863	712.44
487.081	710.44
487.299	726.44
487.517	714.44
487.735	692.44
487.953	707.44
488.171	714.44
488.389	697.44
488.607	699.44
488.825	717.44
489.043	702.44
489.261	697.44
489.479	733.44
489.696	729.44
489.914	726.44
490.132	732.44
490.35	751.44
490.568	720.44
490.786	739.44
491.003	759.44
491.221	739.44
491.439	766.44
491.657	793.44
491.874	805.44
492.092	837.44
492.31	800.44
492.527	829.44
492.745	819.44
492.963	830.44
493.18	837.44
493.398	824.44
493.615	850.44
493.833	853.44
494.05	846.44
494.268	846.44
494.485	831.44
494.703	816.44
494.92	840.44
495.138	853.44
495.355	843.44
495.573	852.44
495.79	837.44
496.008	829.44
496.225	824.44
496.442	844.44
496.66	835.44
496.877	831.44
497.094	861.44
497.312	845.44
497.529	873.44
497.746	879.44
497.963	859.44
498.181	933.44
498.398	933.44
498.615	934.44
498.832	947.44
499.049	985.44
499.267	998.44
499.484	1018.44
499.701	1035.44
499.918	1109.44
500.135	1145.44
500.352	1203.44
500.569	1240.44
500.786	1213.44
501.003	1203.44
501.22	1196.44
501.437	1124.44
501.654	1088.44
