Data from 1966.PennyLincolnUp.Lamp.En5.5.200Scan.071719.P1._HRD10591_14-12-54-914.txt Node
Date: Thu Jul 18 14:12:54 EDT 2019
User: cochatt
Spectrometer: HR+D1059
Trigger mode: 1
Integration Time (sec): 1.000000E-1
Scans to average: 1
Electric dark correction enabled: true
Nonlinearity correction enabled: false
Boxcar width: 0
XAxis mode: Wavelengths
Number of Pixels in Spectrum: 2048
>>>>>Begin Spectral Data<<<<<
223.165	-13.69
223.4	-13.69
223.635	-13.69
223.869	-23.69
224.104	-16.69
224.338	-11.69
224.573	-8.69
224.808	-6.69
225.042	-19.69
225.277	-8.69
225.511	4.31
225.746	-7.69
225.98	2.31
226.215	16.31
226.449	5.31
226.683	26.31
226.918	34.31
227.152	28.31
227.387	29.31
227.621	40.31
227.856	40.31
228.09	41.31
228.324	58.31
228.559	55.31
228.793	41.31
229.027	76.31
229.262	69.31
229.496	84.31
229.73	95.31
229.964	116.31
230.199	104.31
230.433	95.31
230.667	89.31
230.901	83.31
231.136	78.31
231.37	77.31
231.604	96.31
231.838	98.31
232.072	75.31
232.306	92.31
232.541	85.31
232.775	94.31
233.009	97.31
233.243	97.31
233.477	103.31
233.711	83.31
233.945	99.31
234.179	117.31
234.413	105.31
234.647	91.31
234.881	89.31
235.115	96.31
235.349	78.31
235.583	92.31
235.817	97.31
236.051	93.31
236.285	110.31
236.519	98.31
236.753	93.31
236.987	107.31
237.221	130.31
237.455	134.31
237.689	119.31
237.922	103.31
238.156	103.31
238.39	102.31
238.624	90.31
238.858	82.31
239.091	96.31
239.325	79.31
239.559	88.31
239.793	107.31
240.027	114.31
240.26	96.31
240.494	119.31
240.728	108.31
240.961	122.31
241.195	108.31
241.429	103.31
241.662	86.31
241.896	97.31
242.13	94.31
242.363	101.31
242.597	96.31
242.83	96.31
243.064	94.31
243.298	98.31
243.531	101.31
243.765	92.31
243.998	112.31
244.232	101.31
244.465	110.31
244.699	102.31
244.932	97.31
245.166	108.31
245.399	104.31
245.633	112.31
245.866	112.31
246.099	111.31
246.333	109.31
246.566	104.31
246.8	87.31
247.033	114.31
247.266	112.31
247.5	110.31
247.733	108.31
247.966	114.31
248.2	111.31
248.433	111.31
248.666	116.31
248.899	123.31
249.133	126.31
249.366	123.31
249.599	129.31
249.832	116.31
250.066	118.31
250.299	111.31
250.532	130.31
250.765	155.31
250.998	148.31
251.231	150.31
251.465	133.31
251.698	126.31
251.931	120.31
252.164	120.31
252.397	114.31
252.63	114.31
252.863	124.31
253.096	138.31
253.329	134.31
253.562	139.31
253.795	138.31
254.028	119.31
254.261	139.31
254.494	122.31
254.727	149.31
254.96	166.31
255.193	148.31
255.426	134.31
255.659	148.31
255.892	135.31
256.124	132.31
256.357	130.31
256.59	125.31
256.823	136.31
257.056	151.31
257.289	135.31
257.521	132.31
257.754	139.31
257.987	144.31
258.22	130.31
258.452	140.31
258.685	125.31
258.918	150.31
259.151	134.31
259.383	130.31
259.616	128.31
259.849	142.31
260.081	150.31
260.314	129.31
260.547	144.31
260.779	132.31
261.012	138.31
261.244	148.31
261.477	139.31
261.71	134.31
261.942	129.31
262.175	154.31
262.407	148.31
262.64	122.31
262.872	130.31
263.105	128.31
263.337	137.31
263.57	136.31
263.802	145.31
264.035	120.31
264.267	123.31
264.499	115.31
264.732	127.31
264.964	124.31
265.197	123.31
265.429	123.31
265.661	132.31
265.894	140.31
266.126	152.31
266.358	126.31
266.591	130.31
266.823	141.31
267.055	130.31
267.287	153.31
267.52	143.31
267.752	137.31
267.984	132.31
268.216	142.31
268.448	143.31
268.681	143.31
268.913	152.31
269.145	166.31
269.377	159.31
269.609	170.31
269.841	151.31
270.073	144.31
270.306	181.31
270.538	181.31
270.77	159.31
271.002	163.31
271.234	159.31
271.466	170.31
271.698	182.31
271.93	190.31
272.162	178.31
272.394	196.31
272.626	186.31
272.858	159.31
273.09	163.31
273.322	143.31
273.553	152.31
273.785	145.31
274.017	142.31
274.249	156.31
274.481	160.31
274.713	165.31
274.945	144.31
275.176	152.31
275.408	165.31
275.64	158.31
275.872	155.31
276.104	163.31
276.335	166.31
276.567	153.31
276.799	167.31
277.031	179.31
277.262	179.31
277.494	181.31
277.726	156.31
277.957	170.31
278.189	174.31
278.421	156.31
278.652	156.31
278.884	135.31
279.115	148.31
279.347	156.31
279.579	142.31
279.81	142.31
280.042	138.31
280.273	158.31
280.505	164.31
280.736	159.31
280.968	170.31
281.199	166.31
281.431	155.31
281.662	146.31
281.894	155.31
282.125	154.31
282.356	157.31
282.588	175.31
282.819	167.31
283.051	162.31
283.282	141.31
283.513	172.31
283.745	148.31
283.976	149.31
284.207	165.31
284.439	161.31
284.67	166.31
284.901	161.31
285.132	163.31
285.364	159.31
285.595	162.31
285.826	167.31
286.057	156.31
286.288	163.31
286.52	155.31
286.751	162.31
286.982	167.31
287.213	167.31
287.444	174.31
287.675	160.31
287.906	165.31
288.138	186.31
288.369	169.31
288.6	180.31
288.831	166.31
289.062	182.31
289.293	193.31
289.524	162.31
289.755	162.31
289.986	151.31
290.217	168.31
290.448	179.31
290.679	173.31
290.91	167.31
291.141	171.31
291.371	174.31
291.602	163.31
291.833	170.31
292.064	150.31
292.295	168.31
292.526	150.31
292.757	158.31
292.987	183.31
293.218	164.31
293.449	178.31
293.68	164.31
293.91	159.31
294.141	168.31
294.372	188.31
294.603	174.31
294.833	160.31
295.064	155.31
295.295	181.31
295.525	171.31
295.756	181.31
295.987	155.31
296.217	180.31
296.448	199.31
296.679	182.31
296.909	168.31
297.14	173.31
297.37	171.31
297.601	180.31
297.831	162.31
298.062	188.31
298.292	160.31
298.523	184.31
298.753	183.31
298.984	181.31
299.214	175.31
299.445	188.31
299.675	174.31
299.905	172.31
300.136	187.31
300.366	200.31
300.597	184.31
300.827	176.31
301.057	196.31
301.288	186.31
301.518	202.31
301.748	187.31
301.979	183.31
302.209	169.31
302.439	175.31
302.669	178.31
302.9	174.31
303.13	172.31
303.36	168.31
303.59	183.31
303.82	177.31
304.051	192.31
304.281	188.31
304.511	179.31
304.741	187.31
304.971	168.31
305.201	183.31
305.431	163.31
305.661	189.31
305.891	166.31
306.121	185.31
306.352	179.31
306.582	185.31
306.812	193.31
307.042	192.31
307.272	175.31
307.502	188.31
307.731	189.31
307.961	173.31
308.191	182.31
308.421	179.31
308.651	196.31
308.881	194.31
309.111	185.31
309.341	185.31
309.571	183.31
309.8	175.31
310.03	186.31
310.26	205.31
310.49	191.31
310.72	196.31
310.949	213.31
311.179	227.31
311.409	196.31
311.639	217.31
311.868	207.31
312.098	217.31
312.328	210.31
312.557	209.31
312.787	226.31
313.017	230.31
313.246	213.31
313.476	214.31
313.706	212.31
313.935	212.31
314.165	218.31
314.394	214.31
314.624	221.31
314.853	203.31
315.083	219.31
315.312	202.31
315.542	200.31
315.771	207.31
316.001	204.31
316.23	197.31
316.46	199.31
316.689	196.31
316.919	196.31
317.148	208.31
317.377	221.31
317.607	210.31
317.836	213.31
318.065	198.31
318.295	191.31
318.524	190.31
318.753	193.31
318.983	188.31
319.212	201.31
319.441	200.31
319.67	199.31
319.9	207.31
320.129	198.31
320.358	211.31
320.587	207.31
320.816	216.31
321.046	213.31
321.275	208.31
321.504	197.31
321.733	222.31
321.962	215.31
322.191	229.31
322.42	221.31
322.649	229.31
322.878	230.31
323.108	240.31
323.337	247.31
323.566	262.31
323.795	266.31
324.024	285.31
324.253	344.31
324.482	483.31
324.71	748.31
324.939	952.31
325.168	754.31
325.397	424.31
325.626	306.31
325.855	264.31
326.084	252.31
326.313	261.31
326.542	256.31
326.77	263.31
326.999	329.31
327.228	455.31
327.457	640.31
327.686	717.31
327.914	467.31
328.143	336.31
328.372	303.31
328.6	298.31
328.829	280.31
329.058	309.31
329.287	308.31
329.515	275.31
329.744	231.31
329.972	244.31
330.201	249.31
330.43	290.31
330.658	307.31
330.887	330.31
331.115	307.31
331.344	265.31
331.572	245.31
331.801	270.31
332.03	240.31
332.258	234.31
332.486	234.31
332.715	233.31
332.943	232.31
333.172	226.31
333.4	212.31
333.629	253.31
333.857	242.31
334.085	240.31
334.314	248.31
334.542	293.31
334.771	306.31
334.999	271.31
335.227	258.31
335.455	220.31
335.684	223.31
335.912	236.31
336.14	230.31
336.369	228.31
336.597	248.31
336.825	221.31
337.053	230.31
337.281	223.31
337.51	228.31
337.738	233.31
337.966	207.31
338.194	215.31
338.422	224.31
338.65	220.31
338.878	211.31
339.106	209.31
339.334	216.31
339.562	229.31
339.79	212.31
340.018	221.31
340.246	223.31
340.474	215.31
340.702	219.31
340.93	220.31
341.158	211.31
341.386	229.31
341.614	238.31
341.842	226.31
342.07	205.31
342.298	227.31
342.526	216.31
342.754	207.31
342.981	211.31
343.209	207.31
343.437	213.31
343.665	222.31
343.893	219.31
344.12	222.31
344.348	240.31
344.576	220.31
344.804	222.31
345.031	236.31
345.259	233.31
345.487	231.31
345.714	231.31
345.942	206.31
346.17	200.31
346.397	210.31
346.625	212.31
346.853	218.31
347.08	209.31
347.308	203.31
347.535	236.31
347.763	213.31
347.99	220.31
348.218	236.31
348.445	235.31
348.673	215.31
348.9	214.31
349.128	215.31
349.355	204.31
349.583	211.31
349.81	199.31
350.037	196.31
350.265	223.31
350.492	220.31
350.72	205.31
350.947	218.31
351.174	202.31
351.402	214.31
351.629	219.31
351.856	216.31
352.083	223.31
352.311	249.31
352.538	222.31
352.765	214.31
352.992	207.31
353.22	226.31
353.447	217.31
353.674	223.31
353.901	198.31
354.128	190.31
354.355	198.31
354.583	204.31
354.81	206.31
355.037	183.31
355.264	194.31
355.491	200.31
355.718	192.31
355.945	197.31
356.172	199.31
356.399	199.31
356.626	202.31
356.853	187.31
357.08	198.31
357.307	196.31
357.534	203.31
357.761	184.31
357.988	201.31
358.215	208.31
358.441	192.31
358.668	201.31
358.895	214.31
359.122	212.31
359.349	188.31
359.576	200.31
359.802	216.31
360.029	243.31
360.256	244.31
360.483	224.31
360.709	244.31
360.936	223.31
361.163	220.31
361.39	225.31
361.616	217.31
361.843	206.31
362.07	207.31
362.296	229.31
362.523	216.31
362.749	242.31
362.976	218.31
363.203	204.31
363.429	195.31
363.656	212.31
363.882	194.31
364.109	197.31
364.335	199.31
364.562	209.31
364.788	209.31
365.015	201.31
365.241	195.31
365.468	221.31
365.694	204.31
365.92	227.31
366.147	198.31
366.373	204.31
366.599	215.31
366.826	208.31
367.052	206.31
367.278	203.31
367.505	197.31
367.731	213.31
367.957	191.31
368.184	204.31
368.41	199.31
368.636	205.31
368.862	219.31
369.089	217.31
369.315	195.31
369.541	200.31
369.767	209.31
369.993	211.31
370.219	204.31
370.445	211.31
370.672	199.31
370.898	205.31
371.124	207.31
371.35	202.31
371.576	215.31
371.802	205.31
372.028	207.31
372.254	209.31
372.48	201.31
372.706	197.31
372.932	201.31
373.158	201.31
373.384	207.31
373.61	221.31
373.835	194.31
374.061	212.31
374.287	199.31
374.513	196.31
374.739	207.31
374.965	212.31
375.191	199.31
375.416	200.31
375.642	207.31
375.868	212.31
376.094	211.31
376.319	209.31
376.545	191.31
376.771	196.31
376.997	208.31
377.222	215.31
377.448	208.31
377.674	200.31
377.899	202.31
378.125	212.31
378.35	208.31
378.576	192.31
378.802	199.31
379.027	213.31
379.253	206.31
379.478	213.31
379.704	213.31
379.929	195.31
380.155	194.31
380.38	192.31
380.606	211.31
380.831	204.31
381.057	207.31
381.282	195.31
381.507	203.31
381.733	206.31
381.958	206.31
382.184	197.31
382.409	211.31
382.634	192.31
382.86	195.31
383.085	206.31
383.31	214.31
383.535	195.31
383.761	208.31
383.986	204.31
384.211	230.31
384.436	213.31
384.662	206.31
384.887	202.31
385.112	221.31
385.337	213.31
385.562	212.31
385.787	226.31
386.013	225.31
386.238	213.31
386.463	228.31
386.688	202.31
386.913	203.31
387.138	215.31
387.363	215.31
387.588	211.31
387.813	200.31
388.038	223.31
388.263	224.31
388.488	214.31
388.713	217.31
388.938	216.31
389.163	211.31
389.387	222.31
389.612	222.31
389.837	218.31
390.062	202.31
390.287	214.31
390.512	218.31
390.736	208.31
390.961	222.31
391.186	212.31
391.411	214.31
391.636	230.31
391.86	222.31
392.085	218.31
392.31	229.31
392.534	223.31
392.759	231.31
392.984	221.31
393.208	212.31
393.433	249.31
393.658	211.31
393.882	235.31
394.107	219.31
394.331	209.31
394.556	216.31
394.78	242.31
395.005	221.31
395.229	204.31
395.454	223.31
395.678	213.31
395.903	228.31
396.127	251.31
396.352	227.31
396.576	237.31
396.801	212.31
397.025	213.31
397.249	235.31
397.474	241.31
397.698	221.31
397.922	228.31
398.147	219.31
398.371	229.31
398.595	249.31
398.82	244.31
399.044	246.31
399.268	267.31
399.492	274.31
399.717	273.31
399.941	272.31
400.165	298.31
400.389	287.31
400.613	276.31
400.837	239.31
401.062	262.31
401.286	252.31
401.51	242.31
401.734	244.31
401.958	260.31
402.182	244.31
402.406	243.31
402.63	252.31
402.854	238.31
403.078	242.31
403.302	252.31
403.526	263.31
403.75	252.31
403.974	262.31
404.198	260.31
404.422	255.31
404.645	275.31
404.869	266.31
405.093	290.31
405.317	279.31
405.541	306.31
405.765	264.31
405.988	271.31
406.212	292.31
406.436	293.31
406.66	301.31
406.883	283.31
407.107	306.31
407.331	301.31
407.555	319.31
407.778	337.31
408.002	294.31
408.226	270.31
408.449	269.31
408.673	274.31
408.896	269.31
409.12	306.31
409.344	276.31
409.567	268.31
409.791	270.31
410.014	259.31
410.238	256.31
410.461	265.31
410.685	249.31
410.908	262.31
411.132	269.31
411.355	282.31
411.578	275.31
411.802	242.31
412.025	247.31
412.249	258.31
412.472	263.31
412.695	291.31
412.919	266.31
413.142	267.31
413.365	263.31
413.589	244.31
413.812	247.31
414.035	249.31
414.258	247.31
414.482	240.31
414.705	259.31
414.928	248.31
415.151	258.31
415.374	245.31
415.597	226.31
415.821	260.31
416.044	270.31
416.267	246.31
416.49	254.31
416.713	250.31
416.936	250.31
417.159	243.31
417.382	232.31
417.605	230.31
417.828	257.31
418.051	256.31
418.274	233.31
418.497	245.31
418.72	250.31
418.943	241.31
419.166	251.31
419.389	264.31
419.611	242.31
419.834	266.31
420.057	272.31
420.28	280.31
420.503	250.31
420.726	262.31
420.948	258.31
421.171	272.31
421.394	289.31
421.617	267.31
421.839	269.31
422.062	255.31
422.285	252.31
422.507	292.31
422.73	319.31
422.953	310.31
423.175	283.31
423.398	250.31
423.621	264.31
423.843	292.31
424.066	266.31
424.288	281.31
424.511	285.31
424.733	300.31
424.956	312.31
425.178	336.31
425.401	327.31
425.623	331.31
425.846	275.31
426.068	265.31
426.291	252.31
426.513	249.31
426.735	270.31
426.958	262.31
427.18	307.31
427.402	369.31
427.625	408.31
427.847	376.31
428.069	309.31
428.292	277.31
428.514	269.31
428.736	254.31
428.958	258.31
429.181	242.31
429.403	245.31
429.625	267.31
429.847	260.31
430.069	307.31
430.292	292.31
430.514	260.31
430.736	249.31
430.958	260.31
431.18	246.31
431.402	236.31
431.624	231.31
431.846	219.31
432.068	228.31
432.29	246.31
432.512	240.31
432.734	249.31
432.956	252.31
433.178	258.31
433.4	268.31
433.622	246.31
433.844	247.31
434.066	231.31
434.287	235.31
434.509	237.31
434.731	255.31
434.953	266.31
435.175	251.31
435.397	260.31
435.618	266.31
435.84	307.31
436.062	302.31
436.284	328.31
436.505	280.31
436.727	282.31
436.949	260.31
437.17	236.31
437.392	248.31
437.614	251.31
437.835	272.31
438.057	301.31
438.278	371.31
438.5	351.31
438.721	368.31
438.943	348.31
439.165	290.31
439.386	268.31
439.608	268.31
439.829	274.31
440.05	266.31
440.272	296.31
440.493	282.31
440.715	253.31
440.936	260.31
441.158	244.31
441.379	230.31
441.6	254.31
441.822	290.31
442.043	282.31
442.264	314.31
442.486	340.31
442.707	295.31
442.928	280.31
443.149	268.31
443.371	290.31
443.592	290.31
443.813	328.31
444.034	355.31
444.255	310.31
444.476	264.31
444.698	292.31
444.919	266.31
445.14	366.31
445.361	331.31
445.582	292.31
445.803	321.31
446.024	370.31
446.245	355.31
446.466	331.31
446.687	281.31
446.908	266.31
447.129	268.31
447.35	244.31
447.571	242.31
447.792	266.31
448.013	241.31
448.234	245.31
448.455	282.31
448.675	311.31
448.896	354.31
449.117	306.31
449.338	289.31
449.559	354.31
449.779	392.31
450	291.31
450.221	272.31
450.442	249.31
450.662	233.31
450.883	239.31
451.104	278.31
451.324	251.31
451.545	235.31
451.766	229.31
451.986	212.31
452.207	218.31
452.428	217.31
452.648	234.31
452.869	232.31
453.089	236.31
453.31	228.31
453.53	242.31
453.751	230.31
453.971	226.31
454.192	233.31
454.412	239.31
454.633	223.31
454.853	229.31
455.073	219.31
455.294	242.31
455.514	279.31
455.734	265.31
455.955	233.31
456.175	227.31
456.395	221.31
456.616	220.31
456.836	220.31
457.056	218.31
457.276	214.31
457.497	220.31
457.717	202.31
457.937	207.31
458.157	243.31
458.377	210.31
458.598	238.31
458.818	263.31
459.038	310.31
459.258	295.31
459.478	254.31
459.698	235.31
459.918	249.31
460.138	228.31
460.358	230.31
460.578	242.31
460.798	245.31
461.018	239.31
461.238	247.31
461.458	236.31
461.678	251.31
461.898	250.31
462.118	250.31
462.338	238.31
462.558	240.31
462.777	242.31
462.997	265.31
463.217	268.31
463.437	265.31
463.657	243.31
463.876	267.31
464.096	256.31
464.316	245.31
464.536	272.31
464.755	258.31
464.975	280.31
465.195	286.31
465.414	330.31
465.634	270.31
465.854	262.31
466.073	237.31
466.293	239.31
466.512	233.31
466.732	222.31
466.951	231.31
467.171	240.31
467.391	246.31
467.61	238.31
467.829	242.31
468.049	227.31
468.268	243.31
468.488	229.31
468.707	228.31
468.927	245.31
469.146	217.31
469.365	231.31
469.585	238.31
469.804	219.31
470.023	266.31
470.243	239.31
470.462	248.31
470.681	249.31
470.901	248.31
471.12	241.31
471.339	240.31
471.558	246.31
471.777	234.31
471.997	238.31
472.216	252.31
472.435	268.31
472.654	245.31
472.873	238.31
473.092	234.31
473.311	223.31
473.53	241.31
473.749	247.31
473.968	268.31
474.187	294.31
474.406	296.31
474.625	254.31
474.844	220.31
475.063	221.31
475.282	232.31
475.501	238.31
475.72	264.31
475.939	242.31
476.158	230.31
476.377	251.31
476.596	250.31
476.814	249.31
477.033	276.31
477.252	269.31
477.471	248.31
477.69	267.31
477.908	250.31
478.127	258.31
478.346	260.31
478.564	238.31
478.783	260.31
479.002	275.31
479.22	269.31
479.439	278.31
479.658	295.31
479.876	295.31
480.095	288.31
480.313	303.31
480.532	290.31
480.751	290.31
480.969	285.31
481.188	334.31
481.406	350.31
481.624	297.31
481.843	290.31
482.061	278.31
482.28	287.31
482.498	269.31
482.717	231.31
482.935	249.31
483.153	279.31
483.372	272.31
483.59	286.31
483.808	270.31
484.027	271.31
484.245	260.31
484.463	273.31
484.681	285.31
484.9	272.31
485.118	293.31
485.336	288.31
485.554	273.31
485.772	274.31
485.99	263.31
486.209	291.31
486.427	294.31
486.645	299.31
486.863	288.31
487.081	294.31
487.299	285.31
487.517	286.31
487.735	296.31
487.953	272.31
488.171	297.31
488.389	276.31
488.607	286.31
488.825	295.31
489.043	300.31
489.261	298.31
489.479	291.31
489.696	298.31
489.914	288.31
490.132	283.31
490.35	306.31
490.568	299.31
490.786	321.31
491.003	308.31
491.221	341.31
491.439	309.31
491.657	322.31
491.874	342.31
492.092	347.31
492.31	339.31
492.527	330.31
492.745	333.31
492.963	349.31
493.18	344.31
493.398	357.31
493.615	330.31
493.833	342.31
494.05	346.31
494.268	341.31
494.485	348.31
494.703	332.31
494.92	339.31
495.138	347.31
495.355	322.31
495.573	327.31
495.79	351.31
496.008	345.31
496.225	342.31
496.442	324.31
496.66	331.31
496.877	320.31
497.094	349.31
497.312	347.31
497.529	353.31
497.746	348.31
497.963	328.31
498.181	367.31
498.398	342.31
498.615	371.31
498.832	370.31
499.049	381.31
499.267	396.31
499.484	407.31
499.701	412.31
499.918	425.31
500.135	437.31
500.352	461.31
500.569	459.31
500.786	437.31
501.003	459.31
501.22	439.31
501.437	441.31
501.654	410.31
501.871	383.31
502.088	384.31
502.305	388.31
502.522	343.31
