Data from 1966.PennyLincolnUp.Lamp.En5.5.200Scan.071719.P1._HRD10591_14-12-15-912.txt Node
Date: Thu Jul 18 14:12:15 EDT 2019
User: cochatt
Spectrometer: HR+D1059
Trigger mode: 1
Integration Time (sec): 1.000000E-1
Scans to average: 1
Electric dark correction enabled: true
Nonlinearity correction enabled: false
Boxcar width: 0
XAxis mode: Wavelengths
Number of Pixels in Spectrum: 2048
>>>>>Begin Spectral Data<<<<<
223.165	-9.62
223.4	-9.62
223.635	-9.62
223.869	-19.62
224.104	-19.62
224.338	-14.62
224.573	-18.62
224.808	-20.62
225.042	-10.62
225.277	6.38
225.511	-12.62
225.746	10.38
225.98	8.38
226.215	16.38
226.449	20.38
226.683	17.38
226.918	26.38
227.152	20.38
227.387	37.38
227.621	34.38
227.856	40.38
228.09	38.38
228.324	52.38
228.559	61.38
228.793	47.38
229.027	74.38
229.262	89.38
229.496	91.38
229.73	104.38
229.964	100.38
230.199	95.38
230.433	90.38
230.667	81.38
230.901	73.38
231.136	96.38
231.37	91.38
231.604	93.38
231.838	93.38
232.072	102.38
232.306	102.38
232.541	93.38
232.775	89.38
233.009	78.38
233.243	75.38
233.477	93.38
233.711	86.38
233.945	90.38
234.179	87.38
234.413	90.38
234.647	91.38
234.881	101.38
235.115	103.38
235.349	99.38
235.583	97.38
235.817	80.38
236.051	87.38
236.285	96.38
236.519	97.38
236.753	103.38
236.987	96.38
237.221	125.38
237.455	137.38
237.689	115.38
237.922	103.38
238.156	102.38
238.39	98.38
238.624	93.38
238.858	91.38
239.091	105.38
239.325	94.38
239.559	95.38
239.793	97.38
240.027	102.38
240.26	117.38
240.494	106.38
240.728	112.38
240.961	116.38
241.195	115.38
241.429	103.38
241.662	91.38
241.896	92.38
242.13	111.38
242.363	89.38
242.597	83.38
242.83	107.38
243.064	91.38
243.298	99.38
243.531	89.38
243.765	88.38
243.998	110.38
244.232	102.38
244.465	108.38
244.699	97.38
244.932	110.38
245.166	104.38
245.399	95.38
245.633	97.38
245.866	94.38
246.099	95.38
246.333	99.38
246.566	112.38
246.8	116.38
247.033	111.38
247.266	91.38
247.5	120.38
247.733	105.38
247.966	122.38
248.2	117.38
248.433	123.38
248.666	102.38
248.899	114.38
249.133	112.38
249.366	133.38
249.599	94.38
249.832	113.38
250.066	130.38
250.299	123.38
250.532	127.38
250.765	129.38
250.998	109.38
251.231	136.38
251.465	148.38
251.698	122.38
251.931	118.38
252.164	127.38
252.397	114.38
252.63	128.38
252.863	131.38
253.096	121.38
253.329	131.38
253.562	131.38
253.795	144.38
254.028	145.38
254.261	126.38
254.494	133.38
254.727	149.38
254.96	160.38
255.193	132.38
255.426	137.38
255.659	135.38
255.892	134.38
256.124	143.38
256.357	126.38
256.59	123.38
256.823	129.38
257.056	123.38
257.289	117.38
257.521	137.38
257.754	117.38
257.987	127.38
258.22	124.38
258.452	130.38
258.685	109.38
258.918	120.38
259.151	128.38
259.383	120.38
259.616	122.38
259.849	144.38
260.081	149.38
260.314	134.38
260.547	155.38
260.779	163.38
261.012	146.38
261.244	126.38
261.477	131.38
261.71	127.38
261.942	133.38
262.175	140.38
262.407	145.38
262.64	128.38
262.872	133.38
263.105	130.38
263.337	127.38
263.57	123.38
263.802	118.38
264.035	136.38
264.267	142.38
264.499	135.38
264.732	135.38
264.964	126.38
265.197	128.38
265.429	128.38
265.661	123.38
265.894	134.38
266.126	133.38
266.358	130.38
266.591	125.38
266.823	132.38
267.055	145.38
267.287	128.38
267.52	129.38
267.752	127.38
267.984	124.38
268.216	118.38
268.448	125.38
268.681	133.38
268.913	142.38
269.145	147.38
269.377	150.38
269.609	154.38
269.841	148.38
270.073	150.38
270.306	173.38
270.538	156.38
270.77	170.38
271.002	160.38
271.234	151.38
271.466	152.38
271.698	162.38
271.93	167.38
272.162	155.38
272.394	163.38
272.626	163.38
272.858	152.38
273.09	162.38
273.322	142.38
273.553	144.38
273.785	140.38
274.017	149.38
274.249	140.38
274.481	155.38
274.713	160.38
274.945	156.38
275.176	156.38
275.408	151.38
275.64	155.38
275.872	156.38
276.104	154.38
276.335	144.38
276.567	142.38
276.799	165.38
277.031	187.38
277.262	176.38
277.494	188.38
277.726	180.38
277.957	170.38
278.189	161.38
278.421	141.38
278.652	155.38
278.884	151.38
279.115	140.38
279.347	168.38
279.579	150.38
279.81	166.38
280.042	158.38
280.273	156.38
280.505	152.38
280.736	152.38
280.968	169.38
281.199	136.38
281.431	157.38
281.662	158.38
281.894	149.38
282.125	164.38
282.356	173.38
282.588	171.38
282.819	171.38
283.051	164.38
283.282	158.38
283.513	159.38
283.745	149.38
283.976	153.38
284.207	163.38
284.439	151.38
284.67	150.38
284.901	163.38
285.132	145.38
285.364	157.38
285.595	158.38
285.826	147.38
286.057	164.38
286.288	167.38
286.52	149.38
286.751	154.38
286.982	135.38
287.213	144.38
287.444	163.38
287.675	166.38
287.906	157.38
288.138	167.38
288.369	157.38
288.6	168.38
288.831	163.38
289.062	175.38
289.293	149.38
289.524	164.38
289.755	165.38
289.986	181.38
290.217	158.38
290.448	160.38
290.679	168.38
290.91	155.38
291.141	169.38
291.371	173.38
291.602	161.38
291.833	148.38
292.064	169.38
292.295	165.38
292.526	176.38
292.757	156.38
292.987	157.38
293.218	151.38
293.449	164.38
293.68	160.38
293.91	149.38
294.141	165.38
294.372	151.38
294.603	157.38
294.833	157.38
295.064	176.38
295.295	157.38
295.525	151.38
295.756	167.38
295.987	181.38
296.217	188.38
296.448	201.38
296.679	193.38
296.909	177.38
297.14	155.38
297.37	165.38
297.601	164.38
297.831	168.38
298.062	155.38
298.292	163.38
298.523	158.38
298.753	181.38
298.984	191.38
299.214	171.38
299.445	176.38
299.675	165.38
299.905	173.38
300.136	167.38
300.366	161.38
300.597	172.38
300.827	176.38
301.057	176.38
301.288	174.38
301.518	175.38
301.748	175.38
301.979	195.38
302.209	201.38
302.439	168.38
302.669	179.38
302.9	172.38
303.13	166.38
303.36	169.38
303.59	185.38
303.82	183.38
304.051	170.38
304.281	180.38
304.511	183.38
304.741	169.38
304.971	176.38
305.201	181.38
305.431	179.38
305.661	188.38
305.891	174.38
306.121	181.38
306.352	179.38
306.582	179.38
306.812	188.38
307.042	173.38
307.272	176.38
307.502	186.38
307.731	171.38
307.961	177.38
308.191	196.38
308.421	173.38
308.651	195.38
308.881	179.38
309.111	160.38
309.341	210.38
309.571	186.38
309.8	199.38
310.03	190.38
310.26	199.38
310.49	190.38
310.72	207.38
310.949	220.38
311.179	208.38
311.409	196.38
311.639	212.38
311.868	211.38
312.098	180.38
312.328	197.38
312.557	207.38
312.787	217.38
313.017	210.38
313.246	214.38
313.476	207.38
313.706	195.38
313.935	197.38
314.165	201.38
314.394	219.38
314.624	217.38
314.853	201.38
315.083	209.38
315.312	195.38
315.542	172.38
315.771	181.38
316.001	198.38
316.23	192.38
316.46	189.38
316.689	205.38
316.919	209.38
317.148	211.38
317.377	197.38
317.607	187.38
317.836	196.38
318.065	189.38
318.295	220.38
318.524	185.38
318.753	203.38
318.983	206.38
319.212	203.38
319.441	199.38
319.67	176.38
319.9	207.38
320.129	200.38
320.358	182.38
320.587	202.38
320.816	211.38
321.046	204.38
321.275	209.38
321.504	207.38
321.733	206.38
321.962	216.38
322.191	229.38
322.42	227.38
322.649	231.38
322.878	234.38
323.108	247.38
323.337	242.38
323.566	281.38
323.795	287.38
324.024	310.38
324.253	400.38
324.482	626.38
324.71	1001.38
324.939	1385.38
325.168	1103.38
325.397	492.38
325.626	319.38
325.855	265.38
326.084	243.38
326.313	254.38
326.542	260.38
326.77	291.38
326.999	392.38
327.228	546.38
327.457	869.38
327.686	1005.38
327.914	597.38
328.143	395.38
328.372	350.38
328.6	330.38
328.829	292.38
329.058	328.38
329.287	296.38
329.515	312.38
329.744	269.38
329.972	252.38
330.201	280.38
330.43	336.38
330.658	337.38
330.887	357.38
331.115	328.38
331.344	259.38
331.572	245.38
331.801	245.38
332.03	261.38
332.258	259.38
332.486	226.38
332.715	201.38
332.943	233.38
333.172	233.38
333.4	238.38
333.629	247.38
333.857	255.38
334.085	247.38
334.314	277.38
334.542	336.38
334.771	341.38
334.999	280.38
335.227	239.38
335.455	236.38
335.684	230.38
335.912	201.38
336.14	225.38
336.369	238.38
336.597	234.38
336.825	224.38
337.053	205.38
337.281	212.38
337.51	212.38
337.738	234.38
337.966	215.38
338.194	236.38
338.422	209.38
338.65	227.38
338.878	217.38
339.106	219.38
339.334	232.38
339.562	221.38
339.79	214.38
340.018	218.38
340.246	215.38
340.474	230.38
340.702	205.38
340.93	218.38
341.158	222.38
341.386	209.38
341.614	233.38
341.842	225.38
342.07	207.38
342.298	230.38
342.526	210.38
342.754	221.38
342.981	199.38
343.209	208.38
343.437	221.38
343.665	210.38
343.893	208.38
344.12	220.38
344.348	227.38
344.576	227.38
344.804	231.38
345.031	231.38
345.259	236.38
345.487	221.38
345.714	228.38
345.942	211.38
346.17	198.38
346.397	211.38
346.625	225.38
346.853	203.38
347.08	190.38
347.308	227.38
347.535	210.38
347.763	223.38
347.99	221.38
348.218	227.38
348.445	225.38
348.673	220.38
348.9	228.38
349.128	214.38
349.355	202.38
349.583	179.38
349.81	208.38
350.037	197.38
350.265	202.38
350.492	220.38
350.72	211.38
350.947	211.38
351.174	203.38
351.402	223.38
351.629	233.38
351.856	223.38
352.083	212.38
352.311	245.38
352.538	220.38
352.765	213.38
352.992	208.38
353.22	216.38
353.447	205.38
353.674	200.38
353.901	211.38
354.128	192.38
354.355	193.38
354.583	198.38
354.81	199.38
355.037	188.38
355.264	193.38
355.491	195.38
355.718	206.38
355.945	190.38
356.172	195.38
356.399	211.38
356.626	202.38
356.853	215.38
357.08	195.38
357.307	189.38
357.534	185.38
357.761	197.38
357.988	199.38
358.215	199.38
358.441	219.38
358.668	195.38
358.895	191.38
359.122	209.38
359.349	213.38
359.576	219.38
359.802	232.38
360.029	277.38
360.256	276.38
360.483	237.38
360.709	215.38
360.936	211.38
361.163	217.38
361.39	211.38
361.616	226.38
361.843	207.38
362.07	214.38
362.296	209.38
362.523	225.38
362.749	226.38
362.976	215.38
363.203	214.38
363.429	197.38
363.656	208.38
363.882	201.38
364.109	209.38
364.335	218.38
364.562	213.38
364.788	203.38
365.015	201.38
365.241	189.38
365.468	225.38
365.694	212.38
365.92	224.38
366.147	208.38
366.373	199.38
366.599	182.38
366.826	200.38
367.052	201.38
367.278	205.38
367.505	201.38
367.731	214.38
367.957	193.38
368.184	187.38
368.41	218.38
368.636	224.38
368.862	207.38
369.089	215.38
369.315	217.38
369.541	208.38
369.767	200.38
369.993	189.38
370.219	219.38
370.445	196.38
370.672	180.38
370.898	194.38
371.124	219.38
371.35	191.38
371.576	213.38
371.802	192.38
372.028	207.38
372.254	203.38
372.48	194.38
372.706	187.38
372.932	193.38
373.158	197.38
373.384	203.38
373.61	214.38
373.835	191.38
374.061	211.38
374.287	223.38
374.513	197.38
374.739	207.38
374.965	201.38
375.191	205.38
375.416	200.38
375.642	221.38
375.868	218.38
376.094	200.38
376.319	202.38
376.545	195.38
376.771	209.38
376.997	183.38
377.222	216.38
377.448	194.38
377.674	193.38
377.899	187.38
378.125	202.38
378.35	204.38
378.576	186.38
378.802	191.38
379.027	199.38
379.253	212.38
379.478	201.38
379.704	196.38
379.929	205.38
380.155	208.38
380.38	216.38
380.606	210.38
380.831	187.38
381.057	218.38
381.282	215.38
381.507	199.38
381.733	216.38
381.958	208.38
382.184	188.38
382.409	207.38
382.634	198.38
382.86	198.38
383.085	200.38
383.31	211.38
383.535	203.38
383.761	225.38
383.986	217.38
384.211	211.38
384.436	204.38
384.662	220.38
384.887	203.38
385.112	212.38
385.337	220.38
385.562	231.38
385.787	231.38
386.013	229.38
386.238	228.38
386.463	227.38
386.688	229.38
386.913	221.38
387.138	222.38
387.363	219.38
387.588	215.38
387.813	214.38
388.038	203.38
388.263	230.38
388.488	219.38
388.713	214.38
388.938	219.38
389.163	196.38
389.387	227.38
389.612	216.38
389.837	207.38
390.062	217.38
390.287	197.38
390.512	205.38
390.736	206.38
390.961	211.38
391.186	201.38
391.411	214.38
391.636	213.38
391.86	231.38
392.085	221.38
392.31	228.38
392.534	212.38
392.759	222.38
392.984	219.38
393.208	279.38
393.433	347.38
393.658	353.38
393.882	245.38
394.107	222.38
394.331	226.38
394.556	235.38
394.78	214.38
395.005	221.38
395.229	215.38
395.454	222.38
395.678	216.38
395.903	237.38
396.127	248.38
396.352	247.38
396.576	239.38
396.801	263.38
397.025	296.38
397.249	283.38
397.474	246.38
397.698	233.38
397.922	234.38
398.147	230.38
398.371	236.38
398.595	223.38
398.82	223.38
399.044	256.38
399.268	251.38
399.492	267.38
399.717	261.38
399.941	286.38
400.165	275.38
400.389	270.38
400.613	266.38
400.837	236.38
401.062	261.38
401.286	246.38
401.51	222.38
401.734	233.38
401.958	236.38
402.182	262.38
402.406	272.38
402.63	259.38
402.854	239.38
403.078	263.38
403.302	245.38
403.526	246.38
403.75	253.38
403.974	253.38
404.198	245.38
404.422	273.38
404.645	237.38
404.869	257.38
405.093	275.38
405.317	285.38
405.541	290.38
405.765	290.38
405.988	265.38
406.212	282.38
406.436	308.38
406.66	304.38
406.883	293.38
407.107	284.38
407.331	318.38
407.555	319.38
407.778	320.38
408.002	267.38
408.226	260.38
408.449	270.38
408.673	269.38
408.896	285.38
409.12	308.38
409.344	283.38
409.567	274.38
409.791	256.38
410.014	261.38
410.238	221.38
410.461	237.38
410.685	248.38
410.908	259.38
411.132	278.38
411.355	276.38
411.578	270.38
411.802	236.38
412.025	257.38
412.249	263.38
412.472	274.38
412.695	279.38
412.919	287.38
413.142	251.38
413.365	274.38
413.589	249.38
413.812	248.38
414.035	255.38
414.258	236.38
414.482	228.38
414.705	239.38
414.928	233.38
415.151	240.38
415.374	268.38
415.597	239.38
415.821	239.38
416.044	241.38
416.267	246.38
416.49	222.38
416.713	239.38
416.936	226.38
417.159	221.38
417.382	240.38
417.605	254.38
417.828	244.38
418.051	253.38
418.274	253.38
418.497	238.38
418.72	228.38
418.943	239.38
419.166	245.38
419.389	259.38
419.611	259.38
419.834	251.38
420.057	260.38
420.28	261.38
420.503	236.38
420.726	250.38
420.948	262.38
421.171	282.38
421.394	294.38
421.617	250.38
421.839	239.38
422.062	251.38
422.285	275.38
422.507	289.38
422.73	335.38
422.953	312.38
423.175	270.38
423.398	240.38
423.621	260.38
423.843	267.38
424.066	260.38
424.288	271.38
424.511	251.38
424.733	281.38
424.956	328.38
425.178	332.38
425.401	318.38
425.623	319.38
425.846	278.38
426.068	257.38
426.291	270.38
426.513	245.38
426.735	262.38
426.958	285.38
427.18	319.38
427.402	375.38
427.625	411.38
427.847	382.38
428.069	312.38
428.292	295.38
428.514	252.38
428.736	256.38
428.958	237.38
429.181	250.38
429.403	240.38
429.625	259.38
429.847	253.38
430.069	295.38
430.292	284.38
430.514	248.38
430.736	237.38
430.958	247.38
431.18	228.38
431.402	270.38
431.624	225.38
431.846	227.38
432.068	221.38
432.29	220.38
432.512	240.38
432.734	256.38
432.956	260.38
433.178	244.38
433.4	244.38
433.622	245.38
433.844	240.38
434.066	230.38
434.287	256.38
434.509	234.38
434.731	224.38
434.953	261.38
435.175	247.38
435.397	265.38
435.618	281.38
435.84	297.38
436.062	311.38
436.284	331.38
436.505	288.38
436.727	248.38
436.949	247.38
437.17	231.38
437.392	262.38
437.614	238.38
437.835	265.38
438.057	324.38
438.278	344.38
438.5	342.38
438.721	353.38
438.943	351.38
439.165	273.38
439.386	260.38
439.608	274.38
439.829	282.38
440.05	288.38
440.272	324.38
440.493	295.38
440.715	255.38
440.936	243.38
441.158	261.38
441.379	225.38
441.6	248.38
441.822	273.38
442.043	315.38
442.264	312.38
442.486	331.38
442.707	302.38
442.928	268.38
443.149	275.38
443.371	314.38
443.592	298.38
443.813	326.38
444.034	345.38
444.255	292.38
444.476	277.38
444.698	285.38
444.919	282.38
445.14	383.38
445.361	319.38
445.582	288.38
445.803	330.38
446.024	379.38
446.245	367.38
446.466	336.38
446.687	307.38
446.908	243.38
447.129	245.38
447.35	251.38
447.571	244.38
447.792	263.38
448.013	234.38
448.234	255.38
448.455	284.38
448.675	316.38
448.896	355.38
449.117	291.38
449.338	288.38
449.559	344.38
449.779	384.38
450	298.38
450.221	261.38
450.442	235.38
450.662	245.38
450.883	267.38
451.104	274.38
451.324	270.38
451.545	249.38
451.766	237.38
451.986	223.38
452.207	225.38
452.428	231.38
452.648	212.38
452.869	245.38
453.089	240.38
453.31	253.38
453.53	235.38
453.751	236.38
453.971	235.38
454.192	261.38
454.412	252.38
454.633	233.38
454.853	225.38
455.073	229.38
455.294	221.38
455.514	259.38
455.734	246.38
455.955	218.38
456.175	220.38
456.395	203.38
456.616	205.38
456.836	209.38
457.056	223.38
457.276	213.38
457.497	215.38
457.717	214.38
457.937	218.38
458.157	212.38
458.377	218.38
458.598	254.38
458.818	292.38
459.038	337.38
459.258	320.38
459.478	264.38
459.698	237.38
459.918	261.38
460.138	234.38
460.358	235.38
460.578	232.38
460.798	245.38
461.018	234.38
461.238	226.38
461.458	237.38
461.678	228.38
461.898	238.38
462.118	238.38
462.338	257.38
462.558	248.38
462.777	229.38
462.997	245.38
463.217	257.38
463.437	264.38
463.657	262.38
463.876	253.38
464.096	253.38
464.316	258.38
464.536	239.38
464.755	268.38
464.975	273.38
465.195	334.38
465.414	372.38
465.634	295.38
465.854	265.38
466.073	252.38
466.293	215.38
466.512	234.38
466.732	240.38
466.951	228.38
467.171	218.38
467.391	230.38
467.61	227.38
467.829	236.38
468.049	259.38
468.268	272.38
468.488	243.38
468.707	224.38
468.927	235.38
469.146	233.38
469.365	233.38
469.585	239.38
469.804	221.38
470.023	255.38
470.243	255.38
470.462	234.38
470.681	257.38
470.901	249.38
471.12	247.38
471.339	230.38
471.558	228.38
471.777	246.38
471.997	258.38
472.216	247.38
472.435	319.38
472.654	264.38
472.873	240.38
473.092	230.38
473.311	220.38
473.53	219.38
473.749	233.38
473.968	267.38
474.187	311.38
474.406	311.38
474.625	247.38
474.844	231.38
475.063	227.38
475.282	208.38
475.501	211.38
475.72	243.38
475.939	223.38
476.158	227.38
476.377	230.38
476.596	223.38
476.814	236.38
477.033	243.38
477.252	259.38
477.471	257.38
477.69	236.38
477.908	255.38
478.127	252.38
478.346	241.38
478.564	245.38
478.783	248.38
479.002	260.38
479.22	279.38
479.439	277.38
479.658	293.38
479.876	294.38
480.095	287.38
480.313	283.38
480.532	301.38
480.751	273.38
480.969	295.38
481.188	387.38
481.406	454.38
481.624	317.38
481.843	294.38
482.061	279.38
482.28	280.38
482.498	266.38
482.717	289.38
482.935	273.38
483.153	268.38
483.372	284.38
483.59	274.38
483.808	279.38
484.027	252.38
484.245	272.38
484.463	295.38
484.681	276.38
484.9	265.38
485.118	270.38
485.336	265.38
485.554	274.38
485.772	281.38
485.99	274.38
486.209	279.38
486.427	290.38
486.645	285.38
486.863	305.38
487.081	300.38
487.299	299.38
487.517	310.38
487.735	287.38
487.953	285.38
488.171	289.38
488.389	280.38
488.607	298.38
488.825	296.38
489.043	283.38
489.261	281.38
489.479	288.38
489.696	287.38
489.914	300.38
490.132	296.38
490.35	308.38
490.568	303.38
490.786	300.38
491.003	311.38
491.221	323.38
491.439	321.38
491.657	317.38
491.874	334.38
492.092	331.38
492.31	343.38
492.527	329.38
492.745	342.38
492.963	317.38
493.18	330.38
493.398	321.38
493.615	331.38
493.833	333.38
494.05	341.38
494.268	335.38
494.485	321.38
494.703	333.38
494.92	333.38
495.138	328.38
495.355	316.38
495.573	331.38
495.79	328.38
496.008	325.38
496.225	314.38
496.442	333.38
496.66	330.38
496.877	307.38
497.094	320.38
497.312	326.38
497.529	319.38
497.746	329.38
497.963	327.38
498.181	352.38
498.398	348.38
498.615	336.38
498.832	355.38
499.049	377.38
499.267	360.38
499.484	382.38
499.701	390.38
499.918	408.38
500.135	396.38
500.352	441.38
500.569	425.38
500.786	439.38
501.003	430.38
501.22	425.38
501.437	401.38
501.654	403.38
501.871	400.38
502.088	373.38
502.305	364.38
502.522	366.38
