Data from 1966.PennyLincolnUp.Lamp.En5.5.200Scan.071719.P1._HRD10591_14-13-40-914.txt Node
Date: Thu Jul 18 14:13:40 EDT 2019
User: cochatt
Spectrometer: HR+D1059
Trigger mode: 1
Integration Time (sec): 1.000000E-1
Scans to average: 1
Electric dark correction enabled: true
Nonlinearity correction enabled: false
Boxcar width: 0
XAxis mode: Wavelengths
Number of Pixels in Spectrum: 2048
>>>>>Begin Spectral Data<<<<<
223.165	-13.56
223.4	-13.56
223.635	-13.56
223.869	-17.56
224.104	-13.56
224.338	-22.56
224.573	-10.56
224.808	-24.56
225.042	-9.56
225.277	-13.56
225.511	4.44
225.746	10.44
225.98	26.44
226.215	10.44
226.449	7.44
226.683	28.44
226.918	15.44
227.152	22.44
227.387	26.44
227.621	32.44
227.856	33.44
228.09	49.44
228.324	47.44
228.559	62.44
228.793	56.44
229.027	84.44
229.262	73.44
229.496	77.44
229.73	95.44
229.964	102.44
230.199	102.44
230.433	87.44
230.667	87.44
230.901	77.44
231.136	91.44
231.37	91.44
231.604	105.44
231.838	85.44
232.072	89.44
232.306	93.44
232.541	89.44
232.775	89.44
233.009	97.44
233.243	98.44
233.477	105.44
233.711	105.44
233.945	90.44
234.179	106.44
234.413	99.44
234.647	88.44
234.881	95.44
235.115	92.44
235.349	98.44
235.583	102.44
235.817	100.44
236.051	91.44
236.285	89.44
236.519	105.44
236.753	91.44
236.987	110.44
237.221	116.44
237.455	143.44
237.689	119.44
237.922	105.44
238.156	108.44
238.39	100.44
238.624	91.44
238.858	97.44
239.091	88.44
239.325	98.44
239.559	97.44
239.793	95.44
240.027	99.44
240.26	101.44
240.494	101.44
240.728	104.44
240.961	114.44
241.195	98.44
241.429	99.44
241.662	94.44
241.896	88.44
242.13	115.44
242.363	115.44
242.597	85.44
242.83	102.44
243.064	110.44
243.298	95.44
243.531	103.44
243.765	109.44
243.998	88.44
244.232	117.44
244.465	91.44
244.699	107.44
244.932	117.44
245.166	96.44
245.399	113.44
245.633	100.44
245.866	107.44
246.099	102.44
246.333	109.44
246.566	99.44
246.8	109.44
247.033	116.44
247.266	101.44
247.5	113.44
247.733	117.44
247.966	105.44
248.2	109.44
248.433	122.44
248.666	127.44
248.899	115.44
249.133	127.44
249.366	126.44
249.599	127.44
249.832	126.44
250.066	110.44
250.299	123.44
250.532	128.44
250.765	129.44
250.998	141.44
251.231	132.44
251.465	131.44
251.698	121.44
251.931	115.44
252.164	117.44
252.397	131.44
252.63	133.44
252.863	133.44
253.096	138.44
253.329	143.44
253.562	144.44
253.795	139.44
254.028	134.44
254.261	137.44
254.494	137.44
254.727	151.44
254.96	165.44
255.193	165.44
255.426	150.44
255.659	139.44
255.892	143.44
256.124	140.44
256.357	143.44
256.59	129.44
256.823	124.44
257.056	129.44
257.289	124.44
257.521	125.44
257.754	130.44
257.987	116.44
258.22	125.44
258.452	139.44
258.685	130.44
258.918	144.44
259.151	133.44
259.383	126.44
259.616	140.44
259.849	141.44
260.081	146.44
260.314	155.44
260.547	156.44
260.779	141.44
261.012	148.44
261.244	149.44
261.477	135.44
261.71	136.44
261.942	133.44
262.175	159.44
262.407	136.44
262.64	142.44
262.872	124.44
263.105	126.44
263.337	105.44
263.57	133.44
263.802	139.44
264.035	139.44
264.267	136.44
264.499	129.44
264.732	128.44
264.964	135.44
265.197	141.44
265.429	129.44
265.661	136.44
265.894	133.44
266.126	134.44
266.358	139.44
266.591	131.44
266.823	140.44
267.055	136.44
267.287	140.44
267.52	138.44
267.752	140.44
267.984	133.44
268.216	133.44
268.448	144.44
268.681	126.44
268.913	143.44
269.145	158.44
269.377	164.44
269.609	153.44
269.841	160.44
270.073	161.44
270.306	187.44
270.538	198.44
270.77	175.44
271.002	168.44
271.234	165.44
271.466	167.44
271.698	166.44
271.93	183.44
272.162	162.44
272.394	182.44
272.626	185.44
272.858	169.44
273.09	160.44
273.322	137.44
273.553	145.44
273.785	158.44
274.017	142.44
274.249	152.44
274.481	156.44
274.713	156.44
274.945	143.44
275.176	136.44
275.408	148.44
275.64	156.44
275.872	144.44
276.104	150.44
276.335	139.44
276.567	143.44
276.799	191.44
277.031	175.44
277.262	182.44
277.494	182.44
277.726	170.44
277.957	163.44
278.189	153.44
278.421	145.44
278.652	154.44
278.884	153.44
279.115	150.44
279.347	136.44
279.579	154.44
279.81	152.44
280.042	133.44
280.273	153.44
280.505	157.44
280.736	145.44
280.968	146.44
281.199	149.44
281.431	151.44
281.662	153.44
281.894	154.44
282.125	161.44
282.356	157.44
282.588	162.44
282.819	169.44
283.051	154.44
283.282	153.44
283.513	147.44
283.745	141.44
283.976	163.44
284.207	166.44
284.439	150.44
284.67	165.44
284.901	172.44
285.132	150.44
285.364	165.44
285.595	165.44
285.826	139.44
286.057	163.44
286.288	172.44
286.52	151.44
286.751	160.44
286.982	149.44
287.213	154.44
287.444	160.44
287.675	151.44
287.906	157.44
288.138	165.44
288.369	176.44
288.6	170.44
288.831	162.44
289.062	151.44
289.293	156.44
289.524	165.44
289.755	175.44
289.986	169.44
290.217	169.44
290.448	164.44
290.679	162.44
290.91	153.44
291.141	155.44
291.371	161.44
291.602	169.44
291.833	161.44
292.064	169.44
292.295	175.44
292.526	162.44
292.757	171.44
292.987	158.44
293.218	169.44
293.449	167.44
293.68	178.44
293.91	169.44
294.141	165.44
294.372	165.44
294.603	163.44
294.833	166.44
295.064	174.44
295.295	170.44
295.525	156.44
295.756	177.44
295.987	171.44
296.217	180.44
296.448	174.44
296.679	158.44
296.909	165.44
297.14	178.44
297.37	174.44
297.601	189.44
297.831	160.44
298.062	168.44
298.292	157.44
298.523	179.44
298.753	178.44
298.984	193.44
299.214	162.44
299.445	174.44
299.675	173.44
299.905	170.44
300.136	167.44
300.366	160.44
300.597	181.44
300.827	192.44
301.057	177.44
301.288	184.44
301.518	180.44
301.748	169.44
301.979	177.44
302.209	185.44
302.439	187.44
302.669	177.44
302.9	184.44
303.13	166.44
303.36	178.44
303.59	188.44
303.82	186.44
304.051	173.44
304.281	192.44
304.511	195.44
304.741	179.44
304.971	166.44
305.201	157.44
305.431	181.44
305.661	173.44
305.891	180.44
306.121	185.44
306.352	181.44
306.582	181.44
306.812	177.44
307.042	162.44
307.272	185.44
307.502	169.44
307.731	189.44
307.961	180.44
308.191	178.44
308.421	184.44
308.651	170.44
308.881	172.44
309.111	189.44
309.341	181.44
309.571	185.44
309.8	185.44
310.03	197.44
310.26	201.44
310.49	197.44
310.72	215.44
310.949	203.44
311.179	205.44
311.409	191.44
311.639	198.44
311.868	197.44
312.098	209.44
312.328	191.44
312.557	221.44
312.787	210.44
313.017	204.44
313.246	199.44
313.476	200.44
313.706	177.44
313.935	197.44
314.165	217.44
314.394	201.44
314.624	205.44
314.853	195.44
315.083	198.44
315.312	192.44
315.542	194.44
315.771	172.44
316.001	190.44
316.23	186.44
316.46	190.44
316.689	191.44
316.919	208.44
317.148	199.44
317.377	192.44
317.607	198.44
317.836	195.44
318.065	195.44
318.295	191.44
318.524	183.44
318.753	203.44
318.983	190.44
319.212	206.44
319.441	210.44
319.67	200.44
319.9	201.44
320.129	181.44
320.358	191.44
320.587	207.44
320.816	204.44
321.046	199.44
321.275	211.44
321.504	204.44
321.733	198.44
321.962	198.44
322.191	202.44
322.42	227.44
322.649	238.44
322.878	243.44
323.108	224.44
323.337	241.44
323.566	221.44
323.795	250.44
324.024	261.44
324.253	329.44
324.482	483.44
324.71	729.44
324.939	971.44
325.168	796.44
325.397	418.44
325.626	279.44
325.855	249.44
326.084	231.44
326.313	245.44
326.542	254.44
326.77	268.44
326.999	315.44
327.228	441.44
327.457	648.44
327.686	725.44
327.914	477.44
328.143	334.44
328.372	315.44
328.6	299.44
328.829	272.44
329.058	297.44
329.287	308.44
329.515	267.44
329.744	256.44
329.972	266.44
330.201	282.44
330.43	287.44
330.658	308.44
330.887	322.44
331.115	303.44
331.344	253.44
331.572	257.44
331.801	242.44
332.03	227.44
332.258	219.44
332.486	234.44
332.715	230.44
332.943	232.44
333.172	217.44
333.4	246.44
333.629	240.44
333.857	249.44
334.085	238.44
334.314	260.44
334.542	277.44
334.771	295.44
334.999	276.44
335.227	261.44
335.455	233.44
335.684	242.44
335.912	234.44
336.14	228.44
336.369	235.44
336.597	227.44
336.825	237.44
337.053	223.44
337.281	218.44
337.51	216.44
337.738	234.44
337.966	215.44
338.194	214.44
338.422	228.44
338.65	227.44
338.878	218.44
339.106	215.44
339.334	223.44
339.562	209.44
339.79	206.44
340.018	217.44
340.246	211.44
340.474	223.44
340.702	209.44
340.93	226.44
341.158	219.44
341.386	222.44
341.614	222.44
341.842	213.44
342.07	212.44
342.298	205.44
342.526	206.44
342.754	227.44
342.981	217.44
343.209	187.44
343.437	218.44
343.665	223.44
343.893	214.44
344.12	238.44
344.348	218.44
344.576	212.44
344.804	218.44
345.031	226.44
345.259	225.44
345.487	210.44
345.714	217.44
345.942	212.44
346.17	207.44
346.397	217.44
346.625	220.44
346.853	216.44
347.08	211.44
347.308	215.44
347.535	225.44
347.763	228.44
347.99	209.44
348.218	219.44
348.445	219.44
348.673	218.44
348.9	206.44
349.128	212.44
349.355	213.44
349.583	201.44
349.81	209.44
350.037	202.44
350.265	201.44
350.492	220.44
350.72	209.44
350.947	206.44
351.174	220.44
351.402	213.44
351.629	215.44
351.856	213.44
352.083	213.44
352.311	221.44
352.538	213.44
352.765	218.44
352.992	216.44
353.22	217.44
353.447	206.44
353.674	228.44
353.901	204.44
354.128	213.44
354.355	193.44
354.583	203.44
354.81	213.44
355.037	195.44
355.264	189.44
355.491	206.44
355.718	195.44
355.945	194.44
356.172	184.44
356.399	195.44
356.626	202.44
356.853	198.44
357.08	194.44
357.307	191.44
357.534	190.44
357.761	204.44
357.988	201.44
358.215	208.44
358.441	195.44
358.668	204.44
358.895	194.44
359.122	194.44
359.349	187.44
359.576	217.44
359.802	223.44
360.029	243.44
360.256	251.44
360.483	251.44
360.709	214.44
360.936	209.44
361.163	226.44
361.39	226.44
361.616	208.44
361.843	213.44
362.07	211.44
362.296	199.44
362.523	205.44
362.749	204.44
362.976	217.44
363.203	217.44
363.429	199.44
363.656	189.44
363.882	201.44
364.109	202.44
364.335	185.44
364.562	198.44
364.788	207.44
365.015	207.44
365.241	192.44
365.468	200.44
365.694	211.44
365.92	207.44
366.147	198.44
366.373	190.44
366.599	200.44
366.826	197.44
367.052	195.44
367.278	210.44
367.505	195.44
367.731	201.44
367.957	198.44
368.184	195.44
368.41	218.44
368.636	210.44
368.862	201.44
369.089	212.44
369.315	212.44
369.541	201.44
369.767	208.44
369.993	178.44
370.219	184.44
370.445	190.44
370.672	197.44
370.898	209.44
371.124	198.44
371.35	203.44
371.576	198.44
371.802	197.44
372.028	205.44
372.254	198.44
372.48	203.44
372.706	205.44
372.932	197.44
373.158	194.44
373.384	205.44
373.61	197.44
373.835	203.44
374.061	217.44
374.287	214.44
374.513	233.44
374.739	209.44
374.965	201.44
375.191	213.44
375.416	210.44
375.642	203.44
375.868	201.44
376.094	202.44
376.319	190.44
376.545	210.44
376.771	197.44
376.997	191.44
377.222	203.44
377.448	195.44
377.674	202.44
377.899	194.44
378.125	197.44
378.35	191.44
378.576	194.44
378.802	206.44
379.027	199.44
379.253	199.44
379.478	202.44
379.704	183.44
379.929	199.44
380.155	192.44
380.38	193.44
380.606	196.44
380.831	212.44
381.057	201.44
381.282	198.44
381.507	204.44
381.733	206.44
381.958	199.44
382.184	198.44
382.409	201.44
382.634	200.44
382.86	199.44
383.085	217.44
383.31	215.44
383.535	213.44
383.761	184.44
383.986	206.44
384.211	211.44
384.436	200.44
384.662	202.44
384.887	215.44
385.112	203.44
385.337	203.44
385.562	199.44
385.787	213.44
386.013	225.44
386.238	206.44
386.463	226.44
386.688	204.44
386.913	200.44
387.138	230.44
387.363	221.44
387.588	219.44
387.813	234.44
388.038	218.44
388.263	223.44
388.488	211.44
388.713	223.44
388.938	211.44
389.163	218.44
389.387	207.44
389.612	211.44
389.837	201.44
390.062	198.44
390.287	206.44
390.512	190.44
390.736	210.44
390.961	216.44
391.186	220.44
391.411	202.44
391.636	226.44
391.86	207.44
392.085	229.44
392.31	203.44
392.534	198.44
392.759	216.44
392.984	216.44
393.208	229.44
393.433	209.44
393.658	216.44
393.882	233.44
394.107	199.44
394.331	216.44
394.556	212.44
394.78	213.44
395.005	205.44
395.229	202.44
395.454	219.44
395.678	222.44
395.903	224.44
396.127	232.44
396.352	218.44
396.576	213.44
396.801	217.44
397.025	241.44
397.249	232.44
397.474	222.44
397.698	228.44
397.922	227.44
398.147	223.44
398.371	223.44
398.595	216.44
398.82	237.44
399.044	252.44
399.268	246.44
399.492	252.44
399.717	257.44
399.941	283.44
400.165	287.44
400.389	258.44
400.613	263.44
400.837	248.44
401.062	245.44
401.286	245.44
401.51	227.44
401.734	233.44
401.958	257.44
402.182	232.44
402.406	255.44
402.63	244.44
402.854	251.44
403.078	244.44
403.302	250.44
403.526	265.44
403.75	233.44
403.974	257.44
404.198	229.44
404.422	253.44
404.645	259.44
404.869	263.44
405.093	253.44
405.317	286.44
405.541	289.44
405.765	270.44
405.988	259.44
406.212	285.44
406.436	278.44
406.66	290.44
406.883	281.44
407.107	260.44
407.331	282.44
407.555	300.44
407.778	301.44
408.002	294.44
408.226	271.44
408.449	265.44
408.673	263.44
408.896	272.44
409.12	265.44
409.344	281.44
409.567	255.44
409.791	250.44
410.014	252.44
410.238	242.44
410.461	248.44
410.685	261.44
410.908	243.44
411.132	277.44
411.355	281.44
411.578	287.44
411.802	257.44
412.025	245.44
412.249	271.44
412.472	278.44
412.695	282.44
412.919	269.44
413.142	249.44
413.365	243.44
413.589	250.44
413.812	251.44
414.035	248.44
414.258	245.44
414.482	243.44
414.705	238.44
414.928	262.44
415.151	234.44
415.374	229.44
415.597	247.44
415.821	245.44
416.044	247.44
416.267	252.44
416.49	243.44
416.713	237.44
416.936	231.44
417.159	246.44
417.382	263.44
417.605	246.44
417.828	242.44
418.051	253.44
418.274	226.44
418.497	245.44
418.72	250.44
418.943	237.44
419.166	237.44
419.389	245.44
419.611	249.44
419.834	263.44
420.057	250.44
420.28	254.44
420.503	265.44
420.726	243.44
420.948	263.44
421.171	267.44
421.394	284.44
421.617	241.44
421.839	254.44
422.062	243.44
422.285	261.44
422.507	278.44
422.73	301.44
422.953	297.44
423.175	260.44
423.398	256.44
423.621	271.44
423.843	278.44
424.066	254.44
424.288	263.44
424.511	268.44
424.733	291.44
424.956	328.44
425.178	305.44
425.401	318.44
425.623	333.44
425.846	276.44
426.068	290.44
426.291	244.44
426.513	252.44
426.735	266.44
426.958	274.44
427.18	309.44
427.402	367.44
427.625	377.44
427.847	339.44
428.069	307.44
428.292	271.44
428.514	245.44
428.736	222.44
428.958	251.44
429.181	255.44
429.403	229.44
429.625	228.44
429.847	260.44
430.069	294.44
430.292	283.44
430.514	243.44
430.736	257.44
430.958	234.44
431.18	235.44
431.402	233.44
431.624	228.44
431.846	221.44
432.068	231.44
432.29	220.44
432.512	237.44
432.734	244.44
432.956	253.44
433.178	263.44
433.4	252.44
433.622	237.44
433.844	239.44
434.066	232.44
434.287	247.44
434.509	222.44
434.731	225.44
434.953	241.44
435.175	234.44
435.397	255.44
435.618	251.44
435.84	296.44
436.062	287.44
436.284	334.44
436.505	277.44
436.727	277.44
436.949	247.44
437.17	254.44
437.392	228.44
437.614	263.44
437.835	261.44
438.057	305.44
438.278	361.44
438.5	340.44
438.721	357.44
438.943	335.44
439.165	283.44
439.386	259.44
439.608	265.44
439.829	279.44
440.05	286.44
440.272	307.44
440.493	271.44
440.715	272.44
440.936	255.44
441.158	236.44
441.379	239.44
441.6	273.44
441.822	271.44
442.043	292.44
442.264	330.44
442.486	335.44
442.707	293.44
442.928	263.44
443.149	277.44
443.371	287.44
443.592	308.44
443.813	312.44
444.034	353.44
444.255	293.44
444.476	282.44
444.698	272.44
444.919	256.44
445.14	375.44
445.361	307.44
445.582	294.44
445.803	303.44
446.024	378.44
446.245	355.44
446.466	302.44
446.687	289.44
446.908	266.44
447.129	253.44
447.35	250.44
447.571	260.44
447.792	231.44
448.013	244.44
448.234	246.44
448.455	271.44
448.675	329.44
448.896	354.44
449.117	301.44
449.338	292.44
449.559	340.44
449.779	380.44
450	298.44
450.221	267.44
450.442	243.44
450.662	225.44
450.883	247.44
451.104	269.44
451.324	246.44
451.545	223.44
451.766	225.44
451.986	211.44
452.207	234.44
452.428	234.44
452.648	222.44
452.869	217.44
453.089	238.44
453.31	226.44
453.53	226.44
453.751	217.44
453.971	210.44
454.192	249.44
454.412	221.44
454.633	223.44
454.853	225.44
455.073	215.44
455.294	223.44
455.514	274.44
455.734	267.44
455.955	214.44
456.175	215.44
456.395	197.44
456.616	229.44
456.836	213.44
457.056	227.44
457.276	223.44
457.497	200.44
457.717	193.44
457.937	218.44
458.157	216.44
458.377	218.44
458.598	236.44
458.818	267.44
459.038	305.44
459.258	289.44
459.478	250.44
459.698	242.44
459.918	234.44
460.138	233.44
460.358	251.44
460.578	242.44
460.798	234.44
461.018	237.44
461.238	229.44
461.458	246.44
461.678	213.44
461.898	229.44
462.118	236.44
462.338	238.44
462.558	248.44
462.777	249.44
462.997	251.44
463.217	268.44
463.437	251.44
463.657	261.44
463.876	265.44
464.096	258.44
464.316	236.44
464.536	269.44
464.755	248.44
464.975	283.44
465.195	290.44
465.414	345.44
465.634	281.44
465.854	251.44
466.073	239.44
466.293	236.44
466.512	236.44
466.732	233.44
466.951	231.44
467.171	228.44
467.391	237.44
467.61	241.44
467.829	240.44
468.049	233.44
468.268	245.44
468.488	225.44
468.707	219.44
468.927	232.44
469.146	235.44
469.365	221.44
469.585	211.44
469.804	226.44
470.023	243.44
470.243	245.44
470.462	229.44
470.681	253.44
470.901	242.44
471.12	250.44
471.339	237.44
471.558	245.44
471.777	253.44
471.997	231.44
472.216	243.44
472.435	258.44
472.654	251.44
472.873	229.44
473.092	219.44
473.311	247.44
473.53	234.44
473.749	224.44
473.968	263.44
474.187	297.44
474.406	309.44
474.625	247.44
474.844	238.44
475.063	235.44
475.282	240.44
475.501	232.44
475.72	247.44
475.939	223.44
476.158	237.44
476.377	242.44
476.596	217.44
476.814	238.44
477.033	242.44
477.252	232.44
477.471	256.44
477.69	266.44
477.908	243.44
478.127	231.44
478.346	250.44
478.564	245.44
478.783	254.44
479.002	255.44
479.22	275.44
479.439	266.44
479.658	269.44
479.876	274.44
480.095	280.44
480.313	273.44
480.532	282.44
480.751	257.44
480.969	271.44
481.188	329.44
481.406	361.44
481.624	290.44
481.843	279.44
482.061	281.44
482.28	283.44
482.498	268.44
482.717	249.44
482.935	257.44
483.153	256.44
483.372	270.44
483.59	248.44
483.808	263.44
484.027	265.44
484.245	271.44
484.463	250.44
484.681	281.44
484.9	259.44
485.118	246.44
485.336	243.44
485.554	265.44
485.772	262.44
485.99	285.44
486.209	268.44
486.427	282.44
486.645	285.44
486.863	282.44
487.081	285.44
487.299	271.44
487.517	291.44
487.735	291.44
487.953	290.44
488.171	289.44
488.389	293.44
488.607	272.44
488.825	275.44
489.043	272.44
489.261	288.44
489.479	283.44
489.696	291.44
489.914	297.44
490.132	299.44
490.35	309.44
490.568	311.44
490.786	328.44
491.003	301.44
491.221	309.44
491.439	329.44
491.657	331.44
491.874	325.44
492.092	337.44
492.31	315.44
492.527	321.44
492.745	317.44
492.963	358.44
493.18	348.44
493.398	365.44
493.615	331.44
493.833	341.44
494.05	332.44
494.268	332.44
494.485	351.44
494.703	329.44
494.92	329.44
495.138	332.44
495.355	356.44
495.573	317.44
495.79	338.44
496.008	354.44
496.225	325.44
496.442	338.44
496.66	325.44
496.877	325.44
497.094	318.44
497.312	325.44
497.529	344.44
497.746	345.44
497.963	332.44
498.181	351.44
498.398	356.44
498.615	346.44
498.832	381.44
499.049	369.44
499.267	373.44
499.484	386.44
499.701	391.44
499.918	409.44
500.135	429.44
500.352	419.44
500.569	463.44
500.786	452.44
501.003	417.44
501.22	422.44
501.437	408.44
501.654	394.44
501.871	429.44
502.088	395.44
502.305	381.44
502.522	345.44
