Data from 1966.PennyLincolnUp.Lamp.En5.5.200Scan.071719.P1.Scan2.head_HRD10591_14-17-44-132.txt Node
Date: Thu Jul 18 14:17:44 EDT 2019
User: cochatt
Spectrometer: HR+D1059
Trigger mode: 1
Integration Time (sec): 1.000000E-1
Scans to average: 1
Electric dark correction enabled: true
Nonlinearity correction enabled: false
Boxcar width: 0
XAxis mode: Wavelengths
Number of Pixels in Spectrum: 2048
>>>>>Begin Spectral Data<<<<<
223.165	-9.69
223.4	-9.69
223.635	-9.69
223.869	-16.69
224.104	-21.69
224.338	-18.69
224.573	-28.69
224.808	-8.69
225.042	-16.69
225.277	14.31
225.511	11.31
225.746	-3.69
225.98	-3.69
226.215	5.31
226.449	9.31
226.683	20.31
226.918	33.31
227.152	34.31
227.387	42.31
227.621	44.31
227.856	44.31
228.09	48.31
228.324	59.31
228.559	56.31
228.793	68.31
229.027	94.31
229.262	109.31
229.496	114.31
229.73	120.31
229.964	165.31
230.199	127.31
230.433	115.31
230.667	110.31
230.901	122.31
231.136	125.31
231.37	119.31
231.604	120.31
231.838	99.31
232.072	115.31
232.306	122.31
232.541	115.31
232.775	116.31
233.009	99.31
233.243	112.31
233.477	107.31
233.711	103.31
233.945	115.31
234.179	111.31
234.413	118.31
234.647	125.31
234.881	110.31
235.115	119.31
235.349	104.31
235.583	119.31
235.817	139.31
236.051	124.31
236.285	124.31
236.519	126.31
236.753	125.31
236.987	144.31
237.221	173.31
237.455	227.31
237.689	190.31
237.922	132.31
238.156	133.31
238.39	130.31
238.624	136.31
238.858	126.31
239.091	127.31
239.325	103.31
239.559	126.31
239.793	136.31
240.027	144.31
240.26	134.31
240.494	157.31
240.728	148.31
240.961	152.31
241.195	149.31
241.429	141.31
241.662	124.31
241.896	128.31
242.13	128.31
242.363	131.31
242.597	130.31
242.83	149.31
243.064	150.31
243.298	147.31
243.531	142.31
243.765	145.31
243.998	159.31
244.232	152.31
244.465	135.31
244.699	155.31
244.932	138.31
245.166	157.31
245.399	142.31
245.633	135.31
245.866	167.31
246.099	135.31
246.333	162.31
246.566	132.31
246.8	137.31
247.033	162.31
247.266	154.31
247.5	165.31
247.733	161.31
247.966	170.31
248.2	167.31
248.433	172.31
248.666	168.31
248.899	181.31
249.133	199.31
249.366	206.31
249.599	192.31
249.832	186.31
250.066	186.31
250.299	200.31
250.532	188.31
250.765	211.31
250.998	222.31
251.231	220.31
251.465	215.31
251.698	216.31
251.931	195.31
252.164	180.31
252.397	198.31
252.63	191.31
252.863	215.31
253.096	206.31
253.329	233.31
253.562	223.31
253.795	218.31
254.028	212.31
254.261	198.31
254.494	242.31
254.727	256.31
254.96	279.31
255.193	249.31
255.426	233.31
255.659	239.31
255.892	223.31
256.124	231.31
256.357	245.31
256.59	228.31
256.823	230.31
257.056	217.31
257.289	205.31
257.521	222.31
257.754	220.31
257.987	207.31
258.22	207.31
258.452	199.31
258.685	214.31
258.918	190.31
259.151	203.31
259.383	212.31
259.616	215.31
259.849	214.31
260.081	238.31
260.314	234.31
260.547	238.31
260.779	227.31
261.012	222.31
261.244	220.31
261.477	211.31
261.71	231.31
261.942	236.31
262.175	233.31
262.407	238.31
262.64	201.31
262.872	211.31
263.105	187.31
263.337	223.31
263.57	206.31
263.802	209.31
264.035	220.31
264.267	202.31
264.499	218.31
264.732	202.31
264.964	228.31
265.197	213.31
265.429	219.31
265.661	224.31
265.894	207.31
266.126	214.31
266.358	204.31
266.591	230.31
266.823	227.31
267.055	224.31
267.287	250.31
267.52	224.31
267.752	242.31
267.984	241.31
268.216	229.31
268.448	243.31
268.681	247.31
268.913	237.31
269.145	255.31
269.377	264.31
269.609	248.31
269.841	266.31
270.073	261.31
270.306	263.31
270.538	300.31
270.77	288.31
271.002	281.31
271.234	292.31
271.466	281.31
271.698	294.31
271.93	300.31
272.162	306.31
272.394	301.31
272.626	277.31
272.858	274.31
273.09	272.31
273.322	262.31
273.553	264.31
273.785	240.31
274.017	255.31
274.249	266.31
274.481	256.31
274.713	256.31
274.945	263.31
275.176	258.31
275.408	254.31
275.64	256.31
275.872	270.31
276.104	267.31
276.335	274.31
276.567	251.31
276.799	271.31
277.031	296.31
277.262	312.31
277.494	310.31
277.726	312.31
277.957	286.31
278.189	272.31
278.421	264.31
278.652	267.31
278.884	276.31
279.115	266.31
279.347	260.31
279.579	275.31
279.81	257.31
280.042	271.31
280.273	261.31
280.505	254.31
280.736	235.31
280.968	249.31
281.199	279.31
281.431	252.31
281.662	273.31
281.894	279.31
282.125	291.31
282.356	298.31
282.588	285.31
282.819	312.31
283.051	290.31
283.282	250.31
283.513	270.31
283.745	286.31
283.976	272.31
284.207	277.31
284.439	294.31
284.67	278.31
284.901	275.31
285.132	273.31
285.364	292.31
285.595	273.31
285.826	269.31
286.057	285.31
286.288	283.31
286.52	290.31
286.751	275.31
286.982	279.31
287.213	263.31
287.444	271.31
287.675	292.31
287.906	287.31
288.138	302.31
288.369	302.31
288.6	296.31
288.831	288.31
289.062	283.31
289.293	290.31
289.524	296.31
289.755	271.31
289.986	272.31
290.217	283.31
290.448	281.31
290.679	298.31
290.91	285.31
291.141	264.31
291.371	288.31
291.602	288.31
291.833	283.31
292.064	292.31
292.295	298.31
292.526	284.31
292.757	276.31
292.987	282.31
293.218	287.31
293.449	294.31
293.68	294.31
293.91	285.31
294.141	276.31
294.372	272.31
294.603	273.31
294.833	289.31
295.064	294.31
295.295	275.31
295.525	278.31
295.756	301.31
295.987	300.31
296.217	322.31
296.448	321.31
296.679	289.31
296.909	287.31
297.14	293.31
297.37	287.31
297.601	326.31
297.831	300.31
298.062	293.31
298.292	300.31
298.523	322.31
298.753	321.31
298.984	301.31
299.214	301.31
299.445	288.31
299.675	304.31
299.905	314.31
300.136	303.31
300.366	310.31
300.597	314.31
300.827	308.31
301.057	322.31
301.288	318.31
301.518	333.31
301.748	320.31
301.979	327.31
302.209	317.31
302.439	329.31
302.669	323.31
302.9	311.31
303.13	325.31
303.36	327.31
303.59	291.31
303.82	334.31
304.051	317.31
304.281	330.31
304.511	312.31
304.741	328.31
304.971	328.31
305.201	332.31
305.431	322.31
305.661	339.31
305.891	323.31
306.121	346.31
306.352	339.31
306.582	340.31
306.812	350.31
307.042	318.31
307.272	330.31
307.502	331.31
307.731	341.31
307.961	313.31
308.191	323.31
308.421	326.31
308.651	330.31
308.881	314.31
309.111	320.31
309.341	347.31
309.571	327.31
309.8	345.31
310.03	372.31
310.26	346.31
310.49	350.31
310.72	380.31
310.949	399.31
311.179	384.31
311.409	378.31
311.639	376.31
311.868	385.31
312.098	364.31
312.328	377.31
312.557	383.31
312.787	408.31
313.017	381.31
313.246	395.31
313.476	379.31
313.706	361.31
313.935	356.31
314.165	399.31
314.394	398.31
314.624	397.31
314.853	375.31
315.083	351.31
315.312	367.31
315.542	378.31
315.771	372.31
316.001	361.31
316.23	378.31
316.46	370.31
316.689	371.31
316.919	367.31
317.148	389.31
317.377	368.31
317.607	364.31
317.836	362.31
318.065	382.31
318.295	381.31
318.524	370.31
318.753	374.31
318.983	374.31
319.212	367.31
319.441	380.31
319.67	364.31
319.9	383.31
320.129	384.31
320.358	375.31
320.587	397.31
320.816	382.31
321.046	388.31
321.275	398.31
321.504	385.31
321.733	390.31
321.962	384.31
322.191	406.31
322.42	415.31
322.649	430.31
322.878	436.31
323.108	428.31
323.337	456.31
323.566	488.31
323.795	507.31
324.024	552.31
324.253	646.31
324.482	872.31
324.71	1391.31
324.939	2070.31
325.168	1772.31
325.397	914.31
325.626	601.31
325.855	520.31
326.084	479.31
326.313	461.31
326.542	487.31
326.77	524.31
326.999	619.31
327.228	837.31
327.457	1276.31
327.686	1587.31
327.914	1012.31
328.143	674.31
328.372	602.31
328.6	560.31
328.829	541.31
329.058	551.31
329.287	552.31
329.515	521.31
329.744	488.31
329.972	493.31
330.201	496.31
330.43	547.31
330.658	558.31
330.887	596.31
331.115	560.31
331.344	495.31
331.572	478.31
331.801	486.31
332.03	461.31
332.258	464.31
332.486	449.31
332.715	477.31
332.943	459.31
333.172	463.31
333.4	441.31
333.629	430.31
333.857	476.31
334.085	502.31
334.314	498.31
334.542	533.31
334.771	554.31
334.999	510.31
335.227	476.31
335.455	456.31
335.684	451.31
335.912	446.31
336.14	460.31
336.369	440.31
336.597	459.31
336.825	468.31
337.053	454.31
337.281	437.31
337.51	459.31
337.738	429.31
337.966	427.31
338.194	442.31
338.422	436.31
338.65	450.31
338.878	415.31
339.106	437.31
339.334	424.31
339.562	427.31
339.79	431.31
340.018	420.31
340.246	429.31
340.474	431.31
340.702	436.31
340.93	432.31
341.158	428.31
341.386	422.31
341.614	421.31
341.842	424.31
342.07	422.31
342.298	425.31
342.526	421.31
342.754	412.31
342.981	407.31
343.209	422.31
343.437	443.31
343.665	429.31
343.893	437.31
344.12	435.31
344.348	458.31
344.576	415.31
344.804	439.31
345.031	444.31
345.259	450.31
345.487	458.31
345.714	426.31
345.942	417.31
346.17	430.31
346.397	408.31
346.625	416.31
346.853	414.31
347.08	411.31
347.308	450.31
347.535	430.31
347.763	429.31
347.99	424.31
348.218	438.31
348.445	431.31
348.673	458.31
348.9	434.31
349.128	403.31
349.355	412.31
349.583	420.31
349.81	416.31
350.037	416.31
350.265	403.31
350.492	422.31
350.72	413.31
350.947	419.31
351.174	407.31
351.402	425.31
351.629	424.31
351.856	425.31
352.083	429.31
352.311	457.31
352.538	430.31
352.765	427.31
352.992	425.31
353.22	429.31
353.447	424.31
353.674	428.31
353.901	403.31
354.128	399.31
354.355	406.31
354.583	396.31
354.81	402.31
355.037	394.31
355.264	387.31
355.491	391.31
355.718	392.31
355.945	408.31
356.172	389.31
356.399	396.31
356.626	374.31
356.853	399.31
357.08	390.31
357.307	391.31
357.534	404.31
357.761	387.31
357.988	408.31
358.215	401.31
358.441	385.31
358.668	401.31
358.895	415.31
359.122	429.31
359.349	427.31
359.576	436.31
359.802	426.31
360.029	459.31
360.256	476.31
360.483	454.31
360.709	422.31
360.936	415.31
361.163	414.31
361.39	419.31
361.616	426.31
361.843	427.31
362.07	416.31
362.296	447.31
362.523	409.31
362.749	424.31
362.976	403.31
363.203	426.31
363.429	395.31
363.656	407.31
363.882	405.31
364.109	435.31
364.335	414.31
364.562	424.31
364.788	422.31
365.015	416.31
365.241	423.31
365.468	442.31
365.694	427.31
365.92	446.31
366.147	414.31
366.373	408.31
366.599	413.31
366.826	421.31
367.052	398.31
367.278	412.31
367.505	400.31
367.731	414.31
367.957	419.31
368.184	415.31
368.41	403.31
368.636	414.31
368.862	415.31
369.089	430.31
369.315	403.31
369.541	426.31
369.767	411.31
369.993	406.31
370.219	421.31
370.445	416.31
370.672	440.31
370.898	430.31
371.124	400.31
371.35	405.31
371.576	418.31
371.802	405.31
372.028	427.31
372.254	406.31
372.48	421.31
372.706	430.31
372.932	428.31
373.158	418.31
373.384	445.31
373.61	447.31
373.835	435.31
374.061	408.31
374.287	436.31
374.513	424.31
374.739	434.31
374.965	450.31
375.191	426.31
375.416	430.31
375.642	429.31
375.868	429.31
376.094	416.31
376.319	412.31
376.545	430.31
376.771	430.31
376.997	430.31
377.222	439.31
377.448	415.31
377.674	422.31
377.899	387.31
378.125	416.31
378.35	407.31
378.576	437.31
378.802	412.31
379.027	414.31
379.253	431.31
379.478	431.31
379.704	412.31
379.929	412.31
380.155	413.31
380.38	419.31
380.606	424.31
380.831	446.31
381.057	416.31
381.282	431.31
381.507	436.31
381.733	411.31
381.958	431.31
382.184	413.31
382.409	423.31
382.634	437.31
382.86	450.31
383.085	406.31
383.31	452.31
383.535	445.31
383.761	419.31
383.986	453.31
384.211	449.31
384.436	444.31
384.662	459.31
384.887	454.31
385.112	472.31
385.337	431.31
385.562	455.31
385.787	452.31
386.013	487.31
386.238	495.31
386.463	465.31
386.688	484.31
386.913	457.31
387.138	468.31
387.363	452.31
387.588	478.31
387.813	471.31
388.038	475.31
388.263	465.31
388.488	446.31
388.713	467.31
388.938	467.31
389.163	477.31
389.387	468.31
389.612	462.31
389.837	460.31
390.062	467.31
390.287	461.31
390.512	477.31
390.736	469.31
390.961	480.31
391.186	485.31
391.411	460.31
391.636	470.31
391.86	474.31
392.085	485.31
392.31	479.31
392.534	487.31
392.759	487.31
392.984	474.31
393.208	490.31
393.433	473.31
393.658	510.31
393.882	486.31
394.107	498.31
394.331	478.31
394.556	475.31
394.78	486.31
395.005	504.31
395.229	476.31
395.454	487.31
395.678	487.31
395.903	496.31
396.127	510.31
396.352	525.31
396.576	496.31
396.801	492.31
397.025	506.31
397.249	525.31
397.474	523.31
397.698	494.31
397.922	508.31
398.147	538.31
398.371	542.31
398.595	535.31
398.82	538.31
399.044	559.31
399.268	601.31
399.492	602.31
399.717	648.31
399.941	640.31
400.165	666.31
400.389	677.31
400.613	621.31
400.837	568.31
401.062	584.31
401.286	586.31
401.51	588.31
401.734	527.31
401.958	527.31
402.182	571.31
402.406	555.31
402.63	554.31
402.854	574.31
403.078	557.31
403.302	567.31
403.526	572.31
403.75	576.31
403.974	576.31
404.198	548.31
404.422	560.31
404.645	565.31
404.869	583.31
405.093	618.31
405.317	642.31
405.541	667.31
405.765	641.31
405.988	608.31
406.212	602.31
406.436	599.31
406.66	626.31
406.883	608.31
407.107	634.31
407.331	675.31
407.555	745.31
407.778	743.31
408.002	678.31
408.226	638.31
408.449	642.31
408.673	631.31
408.896	634.31
409.12	693.31
409.344	635.31
409.567	600.31
409.791	601.31
410.014	572.31
410.238	554.31
410.461	579.31
410.685	586.31
410.908	597.31
411.132	602.31
411.355	655.31
411.578	648.31
411.802	599.31
412.025	587.31
412.249	593.31
412.472	601.31
412.695	650.31
412.919	621.31
413.142	592.31
413.365	581.31
413.589	563.31
413.812	563.31
414.035	531.31
414.258	532.31
414.482	546.31
414.705	527.31
414.928	526.31
415.151	562.31
415.374	548.31
415.597	525.31
415.821	545.31
416.044	524.31
416.267	542.31
416.49	512.31
416.713	539.31
416.936	528.31
417.159	536.31
417.382	519.31
417.605	549.31
417.828	549.31
418.051	547.31
418.274	563.31
418.497	552.31
418.72	556.31
418.943	539.31
419.166	575.31
419.389	603.31
419.611	564.31
419.834	572.31
420.057	580.31
420.28	555.31
420.503	557.31
420.726	555.31
420.948	586.31
421.171	606.31
421.394	637.31
421.617	583.31
421.839	564.31
422.062	574.31
422.285	566.31
422.507	640.31
422.73	711.31
422.953	681.31
423.175	611.31
423.398	591.31
423.621	584.31
423.843	604.31
424.066	607.31
424.288	596.31
424.511	628.31
424.733	650.31
424.956	751.31
425.178	734.31
425.401	732.31
425.623	748.31
425.846	639.31
426.068	602.31
426.291	597.31
426.513	587.31
426.735	607.31
426.958	659.31
427.18	727.31
427.402	849.31
427.625	974.31
427.847	816.31
428.069	710.31
428.292	640.31
428.514	602.31
428.736	591.31
428.958	562.31
429.181	555.31
429.403	573.31
429.625	564.31
429.847	598.31
430.069	679.31
430.292	670.31
430.514	576.31
430.736	565.31
430.958	546.31
431.18	508.31
431.402	546.31
431.624	540.31
431.846	512.31
432.068	502.31
432.29	525.31
432.512	533.31
432.734	538.31
432.956	551.31
433.178	546.31
433.4	547.31
433.622	547.31
433.844	558.31
434.066	526.31
434.287	524.31
434.509	551.31
434.731	541.31
434.953	558.31
435.175	569.31
435.397	585.31
435.618	600.31
435.84	633.31
436.062	746.31
436.284	824.31
436.505	673.31
436.727	629.31
436.949	579.31
437.17	546.31
437.392	568.31
437.614	552.31
437.835	606.31
438.057	689.31
438.278	814.31
438.5	809.31
438.721	912.31
438.943	859.31
439.165	646.31
439.386	621.31
439.608	608.31
439.829	616.31
440.05	626.31
440.272	690.31
440.493	619.31
440.715	596.31
440.936	571.31
441.158	572.31
441.379	549.31
441.6	591.31
441.822	609.31
442.043	647.31
442.264	738.31
442.486	772.31
442.707	671.31
442.928	610.31
443.149	614.31
443.371	664.31
443.592	662.31
443.813	800.31
444.034	869.31
444.255	696.31
444.476	622.31
444.698	636.31
444.919	634.31
445.14	719.31
445.361	663.31
445.582	677.31
445.803	701.31
446.024	795.31
446.245	830.31
446.466	762.31
446.687	656.31
446.908	622.31
447.129	573.31
447.35	556.31
447.571	573.31
447.792	558.31
448.013	551.31
448.234	586.31
448.455	620.31
448.675	731.31
448.896	863.31
449.117	719.31
449.338	674.31
449.559	806.31
449.779	935.31
450	751.31
450.221	631.31
450.442	554.31
450.662	526.31
450.883	557.31
451.104	560.31
451.324	546.31
451.545	528.31
451.766	524.31
451.986	491.31
452.207	500.31
452.428	471.31
452.648	502.31
452.869	475.31
453.089	516.31
453.31	520.31
453.53	506.31
453.751	526.31
453.971	507.31
454.192	525.31
454.412	510.31
454.633	502.31
454.853	480.31
455.073	496.31
455.294	528.31
455.514	593.31
455.734	574.31
455.955	500.31
456.175	470.31
456.395	480.31
456.616	493.31
456.836	502.31
457.056	465.31
457.276	456.31
457.497	468.31
457.717	477.31
457.937	482.31
458.157	491.31
458.377	485.31
458.598	518.31
458.818	564.31
459.038	631.31
459.258	638.31
459.478	565.31
459.698	532.31
459.918	549.31
460.138	549.31
460.358	535.31
460.578	548.31
460.798	534.31
461.018	526.31
461.238	541.31
461.458	528.31
461.678	571.31
461.898	544.31
462.118	528.31
462.338	557.31
462.558	563.31
462.777	587.31
462.997	604.31
463.217	605.31
463.437	623.31
463.657	607.31
463.876	586.31
464.096	573.31
464.316	551.31
464.536	603.31
464.755	618.31
464.975	591.31
465.195	603.31
465.414	667.31
465.634	588.31
465.854	592.31
466.073	547.31
466.293	562.31
466.512	527.31
466.732	536.31
466.951	493.31
467.171	508.31
467.391	494.31
467.61	518.31
467.829	511.31
468.049	514.31
468.268	522.31
468.488	516.31
468.707	513.31
468.927	500.31
469.146	523.31
469.365	506.31
469.585	502.31
469.804	509.31
470.023	526.31
470.243	510.31
470.462	517.31
470.681	534.31
470.901	535.31
471.12	522.31
471.339	511.31
471.558	517.31
471.777	524.31
471.997	504.31
472.216	535.31
472.435	539.31
472.654	549.31
472.873	506.31
473.092	508.31
473.311	528.31
473.53	517.31
473.749	523.31
473.968	553.31
474.187	670.31
474.406	711.31
474.625	590.31
474.844	537.31
475.063	541.31
475.282	543.31
475.501	532.31
475.72	531.31
475.939	551.31
476.158	534.31
476.377	539.31
476.596	523.31
476.814	548.31
477.033	566.31
477.252	565.31
477.471	552.31
477.69	561.31
477.908	566.31
478.127	559.31
478.346	583.31
478.564	559.31
478.783	581.31
479.002	602.31
479.22	576.31
479.439	635.31
479.658	625.31
479.876	648.31
480.095	647.31
480.313	677.31
480.532	668.31
480.751	677.31
480.969	662.31
481.188	739.31
481.406	745.31
481.624	660.31
481.843	654.31
482.061	644.31
482.28	624.31
482.498	620.31
482.717	623.31
482.935	604.31
483.153	620.31
483.372	612.31
483.59	623.31
483.808	613.31
484.027	616.31
484.245	623.31
484.463	627.31
484.681	630.31
484.9	620.31
485.118	631.31
485.336	619.31
485.554	636.31
485.772	652.31
485.99	649.31
486.209	616.31
486.427	619.31
486.645	656.31
486.863	680.31
487.081	662.31
487.299	675.31
487.517	666.31
487.735	658.31
487.953	663.31
488.171	651.31
488.389	680.31
488.607	652.31
488.825	663.31
489.043	657.31
489.261	666.31
489.479	665.31
489.696	630.31
489.914	667.31
490.132	686.31
490.35	691.31
490.568	698.31
490.786	700.31
491.003	710.31
491.221	719.31
491.439	738.31
491.657	735.31
491.874	767.31
492.092	745.31
492.31	740.31
492.527	751.31
492.745	776.31
492.963	759.31
493.18	793.31
493.398	783.31
493.615	808.31
493.833	759.31
494.05	764.31
494.268	783.31
494.485	764.31
494.703	746.31
494.92	774.31
495.138	779.31
495.355	776.31
495.573	793.31
495.79	789.31
496.008	781.31
496.225	779.31
496.442	783.31
496.66	803.31
496.877	786.31
497.094	788.31
497.312	805.31
497.529	797.31
497.746	838.31
497.963	837.31
498.181	844.31
498.398	874.31
498.615	847.31
498.832	916.31
499.049	919.31
499.267	899.31
499.484	970.31
499.701	1001.31
499.918	1014.31
500.135	1093.31
500.352	1096.31
500.569	1130.31
500.786	1166.31
501.003	1155.31
501.22	1111.31
501.437	1064.31
501.654	1034.31
