Data from 1966.PennyLincolnUp.Lamp.En5.5.200Scan.071719.P1._HRD10591_14-14-11-914.txt Node
Date: Thu Jul 18 14:14:11 EDT 2019
User: cochatt
Spectrometer: HR+D1059
Trigger mode: 1
Integration Time (sec): 1.000000E-1
Scans to average: 1
Electric dark correction enabled: true
Nonlinearity correction enabled: false
Boxcar width: 0
XAxis mode: Wavelengths
Number of Pixels in Spectrum: 2048
>>>>>Begin Spectral Data<<<<<
223.165	-22.5
223.4	-22.5
223.635	-22.5
223.869	-11.5
224.104	-20.5
224.338	-10.5
224.573	-13.5
224.808	-8.5
225.042	-20.5
225.277	-7.5
225.511	-9.5
225.746	11.5
225.98	-1.5
226.215	12.5
226.449	16.5
226.683	24.5
226.918	31.5
227.152	29.5
227.387	29.5
227.621	30.5
227.856	36.5
228.09	51.5
228.324	54.5
228.559	72.5
228.793	51.5
229.027	71.5
229.262	84.5
229.496	83.5
229.73	88.5
229.964	115.5
230.199	95.5
230.433	93.5
230.667	89.5
230.901	94.5
231.136	86.5
231.37	96.5
231.604	94.5
231.838	89.5
232.072	85.5
232.306	87.5
232.541	103.5
232.775	107.5
233.009	86.5
233.243	98.5
233.477	81.5
233.711	94.5
233.945	91.5
234.179	98.5
234.413	95.5
234.647	107.5
234.881	96.5
235.115	92.5
235.349	100.5
235.583	84.5
235.817	93.5
236.051	98.5
236.285	97.5
236.519	106.5
236.753	106.5
236.987	125.5
237.221	106.5
237.455	127.5
237.689	127.5
237.922	94.5
238.156	99.5
238.39	86.5
238.624	78.5
238.858	98.5
239.091	97.5
239.325	103.5
239.559	104.5
239.793	92.5
240.027	121.5
240.26	91.5
240.494	119.5
240.728	109.5
240.961	101.5
241.195	106.5
241.429	114.5
241.662	88.5
241.896	104.5
242.13	111.5
242.363	90.5
242.597	93.5
242.83	97.5
243.064	106.5
243.298	123.5
243.531	105.5
243.765	112.5
243.998	109.5
244.232	99.5
244.465	101.5
244.699	122.5
244.932	100.5
245.166	106.5
245.399	97.5
245.633	105.5
245.866	104.5
246.099	112.5
246.333	112.5
246.566	108.5
246.8	100.5
247.033	110.5
247.266	114.5
247.5	110.5
247.733	114.5
247.966	111.5
248.2	104.5
248.433	126.5
248.666	107.5
248.899	128.5
249.133	139.5
249.366	127.5
249.599	128.5
249.832	121.5
250.066	120.5
250.299	114.5
250.532	116.5
250.765	123.5
250.998	151.5
251.231	153.5
251.465	134.5
251.698	123.5
251.931	133.5
252.164	133.5
252.397	112.5
252.63	119.5
252.863	147.5
253.096	126.5
253.329	152.5
253.562	143.5
253.795	136.5
254.028	136.5
254.261	134.5
254.494	140.5
254.727	143.5
254.96	166.5
255.193	179.5
255.426	143.5
255.659	145.5
255.892	138.5
256.124	154.5
256.357	150.5
256.59	144.5
256.823	128.5
257.056	149.5
257.289	130.5
257.521	127.5
257.754	136.5
257.987	135.5
258.22	146.5
258.452	135.5
258.685	133.5
258.918	114.5
259.151	134.5
259.383	140.5
259.616	141.5
259.849	147.5
260.081	156.5
260.314	150.5
260.547	157.5
260.779	155.5
261.012	139.5
261.244	137.5
261.477	153.5
261.71	138.5
261.942	160.5
262.175	142.5
262.407	138.5
262.64	130.5
262.872	143.5
263.105	142.5
263.337	141.5
263.57	135.5
263.802	116.5
264.035	153.5
264.267	118.5
264.499	132.5
264.732	140.5
264.964	126.5
265.197	149.5
265.429	134.5
265.661	149.5
265.894	127.5
266.126	133.5
266.358	139.5
266.591	130.5
266.823	136.5
267.055	151.5
267.287	154.5
267.52	145.5
267.752	132.5
267.984	136.5
268.216	150.5
268.448	136.5
268.681	140.5
268.913	155.5
269.145	152.5
269.377	160.5
269.609	159.5
269.841	165.5
270.073	163.5
270.306	164.5
270.538	178.5
270.77	181.5
271.002	180.5
271.234	173.5
271.466	167.5
271.698	186.5
271.93	199.5
272.162	180.5
272.394	192.5
272.626	175.5
272.858	171.5
273.09	155.5
273.322	161.5
273.553	147.5
273.785	164.5
274.017	143.5
274.249	151.5
274.481	156.5
274.713	154.5
274.945	156.5
275.176	165.5
275.408	153.5
275.64	167.5
275.872	171.5
276.104	150.5
276.335	169.5
276.567	165.5
276.799	166.5
277.031	180.5
277.262	200.5
277.494	191.5
277.726	168.5
277.957	171.5
278.189	160.5
278.421	155.5
278.652	148.5
278.884	154.5
279.115	150.5
279.347	157.5
279.579	149.5
279.81	168.5
280.042	155.5
280.273	173.5
280.505	162.5
280.736	164.5
280.968	170.5
281.199	167.5
281.431	159.5
281.662	167.5
281.894	152.5
282.125	155.5
282.356	155.5
282.588	178.5
282.819	176.5
283.051	159.5
283.282	150.5
283.513	173.5
283.745	156.5
283.976	168.5
284.207	186.5
284.439	171.5
284.67	154.5
284.901	154.5
285.132	167.5
285.364	168.5
285.595	170.5
285.826	161.5
286.057	164.5
286.288	162.5
286.52	175.5
286.751	157.5
286.982	162.5
287.213	169.5
287.444	169.5
287.675	166.5
287.906	193.5
288.138	183.5
288.369	195.5
288.6	192.5
288.831	175.5
289.062	171.5
289.293	181.5
289.524	172.5
289.755	159.5
289.986	171.5
290.217	158.5
290.448	155.5
290.679	164.5
290.91	166.5
291.141	179.5
291.371	175.5
291.602	164.5
291.833	156.5
292.064	179.5
292.295	171.5
292.526	180.5
292.757	175.5
292.987	177.5
293.218	180.5
293.449	175.5
293.68	173.5
293.91	174.5
294.141	155.5
294.372	167.5
294.603	170.5
294.833	171.5
295.064	170.5
295.295	151.5
295.525	169.5
295.756	188.5
295.987	181.5
296.217	175.5
296.448	211.5
296.679	190.5
296.909	171.5
297.14	162.5
297.37	189.5
297.601	170.5
297.831	170.5
298.062	167.5
298.292	173.5
298.523	183.5
298.753	186.5
298.984	172.5
299.214	188.5
299.445	170.5
299.675	182.5
299.905	171.5
300.136	194.5
300.366	169.5
300.597	184.5
300.827	184.5
301.057	190.5
301.288	189.5
301.518	180.5
301.748	194.5
301.979	187.5
302.209	175.5
302.439	184.5
302.669	195.5
302.9	190.5
303.13	193.5
303.36	190.5
303.59	182.5
303.82	207.5
304.051	189.5
304.281	176.5
304.511	198.5
304.741	185.5
304.971	186.5
305.201	199.5
305.431	169.5
305.661	202.5
305.891	200.5
306.121	197.5
306.352	188.5
306.582	204.5
306.812	182.5
307.042	190.5
307.272	204.5
307.502	188.5
307.731	178.5
307.961	177.5
308.191	187.5
308.421	187.5
308.651	202.5
308.881	196.5
309.111	188.5
309.341	169.5
309.571	199.5
309.8	211.5
310.03	204.5
310.26	204.5
310.49	214.5
310.72	224.5
310.949	230.5
311.179	239.5
311.409	205.5
311.639	211.5
311.868	208.5
312.098	227.5
312.328	225.5
312.557	223.5
312.787	224.5
313.017	220.5
313.246	216.5
313.476	205.5
313.706	216.5
313.935	219.5
314.165	233.5
314.394	222.5
314.624	219.5
314.853	212.5
315.083	237.5
315.312	211.5
315.542	206.5
315.771	213.5
316.001	206.5
316.23	206.5
316.46	203.5
316.689	212.5
316.919	203.5
317.148	211.5
317.377	226.5
317.607	219.5
317.836	208.5
318.065	207.5
318.295	198.5
318.524	206.5
318.753	222.5
318.983	204.5
319.212	212.5
319.441	227.5
319.67	221.5
319.9	210.5
320.129	198.5
320.358	203.5
320.587	211.5
320.816	219.5
321.046	228.5
321.275	238.5
321.504	222.5
321.733	220.5
321.962	215.5
322.191	230.5
322.42	244.5
322.649	254.5
322.878	224.5
323.108	264.5
323.337	247.5
323.566	268.5
323.795	260.5
324.024	301.5
324.253	372.5
324.482	537.5
324.71	782.5
324.939	1070.5
325.168	852.5
325.397	450.5
325.626	300.5
325.855	266.5
326.084	264.5
326.313	248.5
326.542	270.5
326.77	291.5
326.999	347.5
327.228	479.5
327.457	678.5
327.686	785.5
327.914	542.5
328.143	358.5
328.372	320.5
328.6	306.5
328.829	299.5
329.058	310.5
329.287	316.5
329.515	291.5
329.744	271.5
329.972	268.5
330.201	277.5
330.43	317.5
330.658	344.5
330.887	365.5
331.115	319.5
331.344	280.5
331.572	262.5
331.801	270.5
332.03	270.5
332.258	238.5
332.486	241.5
332.715	242.5
332.943	232.5
333.172	229.5
333.4	251.5
333.629	262.5
333.857	258.5
334.085	264.5
334.314	287.5
334.542	308.5
334.771	321.5
334.999	267.5
335.227	263.5
335.455	266.5
335.684	247.5
335.912	250.5
336.14	266.5
336.369	233.5
336.597	251.5
336.825	248.5
337.053	237.5
337.281	235.5
337.51	231.5
337.738	235.5
337.966	230.5
338.194	256.5
338.422	240.5
338.65	243.5
338.878	236.5
339.106	216.5
339.334	218.5
339.562	237.5
339.79	231.5
340.018	238.5
340.246	255.5
340.474	226.5
340.702	238.5
340.93	221.5
341.158	236.5
341.386	223.5
341.614	218.5
341.842	239.5
342.07	222.5
342.298	226.5
342.526	234.5
342.754	228.5
342.981	213.5
343.209	216.5
343.437	219.5
343.665	217.5
343.893	240.5
344.12	259.5
344.348	243.5
344.576	226.5
344.804	248.5
345.031	240.5
345.259	244.5
345.487	239.5
345.714	226.5
345.942	207.5
346.17	207.5
346.397	215.5
346.625	221.5
346.853	223.5
347.08	235.5
347.308	228.5
347.535	232.5
347.763	220.5
347.99	227.5
348.218	228.5
348.445	232.5
348.673	229.5
348.9	216.5
349.128	237.5
349.355	226.5
349.583	212.5
349.81	214.5
350.037	231.5
350.265	233.5
350.492	221.5
350.72	209.5
350.947	215.5
351.174	207.5
351.402	224.5
351.629	212.5
351.856	221.5
352.083	225.5
352.311	232.5
352.538	225.5
352.765	257.5
352.992	236.5
353.22	237.5
353.447	221.5
353.674	225.5
353.901	225.5
354.128	223.5
354.355	221.5
354.583	205.5
354.81	216.5
355.037	196.5
355.264	227.5
355.491	201.5
355.718	188.5
355.945	192.5
356.172	193.5
356.399	210.5
356.626	202.5
356.853	207.5
357.08	219.5
357.307	193.5
357.534	186.5
357.761	203.5
357.988	203.5
358.215	209.5
358.441	205.5
358.668	201.5
358.895	204.5
359.122	198.5
359.349	214.5
359.576	235.5
359.802	238.5
360.029	253.5
360.256	272.5
360.483	238.5
360.709	229.5
360.936	216.5
361.163	229.5
361.39	229.5
361.616	223.5
361.843	223.5
362.07	234.5
362.296	222.5
362.523	226.5
362.749	227.5
362.976	220.5
363.203	229.5
363.429	210.5
363.656	221.5
363.882	203.5
364.109	202.5
364.335	204.5
364.562	218.5
364.788	214.5
365.015	202.5
365.241	202.5
365.468	228.5
365.694	219.5
365.92	214.5
366.147	225.5
366.373	210.5
366.599	215.5
366.826	211.5
367.052	203.5
367.278	210.5
367.505	208.5
367.731	206.5
367.957	195.5
368.184	213.5
368.41	219.5
368.636	208.5
368.862	220.5
369.089	228.5
369.315	201.5
369.541	196.5
369.767	226.5
369.993	192.5
370.219	207.5
370.445	196.5
370.672	186.5
370.898	204.5
371.124	202.5
371.35	209.5
371.576	212.5
371.802	196.5
372.028	197.5
372.254	208.5
372.48	210.5
372.706	214.5
372.932	187.5
373.158	199.5
373.384	226.5
373.61	214.5
373.835	200.5
374.061	216.5
374.287	200.5
374.513	221.5
374.739	207.5
374.965	217.5
375.191	220.5
375.416	215.5
375.642	206.5
375.868	200.5
376.094	220.5
376.319	208.5
376.545	207.5
376.771	207.5
376.997	187.5
377.222	195.5
377.448	207.5
377.674	200.5
377.899	212.5
378.125	213.5
378.35	218.5
378.576	189.5
378.802	212.5
379.027	213.5
379.253	200.5
379.478	188.5
379.704	192.5
379.929	210.5
380.155	219.5
380.38	223.5
380.606	222.5
380.831	199.5
381.057	198.5
381.282	195.5
381.507	197.5
381.733	217.5
381.958	216.5
382.184	201.5
382.409	220.5
382.634	208.5
382.86	230.5
383.085	219.5
383.31	198.5
383.535	218.5
383.761	223.5
383.986	234.5
384.211	209.5
384.436	215.5
384.662	212.5
384.887	219.5
385.112	220.5
385.337	210.5
385.562	224.5
385.787	233.5
386.013	218.5
386.238	235.5
386.463	223.5
386.688	236.5
386.913	228.5
387.138	216.5
387.363	227.5
387.588	220.5
387.813	213.5
388.038	216.5
388.263	219.5
388.488	210.5
388.713	235.5
388.938	224.5
389.163	226.5
389.387	224.5
389.612	219.5
389.837	216.5
390.062	217.5
390.287	239.5
390.512	224.5
390.736	242.5
390.961	211.5
391.186	215.5
391.411	224.5
391.636	229.5
391.86	210.5
392.085	247.5
392.31	224.5
392.534	232.5
392.759	228.5
392.984	207.5
393.208	218.5
393.433	233.5
393.658	235.5
393.882	228.5
394.107	243.5
394.331	220.5
394.556	232.5
394.78	230.5
395.005	233.5
395.229	218.5
395.454	225.5
395.678	210.5
395.903	235.5
396.127	261.5
396.352	264.5
396.576	238.5
396.801	218.5
397.025	236.5
397.249	234.5
397.474	242.5
397.698	244.5
397.922	233.5
398.147	251.5
398.371	246.5
398.595	234.5
398.82	248.5
399.044	242.5
399.268	257.5
399.492	278.5
399.717	285.5
399.941	299.5
400.165	275.5
400.389	292.5
400.613	295.5
400.837	273.5
401.062	264.5
401.286	242.5
401.51	249.5
401.734	248.5
401.958	236.5
402.182	265.5
402.406	276.5
402.63	261.5
402.854	254.5
403.078	288.5
403.302	265.5
403.526	270.5
403.75	264.5
403.974	262.5
404.198	275.5
404.422	264.5
404.645	281.5
404.869	280.5
405.093	300.5
405.317	304.5
405.541	310.5
405.765	308.5
405.988	278.5
406.212	270.5
406.436	295.5
406.66	293.5
406.883	292.5
407.107	292.5
407.331	316.5
407.555	345.5
407.778	312.5
408.002	303.5
408.226	275.5
408.449	299.5
408.673	271.5
408.896	285.5
409.12	298.5
409.344	271.5
409.567	282.5
409.791	282.5
410.014	280.5
410.238	270.5
410.461	246.5
410.685	258.5
410.908	267.5
411.132	280.5
411.355	296.5
411.578	293.5
411.802	261.5
412.025	274.5
412.249	265.5
412.472	268.5
412.695	302.5
412.919	275.5
413.142	269.5
413.365	245.5
413.589	249.5
413.812	247.5
414.035	266.5
414.258	246.5
414.482	243.5
414.705	256.5
414.928	244.5
415.151	258.5
415.374	246.5
415.597	248.5
415.821	243.5
416.044	250.5
416.267	262.5
416.49	254.5
416.713	251.5
416.936	239.5
417.159	250.5
417.382	250.5
417.605	244.5
417.828	258.5
418.051	267.5
418.274	244.5
418.497	259.5
418.72	253.5
418.943	229.5
419.166	228.5
419.389	270.5
419.611	271.5
419.834	272.5
420.057	273.5
420.28	268.5
420.503	266.5
420.726	259.5
420.948	256.5
421.171	276.5
421.394	299.5
421.617	279.5
421.839	266.5
422.062	264.5
422.285	269.5
422.507	298.5
422.73	331.5
422.953	311.5
423.175	283.5
423.398	272.5
423.621	278.5
423.843	285.5
424.066	264.5
424.288	280.5
424.511	295.5
424.733	316.5
424.956	352.5
425.178	326.5
425.401	333.5
425.623	322.5
425.846	280.5
426.068	268.5
426.291	271.5
426.513	282.5
426.735	286.5
426.958	306.5
427.18	319.5
427.402	390.5
427.625	412.5
427.847	369.5
428.069	331.5
428.292	290.5
428.514	264.5
428.736	263.5
428.958	255.5
429.181	267.5
429.403	258.5
429.625	264.5
429.847	285.5
430.069	314.5
430.292	308.5
430.514	254.5
430.736	255.5
430.958	263.5
431.18	259.5
431.402	268.5
431.624	264.5
431.846	251.5
432.068	252.5
432.29	255.5
432.512	244.5
432.734	255.5
432.956	247.5
433.178	253.5
433.4	246.5
433.622	260.5
433.844	248.5
434.066	247.5
434.287	265.5
434.509	245.5
434.731	238.5
434.953	255.5
435.175	286.5
435.397	283.5
435.618	293.5
435.84	290.5
436.062	335.5
436.284	351.5
436.505	300.5
436.727	291.5
436.949	253.5
437.17	271.5
437.392	254.5
437.614	263.5
437.835	304.5
438.057	316.5
438.278	364.5
438.5	361.5
438.721	379.5
438.943	356.5
439.165	312.5
439.386	275.5
439.608	275.5
439.829	290.5
440.05	292.5
440.272	300.5
440.493	315.5
440.715	278.5
440.936	273.5
441.158	271.5
441.379	259.5
441.6	279.5
441.822	291.5
442.043	291.5
442.264	355.5
442.486	345.5
442.707	295.5
442.928	287.5
443.149	302.5
443.371	290.5
443.592	300.5
443.813	353.5
444.034	380.5
444.255	331.5
444.476	288.5
444.698	278.5
444.919	278.5
445.14	372.5
445.361	330.5
445.582	309.5
445.803	329.5
446.024	370.5
446.245	380.5
446.466	329.5
446.687	299.5
446.908	272.5
447.129	282.5
447.35	244.5
447.571	266.5
447.792	234.5
448.013	244.5
448.234	280.5
448.455	306.5
448.675	326.5
448.896	398.5
449.117	309.5
449.338	294.5
449.559	346.5
449.779	401.5
450	322.5
450.221	295.5
450.442	250.5
450.662	244.5
450.883	239.5
451.104	270.5
451.324	266.5
451.545	236.5
451.766	261.5
451.986	237.5
452.207	242.5
452.428	227.5
452.648	242.5
452.869	245.5
453.089	247.5
453.31	258.5
453.53	252.5
453.751	242.5
453.971	255.5
454.192	258.5
454.412	244.5
454.633	229.5
454.853	218.5
455.073	243.5
455.294	233.5
455.514	300.5
455.734	249.5
455.955	231.5
456.175	227.5
456.395	235.5
456.616	203.5
456.836	218.5
457.056	225.5
457.276	211.5
457.497	218.5
457.717	228.5
457.937	235.5
458.157	237.5
458.377	243.5
458.598	249.5
458.818	288.5
459.038	337.5
459.258	323.5
459.478	271.5
459.698	247.5
459.918	260.5
460.138	255.5
460.358	240.5
460.578	247.5
460.798	245.5
461.018	260.5
461.238	247.5
461.458	253.5
461.678	238.5
461.898	251.5
462.118	250.5
462.338	258.5
462.558	270.5
462.777	247.5
462.997	260.5
463.217	292.5
463.437	270.5
463.657	276.5
463.876	267.5
464.096	270.5
464.316	268.5
464.536	272.5
464.755	263.5
464.975	260.5
465.195	301.5
465.414	343.5
465.634	301.5
465.854	247.5
466.073	257.5
466.293	244.5
466.512	235.5
466.732	237.5
466.951	245.5
467.171	229.5
467.391	253.5
467.61	259.5
467.829	255.5
468.049	247.5
468.268	262.5
468.488	250.5
468.707	218.5
468.927	228.5
469.146	234.5
469.365	231.5
469.585	253.5
469.804	263.5
470.023	237.5
470.243	254.5
470.462	245.5
470.681	271.5
470.901	274.5
471.12	244.5
471.339	239.5
471.558	261.5
471.777	268.5
471.997	230.5
472.216	272.5
472.435	310.5
472.654	266.5
472.873	245.5
473.092	248.5
473.311	250.5
473.53	243.5
473.749	242.5
473.968	266.5
474.187	325.5
474.406	322.5
474.625	286.5
474.844	246.5
475.063	230.5
475.282	245.5
475.501	236.5
475.72	246.5
475.939	246.5
476.158	235.5
476.377	238.5
476.596	228.5
476.814	251.5
477.033	255.5
477.252	255.5
477.471	273.5
477.69	258.5
477.908	278.5
478.127	272.5
478.346	267.5
478.564	278.5
478.783	249.5
479.002	273.5
479.22	287.5
479.439	282.5
479.658	288.5
479.876	296.5
480.095	300.5
480.313	311.5
480.532	299.5
480.751	304.5
480.969	317.5
481.188	380.5
481.406	381.5
481.624	319.5
481.843	306.5
482.061	287.5
482.28	283.5
482.498	277.5
482.717	252.5
482.935	274.5
483.153	257.5
483.372	278.5
483.59	283.5
483.808	284.5
484.027	285.5
484.245	283.5
484.463	271.5
484.681	307.5
484.9	298.5
485.118	264.5
485.336	288.5
485.554	286.5
485.772	307.5
485.99	292.5
486.209	289.5
486.427	299.5
486.645	302.5
486.863	319.5
487.081	314.5
487.299	290.5
487.517	318.5
487.735	308.5
487.953	292.5
488.171	301.5
488.389	290.5
488.607	299.5
488.825	293.5
489.043	314.5
489.261	317.5
489.479	293.5
489.696	308.5
489.914	296.5
490.132	308.5
490.35	315.5
490.568	321.5
490.786	322.5
491.003	323.5
491.221	342.5
491.439	334.5
491.657	338.5
491.874	349.5
492.092	355.5
492.31	349.5
492.527	350.5
492.745	353.5
492.963	355.5
493.18	354.5
493.398	378.5
493.615	372.5
493.833	360.5
494.05	350.5
494.268	363.5
494.485	370.5
494.703	345.5
494.92	352.5
495.138	338.5
495.355	357.5
495.573	360.5
495.79	358.5
496.008	355.5
496.225	360.5
496.442	344.5
496.66	359.5
496.877	351.5
497.094	345.5
497.312	355.5
497.529	355.5
497.746	355.5
497.963	381.5
498.181	372.5
498.398	379.5
498.615	387.5
498.832	385.5
499.049	394.5
499.267	385.5
499.484	415.5
499.701	408.5
499.918	430.5
500.135	446.5
500.352	441.5
500.569	462.5
500.786	481.5
501.003	469.5
501.22	444.5
501.437	436.5
501.654	427.5
501.871	416.5
502.088	415.5
502.305	412.5
502.522	378.5
502.739	377.5
502.956	387.5
503.172	355.5
503.389	368.5
503.606	371.5
503.823	350.5
504.04	358.5
504.256	358.5
504.473	354.5
504.69	351.5
504.907	351.5
505.123	347.5
505.34	339.5
505.557	342.5
505.773	336.5
505.99	338.5
506.207	336.5
506.423	336.5
506.64	326.5
506.856	325.5
507.073	306.5
507.289	316.5
507.506	323.5
507.722	326.5
507.939	350.5
508.155	351.5
508.372	306.5
508.588	303.5
508.805	329.5
509.021	318.5
509.238	318.5
509.454	314.5
509.67	328.5
509.887	327.5
510.103	315.5
510.319	323.5
510.536	398.5
510.752	774.5
510.968	605.5
511.184	324.5
511.401	307.5
511.617	304.5
511.833	309.5
512.049	300.5
512.265	299.5
512.481	301.5
512.698	296.5
512.914	313.5
513.13	304.5
513.346	294.5
513.562	295.5
513.778	296.5
513.994	290.5
514.21	303.5
514.426	327.5
514.642	337.5
514.858	368.5
515.074	390.5
515.29	525.5
515.506	864.5
515.721	661.5
515.937	396.5
516.153	332.5
516.369	315.5
516.585	308.5
516.801	291.5
517.016	310.5
517.232	299.5
517.448	299.5
517.664	302.5
517.879	322.5
518.095	306.5
518.311	298.5
518.527	309.5
518.742	302.5
518.958	292.5
519.173	301.5
519.389	297.5
519.605	297.5
519.82	298.5
520.036	316.5
520.251	326.5
520.467	343.5
