Data from 1966.PennyLincolnUp.Lamp.En5.5.200Scan.071719.P1._HRD10591_14-12-27-913.txt Node
Date: Thu Jul 18 14:12:27 EDT 2019
User: cochatt
Spectrometer: HR+D1059
Trigger mode: 1
Integration Time (sec): 1.000000E-1
Scans to average: 1
Electric dark correction enabled: true
Nonlinearity correction enabled: false
Boxcar width: 0
XAxis mode: Wavelengths
Number of Pixels in Spectrum: 2048
>>>>>Begin Spectral Data<<<<<
223.165	-8.75
223.4	-8.75
223.635	-8.75
223.869	-18.75
224.104	-22.75
224.338	-16.75
224.573	-15.75
224.808	-7.75
225.042	-2.75
225.277	-7.75
225.511	-7.75
225.746	16.25
225.98	9.25
226.215	3.25
226.449	11.25
226.683	26.25
226.918	21.25
227.152	21.25
227.387	45.25
227.621	50.25
227.856	57.25
228.09	45.25
228.324	58.25
228.559	59.25
228.793	64.25
229.027	71.25
229.262	82.25
229.496	95.25
229.73	84.25
229.964	113.25
230.199	91.25
230.433	90.25
230.667	86.25
230.901	101.25
231.136	103.25
231.37	109.25
231.604	98.25
231.838	93.25
232.072	93.25
232.306	96.25
232.541	99.25
232.775	107.25
233.009	103.25
233.243	106.25
233.477	87.25
233.711	93.25
233.945	91.25
234.179	95.25
234.413	99.25
234.647	91.25
234.881	97.25
235.115	91.25
235.349	95.25
235.583	104.25
235.817	94.25
236.051	106.25
236.285	90.25
236.519	106.25
236.753	106.25
236.987	123.25
237.221	114.25
237.455	152.25
237.689	111.25
237.922	104.25
238.156	99.25
238.39	84.25
238.624	103.25
238.858	97.25
239.091	93.25
239.325	84.25
239.559	108.25
239.793	96.25
240.027	111.25
240.26	100.25
240.494	115.25
240.728	103.25
240.961	109.25
241.195	112.25
241.429	101.25
241.662	102.25
241.896	93.25
242.13	110.25
242.363	91.25
242.597	106.25
242.83	109.25
243.064	100.25
243.298	100.25
243.531	85.25
243.765	84.25
243.998	110.25
244.232	100.25
244.465	105.25
244.699	107.25
244.932	102.25
245.166	101.25
245.399	111.25
245.633	97.25
245.866	104.25
246.099	105.25
246.333	109.25
246.566	113.25
246.8	113.25
247.033	100.25
247.266	117.25
247.5	105.25
247.733	97.25
247.966	110.25
248.2	129.25
248.433	121.25
248.666	115.25
248.899	131.25
249.133	128.25
249.366	135.25
249.599	114.25
249.832	106.25
250.066	106.25
250.299	111.25
250.532	122.25
250.765	133.25
250.998	131.25
251.231	139.25
251.465	141.25
251.698	138.25
251.931	123.25
252.164	113.25
252.397	121.25
252.63	123.25
252.863	121.25
253.096	116.25
253.329	131.25
253.562	138.25
253.795	139.25
254.028	145.25
254.261	122.25
254.494	145.25
254.727	149.25
254.96	148.25
255.193	140.25
255.426	144.25
255.659	139.25
255.892	132.25
256.124	137.25
256.357	143.25
256.59	137.25
256.823	145.25
257.056	136.25
257.289	136.25
257.521	143.25
257.754	138.25
257.987	127.25
258.22	140.25
258.452	125.25
258.685	123.25
258.918	123.25
259.151	134.25
259.383	151.25
259.616	137.25
259.849	133.25
260.081	138.25
260.314	150.25
260.547	147.25
260.779	159.25
261.012	127.25
261.244	138.25
261.477	148.25
261.71	132.25
261.942	140.25
262.175	143.25
262.407	135.25
262.64	128.25
262.872	155.25
263.105	132.25
263.337	139.25
263.57	128.25
263.802	136.25
264.035	128.25
264.267	128.25
264.499	118.25
264.732	124.25
264.964	113.25
265.197	127.25
265.429	131.25
265.661	131.25
265.894	138.25
266.126	127.25
266.358	142.25
266.591	138.25
266.823	138.25
267.055	142.25
267.287	146.25
267.52	137.25
267.752	137.25
267.984	144.25
268.216	139.25
268.448	145.25
268.681	138.25
268.913	155.25
269.145	147.25
269.377	159.25
269.609	176.25
269.841	152.25
270.073	149.25
270.306	163.25
270.538	169.25
270.77	175.25
271.002	173.25
271.234	149.25
271.466	146.25
271.698	152.25
271.93	180.25
272.162	174.25
272.394	166.25
272.626	166.25
272.858	148.25
273.09	135.25
273.322	159.25
273.553	143.25
273.785	139.25
274.017	140.25
274.249	159.25
274.481	125.25
274.713	141.25
274.945	162.25
275.176	167.25
275.408	157.25
275.64	153.25
275.872	147.25
276.104	146.25
276.335	142.25
276.567	155.25
276.799	167.25
277.031	165.25
277.262	172.25
277.494	172.25
277.726	190.25
277.957	149.25
278.189	152.25
278.421	144.25
278.652	157.25
278.884	146.25
279.115	146.25
279.347	166.25
279.579	154.25
279.81	146.25
280.042	160.25
280.273	143.25
280.505	139.25
280.736	164.25
280.968	156.25
281.199	164.25
281.431	152.25
281.662	147.25
281.894	151.25
282.125	158.25
282.356	169.25
282.588	169.25
282.819	143.25
283.051	142.25
283.282	146.25
283.513	151.25
283.745	150.25
283.976	155.25
284.207	145.25
284.439	149.25
284.67	160.25
284.901	153.25
285.132	155.25
285.364	138.25
285.595	143.25
285.826	150.25
286.057	137.25
286.288	151.25
286.52	167.25
286.751	148.25
286.982	142.25
287.213	157.25
287.444	162.25
287.675	164.25
287.906	175.25
288.138	171.25
288.369	159.25
288.6	160.25
288.831	150.25
289.062	164.25
289.293	157.25
289.524	172.25
289.755	150.25
289.986	156.25
290.217	157.25
290.448	170.25
290.679	171.25
290.91	157.25
291.141	161.25
291.371	170.25
291.602	160.25
291.833	149.25
292.064	167.25
292.295	170.25
292.526	159.25
292.757	160.25
292.987	145.25
293.218	152.25
293.449	158.25
293.68	167.25
293.91	176.25
294.141	151.25
294.372	163.25
294.603	160.25
294.833	150.25
295.064	167.25
295.295	155.25
295.525	148.25
295.756	159.25
295.987	168.25
296.217	176.25
296.448	184.25
296.679	164.25
296.909	142.25
297.14	150.25
297.37	165.25
297.601	161.25
297.831	165.25
298.062	159.25
298.292	161.25
298.523	160.25
298.753	168.25
298.984	172.25
299.214	165.25
299.445	158.25
299.675	184.25
299.905	170.25
300.136	171.25
300.366	172.25
300.597	154.25
300.827	169.25
301.057	171.25
301.288	172.25
301.518	167.25
301.748	167.25
301.979	155.25
302.209	177.25
302.439	152.25
302.669	173.25
302.9	164.25
303.13	167.25
303.36	176.25
303.59	159.25
303.82	179.25
304.051	164.25
304.281	163.25
304.511	172.25
304.741	157.25
304.971	168.25
305.201	171.25
305.431	165.25
305.661	184.25
305.891	178.25
306.121	183.25
306.352	179.25
306.582	168.25
306.812	172.25
307.042	163.25
307.272	171.25
307.502	161.25
307.731	173.25
307.961	179.25
308.191	174.25
308.421	174.25
308.651	177.25
308.881	173.25
309.111	188.25
309.341	178.25
309.571	193.25
309.8	170.25
310.03	177.25
310.26	178.25
310.49	183.25
310.72	177.25
310.949	199.25
311.179	196.25
311.409	181.25
311.639	208.25
311.868	195.25
312.098	185.25
312.328	188.25
312.557	192.25
312.787	209.25
313.017	204.25
313.246	179.25
313.476	192.25
313.706	197.25
313.935	189.25
314.165	197.25
314.394	204.25
314.624	213.25
314.853	206.25
315.083	198.25
315.312	204.25
315.542	179.25
315.771	189.25
316.001	188.25
316.23	178.25
316.46	166.25
316.689	191.25
316.919	189.25
317.148	194.25
317.377	188.25
317.607	202.25
317.836	194.25
318.065	191.25
318.295	195.25
318.524	204.25
318.753	177.25
318.983	179.25
319.212	195.25
319.441	188.25
319.67	203.25
319.9	197.25
320.129	191.25
320.358	185.25
320.587	181.25
320.816	193.25
321.046	187.25
321.275	195.25
321.504	190.25
321.733	203.25
321.962	196.25
322.191	205.25
322.42	193.25
322.649	225.25
322.878	220.25
323.108	217.25
323.337	227.25
323.566	243.25
323.795	237.25
324.024	250.25
324.253	327.25
324.482	460.25
324.71	631.25
324.939	881.25
325.168	691.25
325.397	346.25
325.626	257.25
325.855	229.25
326.084	224.25
326.313	226.25
326.542	216.25
326.77	240.25
326.999	288.25
327.228	393.25
327.457	563.25
327.686	634.25
327.914	412.25
328.143	306.25
328.372	253.25
328.6	267.25
328.829	263.25
329.058	284.25
329.287	265.25
329.515	237.25
329.744	241.25
329.972	221.25
330.201	248.25
330.43	267.25
330.658	289.25
330.887	287.25
331.115	277.25
331.344	241.25
331.572	237.25
331.801	227.25
332.03	234.25
332.258	232.25
332.486	213.25
332.715	227.25
332.943	221.25
333.172	209.25
333.4	220.25
333.629	224.25
333.857	215.25
334.085	242.25
334.314	234.25
334.542	254.25
334.771	275.25
334.999	248.25
335.227	238.25
335.455	221.25
335.684	213.25
335.912	206.25
336.14	208.25
336.369	216.25
336.597	221.25
336.825	224.25
337.053	219.25
337.281	207.25
337.51	221.25
337.738	209.25
337.966	219.25
338.194	196.25
338.422	201.25
338.65	207.25
338.878	215.25
339.106	188.25
339.334	210.25
339.562	217.25
339.79	197.25
340.018	215.25
340.246	208.25
340.474	204.25
340.702	212.25
340.93	219.25
341.158	190.25
341.386	208.25
341.614	208.25
341.842	211.25
342.07	203.25
342.298	213.25
342.526	204.25
342.754	204.25
342.981	206.25
343.209	210.25
343.437	190.25
343.665	211.25
343.893	204.25
344.12	199.25
344.348	212.25
344.576	208.25
344.804	209.25
345.031	210.25
345.259	233.25
345.487	224.25
345.714	195.25
345.942	202.25
346.17	190.25
346.397	186.25
346.625	186.25
346.853	207.25
347.08	212.25
347.308	199.25
347.535	209.25
347.763	211.25
347.99	197.25
348.218	210.25
348.445	224.25
348.673	201.25
348.9	188.25
349.128	194.25
349.355	188.25
349.583	192.25
349.81	195.25
350.037	195.25
350.265	207.25
350.492	193.25
350.72	193.25
350.947	196.25
351.174	208.25
351.402	207.25
351.629	205.25
351.856	227.25
352.083	201.25
352.311	207.25
352.538	217.25
352.765	223.25
352.992	202.25
353.22	179.25
353.447	192.25
353.674	215.25
353.901	195.25
354.128	203.25
354.355	203.25
354.583	191.25
354.81	197.25
355.037	194.25
355.264	181.25
355.491	191.25
355.718	187.25
355.945	186.25
356.172	193.25
356.399	202.25
356.626	187.25
356.853	185.25
357.08	194.25
357.307	171.25
357.534	178.25
357.761	179.25
357.988	195.25
358.215	191.25
358.441	189.25
358.668	197.25
358.895	204.25
359.122	189.25
359.349	188.25
359.576	197.25
359.802	206.25
360.029	231.25
360.256	223.25
360.483	219.25
360.709	215.25
360.936	213.25
361.163	190.25
361.39	195.25
361.616	198.25
361.843	194.25
362.07	200.25
362.296	184.25
362.523	199.25
362.749	208.25
362.976	193.25
363.203	194.25
363.429	204.25
363.656	188.25
363.882	203.25
364.109	178.25
364.335	199.25
364.562	197.25
364.788	192.25
365.015	184.25
365.241	201.25
365.468	211.25
365.694	199.25
365.92	216.25
366.147	188.25
366.373	193.25
366.599	196.25
366.826	196.25
367.052	187.25
367.278	178.25
367.505	203.25
367.731	190.25
367.957	196.25
368.184	178.25
368.41	184.25
368.636	197.25
368.862	195.25
369.089	199.25
369.315	196.25
369.541	212.25
369.767	194.25
369.993	187.25
370.219	200.25
370.445	189.25
370.672	203.25
370.898	195.25
371.124	177.25
371.35	185.25
371.576	209.25
371.802	206.25
372.028	201.25
372.254	186.25
372.48	185.25
372.706	208.25
372.932	201.25
373.158	205.25
373.384	205.25
373.61	183.25
373.835	194.25
374.061	195.25
374.287	191.25
374.513	186.25
374.739	206.25
374.965	215.25
375.191	185.25
375.416	196.25
375.642	177.25
375.868	188.25
376.094	193.25
376.319	187.25
376.545	205.25
376.771	189.25
376.997	206.25
377.222	196.25
377.448	167.25
377.674	195.25
377.899	184.25
378.125	162.25
378.35	185.25
378.576	184.25
378.802	187.25
379.027	196.25
379.253	192.25
379.478	184.25
379.704	200.25
379.929	196.25
380.155	191.25
380.38	189.25
380.606	198.25
380.831	200.25
381.057	185.25
381.282	199.25
381.507	189.25
381.733	196.25
381.958	181.25
382.184	207.25
382.409	198.25
382.634	203.25
382.86	185.25
383.085	197.25
383.31	181.25
383.535	210.25
383.761	197.25
383.986	190.25
384.211	184.25
384.436	193.25
384.662	203.25
384.887	208.25
385.112	212.25
385.337	208.25
385.562	209.25
385.787	212.25
386.013	206.25
386.238	211.25
386.463	203.25
386.688	217.25
386.913	209.25
387.138	205.25
387.363	213.25
387.588	212.25
387.813	196.25
388.038	190.25
388.263	209.25
388.488	208.25
388.713	193.25
388.938	200.25
389.163	199.25
389.387	203.25
389.612	215.25
389.837	193.25
390.062	198.25
390.287	200.25
390.512	207.25
390.736	209.25
390.961	192.25
391.186	197.25
391.411	197.25
391.636	202.25
391.86	206.25
392.085	199.25
392.31	199.25
392.534	198.25
392.759	209.25
392.984	216.25
393.208	203.25
393.433	215.25
393.658	228.25
393.882	213.25
394.107	204.25
394.331	203.25
394.556	192.25
394.78	194.25
395.005	210.25
395.229	205.25
395.454	222.25
395.678	226.25
395.903	214.25
396.127	217.25
396.352	216.25
396.576	210.25
396.801	224.25
397.025	225.25
397.249	218.25
397.474	208.25
397.698	208.25
397.922	223.25
398.147	222.25
398.371	232.25
398.595	221.25
398.82	210.25
399.044	233.25
399.268	244.25
399.492	249.25
399.717	281.25
399.941	272.25
400.165	276.25
400.389	273.25
400.613	231.25
400.837	237.25
401.062	242.25
401.286	244.25
401.51	227.25
401.734	233.25
401.958	216.25
402.182	235.25
402.406	231.25
402.63	242.25
402.854	221.25
403.078	225.25
403.302	238.25
403.526	247.25
403.75	252.25
403.974	237.25
404.198	237.25
404.422	220.25
404.645	248.25
404.869	238.25
405.093	261.25
405.317	277.25
405.541	274.25
405.765	264.25
405.988	263.25
406.212	247.25
406.436	255.25
406.66	287.25
406.883	251.25
407.107	272.25
407.331	291.25
407.555	305.25
407.778	307.25
408.002	268.25
408.226	255.25
408.449	257.25
408.673	256.25
408.896	266.25
409.12	267.25
409.344	260.25
409.567	250.25
409.791	240.25
410.014	244.25
410.238	239.25
410.461	251.25
410.685	237.25
410.908	236.25
411.132	252.25
411.355	273.25
411.578	247.25
411.802	242.25
412.025	252.25
412.249	232.25
412.472	247.25
412.695	276.25
412.919	275.25
413.142	269.25
413.365	242.25
413.589	241.25
413.812	231.25
414.035	230.25
414.258	233.25
414.482	224.25
414.705	232.25
414.928	251.25
415.151	241.25
415.374	223.25
415.597	219.25
415.821	222.25
416.044	237.25
416.267	233.25
416.49	228.25
416.713	219.25
416.936	247.25
417.159	226.25
417.382	230.25
417.605	226.25
417.828	243.25
418.051	239.25
418.274	237.25
418.497	211.25
418.72	229.25
418.943	235.25
419.166	243.25
419.389	220.25
419.611	239.25
419.834	248.25
420.057	238.25
420.28	240.25
420.503	243.25
420.726	250.25
420.948	254.25
421.171	255.25
421.394	267.25
421.617	237.25
421.839	227.25
422.062	223.25
422.285	254.25
422.507	268.25
422.73	287.25
422.953	272.25
423.175	254.25
423.398	248.25
423.621	234.25
423.843	222.25
424.066	263.25
424.288	263.25
424.511	271.25
424.733	283.25
424.956	296.25
425.178	288.25
425.401	305.25
425.623	307.25
425.846	267.25
426.068	274.25
426.291	252.25
426.513	253.25
426.735	273.25
426.958	269.25
427.18	307.25
427.402	348.25
427.625	380.25
427.847	323.25
428.069	293.25
428.292	263.25
428.514	244.25
428.736	250.25
428.958	223.25
429.181	241.25
429.403	240.25
429.625	243.25
429.847	249.25
430.069	271.25
430.292	271.25
430.514	250.25
430.736	227.25
430.958	235.25
431.18	228.25
431.402	221.25
431.624	233.25
431.846	227.25
432.068	217.25
432.29	206.25
432.512	237.25
432.734	225.25
432.956	212.25
433.178	234.25
433.4	235.25
433.622	234.25
433.844	222.25
434.066	217.25
434.287	216.25
434.509	224.25
434.731	219.25
434.953	226.25
435.175	244.25
435.397	257.25
435.618	245.25
435.84	277.25
436.062	292.25
436.284	320.25
436.505	276.25
436.727	249.25
436.949	238.25
437.17	245.25
437.392	236.25
437.614	242.25
437.835	251.25
438.057	297.25
438.278	325.25
438.5	324.25
438.721	333.25
438.943	321.25
439.165	269.25
439.386	248.25
439.608	264.25
439.829	262.25
440.05	278.25
440.272	276.25
440.493	263.25
440.715	249.25
440.936	225.25
441.158	242.25
441.379	228.25
441.6	225.25
441.822	255.25
442.043	263.25
442.264	303.25
442.486	313.25
442.707	281.25
442.928	258.25
443.149	268.25
443.371	254.25
443.592	262.25
443.813	296.25
444.034	317.25
444.255	277.25
444.476	272.25
444.698	253.25
444.919	245.25
445.14	362.25
445.361	304.25
445.582	281.25
445.803	292.25
446.024	348.25
446.245	340.25
446.466	300.25
446.687	260.25
446.908	234.25
447.129	244.25
447.35	235.25
447.571	242.25
447.792	234.25
448.013	227.25
448.234	239.25
448.455	237.25
448.675	304.25
448.896	317.25
449.117	279.25
449.338	287.25
449.559	328.25
449.779	357.25
450	297.25
450.221	248.25
450.442	220.25
450.662	233.25
450.883	231.25
451.104	241.25
451.324	238.25
451.545	209.25
451.766	208.25
451.986	227.25
452.207	208.25
452.428	232.25
452.648	205.25
452.869	214.25
453.089	239.25
453.31	232.25
453.53	237.25
453.751	206.25
453.971	212.25
454.192	211.25
454.412	211.25
454.633	201.25
454.853	198.25
455.073	220.25
455.294	234.25
455.514	263.25
455.734	262.25
455.955	227.25
456.175	202.25
456.395	212.25
456.616	217.25
456.836	199.25
457.056	209.25
457.276	201.25
457.497	213.25
457.717	228.25
457.937	217.25
458.157	209.25
458.377	220.25
458.598	205.25
458.818	260.25
459.038	288.25
459.258	281.25
459.478	228.25
459.698	225.25
459.918	208.25
460.138	239.25
460.358	221.25
460.578	223.25
460.798	224.25
461.018	241.25
461.238	232.25
461.458	228.25
461.678	217.25
461.898	230.25
462.118	226.25
462.338	250.25
462.558	224.25
462.777	249.25
462.997	231.25
463.217	227.25
463.437	220.25
463.657	231.25
463.876	239.25
464.096	258.25
464.316	255.25
464.536	237.25
464.755	242.25
464.975	230.25
465.195	263.25
465.414	291.25
465.634	273.25
465.854	229.25
466.073	220.25
466.293	224.25
466.512	222.25
466.732	224.25
466.951	226.25
467.171	227.25
467.391	225.25
467.61	232.25
467.829	225.25
468.049	224.25
468.268	238.25
468.488	237.25
468.707	208.25
468.927	223.25
469.146	202.25
469.365	213.25
469.585	208.25
469.804	232.25
470.023	232.25
470.243	208.25
470.462	240.25
470.681	215.25
470.901	216.25
471.12	213.25
471.339	233.25
471.558	228.25
471.777	235.25
471.997	212.25
472.216	224.25
472.435	264.25
472.654	247.25
472.873	224.25
473.092	226.25
473.311	221.25
473.53	211.25
473.749	228.25
473.968	234.25
474.187	273.25
474.406	266.25
474.625	236.25
474.844	228.25
475.063	221.25
475.282	215.25
475.501	227.25
475.72	216.25
475.939	241.25
476.158	225.25
476.377	226.25
476.596	233.25
476.814	257.25
477.033	226.25
477.252	238.25
477.471	235.25
477.69	221.25
477.908	248.25
478.127	225.25
478.346	233.25
478.564	252.25
478.783	239.25
479.002	247.25
479.22	251.25
479.439	265.25
479.658	255.25
479.876	249.25
480.095	280.25
480.313	282.25
480.532	278.25
480.751	268.25
480.969	290.25
481.188	309.25
481.406	331.25
481.624	295.25
481.843	259.25
482.061	238.25
482.28	252.25
482.498	247.25
482.717	240.25
482.935	241.25
483.153	256.25
483.372	258.25
483.59	274.25
483.808	252.25
484.027	234.25
484.245	258.25
484.463	243.25
484.681	248.25
484.9	272.25
485.118	241.25
485.336	259.25
485.554	256.25
485.772	261.25
485.99	275.25
486.209	266.25
486.427	239.25
486.645	261.25
486.863	299.25
487.081	263.25
487.299	270.25
487.517	282.25
487.735	293.25
487.953	287.25
488.171	271.25
488.389	276.25
488.607	284.25
488.825	273.25
489.043	274.25
489.261	260.25
489.479	287.25
489.696	281.25
489.914	278.25
490.132	275.25
490.35	289.25
490.568	279.25
490.786	298.25
491.003	295.25
491.221	311.25
491.439	303.25
491.657	296.25
491.874	305.25
492.092	291.25
492.31	330.25
492.527	317.25
492.745	304.25
492.963	338.25
493.18	334.25
493.398	311.25
493.615	315.25
493.833	320.25
494.05	315.25
494.268	304.25
494.485	303.25
494.703	296.25
494.92	319.25
495.138	304.25
495.355	313.25
495.573	313.25
495.79	313.25
496.008	320.25
496.225	299.25
496.442	322.25
496.66	334.25
496.877	309.25
497.094	298.25
497.312	322.25
497.529	295.25
497.746	320.25
497.963	337.25
498.181	326.25
498.398	336.25
498.615	349.25
498.832	338.25
499.049	347.25
499.267	351.25
499.484	364.25
499.701	383.25
499.918	368.25
500.135	381.25
500.352	413.25
500.569	421.25
500.786	404.25
501.003	388.25
501.22	385.25
501.437	387.25
501.654	364.25
501.871	391.25
502.088	345.25
502.305	334.25
502.522	344.25
