Data from 1966.PennyLincolnUp.Lamp.En5.5.200Scan.071719.P1._HRD10591_14-14-57-915.txt Node
Date: Thu Jul 18 14:14:57 EDT 2019
User: cochatt
Spectrometer: HR+D1059
Trigger mode: 1
Integration Time (sec): 1.000000E-1
Scans to average: 1
Electric dark correction enabled: true
Nonlinearity correction enabled: false
Boxcar width: 0
XAxis mode: Wavelengths
Number of Pixels in Spectrum: 2048
>>>>>Begin Spectral Data<<<<<
223.165	-8.88
223.4	-8.88
223.635	-8.88
223.869	-18.88
224.104	-18.88
224.338	-23.88
224.573	-9.88
224.808	-6.88
225.042	-9.88
225.277	-4.88
225.511	0.12
225.746	5.12
225.98	9.12
226.215	8.12
226.449	29.12
226.683	13.12
226.918	10.12
227.152	27.12
227.387	29.12
227.621	28.12
227.856	40.12
228.09	65.12
228.324	57.12
228.559	56.12
228.793	67.12
229.027	76.12
229.262	93.12
229.496	100.12
229.73	89.12
229.964	108.12
230.199	97.12
230.433	94.12
230.667	88.12
230.901	90.12
231.136	77.12
231.37	89.12
231.604	89.12
231.838	95.12
232.072	87.12
232.306	99.12
232.541	93.12
232.775	87.12
233.009	95.12
233.243	85.12
233.477	89.12
233.711	98.12
233.945	104.12
234.179	100.12
234.413	92.12
234.647	103.12
234.881	103.12
235.115	115.12
235.349	97.12
235.583	97.12
235.817	116.12
236.051	105.12
236.285	100.12
236.519	97.12
236.753	100.12
236.987	104.12
237.221	128.12
237.455	147.12
237.689	123.12
237.922	109.12
238.156	97.12
238.39	101.12
238.624	99.12
238.858	83.12
239.091	97.12
239.325	103.12
239.559	100.12
239.793	106.12
240.027	104.12
240.26	98.12
240.494	118.12
240.728	115.12
240.961	109.12
241.195	112.12
241.429	103.12
241.662	99.12
241.896	92.12
242.13	112.12
242.363	116.12
242.597	101.12
242.83	100.12
243.064	99.12
243.298	120.12
243.531	95.12
243.765	96.12
243.998	116.12
244.232	106.12
244.465	94.12
244.699	107.12
244.932	105.12
245.166	105.12
245.399	97.12
245.633	108.12
245.866	116.12
246.099	115.12
246.333	108.12
246.566	109.12
246.8	106.12
247.033	107.12
247.266	111.12
247.5	105.12
247.733	116.12
247.966	108.12
248.2	121.12
248.433	119.12
248.666	127.12
248.899	141.12
249.133	138.12
249.366	153.12
249.599	147.12
249.832	108.12
250.066	126.12
250.299	127.12
250.532	118.12
250.765	148.12
250.998	156.12
251.231	138.12
251.465	149.12
251.698	151.12
251.931	132.12
252.164	135.12
252.397	138.12
252.63	145.12
252.863	140.12
253.096	145.12
253.329	147.12
253.562	159.12
253.795	135.12
254.028	147.12
254.261	142.12
254.494	162.12
254.727	162.12
254.96	175.12
255.193	164.12
255.426	145.12
255.659	137.12
255.892	148.12
256.124	158.12
256.357	143.12
256.59	139.12
256.823	135.12
257.056	147.12
257.289	136.12
257.521	135.12
257.754	143.12
257.987	128.12
258.22	140.12
258.452	125.12
258.685	124.12
258.918	132.12
259.151	157.12
259.383	133.12
259.616	149.12
259.849	134.12
260.081	151.12
260.314	161.12
260.547	152.12
260.779	156.12
261.012	141.12
261.244	133.12
261.477	135.12
261.71	154.12
261.942	145.12
262.175	142.12
262.407	144.12
262.64	130.12
262.872	141.12
263.105	139.12
263.337	142.12
263.57	129.12
263.802	140.12
264.035	127.12
264.267	151.12
264.499	134.12
264.732	127.12
264.964	155.12
265.197	151.12
265.429	136.12
265.661	135.12
265.894	129.12
266.126	147.12
266.358	135.12
266.591	145.12
266.823	145.12
267.055	148.12
267.287	145.12
267.52	150.12
267.752	145.12
267.984	149.12
268.216	153.12
268.448	145.12
268.681	133.12
268.913	151.12
269.145	175.12
269.377	180.12
269.609	178.12
269.841	175.12
270.073	179.12
270.306	191.12
270.538	184.12
270.77	194.12
271.002	188.12
271.234	179.12
271.466	179.12
271.698	168.12
271.93	191.12
272.162	202.12
272.394	195.12
272.626	176.12
272.858	179.12
273.09	176.12
273.322	172.12
273.553	166.12
273.785	157.12
274.017	163.12
274.249	142.12
274.481	157.12
274.713	163.12
274.945	181.12
275.176	158.12
275.408	169.12
275.64	147.12
275.872	169.12
276.104	163.12
276.335	174.12
276.567	166.12
276.799	187.12
277.031	195.12
277.262	182.12
277.494	189.12
277.726	176.12
277.957	167.12
278.189	177.12
278.421	165.12
278.652	149.12
278.884	174.12
279.115	161.12
279.347	157.12
279.579	172.12
279.81	175.12
280.042	182.12
280.273	149.12
280.505	160.12
280.736	162.12
280.968	161.12
281.199	150.12
281.431	159.12
281.662	160.12
281.894	162.12
282.125	171.12
282.356	182.12
282.588	183.12
282.819	200.12
283.051	164.12
283.282	159.12
283.513	189.12
283.745	169.12
283.976	173.12
284.207	167.12
284.439	168.12
284.67	173.12
284.901	161.12
285.132	146.12
285.364	166.12
285.595	162.12
285.826	174.12
286.057	164.12
286.288	166.12
286.52	176.12
286.751	174.12
286.982	183.12
287.213	168.12
287.444	166.12
287.675	174.12
287.906	168.12
288.138	183.12
288.369	178.12
288.6	184.12
288.831	179.12
289.062	205.12
289.293	177.12
289.524	176.12
289.755	184.12
289.986	174.12
290.217	161.12
290.448	171.12
290.679	168.12
290.91	183.12
291.141	169.12
291.371	175.12
291.602	172.12
291.833	180.12
292.064	166.12
292.295	159.12
292.526	164.12
292.757	183.12
292.987	179.12
293.218	175.12
293.449	184.12
293.68	158.12
293.91	183.12
294.141	162.12
294.372	172.12
294.603	171.12
294.833	169.12
295.064	169.12
295.295	176.12
295.525	168.12
295.756	183.12
295.987	175.12
296.217	179.12
296.448	186.12
296.679	187.12
296.909	169.12
297.14	184.12
297.37	174.12
297.601	183.12
297.831	181.12
298.062	174.12
298.292	177.12
298.523	176.12
298.753	195.12
298.984	175.12
299.214	175.12
299.445	188.12
299.675	183.12
299.905	175.12
300.136	187.12
300.366	191.12
300.597	180.12
300.827	189.12
301.057	181.12
301.288	187.12
301.518	177.12
301.748	200.12
301.979	192.12
302.209	176.12
302.439	191.12
302.669	183.12
302.9	173.12
303.13	182.12
303.36	200.12
303.59	184.12
303.82	183.12
304.051	214.12
304.281	182.12
304.511	174.12
304.741	193.12
304.971	192.12
305.201	189.12
305.431	195.12
305.661	179.12
305.891	201.12
306.121	192.12
306.352	175.12
306.582	191.12
306.812	181.12
307.042	181.12
307.272	196.12
307.502	191.12
307.731	205.12
307.961	190.12
308.191	181.12
308.421	181.12
308.651	190.12
308.881	191.12
309.111	209.12
309.341	192.12
309.571	203.12
309.8	217.12
310.03	215.12
310.26	209.12
310.49	208.12
310.72	217.12
310.949	224.12
311.179	239.12
311.409	221.12
311.639	223.12
311.868	215.12
312.098	211.12
312.328	218.12
312.557	225.12
312.787	239.12
313.017	229.12
313.246	214.12
313.476	213.12
313.706	226.12
313.935	196.12
314.165	207.12
314.394	221.12
314.624	237.12
314.853	209.12
315.083	222.12
315.312	228.12
315.542	198.12
315.771	213.12
316.001	219.12
316.23	205.12
316.46	218.12
316.689	213.12
316.919	221.12
317.148	239.12
317.377	224.12
317.607	217.12
317.836	222.12
318.065	197.12
318.295	206.12
318.524	214.12
318.753	196.12
318.983	205.12
319.212	228.12
319.441	209.12
319.67	222.12
319.9	214.12
320.129	209.12
320.358	221.12
320.587	218.12
320.816	217.12
321.046	218.12
321.275	218.12
321.504	220.12
321.733	221.12
321.962	215.12
322.191	230.12
322.42	234.12
322.649	243.12
322.878	238.12
323.108	245.12
323.337	275.12
323.566	249.12
323.795	287.12
324.024	314.12
324.253	379.12
324.482	525.12
324.71	840.12
324.939	1091.12
325.168	873.12
325.397	448.12
325.626	329.12
325.855	250.12
326.084	261.12
326.313	261.12
326.542	262.12
326.77	286.12
326.999	349.12
327.228	495.12
327.457	729.12
327.686	842.12
327.914	548.12
328.143	361.12
328.372	330.12
328.6	312.12
328.829	320.12
329.058	315.12
329.287	328.12
329.515	287.12
329.744	281.12
329.972	275.12
330.201	291.12
330.43	320.12
330.658	331.12
330.887	345.12
331.115	325.12
331.344	305.12
331.572	292.12
331.801	278.12
332.03	300.12
332.258	264.12
332.486	255.12
332.715	232.12
332.943	231.12
333.172	240.12
333.4	260.12
333.629	252.12
333.857	257.12
334.085	267.12
334.314	293.12
334.542	318.12
334.771	309.12
334.999	297.12
335.227	247.12
335.455	238.12
335.684	237.12
335.912	248.12
336.14	237.12
336.369	238.12
336.597	254.12
336.825	271.12
337.053	225.12
337.281	228.12
337.51	243.12
337.738	251.12
337.966	239.12
338.194	247.12
338.422	246.12
338.65	235.12
338.878	230.12
339.106	247.12
339.334	233.12
339.562	229.12
339.79	244.12
340.018	236.12
340.246	232.12
340.474	226.12
340.702	244.12
340.93	240.12
341.158	223.12
341.386	227.12
341.614	235.12
341.842	238.12
342.07	229.12
342.298	228.12
342.526	235.12
342.754	226.12
342.981	223.12
343.209	221.12
343.437	232.12
343.665	234.12
343.893	241.12
344.12	229.12
344.348	244.12
344.576	229.12
344.804	216.12
345.031	245.12
345.259	235.12
345.487	238.12
345.714	234.12
345.942	237.12
346.17	223.12
346.397	221.12
346.625	224.12
346.853	223.12
347.08	226.12
347.308	224.12
347.535	231.12
347.763	254.12
347.99	244.12
348.218	231.12
348.445	234.12
348.673	247.12
348.9	218.12
349.128	216.12
349.355	222.12
349.583	210.12
349.81	219.12
350.037	209.12
350.265	235.12
350.492	206.12
350.72	222.12
350.947	227.12
351.174	235.12
351.402	234.12
351.629	221.12
351.856	243.12
352.083	230.12
352.311	245.12
352.538	247.12
352.765	238.12
352.992	251.12
353.22	224.12
353.447	211.12
353.674	215.12
353.901	217.12
354.128	211.12
354.355	200.12
354.583	216.12
354.81	212.12
355.037	223.12
355.264	195.12
355.491	223.12
355.718	204.12
355.945	198.12
356.172	213.12
356.399	211.12
356.626	208.12
356.853	202.12
357.08	221.12
357.307	219.12
357.534	204.12
357.761	213.12
357.988	200.12
358.215	225.12
358.441	197.12
358.668	214.12
358.895	212.12
359.122	208.12
359.349	207.12
359.576	227.12
359.802	245.12
360.029	267.12
360.256	264.12
360.483	248.12
360.709	231.12
360.936	237.12
361.163	217.12
361.39	208.12
361.616	239.12
361.843	235.12
362.07	200.12
362.296	218.12
362.523	236.12
362.749	216.12
362.976	218.12
363.203	204.12
363.429	224.12
363.656	207.12
363.882	216.12
364.109	215.12
364.335	201.12
364.562	207.12
364.788	216.12
365.015	208.12
365.241	232.12
365.468	222.12
365.694	228.12
365.92	220.12
366.147	216.12
366.373	215.12
366.599	207.12
366.826	212.12
367.052	213.12
367.278	206.12
367.505	203.12
367.731	213.12
367.957	220.12
368.184	214.12
368.41	211.12
368.636	217.12
368.862	203.12
369.089	207.12
369.315	207.12
369.541	209.12
369.767	200.12
369.993	207.12
370.219	203.12
370.445	199.12
370.672	206.12
370.898	217.12
371.124	211.12
371.35	219.12
371.576	213.12
371.802	227.12
372.028	220.12
372.254	201.12
372.48	203.12
372.706	222.12
372.932	222.12
373.158	209.12
373.384	225.12
373.61	232.12
373.835	216.12
374.061	204.12
374.287	212.12
374.513	223.12
374.739	214.12
374.965	217.12
375.191	226.12
375.416	211.12
375.642	218.12
375.868	198.12
376.094	212.12
376.319	208.12
376.545	222.12
376.771	212.12
376.997	215.12
377.222	227.12
377.448	202.12
377.674	217.12
377.899	204.12
378.125	206.12
378.35	215.12
378.576	201.12
378.802	188.12
379.027	196.12
379.253	221.12
379.478	196.12
379.704	199.12
379.929	195.12
380.155	205.12
380.38	215.12
380.606	220.12
380.831	224.12
381.057	207.12
381.282	212.12
381.507	198.12
381.733	216.12
381.958	220.12
382.184	219.12
382.409	221.12
382.634	205.12
382.86	204.12
383.085	208.12
383.31	232.12
383.535	204.12
383.761	213.12
383.986	196.12
384.211	210.12
384.436	206.12
384.662	211.12
384.887	211.12
385.112	232.12
385.337	225.12
385.562	228.12
385.787	222.12
386.013	226.12
386.238	245.12
386.463	235.12
386.688	224.12
386.913	211.12
387.138	232.12
387.363	223.12
387.588	227.12
387.813	231.12
388.038	225.12
388.263	240.12
388.488	221.12
388.713	222.12
388.938	233.12
389.163	227.12
389.387	216.12
389.612	208.12
389.837	202.12
390.062	233.12
390.287	222.12
390.512	218.12
390.736	215.12
390.961	218.12
391.186	225.12
391.411	223.12
391.636	247.12
391.86	212.12
392.085	225.12
392.31	211.12
392.534	227.12
392.759	219.12
392.984	220.12
393.208	228.12
393.433	218.12
393.658	235.12
393.882	212.12
394.107	237.12
394.331	233.12
394.556	211.12
394.78	232.12
395.005	225.12
395.229	231.12
395.454	235.12
395.678	247.12
395.903	248.12
396.127	245.12
396.352	249.12
396.576	233.12
396.801	253.12
397.025	250.12
397.249	230.12
397.474	247.12
397.698	237.12
397.922	256.12
398.147	255.12
398.371	263.12
398.595	268.12
398.82	247.12
399.044	251.12
399.268	265.12
399.492	265.12
399.717	275.12
399.941	306.12
400.165	300.12
400.389	316.12
400.613	267.12
400.837	275.12
401.062	257.12
401.286	254.12
401.51	250.12
401.734	250.12
401.958	254.12
402.182	264.12
402.406	263.12
402.63	268.12
402.854	246.12
403.078	265.12
403.302	263.12
403.526	276.12
403.75	264.12
403.974	265.12
404.198	274.12
404.422	265.12
404.645	266.12
404.869	259.12
405.093	277.12
405.317	288.12
405.541	319.12
405.765	290.12
405.988	271.12
406.212	287.12
406.436	299.12
406.66	317.12
406.883	294.12
407.107	293.12
407.331	308.12
407.555	344.12
407.778	329.12
408.002	308.12
408.226	288.12
408.449	280.12
408.673	282.12
408.896	280.12
409.12	301.12
409.344	293.12
409.567	269.12
409.791	270.12
410.014	273.12
410.238	251.12
410.461	260.12
410.685	265.12
410.908	270.12
411.132	283.12
411.355	299.12
411.578	296.12
411.802	267.12
412.025	263.12
412.249	259.12
412.472	260.12
412.695	302.12
412.919	277.12
413.142	276.12
413.365	276.12
413.589	263.12
413.812	245.12
414.035	264.12
414.258	250.12
414.482	246.12
414.705	261.12
414.928	242.12
415.151	262.12
415.374	241.12
415.597	249.12
415.821	243.12
416.044	260.12
416.267	263.12
416.49	249.12
416.713	237.12
416.936	263.12
417.159	247.12
417.382	244.12
417.605	269.12
417.828	267.12
418.051	264.12
418.274	272.12
418.497	273.12
418.72	245.12
418.943	249.12
419.166	244.12
419.389	279.12
419.611	287.12
419.834	269.12
420.057	256.12
420.28	268.12
420.503	259.12
420.726	277.12
420.948	257.12
421.171	291.12
421.394	284.12
421.617	259.12
421.839	271.12
422.062	254.12
422.285	286.12
422.507	295.12
422.73	310.12
422.953	331.12
423.175	295.12
423.398	278.12
423.621	281.12
423.843	266.12
424.066	287.12
424.288	282.12
424.511	277.12
424.733	298.12
424.956	334.12
425.178	333.12
425.401	337.12
425.623	340.12
425.846	305.12
426.068	281.12
426.291	277.12
426.513	286.12
426.735	294.12
426.958	291.12
427.18	328.12
427.402	391.12
427.625	432.12
427.847	387.12
428.069	327.12
428.292	294.12
428.514	297.12
428.736	254.12
428.958	259.12
429.181	234.12
429.403	272.12
429.625	273.12
429.847	274.12
430.069	307.12
430.292	295.12
430.514	257.12
430.736	269.12
430.958	269.12
431.18	246.12
431.402	257.12
431.624	237.12
431.846	256.12
432.068	238.12
432.29	252.12
432.512	238.12
432.734	239.12
432.956	251.12
433.178	249.12
433.4	259.12
433.622	238.12
433.844	243.12
434.066	246.12
434.287	256.12
434.509	238.12
434.731	265.12
434.953	265.12
435.175	261.12
435.397	252.12
435.618	284.12
435.84	292.12
436.062	349.12
436.284	346.12
436.505	300.12
436.727	249.12
436.949	270.12
437.17	239.12
437.392	259.12
437.614	275.12
437.835	278.12
438.057	335.12
438.278	352.12
438.5	350.12
438.721	393.12
438.943	367.12
439.165	311.12
439.386	295.12
439.608	284.12
439.829	287.12
440.05	293.12
440.272	313.12
440.493	288.12
440.715	263.12
440.936	279.12
441.158	266.12
441.379	279.12
441.6	263.12
441.822	273.12
442.043	316.12
442.264	335.12
442.486	339.12
442.707	338.12
442.928	295.12
443.149	309.12
443.371	317.12
443.592	341.12
443.813	359.12
444.034	375.12
444.255	318.12
444.476	285.12
444.698	295.12
444.919	272.12
445.14	369.12
445.361	304.12
445.582	324.12
445.803	331.12
446.024	383.12
446.245	392.12
446.466	334.12
446.687	298.12
446.908	286.12
447.129	258.12
447.35	255.12
447.571	270.12
447.792	262.12
448.013	225.12
448.234	265.12
448.455	295.12
448.675	347.12
448.896	365.12
449.117	335.12
449.338	303.12
449.559	362.12
449.779	372.12
450	297.12
450.221	287.12
450.442	254.12
450.662	255.12
450.883	271.12
451.104	267.12
451.324	266.12
451.545	251.12
451.766	244.12
451.986	232.12
452.207	235.12
452.428	218.12
452.648	231.12
452.869	247.12
453.089	235.12
453.31	251.12
453.53	240.12
453.751	250.12
453.971	250.12
454.192	262.12
454.412	227.12
454.633	216.12
454.853	232.12
455.073	237.12
455.294	257.12
455.514	285.12
455.734	273.12
455.955	237.12
456.175	203.12
456.395	198.12
456.616	223.12
456.836	229.12
457.056	219.12
457.276	208.12
457.497	200.12
457.717	213.12
457.937	243.12
458.157	218.12
458.377	239.12
458.598	261.12
458.818	271.12
459.038	318.12
459.258	323.12
459.478	295.12
459.698	252.12
459.918	243.12
460.138	243.12
460.358	260.12
460.578	229.12
460.798	250.12
461.018	255.12
461.238	260.12
461.458	265.12
461.678	276.12
461.898	240.12
462.118	247.12
462.338	250.12
462.558	255.12
462.777	254.12
462.997	272.12
463.217	239.12
463.437	270.12
463.657	271.12
463.876	273.12
464.096	269.12
464.316	270.12
464.536	263.12
464.755	278.12
464.975	287.12
465.195	326.12
465.414	367.12
465.634	303.12
465.854	258.12
466.073	270.12
466.293	253.12
466.512	256.12
466.732	253.12
466.951	235.12
467.171	243.12
467.391	244.12
467.61	249.12
467.829	263.12
468.049	259.12
468.268	249.12
468.488	254.12
468.707	253.12
468.927	230.12
469.146	244.12
469.365	224.12
469.585	230.12
469.804	226.12
470.023	244.12
470.243	247.12
470.462	255.12
470.681	274.12
470.901	270.12
471.12	255.12
471.339	236.12
471.558	243.12
471.777	251.12
471.997	248.12
472.216	251.12
472.435	290.12
472.654	260.12
472.873	253.12
473.092	238.12
473.311	240.12
473.53	236.12
473.749	223.12
473.968	276.12
474.187	337.12
474.406	324.12
474.625	276.12
474.844	255.12
475.063	271.12
475.282	257.12
475.501	248.12
475.72	236.12
475.939	255.12
476.158	252.12
476.377	236.12
476.596	247.12
476.814	271.12
477.033	249.12
477.252	252.12
477.471	249.12
477.69	264.12
477.908	248.12
478.127	263.12
478.346	236.12
478.564	263.12
478.783	267.12
479.002	261.12
479.22	287.12
479.439	287.12
479.658	302.12
479.876	294.12
480.095	292.12
480.313	314.12
480.532	295.12
480.751	309.12
480.969	309.12
481.188	375.12
481.406	424.12
481.624	313.12
481.843	315.12
482.061	297.12
482.28	277.12
482.498	279.12
482.717	269.12
482.935	284.12
483.153	283.12
483.372	270.12
483.59	290.12
483.808	280.12
484.027	281.12
484.245	276.12
484.463	253.12
484.681	291.12
484.9	277.12
485.118	270.12
485.336	299.12
485.554	301.12
485.772	296.12
485.99	292.12
486.209	286.12
486.427	296.12
486.645	291.12
486.863	300.12
487.081	277.12
487.299	296.12
487.517	308.12
487.735	303.12
487.953	313.12
488.171	295.12
488.389	301.12
488.607	305.12
488.825	313.12
489.043	297.12
489.261	300.12
489.479	293.12
489.696	295.12
489.914	285.12
490.132	303.12
490.35	308.12
490.568	327.12
490.786	340.12
491.003	323.12
491.221	345.12
491.439	340.12
491.657	349.12
491.874	341.12
492.092	345.12
492.31	348.12
492.527	371.12
492.745	349.12
492.963	361.12
493.18	353.12
493.398	344.12
493.615	359.12
493.833	348.12
494.05	361.12
494.268	350.12
494.485	373.12
494.703	361.12
494.92	369.12
495.138	352.12
495.355	348.12
495.573	346.12
495.79	359.12
496.008	352.12
496.225	345.12
496.442	360.12
496.66	361.12
496.877	350.12
497.094	361.12
497.312	353.12
497.529	360.12
497.746	355.12
497.963	352.12
498.181	373.12
498.398	371.12
498.615	379.12
498.832	360.12
499.049	377.12
499.267	384.12
499.484	411.12
499.701	408.12
499.918	428.12
500.135	435.12
500.352	464.12
500.569	442.12
500.786	466.12
501.003	446.12
501.22	432.12
501.437	436.12
501.654	424.12
501.871	435.12
502.088	415.12
502.305	387.12
502.522	375.12
