Data from 1966.PennyLincolnUp.Lamp.En5.5.200Scan.071719.P1._HRD10591_14-14-59-915.txt Node
Date: Thu Jul 18 14:14:59 EDT 2019
User: cochatt
Spectrometer: HR+D1059
Trigger mode: 1
Integration Time (sec): 1.000000E-1
Scans to average: 1
Electric dark correction enabled: true
Nonlinearity correction enabled: false
Boxcar width: 0
XAxis mode: Wavelengths
Number of Pixels in Spectrum: 2048
>>>>>Begin Spectral Data<<<<<
223.165	-14.75
223.4	-14.75
223.635	-14.75
223.869	-21.75
224.104	-8.75
224.338	-7.75
224.573	-21.75
224.808	-12.75
225.042	-8.75
225.277	-12.75
225.511	8.25
225.746	1.25
225.98	20.25
226.215	5.25
226.449	24.25
226.683	21.25
226.918	9.25
227.152	19.25
227.387	24.25
227.621	40.25
227.856	37.25
228.09	37.25
228.324	42.25
228.559	59.25
228.793	61.25
229.027	71.25
229.262	75.25
229.496	81.25
229.73	106.25
229.964	105.25
230.199	83.25
230.433	98.25
230.667	96.25
230.901	97.25
231.136	90.25
231.37	86.25
231.604	83.25
231.838	102.25
232.072	86.25
232.306	76.25
232.541	92.25
232.775	106.25
233.009	92.25
233.243	92.25
233.477	84.25
233.711	89.25
233.945	78.25
234.179	83.25
234.413	89.25
234.647	93.25
234.881	87.25
235.115	100.25
235.349	99.25
235.583	111.25
235.817	110.25
236.051	102.25
236.285	104.25
236.519	91.25
236.753	87.25
236.987	91.25
237.221	123.25
237.455	147.25
237.689	130.25
237.922	95.25
238.156	81.25
238.39	102.25
238.624	103.25
238.858	98.25
239.091	87.25
239.325	93.25
239.559	99.25
239.793	97.25
240.027	98.25
240.26	117.25
240.494	105.25
240.728	103.25
240.961	112.25
241.195	95.25
241.429	106.25
241.662	105.25
241.896	79.25
242.13	104.25
242.363	84.25
242.597	102.25
242.83	108.25
243.064	93.25
243.298	103.25
243.531	111.25
243.765	91.25
243.998	91.25
244.232	107.25
244.465	88.25
244.699	100.25
244.932	111.25
245.166	117.25
245.399	102.25
245.633	88.25
245.866	116.25
246.099	95.25
246.333	106.25
246.566	103.25
246.8	107.25
247.033	99.25
247.266	115.25
247.5	118.25
247.733	119.25
247.966	120.25
248.2	116.25
248.433	106.25
248.666	117.25
248.899	114.25
249.133	138.25
249.366	135.25
249.599	131.25
249.832	124.25
250.066	119.25
250.299	127.25
250.532	127.25
250.765	136.25
250.998	140.25
251.231	137.25
251.465	123.25
251.698	135.25
251.931	125.25
252.164	116.25
252.397	125.25
252.63	136.25
252.863	125.25
253.096	127.25
253.329	135.25
253.562	129.25
253.795	130.25
254.028	136.25
254.261	131.25
254.494	145.25
254.727	155.25
254.96	172.25
255.193	143.25
255.426	158.25
255.659	148.25
255.892	133.25
256.124	164.25
256.357	143.25
256.59	146.25
256.823	137.25
257.056	140.25
257.289	129.25
257.521	118.25
257.754	132.25
257.987	129.25
258.22	124.25
258.452	139.25
258.685	150.25
258.918	123.25
259.151	119.25
259.383	155.25
259.616	143.25
259.849	155.25
260.081	140.25
260.314	145.25
260.547	154.25
260.779	157.25
261.012	148.25
261.244	143.25
261.477	143.25
261.71	147.25
261.942	148.25
262.175	155.25
262.407	132.25
262.64	135.25
262.872	129.25
263.105	143.25
263.337	131.25
263.57	129.25
263.802	129.25
264.035	147.25
264.267	128.25
264.499	130.25
264.732	124.25
264.964	124.25
265.197	124.25
265.429	132.25
265.661	136.25
265.894	139.25
266.126	127.25
266.358	123.25
266.591	131.25
266.823	133.25
267.055	145.25
267.287	152.25
267.52	151.25
267.752	131.25
267.984	151.25
268.216	152.25
268.448	145.25
268.681	135.25
268.913	147.25
269.145	160.25
269.377	161.25
269.609	169.25
269.841	153.25
270.073	172.25
270.306	180.25
270.538	201.25
270.77	184.25
271.002	193.25
271.234	167.25
271.466	169.25
271.698	187.25
271.93	198.25
272.162	185.25
272.394	171.25
272.626	187.25
272.858	162.25
273.09	146.25
273.322	161.25
273.553	160.25
273.785	146.25
274.017	151.25
274.249	153.25
274.481	183.25
274.713	158.25
274.945	162.25
275.176	165.25
275.408	161.25
275.64	141.25
275.872	161.25
276.104	162.25
276.335	154.25
276.567	167.25
276.799	175.25
277.031	201.25
277.262	187.25
277.494	175.25
277.726	180.25
277.957	175.25
278.189	154.25
278.421	155.25
278.652	159.25
278.884	161.25
279.115	170.25
279.347	148.25
279.579	175.25
279.81	159.25
280.042	161.25
280.273	168.25
280.505	160.25
280.736	164.25
280.968	152.25
281.199	158.25
281.431	156.25
281.662	151.25
281.894	159.25
282.125	159.25
282.356	167.25
282.588	175.25
282.819	195.25
283.051	182.25
283.282	163.25
283.513	179.25
283.745	164.25
283.976	169.25
284.207	171.25
284.439	169.25
284.67	165.25
284.901	166.25
285.132	166.25
285.364	161.25
285.595	171.25
285.826	158.25
286.057	169.25
286.288	156.25
286.52	162.25
286.751	145.25
286.982	169.25
287.213	168.25
287.444	157.25
287.675	164.25
287.906	171.25
288.138	178.25
288.369	189.25
288.6	184.25
288.831	178.25
289.062	167.25
289.293	159.25
289.524	169.25
289.755	163.25
289.986	164.25
290.217	172.25
290.448	167.25
290.679	167.25
290.91	173.25
291.141	177.25
291.371	175.25
291.602	172.25
291.833	179.25
292.064	172.25
292.295	170.25
292.526	175.25
292.757	182.25
292.987	191.25
293.218	185.25
293.449	167.25
293.68	161.25
293.91	161.25
294.141	169.25
294.372	175.25
294.603	175.25
294.833	169.25
295.064	168.25
295.295	171.25
295.525	162.25
295.756	167.25
295.987	183.25
296.217	187.25
296.448	198.25
296.679	179.25
296.909	175.25
297.14	175.25
297.37	186.25
297.601	192.25
297.831	168.25
298.062	177.25
298.292	180.25
298.523	158.25
298.753	168.25
298.984	180.25
299.214	180.25
299.445	176.25
299.675	166.25
299.905	188.25
300.136	185.25
300.366	173.25
300.597	194.25
300.827	182.25
301.057	183.25
301.288	178.25
301.518	169.25
301.748	198.25
301.979	193.25
302.209	176.25
302.439	182.25
302.669	173.25
302.9	196.25
303.13	183.25
303.36	173.25
303.59	183.25
303.82	199.25
304.051	211.25
304.281	202.25
304.511	190.25
304.741	192.25
304.971	184.25
305.201	174.25
305.431	184.25
305.661	184.25
305.891	183.25
306.121	168.25
306.352	184.25
306.582	184.25
306.812	202.25
307.042	178.25
307.272	195.25
307.502	185.25
307.731	186.25
307.961	195.25
308.191	193.25
308.421	190.25
308.651	176.25
308.881	194.25
309.111	195.25
309.341	189.25
309.571	212.25
309.8	191.25
310.03	221.25
310.26	211.25
310.49	213.25
310.72	218.25
310.949	225.25
311.179	245.25
311.409	208.25
311.639	231.25
311.868	205.25
312.098	199.25
312.328	223.25
312.557	226.25
312.787	237.25
313.017	236.25
313.246	213.25
313.476	204.25
313.706	213.25
313.935	213.25
314.165	223.25
314.394	228.25
314.624	215.25
314.853	201.25
315.083	211.25
315.312	199.25
315.542	200.25
315.771	204.25
316.001	192.25
316.23	224.25
316.46	208.25
316.689	225.25
316.919	199.25
317.148	219.25
317.377	213.25
317.607	224.25
317.836	223.25
318.065	209.25
318.295	190.25
318.524	200.25
318.753	199.25
318.983	208.25
319.212	197.25
319.441	212.25
319.67	218.25
319.9	228.25
320.129	217.25
320.358	197.25
320.587	215.25
320.816	211.25
321.046	232.25
321.275	218.25
321.504	220.25
321.733	211.25
321.962	218.25
322.191	240.25
322.42	236.25
322.649	233.25
322.878	238.25
323.108	267.25
323.337	260.25
323.566	259.25
323.795	289.25
324.024	291.25
324.253	387.25
324.482	559.25
324.71	815.25
324.939	1127.25
325.168	885.25
325.397	472.25
325.626	324.25
325.855	270.25
326.084	263.25
326.313	275.25
326.542	260.25
326.77	293.25
326.999	343.25
327.228	478.25
327.457	682.25
327.686	818.25
327.914	557.25
328.143	385.25
328.372	333.25
328.6	306.25
328.829	295.25
329.058	307.25
329.287	329.25
329.515	299.25
329.744	271.25
329.972	286.25
330.201	305.25
330.43	343.25
330.658	336.25
330.887	337.25
331.115	338.25
331.344	295.25
331.572	288.25
331.801	268.25
332.03	254.25
332.258	244.25
332.486	249.25
332.715	241.25
332.943	236.25
333.172	255.25
333.4	239.25
333.629	265.25
333.857	284.25
334.085	275.25
334.314	288.25
334.542	327.25
334.771	330.25
334.999	282.25
335.227	251.25
335.455	243.25
335.684	253.25
335.912	247.25
336.14	241.25
336.369	251.25
336.597	237.25
336.825	245.25
337.053	260.25
337.281	240.25
337.51	236.25
337.738	242.25
337.966	234.25
338.194	229.25
338.422	226.25
338.65	248.25
338.878	227.25
339.106	230.25
339.334	242.25
339.562	239.25
339.79	232.25
340.018	240.25
340.246	223.25
340.474	249.25
340.702	241.25
340.93	234.25
341.158	222.25
341.386	241.25
341.614	217.25
341.842	227.25
342.07	226.25
342.298	234.25
342.526	236.25
342.754	220.25
342.981	214.25
343.209	222.25
343.437	257.25
343.665	235.25
343.893	233.25
344.12	233.25
344.348	209.25
344.576	223.25
344.804	235.25
345.031	232.25
345.259	248.25
345.487	231.25
345.714	232.25
345.942	237.25
346.17	224.25
346.397	228.25
346.625	218.25
346.853	227.25
347.08	232.25
347.308	214.25
347.535	236.25
347.763	235.25
347.99	232.25
348.218	233.25
348.445	236.25
348.673	233.25
348.9	233.25
349.128	218.25
349.355	215.25
349.583	216.25
349.81	211.25
350.037	205.25
350.265	218.25
350.492	214.25
350.72	221.25
350.947	211.25
351.174	234.25
351.402	226.25
351.629	217.25
351.856	226.25
352.083	226.25
352.311	253.25
352.538	235.25
352.765	243.25
352.992	228.25
353.22	241.25
353.447	222.25
353.674	217.25
353.901	220.25
354.128	225.25
354.355	215.25
354.583	211.25
354.81	210.25
355.037	213.25
355.264	203.25
355.491	205.25
355.718	196.25
355.945	208.25
356.172	212.25
356.399	210.25
356.626	205.25
356.853	205.25
357.08	195.25
357.307	213.25
357.534	211.25
357.761	198.25
357.988	197.25
358.215	215.25
358.441	196.25
358.668	211.25
358.895	214.25
359.122	212.25
359.349	226.25
359.576	226.25
359.802	226.25
360.029	240.25
360.256	251.25
360.483	244.25
360.709	226.25
360.936	247.25
361.163	227.25
361.39	234.25
361.616	219.25
361.843	218.25
362.07	235.25
362.296	209.25
362.523	206.25
362.749	216.25
362.976	232.25
363.203	228.25
363.429	205.25
363.656	209.25
363.882	226.25
364.109	203.25
364.335	221.25
364.562	209.25
364.788	226.25
365.015	222.25
365.241	183.25
365.468	230.25
365.694	217.25
365.92	224.25
366.147	222.25
366.373	207.25
366.599	197.25
366.826	218.25
367.052	201.25
367.278	218.25
367.505	198.25
367.731	220.25
367.957	200.25
368.184	214.25
368.41	229.25
368.636	232.25
368.862	213.25
369.089	219.25
369.315	208.25
369.541	201.25
369.767	206.25
369.993	204.25
370.219	213.25
370.445	200.25
370.672	212.25
370.898	196.25
371.124	199.25
371.35	198.25
371.576	209.25
371.802	204.25
372.028	203.25
372.254	200.25
372.48	216.25
372.706	216.25
372.932	224.25
373.158	224.25
373.384	208.25
373.61	211.25
373.835	196.25
374.061	209.25
374.287	199.25
374.513	213.25
374.739	209.25
374.965	199.25
375.191	220.25
375.416	225.25
375.642	201.25
375.868	201.25
376.094	210.25
376.319	215.25
376.545	201.25
376.771	197.25
376.997	218.25
377.222	213.25
377.448	211.25
377.674	210.25
377.899	193.25
378.125	194.25
378.35	226.25
378.576	197.25
378.802	200.25
379.027	221.25
379.253	213.25
379.478	217.25
379.704	216.25
379.929	208.25
380.155	194.25
380.38	204.25
380.606	208.25
380.831	191.25
381.057	217.25
381.282	199.25
381.507	198.25
381.733	203.25
381.958	221.25
382.184	197.25
382.409	211.25
382.634	217.25
382.86	204.25
383.085	200.25
383.31	200.25
383.535	201.25
383.761	213.25
383.986	227.25
384.211	217.25
384.436	200.25
384.662	217.25
384.887	216.25
385.112	214.25
385.337	216.25
385.562	220.25
385.787	246.25
386.013	214.25
386.238	231.25
386.463	227.25
386.688	229.25
386.913	220.25
387.138	226.25
387.363	212.25
387.588	221.25
387.813	210.25
388.038	205.25
388.263	222.25
388.488	222.25
388.713	212.25
388.938	225.25
389.163	235.25
389.387	210.25
389.612	217.25
389.837	217.25
390.062	217.25
390.287	227.25
390.512	213.25
390.736	228.25
390.961	216.25
391.186	236.25
391.411	223.25
391.636	224.25
391.86	228.25
392.085	215.25
392.31	225.25
392.534	242.25
392.759	228.25
392.984	229.25
393.208	224.25
393.433	222.25
393.658	223.25
393.882	212.25
394.107	230.25
394.331	218.25
394.556	228.25
394.78	212.25
395.005	227.25
395.229	208.25
395.454	234.25
395.678	218.25
395.903	225.25
396.127	253.25
396.352	245.25
396.576	213.25
396.801	228.25
397.025	230.25
397.249	224.25
397.474	239.25
397.698	247.25
397.922	233.25
398.147	258.25
398.371	247.25
398.595	231.25
398.82	249.25
399.044	240.25
399.268	258.25
399.492	269.25
399.717	283.25
399.941	289.25
400.165	303.25
400.389	292.25
400.613	282.25
400.837	247.25
401.062	247.25
401.286	262.25
401.51	272.25
401.734	232.25
401.958	248.25
402.182	272.25
402.406	269.25
402.63	271.25
402.854	260.25
403.078	279.25
403.302	266.25
403.526	267.25
403.75	281.25
403.974	248.25
404.198	268.25
404.422	263.25
404.645	287.25
404.869	269.25
405.093	279.25
405.317	303.25
405.541	305.25
405.765	273.25
405.988	269.25
406.212	293.25
406.436	299.25
406.66	315.25
406.883	292.25
407.107	313.25
407.331	305.25
407.555	338.25
407.778	335.25
408.002	319.25
408.226	281.25
408.449	293.25
408.673	307.25
408.896	290.25
409.12	292.25
409.344	297.25
409.567	279.25
409.791	255.25
410.014	249.25
410.238	247.25
410.461	274.25
410.685	279.25
410.908	268.25
411.132	281.25
411.355	268.25
411.578	285.25
411.802	272.25
412.025	260.25
412.249	265.25
412.472	264.25
412.695	306.25
412.919	303.25
413.142	261.25
413.365	270.25
413.589	279.25
413.812	247.25
414.035	245.25
414.258	257.25
414.482	249.25
414.705	243.25
414.928	255.25
415.151	247.25
415.374	255.25
415.597	247.25
415.821	224.25
416.044	261.25
416.267	266.25
416.49	267.25
416.713	247.25
416.936	260.25
417.159	267.25
417.382	244.25
417.605	253.25
417.828	272.25
418.051	258.25
418.274	260.25
418.497	267.25
418.72	265.25
418.943	263.25
419.166	234.25
419.389	261.25
419.611	263.25
419.834	267.25
420.057	267.25
420.28	280.25
420.503	265.25
420.726	259.25
420.948	274.25
421.171	287.25
421.394	284.25
421.617	262.25
421.839	271.25
422.062	273.25
422.285	280.25
422.507	296.25
422.73	306.25
422.953	289.25
423.175	281.25
423.398	272.25
423.621	261.25
423.843	275.25
424.066	274.25
424.288	280.25
424.511	275.25
424.733	298.25
424.956	354.25
425.178	317.25
425.401	335.25
425.623	337.25
425.846	290.25
426.068	280.25
426.291	283.25
426.513	264.25
426.735	287.25
426.958	296.25
427.18	339.25
427.402	375.25
427.625	442.25
427.847	379.25
428.069	335.25
428.292	292.25
428.514	290.25
428.736	267.25
428.958	248.25
429.181	264.25
429.403	255.25
429.625	241.25
429.847	278.25
430.069	309.25
430.292	312.25
430.514	266.25
430.736	263.25
430.958	272.25
431.18	250.25
431.402	264.25
431.624	258.25
431.846	252.25
432.068	225.25
432.29	243.25
432.512	251.25
432.734	263.25
432.956	266.25
433.178	252.25
433.4	261.25
433.622	236.25
433.844	244.25
434.066	228.25
434.287	244.25
434.509	243.25
434.731	262.25
434.953	260.25
435.175	280.25
435.397	267.25
435.618	271.25
435.84	286.25
436.062	344.25
436.284	342.25
436.505	299.25
436.727	290.25
436.949	272.25
437.17	269.25
437.392	253.25
437.614	282.25
437.835	282.25
438.057	318.25
438.278	364.25
438.5	358.25
438.721	396.25
438.943	359.25
439.165	316.25
439.386	292.25
439.608	290.25
439.829	276.25
440.05	296.25
440.272	330.25
440.493	295.25
440.715	275.25
440.936	257.25
441.158	275.25
441.379	267.25
441.6	273.25
441.822	269.25
442.043	293.25
442.264	346.25
442.486	354.25
442.707	306.25
442.928	299.25
443.149	308.25
443.371	303.25
443.592	314.25
443.813	367.25
444.034	372.25
444.255	304.25
444.476	274.25
444.698	285.25
444.919	276.25
445.14	398.25
445.361	339.25
445.582	309.25
445.803	325.25
446.024	381.25
446.245	377.25
446.466	332.25
446.687	297.25
446.908	271.25
447.129	282.25
447.35	258.25
447.571	269.25
447.792	273.25
448.013	264.25
448.234	269.25
448.455	292.25
448.675	330.25
448.896	371.25
449.117	337.25
449.338	318.25
449.559	375.25
449.779	407.25
450	313.25
450.221	284.25
450.442	254.25
450.662	259.25
450.883	251.25
451.104	284.25
451.324	262.25
451.545	260.25
451.766	257.25
451.986	235.25
452.207	230.25
452.428	233.25
452.648	242.25
452.869	240.25
453.089	241.25
453.31	259.25
453.53	245.25
453.751	227.25
453.971	229.25
454.192	266.25
454.412	264.25
454.633	230.25
454.853	240.25
455.073	228.25
455.294	232.25
455.514	291.25
455.734	264.25
455.955	235.25
456.175	216.25
456.395	201.25
456.616	216.25
456.836	224.25
457.056	216.25
457.276	193.25
457.497	205.25
457.717	217.25
457.937	230.25
458.157	224.25
458.377	232.25
458.598	244.25
458.818	291.25
459.038	320.25
459.258	321.25
459.478	270.25
459.698	260.25
459.918	234.25
460.138	239.25
460.358	233.25
460.578	269.25
460.798	259.25
461.018	263.25
461.238	243.25
461.458	239.25
461.678	220.25
461.898	249.25
462.118	234.25
462.338	249.25
462.558	278.25
462.777	264.25
462.997	257.25
463.217	279.25
463.437	260.25
463.657	274.25
463.876	271.25
464.096	291.25
464.316	286.25
464.536	263.25
464.755	257.25
464.975	256.25
465.195	315.25
465.414	351.25
465.634	304.25
465.854	261.25
466.073	252.25
466.293	255.25
466.512	237.25
466.732	239.25
466.951	245.25
467.171	234.25
467.391	246.25
467.61	273.25
467.829	247.25
468.049	263.25
468.268	256.25
468.488	241.25
468.707	228.25
468.927	236.25
469.146	234.25
469.365	227.25
469.585	233.25
469.804	227.25
470.023	228.25
470.243	247.25
470.462	255.25
470.681	266.25
470.901	247.25
471.12	244.25
471.339	243.25
471.558	265.25
471.777	240.25
471.997	226.25
472.216	247.25
472.435	277.25
472.654	275.25
472.873	257.25
473.092	263.25
473.311	252.25
473.53	240.25
473.749	246.25
473.968	265.25
474.187	331.25
474.406	338.25
474.625	277.25
474.844	248.25
475.063	245.25
475.282	253.25
475.501	256.25
475.72	243.25
475.939	251.25
476.158	237.25
476.377	251.25
476.596	235.25
476.814	249.25
477.033	258.25
477.252	265.25
477.471	241.25
477.69	253.25
477.908	254.25
478.127	279.25
478.346	283.25
478.564	263.25
478.783	267.25
479.002	276.25
479.22	267.25
479.439	284.25
479.658	287.25
479.876	297.25
480.095	291.25
480.313	297.25
480.532	316.25
480.751	287.25
480.969	323.25
481.188	361.25
481.406	400.25
481.624	319.25
481.843	293.25
482.061	275.25
482.28	305.25
482.498	275.25
482.717	282.25
482.935	288.25
483.153	265.25
483.372	281.25
483.59	299.25
483.808	268.25
484.027	279.25
484.245	291.25
484.463	280.25
484.681	291.25
484.9	274.25
485.118	299.25
485.336	291.25
485.554	282.25
485.772	274.25
485.99	289.25
486.209	288.25
486.427	311.25
486.645	320.25
486.863	324.25
487.081	301.25
487.299	305.25
487.517	306.25
487.735	283.25
487.953	297.25
488.171	292.25
488.389	297.25
488.607	318.25
488.825	305.25
489.043	303.25
489.261	296.25
489.479	306.25
489.696	309.25
489.914	309.25
490.132	337.25
490.35	305.25
490.568	327.25
490.786	319.25
491.003	332.25
491.221	336.25
491.439	358.25
491.657	341.25
491.874	352.25
492.092	367.25
492.31	353.25
492.527	350.25
492.745	373.25
492.963	361.25
493.18	367.25
493.398	344.25
493.615	343.25
493.833	376.25
494.05	371.25
494.268	358.25
494.485	352.25
494.703	327.25
494.92	369.25
495.138	351.25
495.355	357.25
495.573	352.25
495.79	347.25
496.008	364.25
496.225	342.25
496.442	364.25
496.66	359.25
496.877	365.25
497.094	355.25
497.312	346.25
497.529	362.25
497.746	359.25
497.963	375.25
498.181	369.25
498.398	356.25
498.615	352.25
498.832	375.25
499.049	388.25
499.267	415.25
499.484	419.25
499.701	412.25
499.918	419.25
500.135	441.25
500.352	454.25
500.569	479.25
500.786	471.25
501.003	459.25
501.22	451.25
501.437	437.25
501.654	442.25
501.871	419.25
502.088	407.25
502.305	386.25
502.522	377.25
