Data from 1966.PennyLincolnUp.Lamp.En5.5.200Scan.071719.P1._HRD10591_14-12-59-913.txt Node
Date: Thu Jul 18 14:12:59 EDT 2019
User: cochatt
Spectrometer: HR+D1059
Trigger mode: 1
Integration Time (sec): 1.000000E-1
Scans to average: 1
Electric dark correction enabled: true
Nonlinearity correction enabled: false
Boxcar width: 0
XAxis mode: Wavelengths
Number of Pixels in Spectrum: 2048
>>>>>Begin Spectral Data<<<<<
223.165	-15.56
223.4	-15.56
223.635	-15.56
223.869	-16.56
224.104	-31.56
224.338	-12.56
224.573	-15.56
224.808	-10.56
225.042	-12.56
225.277	-11.56
225.511	3.44
225.746	3.44
225.98	-1.56
226.215	24.44
226.449	22.44
226.683	25.44
226.918	21.44
227.152	27.44
227.387	38.44
227.621	45.44
227.856	42.44
228.09	43.44
228.324	57.44
228.559	51.44
228.793	53.44
229.027	58.44
229.262	76.44
229.496	80.44
229.73	94.44
229.964	104.44
230.199	94.44
230.433	94.44
230.667	92.44
230.901	97.44
231.136	103.44
231.37	97.44
231.604	87.44
231.838	105.44
232.072	90.44
232.306	91.44
232.541	94.44
232.775	93.44
233.009	97.44
233.243	102.44
233.477	84.44
233.711	100.44
233.945	89.44
234.179	96.44
234.413	79.44
234.647	94.44
234.881	88.44
235.115	101.44
235.349	84.44
235.583	92.44
235.817	116.44
236.051	85.44
236.285	99.44
236.519	95.44
236.753	95.44
236.987	98.44
237.221	117.44
237.455	131.44
237.689	100.44
237.922	99.44
238.156	85.44
238.39	89.44
238.624	89.44
238.858	89.44
239.091	100.44
239.325	123.44
239.559	103.44
239.793	91.44
240.027	96.44
240.26	75.44
240.494	102.44
240.728	96.44
240.961	95.44
241.195	105.44
241.429	86.44
241.662	97.44
241.896	101.44
242.13	105.44
242.363	97.44
242.597	106.44
242.83	95.44
243.064	110.44
243.298	109.44
243.531	102.44
243.765	102.44
243.998	123.44
244.232	104.44
244.465	85.44
244.699	87.44
244.932	84.44
245.166	86.44
245.399	93.44
245.633	107.44
245.866	104.44
246.099	88.44
246.333	100.44
246.566	110.44
246.8	100.44
247.033	115.44
247.266	123.44
247.5	98.44
247.733	105.44
247.966	121.44
248.2	111.44
248.433	107.44
248.666	127.44
248.899	129.44
249.133	125.44
249.366	142.44
249.599	119.44
249.832	116.44
250.066	117.44
250.299	119.44
250.532	123.44
250.765	128.44
250.998	150.44
251.231	146.44
251.465	146.44
251.698	113.44
251.931	119.44
252.164	107.44
252.397	123.44
252.63	117.44
252.863	115.44
253.096	123.44
253.329	136.44
253.562	147.44
253.795	132.44
254.028	117.44
254.261	140.44
254.494	141.44
254.727	130.44
254.96	160.44
255.193	146.44
255.426	129.44
255.659	129.44
255.892	128.44
256.124	137.44
256.357	143.44
256.59	128.44
256.823	131.44
257.056	122.44
257.289	131.44
257.521	147.44
257.754	134.44
257.987	132.44
258.22	135.44
258.452	134.44
258.685	127.44
258.918	121.44
259.151	132.44
259.383	136.44
259.616	121.44
259.849	138.44
260.081	133.44
260.314	152.44
260.547	154.44
260.779	146.44
261.012	129.44
261.244	131.44
261.477	143.44
261.71	125.44
261.942	142.44
262.175	144.44
262.407	131.44
262.64	113.44
262.872	120.44
263.105	135.44
263.337	128.44
263.57	119.44
263.802	126.44
264.035	119.44
264.267	138.44
264.499	135.44
264.732	138.44
264.964	141.44
265.197	131.44
265.429	117.44
265.661	129.44
265.894	126.44
266.126	126.44
266.358	131.44
266.591	131.44
266.823	124.44
267.055	137.44
267.287	141.44
267.52	117.44
267.752	125.44
267.984	133.44
268.216	118.44
268.448	135.44
268.681	137.44
268.913	129.44
269.145	151.44
269.377	156.44
269.609	146.44
269.841	153.44
270.073	170.44
270.306	174.44
270.538	158.44
270.77	172.44
271.002	174.44
271.234	163.44
271.466	170.44
271.698	171.44
271.93	173.44
272.162	174.44
272.394	172.44
272.626	168.44
272.858	158.44
273.09	163.44
273.322	149.44
273.553	146.44
273.785	147.44
274.017	161.44
274.249	153.44
274.481	162.44
274.713	142.44
274.945	146.44
275.176	141.44
275.408	144.44
275.64	155.44
275.872	157.44
276.104	165.44
276.335	150.44
276.567	148.44
276.799	175.44
277.031	166.44
277.262	182.44
277.494	168.44
277.726	159.44
277.957	158.44
278.189	162.44
278.421	127.44
278.652	151.44
278.884	148.44
279.115	159.44
279.347	152.44
279.579	147.44
279.81	153.44
280.042	137.44
280.273	140.44
280.505	143.44
280.736	156.44
280.968	153.44
281.199	163.44
281.431	158.44
281.662	140.44
281.894	143.44
282.125	160.44
282.356	165.44
282.588	161.44
282.819	173.44
283.051	164.44
283.282	154.44
283.513	144.44
283.745	155.44
283.976	165.44
284.207	153.44
284.439	161.44
284.67	167.44
284.901	151.44
285.132	146.44
285.364	159.44
285.595	140.44
285.826	145.44
286.057	159.44
286.288	152.44
286.52	159.44
286.751	159.44
286.982	152.44
287.213	154.44
287.444	167.44
287.675	147.44
287.906	184.44
288.138	172.44
288.369	155.44
288.6	149.44
288.831	171.44
289.062	147.44
289.293	171.44
289.524	167.44
289.755	159.44
289.986	156.44
290.217	167.44
290.448	171.44
290.679	175.44
290.91	158.44
291.141	167.44
291.371	152.44
291.602	168.44
291.833	157.44
292.064	159.44
292.295	160.44
292.526	156.44
292.757	170.44
292.987	169.44
293.218	165.44
293.449	146.44
293.68	156.44
293.91	155.44
294.141	160.44
294.372	139.44
294.603	161.44
294.833	152.44
295.064	170.44
295.295	163.44
295.525	161.44
295.756	164.44
295.987	175.44
296.217	174.44
296.448	192.44
296.679	176.44
296.909	151.44
297.14	161.44
297.37	170.44
297.601	157.44
297.831	168.44
298.062	170.44
298.292	153.44
298.523	177.44
298.753	151.44
298.984	159.44
299.214	161.44
299.445	163.44
299.675	190.44
299.905	181.44
300.136	163.44
300.366	166.44
300.597	168.44
300.827	159.44
301.057	171.44
301.288	195.44
301.518	167.44
301.748	149.44
301.979	163.44
302.209	160.44
302.439	173.44
302.669	172.44
302.9	189.44
303.13	177.44
303.36	165.44
303.59	174.44
303.82	169.44
304.051	171.44
304.281	184.44
304.511	173.44
304.741	173.44
304.971	166.44
305.201	163.44
305.431	177.44
305.661	181.44
305.891	156.44
306.121	172.44
306.352	186.44
306.582	172.44
306.812	168.44
307.042	181.44
307.272	187.44
307.502	194.44
307.731	183.44
307.961	159.44
308.191	172.44
308.421	160.44
308.651	185.44
308.881	187.44
309.111	167.44
309.341	188.44
309.571	189.44
309.8	198.44
310.03	209.44
310.26	196.44
310.49	206.44
310.72	190.44
310.949	211.44
311.179	198.44
311.409	199.44
311.639	177.44
311.868	197.44
312.098	186.44
312.328	209.44
312.557	206.44
312.787	209.44
313.017	208.44
313.246	210.44
313.476	200.44
313.706	182.44
313.935	200.44
314.165	204.44
314.394	205.44
314.624	195.44
314.853	202.44
315.083	189.44
315.312	210.44
315.542	210.44
315.771	191.44
316.001	174.44
316.23	184.44
316.46	189.44
316.689	203.44
316.919	181.44
317.148	201.44
317.377	208.44
317.607	193.44
317.836	193.44
318.065	201.44
318.295	190.44
318.524	173.44
318.753	193.44
318.983	195.44
319.212	207.44
319.441	202.44
319.67	204.44
319.9	212.44
320.129	200.44
320.358	193.44
320.587	208.44
320.816	197.44
321.046	188.44
321.275	194.44
321.504	206.44
321.733	199.44
321.962	195.44
322.191	200.44
322.42	202.44
322.649	226.44
322.878	223.44
323.108	218.44
323.337	238.44
323.566	233.44
323.795	262.44
324.024	274.44
324.253	312.44
324.482	473.44
324.71	671.44
324.939	908.44
325.168	735.44
325.397	401.44
325.626	286.44
325.855	230.44
326.084	247.44
326.313	238.44
326.542	235.44
326.77	256.44
326.999	301.44
327.228	424.44
327.457	621.44
327.686	685.44
327.914	459.44
328.143	323.44
328.372	289.44
328.6	265.44
328.829	269.44
329.058	266.44
329.287	287.44
329.515	271.44
329.744	238.44
329.972	259.44
330.201	264.44
330.43	284.44
330.658	293.44
330.887	307.44
331.115	290.44
331.344	246.44
331.572	235.44
331.801	227.44
332.03	249.44
332.258	243.44
332.486	222.44
332.715	226.44
332.943	210.44
333.172	219.44
333.4	224.44
333.629	232.44
333.857	210.44
334.085	222.44
334.314	246.44
334.542	278.44
334.771	289.44
334.999	245.44
335.227	230.44
335.455	222.44
335.684	246.44
335.912	225.44
336.14	223.44
336.369	225.44
336.597	212.44
336.825	240.44
337.053	216.44
337.281	206.44
337.51	232.44
337.738	219.44
337.966	231.44
338.194	208.44
338.422	215.44
338.65	217.44
338.878	204.44
339.106	206.44
339.334	204.44
339.562	196.44
339.79	208.44
340.018	212.44
340.246	210.44
340.474	245.44
340.702	215.44
340.93	220.44
341.158	218.44
341.386	219.44
341.614	198.44
341.842	222.44
342.07	221.44
342.298	206.44
342.526	195.44
342.754	209.44
342.981	189.44
343.209	210.44
343.437	199.44
343.665	193.44
343.893	211.44
344.12	222.44
344.348	210.44
344.576	220.44
344.804	225.44
345.031	216.44
345.259	216.44
345.487	203.44
345.714	216.44
345.942	215.44
346.17	223.44
346.397	199.44
346.625	200.44
346.853	206.44
347.08	190.44
347.308	190.44
347.535	211.44
347.763	218.44
347.99	216.44
348.218	208.44
348.445	207.44
348.673	221.44
348.9	214.44
349.128	206.44
349.355	197.44
349.583	195.44
349.81	199.44
350.037	208.44
350.265	200.44
350.492	199.44
350.72	195.44
350.947	196.44
351.174	210.44
351.402	200.44
351.629	207.44
351.856	214.44
352.083	215.44
352.311	196.44
352.538	209.44
352.765	223.44
352.992	199.44
353.22	201.44
353.447	196.44
353.674	210.44
353.901	198.44
354.128	192.44
354.355	191.44
354.583	187.44
354.81	194.44
355.037	206.44
355.264	196.44
355.491	188.44
355.718	187.44
355.945	193.44
356.172	184.44
356.399	180.44
356.626	176.44
356.853	203.44
357.08	178.44
357.307	214.44
357.534	200.44
357.761	188.44
357.988	208.44
358.215	193.44
358.441	184.44
358.668	184.44
358.895	188.44
359.122	204.44
359.349	188.44
359.576	196.44
359.802	204.44
360.029	221.44
360.256	230.44
360.483	197.44
360.709	211.44
360.936	207.44
361.163	204.44
361.39	222.44
361.616	193.44
361.843	204.44
362.07	218.44
362.296	197.44
362.523	196.44
362.749	205.44
362.976	202.44
363.203	196.44
363.429	189.44
363.656	207.44
363.882	198.44
364.109	209.44
364.335	184.44
364.562	196.44
364.788	200.44
365.015	194.44
365.241	199.44
365.468	200.44
365.694	208.44
365.92	184.44
366.147	191.44
366.373	211.44
366.599	197.44
366.826	207.44
367.052	200.44
367.278	198.44
367.505	212.44
367.731	191.44
367.957	191.44
368.184	186.44
368.41	211.44
368.636	184.44
368.862	205.44
369.089	204.44
369.315	208.44
369.541	202.44
369.767	200.44
369.993	205.44
370.219	206.44
370.445	197.44
370.672	205.44
370.898	192.44
371.124	193.44
371.35	206.44
371.576	193.44
371.802	176.44
372.028	205.44
372.254	201.44
372.48	207.44
372.706	187.44
372.932	190.44
373.158	199.44
373.384	200.44
373.61	212.44
373.835	202.44
374.061	189.44
374.287	184.44
374.513	204.44
374.739	183.44
374.965	195.44
375.191	207.44
375.416	204.44
375.642	199.44
375.868	203.44
376.094	206.44
376.319	198.44
376.545	192.44
376.771	200.44
376.997	181.44
377.222	193.44
377.448	202.44
377.674	185.44
377.899	183.44
378.125	188.44
378.35	196.44
378.576	181.44
378.802	189.44
379.027	200.44
379.253	201.44
379.478	183.44
379.704	191.44
379.929	198.44
380.155	205.44
380.38	199.44
380.606	195.44
380.831	202.44
381.057	199.44
381.282	189.44
381.507	200.44
381.733	207.44
381.958	199.44
382.184	197.44
382.409	186.44
382.634	190.44
382.86	191.44
383.085	196.44
383.31	193.44
383.535	198.44
383.761	196.44
383.986	196.44
384.211	195.44
384.436	201.44
384.662	217.44
384.887	211.44
385.112	189.44
385.337	207.44
385.562	198.44
385.787	216.44
386.013	214.44
386.238	190.44
386.463	216.44
386.688	214.44
386.913	191.44
387.138	219.44
387.363	213.44
387.588	204.44
387.813	219.44
388.038	223.44
388.263	232.44
388.488	219.44
388.713	230.44
388.938	220.44
389.163	214.44
389.387	195.44
389.612	193.44
389.837	207.44
390.062	191.44
390.287	204.44
390.512	204.44
390.736	222.44
390.961	199.44
391.186	209.44
391.411	212.44
391.636	213.44
391.86	205.44
392.085	210.44
392.31	213.44
392.534	203.44
392.759	209.44
392.984	207.44
393.208	209.44
393.433	223.44
393.658	220.44
393.882	206.44
394.107	217.44
394.331	216.44
394.556	222.44
394.78	216.44
395.005	208.44
395.229	199.44
395.454	211.44
395.678	212.44
395.903	226.44
396.127	214.44
396.352	228.44
396.576	211.44
396.801	225.44
397.025	206.44
397.249	214.44
397.474	229.44
397.698	233.44
397.922	221.44
398.147	245.44
398.371	227.44
398.595	220.44
398.82	230.44
399.044	237.44
399.268	264.44
399.492	250.44
399.717	280.44
399.941	278.44
400.165	281.44
400.389	286.44
400.613	248.44
400.837	238.44
401.062	245.44
401.286	219.44
401.51	243.44
401.734	221.44
401.958	236.44
402.182	244.44
402.406	269.44
402.63	251.44
402.854	243.44
403.078	239.44
403.302	245.44
403.526	250.44
403.75	256.44
403.974	241.44
404.198	248.44
404.422	254.44
404.645	243.44
404.869	259.44
405.093	248.44
405.317	266.44
405.541	278.44
405.765	254.44
405.988	252.44
406.212	252.44
406.436	266.44
406.66	289.44
406.883	254.44
407.107	267.44
407.331	294.44
407.555	307.44
407.778	311.44
408.002	279.44
408.226	258.44
408.449	267.44
408.673	264.44
408.896	284.44
409.12	283.44
409.344	292.44
409.567	272.44
409.791	253.44
410.014	248.44
410.238	254.44
410.461	247.44
410.685	246.44
410.908	236.44
411.132	252.44
411.355	274.44
411.578	243.44
411.802	243.44
412.025	246.44
412.249	259.44
412.472	240.44
412.695	264.44
412.919	286.44
413.142	248.44
413.365	248.44
413.589	231.44
413.812	253.44
414.035	245.44
414.258	238.44
414.482	233.44
414.705	227.44
414.928	209.44
415.151	237.44
415.374	220.44
415.597	233.44
415.821	226.44
416.044	246.44
416.267	244.44
416.49	230.44
416.713	228.44
416.936	242.44
417.159	225.44
417.382	226.44
417.605	247.44
417.828	240.44
418.051	253.44
418.274	261.44
418.497	247.44
418.72	230.44
418.943	233.44
419.166	224.44
419.389	235.44
419.611	255.44
419.834	245.44
420.057	250.44
420.28	257.44
420.503	241.44
420.726	224.44
420.948	243.44
421.171	275.44
421.394	270.44
421.617	231.44
421.839	248.44
422.062	238.44
422.285	251.44
422.507	291.44
422.73	293.44
422.953	291.44
423.175	280.44
423.398	251.44
423.621	257.44
423.843	262.44
424.066	266.44
424.288	277.44
424.511	261.44
424.733	283.44
424.956	309.44
425.178	316.44
425.401	303.44
425.623	313.44
425.846	284.44
426.068	261.44
426.291	259.44
426.513	239.44
426.735	257.44
426.958	278.44
427.18	303.44
427.402	348.44
427.625	389.44
427.847	356.44
428.069	337.44
428.292	269.44
428.514	255.44
428.736	253.44
428.958	248.44
429.181	236.44
429.403	252.44
429.625	242.44
429.847	274.44
430.069	272.44
430.292	289.44
430.514	249.44
430.736	224.44
430.958	224.44
431.18	235.44
431.402	224.44
431.624	208.44
431.846	221.44
432.068	222.44
432.29	221.44
432.512	222.44
432.734	229.44
432.956	215.44
433.178	251.44
433.4	251.44
433.622	252.44
433.844	242.44
434.066	229.44
434.287	225.44
434.509	237.44
434.731	236.44
434.953	244.44
435.175	262.44
435.397	255.44
435.618	251.44
435.84	282.44
436.062	319.44
436.284	322.44
436.505	277.44
436.727	249.44
436.949	257.44
437.17	228.44
437.392	243.44
437.614	245.44
437.835	271.44
438.057	305.44
438.278	331.44
438.5	329.44
438.721	362.44
438.943	325.44
439.165	293.44
439.386	263.44
439.608	268.44
439.829	245.44
440.05	265.44
440.272	288.44
440.493	269.44
440.715	265.44
440.936	253.44
441.158	250.44
441.379	250.44
441.6	255.44
441.822	274.44
442.043	283.44
442.264	313.44
442.486	315.44
442.707	270.44
442.928	264.44
443.149	268.44
443.371	275.44
443.592	286.44
443.813	315.44
444.034	334.44
444.255	287.44
444.476	270.44
444.698	274.44
444.919	257.44
445.14	345.44
445.361	289.44
445.582	280.44
445.803	313.44
446.024	337.44
446.245	351.44
446.466	313.44
446.687	266.44
446.908	240.44
447.129	238.44
447.35	240.44
447.571	232.44
447.792	244.44
448.013	240.44
448.234	247.44
448.455	268.44
448.675	298.44
448.896	341.44
449.117	299.44
449.338	283.44
449.559	322.44
449.779	376.44
450	300.44
450.221	231.44
450.442	235.44
450.662	231.44
450.883	247.44
451.104	230.44
451.324	247.44
451.545	230.44
451.766	221.44
451.986	229.44
452.207	227.44
452.428	208.44
452.648	206.44
452.869	205.44
453.089	238.44
453.31	233.44
453.53	233.44
453.751	216.44
453.971	225.44
454.192	227.44
454.412	227.44
454.633	223.44
454.853	214.44
455.073	211.44
455.294	227.44
455.514	273.44
455.734	252.44
455.955	219.44
456.175	208.44
456.395	195.44
456.616	216.44
456.836	215.44
457.056	226.44
457.276	215.44
457.497	204.44
457.717	213.44
457.937	200.44
458.157	222.44
458.377	219.44
458.598	225.44
458.818	260.44
459.038	317.44
459.258	311.44
459.478	259.44
459.698	237.44
459.918	236.44
460.138	234.44
460.358	245.44
460.578	236.44
460.798	216.44
461.018	232.44
461.238	229.44
461.458	243.44
461.678	243.44
461.898	255.44
462.118	234.44
462.338	231.44
462.558	233.44
462.777	265.44
462.997	258.44
463.217	260.44
463.437	254.44
463.657	259.44
463.876	243.44
464.096	238.44
464.316	233.44
464.536	240.44
464.755	258.44
464.975	263.44
465.195	287.44
465.414	313.44
465.634	279.44
465.854	247.44
466.073	246.44
466.293	235.44
466.512	218.44
466.732	239.44
466.951	212.44
467.171	219.44
467.391	215.44
467.61	229.44
467.829	248.44
468.049	227.44
468.268	241.44
468.488	228.44
468.707	232.44
468.927	227.44
469.146	231.44
469.365	215.44
469.585	224.44
469.804	226.44
470.023	251.44
470.243	240.44
470.462	226.44
470.681	229.44
470.901	244.44
471.12	237.44
471.339	213.44
471.558	228.44
471.777	254.44
471.997	225.44
472.216	217.44
472.435	264.44
472.654	247.44
472.873	205.44
473.092	213.44
473.311	234.44
473.53	226.44
473.749	230.44
473.968	250.44
474.187	282.44
474.406	288.44
474.625	243.44
474.844	231.44
475.063	224.44
475.282	212.44
475.501	227.44
475.72	214.44
475.939	234.44
476.158	227.44
476.377	237.44
476.596	237.44
476.814	246.44
477.033	233.44
477.252	237.44
477.471	250.44
477.69	243.44
477.908	242.44
478.127	245.44
478.346	238.44
478.564	238.44
478.783	240.44
479.002	233.44
479.22	251.44
479.439	271.44
479.658	251.44
479.876	274.44
480.095	276.44
480.313	275.44
480.532	289.44
480.751	291.44
480.969	284.44
481.188	315.44
481.406	340.44
481.624	299.44
481.843	265.44
482.061	271.44
482.28	276.44
482.498	250.44
482.717	254.44
482.935	265.44
483.153	255.44
483.372	252.44
483.59	258.44
483.808	259.44
484.027	255.44
484.245	246.44
484.463	264.44
484.681	274.44
484.9	279.44
485.118	269.44
485.336	260.44
485.554	277.44
485.772	269.44
485.99	281.44
486.209	285.44
486.427	270.44
486.645	267.44
486.863	297.44
487.081	286.44
487.299	272.44
487.517	273.44
487.735	271.44
487.953	282.44
488.171	277.44
488.389	281.44
488.607	272.44
488.825	284.44
489.043	283.44
489.261	295.44
489.479	282.44
489.696	276.44
489.914	293.44
490.132	290.44
490.35	297.44
490.568	287.44
490.786	295.44
491.003	313.44
491.221	302.44
491.439	321.44
491.657	328.44
491.874	319.44
492.092	324.44
492.31	334.44
492.527	334.44
492.745	334.44
492.963	330.44
493.18	332.44
493.398	319.44
493.615	327.44
493.833	335.44
494.05	327.44
494.268	317.44
494.485	339.44
494.703	330.44
494.92	320.44
495.138	307.44
495.355	315.44
495.573	343.44
495.79	317.44
496.008	324.44
496.225	318.44
496.442	307.44
496.66	313.44
496.877	301.44
497.094	318.44
497.312	314.44
497.529	329.44
497.746	334.44
497.963	329.44
498.181	342.44
498.398	342.44
498.615	350.44
498.832	315.44
499.049	328.44
499.267	353.44
499.484	367.44
499.701	379.44
499.918	380.44
500.135	405.44
500.352	423.44
500.569	428.44
500.786	420.44
501.003	409.44
501.22	409.44
501.437	419.44
501.654	392.44
501.871	391.44
502.088	377.44
502.305	357.44
502.522	348.44
