Data from 1966.PennyLincolnUp.Lamp.En5.5.200Scan.071719.P1._HRD10591_14-13-20-913.txt Node
Date: Thu Jul 18 14:13:20 EDT 2019
User: cochatt
Spectrometer: HR+D1059
Trigger mode: 1
Integration Time (sec): 1.000000E-1
Scans to average: 1
Electric dark correction enabled: true
Nonlinearity correction enabled: false
Boxcar width: 0
XAxis mode: Wavelengths
Number of Pixels in Spectrum: 2048
>>>>>Begin Spectral Data<<<<<
223.165	-12.06
223.4	-12.06
223.635	-12.06
223.869	-21.06
224.104	-20.06
224.338	-16.06
224.573	-15.06
224.808	-23.06
225.042	0.94
225.277	-11.06
225.511	4.94
225.746	-10.06
225.98	4.94
226.215	9.94
226.449	26.94
226.683	20.94
226.918	28.94
227.152	30.94
227.387	27.94
227.621	33.94
227.856	38.94
228.09	45.94
228.324	54.94
228.559	53.94
228.793	59.94
229.027	85.94
229.262	81.94
229.496	85.94
229.73	105.94
229.964	120.94
230.199	89.94
230.433	91.94
230.667	89.94
230.901	81.94
231.136	89.94
231.37	99.94
231.604	99.94
231.838	93.94
232.072	86.94
232.306	104.94
232.541	96.94
232.775	105.94
233.009	98.94
233.243	100.94
233.477	99.94
233.711	99.94
233.945	99.94
234.179	89.94
234.413	101.94
234.647	95.94
234.881	94.94
235.115	108.94
235.349	97.94
235.583	91.94
235.817	88.94
236.051	73.94
236.285	88.94
236.519	102.94
236.753	95.94
236.987	106.94
237.221	116.94
237.455	142.94
237.689	120.94
237.922	94.94
238.156	101.94
238.39	86.94
238.624	95.94
238.858	94.94
239.091	91.94
239.325	89.94
239.559	93.94
239.793	90.94
240.027	112.94
240.26	102.94
240.494	118.94
240.728	121.94
240.961	108.94
241.195	97.94
241.429	105.94
241.662	107.94
241.896	90.94
242.13	95.94
242.363	98.94
242.597	107.94
242.83	101.94
243.064	107.94
243.298	94.94
243.531	95.94
243.765	96.94
243.998	109.94
244.232	102.94
244.465	100.94
244.699	102.94
244.932	99.94
245.166	103.94
245.399	104.94
245.633	93.94
245.866	99.94
246.099	97.94
246.333	92.94
246.566	105.94
246.8	103.94
247.033	117.94
247.266	122.94
247.5	119.94
247.733	119.94
247.966	121.94
248.2	113.94
248.433	111.94
248.666	120.94
248.899	117.94
249.133	140.94
249.366	136.94
249.599	120.94
249.832	104.94
250.066	121.94
250.299	124.94
250.532	124.94
250.765	125.94
250.998	133.94
251.231	150.94
251.465	139.94
251.698	132.94
251.931	123.94
252.164	117.94
252.397	126.94
252.63	115.94
252.863	125.94
253.096	137.94
253.329	138.94
253.562	128.94
253.795	132.94
254.028	141.94
254.261	132.94
254.494	135.94
254.727	156.94
254.96	174.94
255.193	161.94
255.426	124.94
255.659	136.94
255.892	142.94
256.124	137.94
256.357	141.94
256.59	136.94
256.823	134.94
257.056	124.94
257.289	126.94
257.521	122.94
257.754	122.94
257.987	141.94
258.22	121.94
258.452	137.94
258.685	121.94
258.918	137.94
259.151	126.94
259.383	134.94
259.616	116.94
259.849	148.94
260.081	138.94
260.314	171.94
260.547	159.94
260.779	134.94
261.012	131.94
261.244	156.94
261.477	144.94
261.71	142.94
261.942	125.94
262.175	152.94
262.407	138.94
262.64	116.94
262.872	124.94
263.105	119.94
263.337	141.94
263.57	132.94
263.802	132.94
264.035	118.94
264.267	130.94
264.499	136.94
264.732	138.94
264.964	126.94
265.197	136.94
265.429	136.94
265.661	134.94
265.894	130.94
266.126	128.94
266.358	135.94
266.591	126.94
266.823	130.94
267.055	149.94
267.287	131.94
267.52	141.94
267.752	147.94
267.984	137.94
268.216	127.94
268.448	142.94
268.681	135.94
268.913	138.94
269.145	163.94
269.377	136.94
269.609	152.94
269.841	163.94
270.073	158.94
270.306	162.94
270.538	184.94
270.77	174.94
271.002	174.94
271.234	169.94
271.466	173.94
271.698	169.94
271.93	182.94
272.162	183.94
272.394	173.94
272.626	162.94
272.858	162.94
273.09	147.94
273.322	156.94
273.553	159.94
273.785	153.94
274.017	152.94
274.249	163.94
274.481	137.94
274.713	147.94
274.945	152.94
275.176	155.94
275.408	177.94
275.64	152.94
275.872	164.94
276.104	146.94
276.335	145.94
276.567	157.94
276.799	150.94
277.031	178.94
277.262	168.94
277.494	188.94
277.726	171.94
277.957	169.94
278.189	158.94
278.421	153.94
278.652	144.94
278.884	149.94
279.115	145.94
279.347	148.94
279.579	152.94
279.81	145.94
280.042	150.94
280.273	139.94
280.505	153.94
280.736	161.94
280.968	134.94
281.199	165.94
281.431	153.94
281.662	167.94
281.894	165.94
282.125	154.94
282.356	173.94
282.588	179.94
282.819	173.94
283.051	156.94
283.282	151.94
283.513	162.94
283.745	168.94
283.976	148.94
284.207	151.94
284.439	153.94
284.67	168.94
284.901	162.94
285.132	171.94
285.364	148.94
285.595	171.94
285.826	165.94
286.057	167.94
286.288	147.94
286.52	145.94
286.751	146.94
286.982	162.94
287.213	152.94
287.444	160.94
287.675	160.94
287.906	158.94
288.138	173.94
288.369	174.94
288.6	182.94
288.831	163.94
289.062	188.94
289.293	162.94
289.524	151.94
289.755	154.94
289.986	164.94
290.217	156.94
290.448	159.94
290.679	172.94
290.91	146.94
291.141	163.94
291.371	158.94
291.602	153.94
291.833	162.94
292.064	160.94
292.295	173.94
292.526	168.94
292.757	160.94
292.987	157.94
293.218	173.94
293.449	156.94
293.68	168.94
293.91	168.94
294.141	178.94
294.372	162.94
294.603	166.94
294.833	168.94
295.064	174.94
295.295	164.94
295.525	163.94
295.756	166.94
295.987	172.94
296.217	177.94
296.448	191.94
296.679	193.94
296.909	169.94
297.14	150.94
297.37	167.94
297.601	176.94
297.831	173.94
298.062	167.94
298.292	161.94
298.523	172.94
298.753	167.94
298.984	158.94
299.214	155.94
299.445	185.94
299.675	166.94
299.905	169.94
300.136	164.94
300.366	160.94
300.597	178.94
300.827	185.94
301.057	181.94
301.288	185.94
301.518	177.94
301.748	169.94
301.979	182.94
302.209	173.94
302.439	180.94
302.669	173.94
302.9	176.94
303.13	184.94
303.36	179.94
303.59	184.94
303.82	203.94
304.051	168.94
304.281	180.94
304.511	181.94
304.741	174.94
304.971	167.94
305.201	176.94
305.431	174.94
305.661	172.94
305.891	163.94
306.121	172.94
306.352	174.94
306.582	190.94
306.812	200.94
307.042	176.94
307.272	185.94
307.502	195.94
307.731	198.94
307.961	165.94
308.191	161.94
308.421	170.94
308.651	194.94
308.881	185.94
309.111	177.94
309.341	168.94
309.571	194.94
309.8	190.94
310.03	191.94
310.26	192.94
310.49	198.94
310.72	204.94
310.949	206.94
311.179	217.94
311.409	205.94
311.639	191.94
311.868	196.94
312.098	197.94
312.328	217.94
312.557	209.94
312.787	220.94
313.017	220.94
313.246	209.94
313.476	186.94
313.706	199.94
313.935	211.94
314.165	203.94
314.394	188.94
314.624	222.94
314.853	211.94
315.083	185.94
315.312	205.94
315.542	187.94
315.771	194.94
316.001	188.94
316.23	185.94
316.46	204.94
316.689	179.94
316.919	200.94
317.148	198.94
317.377	219.94
317.607	197.94
317.836	202.94
318.065	204.94
318.295	187.94
318.524	193.94
318.753	196.94
318.983	197.94
319.212	198.94
319.441	198.94
319.67	197.94
319.9	201.94
320.129	211.94
320.358	207.94
320.587	204.94
320.816	210.94
321.046	196.94
321.275	211.94
321.504	194.94
321.733	208.94
321.962	201.94
322.191	226.94
322.42	220.94
322.649	234.94
322.878	225.94
323.108	243.94
323.337	227.94
323.566	237.94
323.795	272.94
324.024	276.94
324.253	336.94
324.482	476.94
324.71	727.94
324.939	961.94
325.168	792.94
325.397	416.94
325.626	288.94
325.855	261.94
326.084	254.94
326.313	251.94
326.542	224.94
326.77	270.94
326.999	328.94
327.228	440.94
327.457	631.94
327.686	727.94
327.914	464.94
328.143	346.94
328.372	290.94
328.6	300.94
328.829	282.94
329.058	283.94
329.287	284.94
329.515	279.94
329.744	258.94
329.972	272.94
330.201	273.94
330.43	277.94
330.658	307.94
330.887	312.94
331.115	315.94
331.344	266.94
331.572	245.94
331.801	245.94
332.03	259.94
332.258	250.94
332.486	227.94
332.715	243.94
332.943	231.94
333.172	236.94
333.4	221.94
333.629	245.94
333.857	221.94
334.085	253.94
334.314	254.94
334.542	282.94
334.771	314.94
334.999	266.94
335.227	251.94
335.455	233.94
335.684	223.94
335.912	244.94
336.14	235.94
336.369	223.94
336.597	244.94
336.825	244.94
337.053	220.94
337.281	216.94
337.51	220.94
337.738	224.94
337.966	205.94
338.194	228.94
338.422	228.94
338.65	228.94
338.878	198.94
339.106	219.94
339.334	222.94
339.562	219.94
339.79	210.94
340.018	221.94
340.246	221.94
340.474	226.94
340.702	217.94
340.93	222.94
341.158	199.94
341.386	224.94
341.614	225.94
341.842	216.94
342.07	211.94
342.298	219.94
342.526	215.94
342.754	225.94
342.981	214.94
343.209	212.94
343.437	197.94
343.665	205.94
343.893	221.94
344.12	227.94
344.348	232.94
344.576	227.94
344.804	233.94
345.031	238.94
345.259	241.94
345.487	236.94
345.714	215.94
345.942	217.94
346.17	231.94
346.397	231.94
346.625	208.94
346.853	226.94
347.08	203.94
347.308	216.94
347.535	209.94
347.763	227.94
347.99	233.94
348.218	222.94
348.445	231.94
348.673	224.94
348.9	214.94
349.128	222.94
349.355	209.94
349.583	195.94
349.81	217.94
350.037	204.94
350.265	203.94
350.492	204.94
350.72	186.94
350.947	201.94
351.174	224.94
351.402	200.94
351.629	209.94
351.856	213.94
352.083	224.94
352.311	224.94
352.538	216.94
352.765	214.94
352.992	217.94
353.22	219.94
353.447	221.94
353.674	214.94
353.901	203.94
354.128	210.94
354.355	201.94
354.583	195.94
354.81	185.94
355.037	194.94
355.264	193.94
355.491	188.94
355.718	202.94
355.945	200.94
356.172	213.94
356.399	199.94
356.626	195.94
356.853	206.94
357.08	187.94
357.307	205.94
357.534	190.94
357.761	188.94
357.988	199.94
358.215	189.94
358.441	191.94
358.668	212.94
358.895	212.94
359.122	200.94
359.349	214.94
359.576	217.94
359.802	223.94
360.029	246.94
360.256	222.94
360.483	220.94
360.709	208.94
360.936	219.94
361.163	230.94
361.39	221.94
361.616	215.94
361.843	203.94
362.07	213.94
362.296	208.94
362.523	225.94
362.749	223.94
362.976	219.94
363.203	204.94
363.429	198.94
363.656	190.94
363.882	199.94
364.109	226.94
364.335	201.94
364.562	194.94
364.788	188.94
365.015	215.94
365.241	210.94
365.468	209.94
365.694	214.94
365.92	205.94
366.147	193.94
366.373	210.94
366.599	189.94
366.826	192.94
367.052	195.94
367.278	201.94
367.505	180.94
367.731	185.94
367.957	193.94
368.184	182.94
368.41	202.94
368.636	210.94
368.862	197.94
369.089	193.94
369.315	201.94
369.541	200.94
369.767	219.94
369.993	202.94
370.219	197.94
370.445	185.94
370.672	192.94
370.898	200.94
371.124	212.94
371.35	197.94
371.576	202.94
371.802	192.94
372.028	196.94
372.254	201.94
372.48	189.94
372.706	189.94
372.932	185.94
373.158	199.94
373.384	189.94
373.61	205.94
373.835	205.94
374.061	185.94
374.287	209.94
374.513	204.94
374.739	201.94
374.965	203.94
375.191	211.94
375.416	205.94
375.642	193.94
375.868	199.94
376.094	188.94
376.319	203.94
376.545	189.94
376.771	200.94
376.997	199.94
377.222	204.94
377.448	186.94
377.674	195.94
377.899	185.94
378.125	194.94
378.35	194.94
378.576	199.94
378.802	200.94
379.027	201.94
379.253	195.94
379.478	206.94
379.704	194.94
379.929	194.94
380.155	203.94
380.38	180.94
380.606	195.94
380.831	196.94
381.057	204.94
381.282	184.94
381.507	213.94
381.733	212.94
381.958	215.94
382.184	189.94
382.409	207.94
382.634	200.94
382.86	219.94
383.085	207.94
383.31	205.94
383.535	213.94
383.761	193.94
383.986	200.94
384.211	217.94
384.436	201.94
384.662	219.94
384.887	205.94
385.112	213.94
385.337	202.94
385.562	212.94
385.787	214.94
386.013	213.94
386.238	229.94
386.463	212.94
386.688	203.94
386.913	213.94
387.138	213.94
387.363	200.94
387.588	221.94
387.813	213.94
388.038	204.94
388.263	197.94
388.488	217.94
388.713	240.94
388.938	210.94
389.163	222.94
389.387	204.94
389.612	212.94
389.837	209.94
390.062	220.94
390.287	205.94
390.512	213.94
390.736	223.94
390.961	206.94
391.186	216.94
391.411	218.94
391.636	209.94
391.86	228.94
392.085	213.94
392.31	217.94
392.534	222.94
392.759	214.94
392.984	219.94
393.208	214.94
393.433	211.94
393.658	216.94
393.882	228.94
394.107	214.94
394.331	215.94
394.556	201.94
394.78	223.94
395.005	215.94
395.229	211.94
395.454	213.94
395.678	224.94
395.903	213.94
396.127	225.94
396.352	220.94
396.576	220.94
396.801	215.94
397.025	225.94
397.249	219.94
397.474	225.94
397.698	220.94
397.922	211.94
398.147	231.94
398.371	216.94
398.595	213.94
398.82	232.94
399.044	230.94
399.268	265.94
399.492	248.94
399.717	276.94
399.941	294.94
400.165	280.94
400.389	289.94
400.613	270.94
400.837	250.94
401.062	242.94
401.286	240.94
401.51	225.94
401.734	240.94
401.958	235.94
402.182	258.94
402.406	243.94
402.63	270.94
402.854	252.94
403.078	248.94
403.302	249.94
403.526	233.94
403.75	226.94
403.974	247.94
404.198	245.94
404.422	255.94
404.645	266.94
404.869	242.94
405.093	270.94
405.317	268.94
405.541	285.94
405.765	264.94
405.988	244.94
406.212	267.94
406.436	298.94
406.66	292.94
406.883	274.94
407.107	282.94
407.331	301.94
407.555	338.94
407.778	312.94
408.002	291.94
408.226	270.94
408.449	247.94
408.673	265.94
408.896	295.94
409.12	293.94
409.344	282.94
409.567	269.94
409.791	224.94
410.014	267.94
410.238	240.94
410.461	250.94
410.685	249.94
410.908	247.94
411.132	272.94
411.355	284.94
411.578	266.94
411.802	236.94
412.025	238.94
412.249	243.94
412.472	258.94
412.695	274.94
412.919	287.94
413.142	233.94
413.365	247.94
413.589	252.94
413.812	238.94
414.035	227.94
414.258	233.94
414.482	233.94
414.705	240.94
414.928	237.94
415.151	225.94
415.374	240.94
415.597	230.94
415.821	244.94
416.044	229.94
416.267	262.94
416.49	233.94
416.713	230.94
416.936	224.94
417.159	232.94
417.382	228.94
417.605	251.94
417.828	250.94
418.051	233.94
418.274	263.94
418.497	228.94
418.72	239.94
418.943	237.94
419.166	252.94
419.389	262.94
419.611	232.94
419.834	261.94
420.057	255.94
420.28	255.94
420.503	253.94
420.726	256.94
420.948	266.94
421.171	264.94
421.394	293.94
421.617	253.94
421.839	258.94
422.062	268.94
422.285	241.94
422.507	276.94
422.73	312.94
422.953	305.94
423.175	269.94
423.398	251.94
423.621	243.94
423.843	273.94
424.066	265.94
424.288	255.94
424.511	286.94
424.733	298.94
424.956	320.94
425.178	324.94
425.401	308.94
425.623	315.94
425.846	288.94
426.068	261.94
426.291	241.94
426.513	273.94
426.735	265.94
426.958	300.94
427.18	317.94
427.402	356.94
427.625	410.94
427.847	359.94
428.069	291.94
428.292	279.94
428.514	253.94
428.736	258.94
428.958	260.94
429.181	243.94
429.403	228.94
429.625	237.94
429.847	256.94
430.069	279.94
430.292	278.94
430.514	256.94
430.736	233.94
430.958	237.94
431.18	244.94
431.402	233.94
431.624	236.94
431.846	228.94
432.068	255.94
432.29	236.94
432.512	235.94
432.734	261.94
432.956	257.94
433.178	247.94
433.4	245.94
433.622	234.94
433.844	237.94
434.066	235.94
434.287	238.94
434.509	237.94
434.731	246.94
434.953	243.94
435.175	242.94
435.397	256.94
435.618	265.94
435.84	276.94
436.062	292.94
436.284	358.94
436.505	295.94
436.727	278.94
436.949	238.94
437.17	264.94
437.392	238.94
437.614	255.94
437.835	291.94
438.057	318.94
438.278	346.94
438.5	329.94
438.721	359.94
438.943	334.94
439.165	278.94
439.386	265.94
439.608	275.94
439.829	273.94
440.05	289.94
440.272	299.94
440.493	289.94
440.715	281.94
440.936	246.94
441.158	247.94
441.379	243.94
441.6	238.94
441.822	260.94
442.043	290.94
442.264	308.94
442.486	316.94
442.707	269.94
442.928	283.94
443.149	269.94
443.371	299.94
443.592	311.94
443.813	324.94
444.034	356.94
444.255	291.94
444.476	276.94
444.698	253.94
444.919	278.94
445.14	352.94
445.361	296.94
445.582	278.94
445.803	320.94
446.024	351.94
446.245	371.94
446.466	302.94
446.687	290.94
446.908	260.94
447.129	259.94
447.35	235.94
447.571	244.94
447.792	244.94
448.013	242.94
448.234	259.94
448.455	290.94
448.675	330.94
448.896	380.94
449.117	317.94
449.338	292.94
449.559	344.94
449.779	386.94
450	289.94
450.221	272.94
450.442	236.94
450.662	255.94
450.883	240.94
451.104	258.94
451.324	248.94
451.545	228.94
451.766	229.94
451.986	228.94
452.207	212.94
452.428	232.94
452.648	226.94
452.869	219.94
453.089	230.94
453.31	244.94
453.53	227.94
453.751	219.94
453.971	228.94
454.192	246.94
454.412	233.94
454.633	213.94
454.853	229.94
455.073	230.94
455.294	226.94
455.514	264.94
455.734	262.94
455.955	208.94
456.175	215.94
456.395	213.94
456.616	220.94
456.836	208.94
457.056	202.94
457.276	201.94
457.497	208.94
457.717	223.94
457.937	210.94
458.157	208.94
458.377	213.94
458.598	240.94
458.818	260.94
459.038	312.94
459.258	288.94
459.478	245.94
459.698	218.94
459.918	253.94
460.138	244.94
460.358	236.94
460.578	231.94
460.798	248.94
461.018	240.94
461.238	248.94
461.458	225.94
461.678	224.94
461.898	232.94
462.118	244.94
462.338	253.94
462.558	249.94
462.777	254.94
462.997	265.94
463.217	259.94
463.437	256.94
463.657	259.94
463.876	242.94
464.096	257.94
464.316	254.94
464.536	259.94
464.755	253.94
464.975	263.94
465.195	310.94
465.414	334.94
465.634	291.94
465.854	240.94
466.073	230.94
466.293	226.94
466.512	235.94
466.732	231.94
466.951	228.94
467.171	229.94
467.391	249.94
467.61	240.94
467.829	233.94
468.049	225.94
468.268	257.94
468.488	224.94
468.707	219.94
468.927	229.94
469.146	220.94
469.365	230.94
469.585	241.94
469.804	240.94
470.023	228.94
470.243	232.94
470.462	250.94
470.681	243.94
470.901	241.94
471.12	224.94
471.339	243.94
471.558	240.94
471.777	247.94
471.997	206.94
472.216	242.94
472.435	265.94
472.654	244.94
472.873	228.94
473.092	228.94
473.311	222.94
473.53	242.94
473.749	246.94
473.968	270.94
474.187	299.94
474.406	307.94
474.625	240.94
474.844	245.94
475.063	233.94
475.282	213.94
475.501	224.94
475.72	222.94
475.939	231.94
476.158	230.94
476.377	228.94
476.596	222.94
476.814	230.94
477.033	242.94
477.252	260.94
477.471	241.94
477.69	258.94
477.908	244.94
478.127	253.94
478.346	251.94
478.564	241.94
478.783	259.94
479.002	266.94
479.22	267.94
479.439	280.94
479.658	263.94
479.876	285.94
480.095	267.94
480.313	290.94
480.532	289.94
480.751	284.94
480.969	280.94
481.188	332.94
481.406	375.94
481.624	290.94
481.843	290.94
482.061	277.94
482.28	256.94
482.498	262.94
482.717	247.94
482.935	252.94
483.153	273.94
483.372	245.94
483.59	256.94
483.808	265.94
484.027	269.94
484.245	268.94
484.463	270.94
484.681	271.94
484.9	261.94
485.118	260.94
485.336	296.94
485.554	261.94
485.772	266.94
485.99	288.94
486.209	271.94
486.427	269.94
486.645	289.94
486.863	290.94
487.081	302.94
487.299	282.94
487.517	279.94
487.735	270.94
487.953	291.94
488.171	281.94
488.389	283.94
488.607	298.94
488.825	289.94
489.043	277.94
489.261	283.94
489.479	296.94
489.696	280.94
489.914	292.94
490.132	274.94
490.35	307.94
490.568	314.94
490.786	306.94
491.003	307.94
491.221	328.94
491.439	322.94
491.657	327.94
491.874	331.94
492.092	330.94
492.31	329.94
492.527	328.94
492.745	347.94
492.963	340.94
493.18	346.94
493.398	352.94
493.615	343.94
493.833	348.94
494.05	333.94
494.268	333.94
494.485	329.94
494.703	330.94
494.92	320.94
495.138	322.94
495.355	321.94
495.573	332.94
495.79	334.94
496.008	323.94
496.225	324.94
496.442	327.94
496.66	295.94
496.877	313.94
497.094	331.94
497.312	347.94
497.529	353.94
497.746	345.94
497.963	336.94
498.181	333.94
498.398	342.94
498.615	354.94
498.832	357.94
499.049	357.94
499.267	361.94
499.484	389.94
499.701	392.94
499.918	396.94
500.135	412.94
500.352	438.94
500.569	443.94
500.786	439.94
501.003	416.94
501.22	426.94
501.437	405.94
501.654	413.94
501.871	399.94
502.088	390.94
502.305	372.94
502.522	361.94
