Data from 1966.PennyLincolnUp.Lamp.En5.5.200Scan.071719.P1._HRD10591_14-14-16-914.txt Node
Date: Thu Jul 18 14:14:16 EDT 2019
User: cochatt
Spectrometer: HR+D1059
Trigger mode: 1
Integration Time (sec): 1.000000E-1
Scans to average: 1
Electric dark correction enabled: true
Nonlinearity correction enabled: false
Boxcar width: 0
XAxis mode: Wavelengths
Number of Pixels in Spectrum: 2048
>>>>>Begin Spectral Data<<<<<
223.165	-26.69
223.4	-26.69
223.635	-26.69
223.869	4.31
224.104	-19.69
224.338	-7.69
224.573	-8.69
224.808	-11.69
225.042	-9.69
225.277	-13.69
225.511	1.31
225.746	14.31
225.98	13.31
226.215	5.31
226.449	5.31
226.683	10.31
226.918	25.31
227.152	18.31
227.387	12.31
227.621	20.31
227.856	41.31
228.09	39.31
228.324	39.31
228.559	52.31
228.793	61.31
229.027	76.31
229.262	85.31
229.496	83.31
229.73	95.31
229.964	105.31
230.199	105.31
230.433	83.31
230.667	88.31
230.901	91.31
231.136	95.31
231.37	94.31
231.604	92.31
231.838	94.31
232.072	102.31
232.306	89.31
232.541	85.31
232.775	90.31
233.009	94.31
233.243	87.31
233.477	85.31
233.711	83.31
233.945	82.31
234.179	85.31
234.413	82.31
234.647	99.31
234.881	87.31
235.115	88.31
235.349	104.31
235.583	86.31
235.817	93.31
236.051	96.31
236.285	88.31
236.519	99.31
236.753	102.31
236.987	109.31
237.221	123.31
237.455	157.31
237.689	117.31
237.922	103.31
238.156	103.31
238.39	93.31
238.624	110.31
238.858	106.31
239.091	100.31
239.325	86.31
239.559	87.31
239.793	94.31
240.027	100.31
240.26	94.31
240.494	104.31
240.728	104.31
240.961	97.31
241.195	107.31
241.429	94.31
241.662	102.31
241.896	102.31
242.13	98.31
242.363	89.31
242.597	113.31
242.83	104.31
243.064	91.31
243.298	110.31
243.531	88.31
243.765	91.31
243.998	101.31
244.232	104.31
244.465	115.31
244.699	115.31
244.932	105.31
245.166	95.31
245.399	118.31
245.633	104.31
245.866	99.31
246.099	97.31
246.333	118.31
246.566	106.31
246.8	103.31
247.033	115.31
247.266	109.31
247.5	106.31
247.733	106.31
247.966	109.31
248.2	107.31
248.433	114.31
248.666	117.31
248.899	127.31
249.133	131.31
249.366	135.31
249.599	137.31
249.832	119.31
250.066	131.31
250.299	120.31
250.532	132.31
250.765	148.31
250.998	166.31
251.231	142.31
251.465	135.31
251.698	131.31
251.931	132.31
252.164	122.31
252.397	110.31
252.63	147.31
252.863	131.31
253.096	128.31
253.329	143.31
253.562	144.31
253.795	135.31
254.028	143.31
254.261	141.31
254.494	151.31
254.727	162.31
254.96	170.31
255.193	156.31
255.426	148.31
255.659	140.31
255.892	139.31
256.124	145.31
256.357	148.31
256.59	151.31
256.823	127.31
257.056	129.31
257.289	122.31
257.521	113.31
257.754	147.31
257.987	143.31
258.22	121.31
258.452	135.31
258.685	134.31
258.918	130.31
259.151	132.31
259.383	133.31
259.616	138.31
259.849	142.31
260.081	144.31
260.314	148.31
260.547	148.31
260.779	145.31
261.012	150.31
261.244	139.31
261.477	139.31
261.71	143.31
261.942	145.31
262.175	134.31
262.407	151.31
262.64	126.31
262.872	139.31
263.105	127.31
263.337	131.31
263.57	134.31
263.802	116.31
264.035	136.31
264.267	129.31
264.499	136.31
264.732	137.31
264.964	137.31
265.197	118.31
265.429	137.31
265.661	138.31
265.894	148.31
266.126	126.31
266.358	125.31
266.591	136.31
266.823	138.31
267.055	136.31
267.287	139.31
267.52	125.31
267.752	143.31
267.984	145.31
268.216	139.31
268.448	144.31
268.681	154.31
268.913	166.31
269.145	155.31
269.377	158.31
269.609	161.31
269.841	165.31
270.073	155.31
270.306	175.31
270.538	188.31
270.77	189.31
271.002	175.31
271.234	177.31
271.466	171.31
271.698	186.31
271.93	185.31
272.162	194.31
272.394	190.31
272.626	167.31
272.858	165.31
273.09	145.31
273.322	157.31
273.553	157.31
273.785	166.31
274.017	149.31
274.249	140.31
274.481	146.31
274.713	166.31
274.945	169.31
275.176	164.31
275.408	154.31
275.64	149.31
275.872	154.31
276.104	144.31
276.335	164.31
276.567	166.31
276.799	178.31
277.031	188.31
277.262	187.31
277.494	193.31
277.726	178.31
277.957	170.31
278.189	174.31
278.421	152.31
278.652	172.31
278.884	154.31
279.115	163.31
279.347	168.31
279.579	150.31
279.81	143.31
280.042	157.31
280.273	161.31
280.505	173.31
280.736	145.31
280.968	162.31
281.199	168.31
281.431	179.31
281.662	157.31
281.894	167.31
282.125	161.31
282.356	167.31
282.588	166.31
282.819	197.31
283.051	163.31
283.282	162.31
283.513	163.31
283.745	183.31
283.976	175.31
284.207	165.31
284.439	163.31
284.67	162.31
284.901	155.31
285.132	151.31
285.364	161.31
285.595	151.31
285.826	153.31
286.057	174.31
286.288	152.31
286.52	164.31
286.751	156.31
286.982	175.31
287.213	161.31
287.444	161.31
287.675	166.31
287.906	187.31
288.138	174.31
288.369	173.31
288.6	195.31
288.831	170.31
289.062	167.31
289.293	167.31
289.524	165.31
289.755	171.31
289.986	173.31
290.217	173.31
290.448	172.31
290.679	178.31
290.91	161.31
291.141	162.31
291.371	168.31
291.602	162.31
291.833	161.31
292.064	169.31
292.295	164.31
292.526	183.31
292.757	174.31
292.987	161.31
293.218	189.31
293.449	147.31
293.68	172.31
293.91	166.31
294.141	173.31
294.372	172.31
294.603	173.31
294.833	167.31
295.064	172.31
295.295	157.31
295.525	181.31
295.756	154.31
295.987	185.31
296.217	195.31
296.448	189.31
296.679	175.31
296.909	163.31
297.14	174.31
297.37	180.31
297.601	175.31
297.831	159.31
298.062	189.31
298.292	174.31
298.523	177.31
298.753	184.31
298.984	171.31
299.214	165.31
299.445	165.31
299.675	173.31
299.905	185.31
300.136	173.31
300.366	167.31
300.597	173.31
300.827	184.31
301.057	191.31
301.288	155.31
301.518	204.31
301.748	190.31
301.979	191.31
302.209	162.31
302.439	196.31
302.669	202.31
302.9	189.31
303.13	191.31
303.36	191.31
303.59	193.31
303.82	195.31
304.051	197.31
304.281	183.31
304.511	201.31
304.741	179.31
304.971	179.31
305.201	188.31
305.431	182.31
305.661	188.31
305.891	194.31
306.121	184.31
306.352	184.31
306.582	191.31
306.812	187.31
307.042	195.31
307.272	188.31
307.502	169.31
307.731	183.31
307.961	201.31
308.191	185.31
308.421	183.31
308.651	183.31
308.881	184.31
309.111	188.31
309.341	181.31
309.571	194.31
309.8	206.31
310.03	205.31
310.26	214.31
310.49	207.31
310.72	225.31
310.949	221.31
311.179	227.31
311.409	198.31
311.639	191.31
311.868	204.31
312.098	212.31
312.328	220.31
312.557	226.31
312.787	203.31
313.017	212.31
313.246	213.31
313.476	200.31
313.706	196.31
313.935	217.31
314.165	216.31
314.394	220.31
314.624	212.31
314.853	206.31
315.083	214.31
315.312	199.31
315.542	204.31
315.771	198.31
316.001	188.31
316.23	206.31
316.46	203.31
316.689	197.31
316.919	207.31
317.148	206.31
317.377	208.31
317.607	204.31
317.836	229.31
318.065	214.31
318.295	203.31
318.524	203.31
318.753	210.31
318.983	210.31
319.212	208.31
319.441	203.31
319.67	209.31
319.9	208.31
320.129	203.31
320.358	196.31
320.587	195.31
320.816	201.31
321.046	198.31
321.275	210.31
321.504	206.31
321.733	213.31
321.962	220.31
322.191	223.31
322.42	230.31
322.649	232.31
322.878	241.31
323.108	228.31
323.337	245.31
323.566	266.31
323.795	263.31
324.024	309.31
324.253	355.31
324.482	528.31
324.71	772.31
324.939	1056.31
325.168	842.31
325.397	428.31
325.626	317.31
325.855	261.31
326.084	261.31
326.313	267.31
326.542	252.31
326.77	290.31
326.999	350.31
327.228	446.31
327.457	692.31
327.686	777.31
327.914	525.31
328.143	375.31
328.372	324.31
328.6	309.31
328.829	303.31
329.058	305.31
329.287	312.31
329.515	295.31
329.744	256.31
329.972	271.31
330.201	284.31
330.43	306.31
330.658	339.31
330.887	334.31
331.115	321.31
331.344	267.31
331.572	259.31
331.801	266.31
332.03	265.31
332.258	248.31
332.486	220.31
332.715	239.31
332.943	226.31
333.172	226.31
333.4	238.31
333.629	248.31
333.857	263.31
334.085	260.31
334.314	267.31
334.542	294.31
334.771	305.31
334.999	269.31
335.227	241.31
335.455	237.31
335.684	249.31
335.912	245.31
336.14	235.31
336.369	253.31
336.597	222.31
336.825	227.31
337.053	220.31
337.281	237.31
337.51	218.31
337.738	238.31
337.966	238.31
338.194	238.31
338.422	224.31
338.65	246.31
338.878	245.31
339.106	202.31
339.334	215.31
339.562	221.31
339.79	242.31
340.018	219.31
340.246	223.31
340.474	218.31
340.702	217.31
340.93	210.31
341.158	232.31
341.386	230.31
341.614	238.31
341.842	218.31
342.07	223.31
342.298	206.31
342.526	227.31
342.754	199.31
342.981	233.31
343.209	213.31
343.437	226.31
343.665	209.31
343.893	229.31
344.12	243.31
344.348	238.31
344.576	236.31
344.804	231.31
345.031	257.31
345.259	267.31
345.487	242.31
345.714	244.31
345.942	212.31
346.17	206.31
346.397	210.31
346.625	210.31
346.853	219.31
347.08	233.31
347.308	214.31
347.535	222.31
347.763	221.31
347.99	220.31
348.218	219.31
348.445	226.31
348.673	218.31
348.9	212.31
349.128	221.31
349.355	206.31
349.583	204.31
349.81	211.31
350.037	231.31
350.265	214.31
350.492	213.31
350.72	212.31
350.947	230.31
351.174	197.31
351.402	225.31
351.629	225.31
351.856	223.31
352.083	220.31
352.311	243.31
352.538	213.31
352.765	236.31
352.992	237.31
353.22	214.31
353.447	195.31
353.674	225.31
353.901	207.31
354.128	207.31
354.355	217.31
354.583	201.31
354.81	198.31
355.037	214.31
355.264	198.31
355.491	207.31
355.718	199.31
355.945	203.31
356.172	206.31
356.399	215.31
356.626	206.31
356.853	200.31
357.08	205.31
357.307	199.31
357.534	187.31
357.761	207.31
357.988	200.31
358.215	212.31
358.441	204.31
358.668	201.31
358.895	192.31
359.122	201.31
359.349	210.31
359.576	210.31
359.802	234.31
360.029	255.31
360.256	278.31
360.483	234.31
360.709	219.31
360.936	213.31
361.163	217.31
361.39	235.31
361.616	218.31
361.843	222.31
362.07	234.31
362.296	226.31
362.523	229.31
362.749	215.31
362.976	196.31
363.203	203.31
363.429	196.31
363.656	182.31
363.882	202.31
364.109	198.31
364.335	213.31
364.562	209.31
364.788	206.31
365.015	201.31
365.241	207.31
365.468	220.31
365.694	213.31
365.92	219.31
366.147	208.31
366.373	197.31
366.599	197.31
366.826	204.31
367.052	198.31
367.278	218.31
367.505	204.31
367.731	189.31
367.957	204.31
368.184	206.31
368.41	202.31
368.636	215.31
368.862	221.31
369.089	206.31
369.315	214.31
369.541	204.31
369.767	215.31
369.993	211.31
370.219	209.31
370.445	206.31
370.672	207.31
370.898	191.31
371.124	209.31
371.35	213.31
371.576	202.31
371.802	193.31
372.028	206.31
372.254	204.31
372.48	206.31
372.706	195.31
372.932	186.31
373.158	198.31
373.384	212.31
373.61	232.31
373.835	209.31
374.061	206.31
374.287	203.31
374.513	194.31
374.739	224.31
374.965	211.31
375.191	212.31
375.416	219.31
375.642	199.31
375.868	201.31
376.094	199.31
376.319	213.31
376.545	208.31
376.771	195.31
376.997	183.31
377.222	206.31
377.448	205.31
377.674	206.31
377.899	201.31
378.125	208.31
378.35	211.31
378.576	216.31
378.802	203.31
379.027	215.31
379.253	205.31
379.478	198.31
379.704	199.31
379.929	211.31
380.155	205.31
380.38	193.31
380.606	201.31
380.831	189.31
381.057	219.31
381.282	213.31
381.507	205.31
381.733	188.31
381.958	185.31
382.184	214.31
382.409	211.31
382.634	209.31
382.86	213.31
383.085	196.31
383.31	201.31
383.535	221.31
383.761	206.31
383.986	203.31
384.211	231.31
384.436	198.31
384.662	211.31
384.887	223.31
385.112	206.31
385.337	206.31
385.562	228.31
385.787	219.31
386.013	230.31
386.238	220.31
386.463	207.31
386.688	211.31
386.913	212.31
387.138	212.31
387.363	230.31
387.588	217.31
387.813	224.31
388.038	246.31
388.263	207.31
388.488	211.31
388.713	224.31
388.938	223.31
389.163	218.31
389.387	228.31
389.612	220.31
389.837	217.31
390.062	230.31
390.287	220.31
390.512	215.31
390.736	225.31
390.961	216.31
391.186	207.31
391.411	206.31
391.636	222.31
391.86	223.31
392.085	226.31
392.31	226.31
392.534	223.31
392.759	236.31
392.984	226.31
393.208	225.31
393.433	238.31
393.658	232.31
393.882	224.31
394.107	215.31
394.331	212.31
394.556	215.31
394.78	219.31
395.005	215.31
395.229	220.31
395.454	234.31
395.678	235.31
395.903	222.31
396.127	236.31
396.352	241.31
396.576	220.31
396.801	236.31
397.025	233.31
397.249	238.31
397.474	228.31
397.698	234.31
397.922	241.31
398.147	230.31
398.371	249.31
398.595	239.31
398.82	251.31
399.044	246.31
399.268	269.31
399.492	267.31
399.717	275.31
399.941	290.31
400.165	301.31
400.389	290.31
400.613	267.31
400.837	247.31
401.062	260.31
401.286	239.31
401.51	239.31
401.734	253.31
401.958	252.31
402.182	246.31
402.406	275.31
402.63	267.31
402.854	260.31
403.078	271.31
403.302	255.31
403.526	266.31
403.75	252.31
403.974	263.31
404.198	249.31
404.422	262.31
404.645	262.31
404.869	265.31
405.093	267.31
405.317	276.31
405.541	309.31
405.765	298.31
405.988	281.31
406.212	273.31
406.436	310.31
406.66	310.31
406.883	283.31
407.107	286.31
407.331	306.31
407.555	331.31
407.778	303.31
408.002	307.31
408.226	295.31
408.449	279.31
408.673	296.31
408.896	283.31
409.12	309.31
409.344	285.31
409.567	259.31
409.791	262.31
410.014	263.31
410.238	267.31
410.461	241.31
410.685	242.31
410.908	244.31
411.132	289.31
411.355	289.31
411.578	267.31
411.802	266.31
412.025	256.31
412.249	255.31
412.472	261.31
412.695	298.31
412.919	269.31
413.142	262.31
413.365	253.31
413.589	267.31
413.812	238.31
414.035	259.31
414.258	255.31
414.482	246.31
414.705	248.31
414.928	237.31
415.151	245.31
415.374	237.31
415.597	231.31
415.821	246.31
416.044	258.31
416.267	247.31
416.49	257.31
416.713	232.31
416.936	238.31
417.159	229.31
417.382	256.31
417.605	244.31
417.828	249.31
418.051	256.31
418.274	260.31
418.497	243.31
418.72	238.31
418.943	270.31
419.166	244.31
419.389	263.31
419.611	273.31
419.834	245.31
420.057	253.31
420.28	257.31
420.503	254.31
420.726	270.31
420.948	274.31
421.171	278.31
421.394	289.31
421.617	265.31
421.839	238.31
422.062	261.31
422.285	257.31
422.507	286.31
422.73	319.31
422.953	321.31
423.175	291.31
423.398	271.31
423.621	254.31
423.843	275.31
424.066	279.31
424.288	268.31
424.511	285.31
424.733	313.31
424.956	337.31
425.178	338.31
425.401	308.31
425.623	320.31
425.846	292.31
426.068	258.31
426.291	258.31
426.513	276.31
426.735	285.31
426.958	305.31
427.18	324.31
427.402	382.31
427.625	430.31
427.847	364.31
428.069	305.31
428.292	280.31
428.514	283.31
428.736	271.31
428.958	268.31
429.181	234.31
429.403	263.31
429.625	263.31
429.847	279.31
430.069	317.31
430.292	279.31
430.514	274.31
430.736	273.31
430.958	238.31
431.18	257.31
431.402	249.31
431.624	237.31
431.846	265.31
432.068	258.31
432.29	260.31
432.512	231.31
432.734	230.31
432.956	259.31
433.178	270.31
433.4	266.31
433.622	244.31
433.844	260.31
434.066	257.31
434.287	232.31
434.509	261.31
434.731	247.31
434.953	263.31
435.175	247.31
435.397	266.31
435.618	275.31
435.84	288.31
436.062	311.31
436.284	344.31
436.505	298.31
436.727	279.31
436.949	247.31
437.17	235.31
437.392	249.31
437.614	247.31
437.835	282.31
438.057	333.31
438.278	356.31
438.5	347.31
438.721	367.31
438.943	346.31
439.165	292.31
439.386	289.31
439.608	265.31
439.829	285.31
440.05	291.31
440.272	321.31
440.493	285.31
440.715	260.31
440.936	262.31
441.158	255.31
441.379	245.31
441.6	261.31
441.822	293.31
442.043	295.31
442.264	321.31
442.486	339.31
442.707	296.31
442.928	283.31
443.149	281.31
443.371	288.31
443.592	307.31
443.813	362.31
444.034	381.31
444.255	295.31
444.476	281.31
444.698	279.31
444.919	276.31
445.14	354.31
445.361	313.31
445.582	298.31
445.803	346.31
446.024	375.31
446.245	379.31
446.466	333.31
446.687	296.31
446.908	271.31
447.129	262.31
447.35	269.31
447.571	249.31
447.792	244.31
448.013	269.31
448.234	277.31
448.455	283.31
448.675	330.31
448.896	379.31
449.117	318.31
449.338	312.31
449.559	382.31
449.779	380.31
450	307.31
450.221	264.31
450.442	247.31
450.662	232.31
450.883	261.31
451.104	273.31
451.324	267.31
451.545	256.31
451.766	232.31
451.986	238.31
452.207	246.31
452.428	203.31
452.648	225.31
452.869	239.31
453.089	250.31
453.31	241.31
453.53	240.31
453.751	233.31
453.971	238.31
454.192	243.31
454.412	237.31
454.633	236.31
454.853	229.31
455.073	229.31
455.294	243.31
455.514	267.31
455.734	267.31
455.955	225.31
456.175	220.31
456.395	221.31
456.616	219.31
456.836	213.31
457.056	212.31
457.276	207.31
457.497	190.31
457.717	213.31
457.937	218.31
458.157	226.31
458.377	226.31
458.598	268.31
458.818	292.31
459.038	311.31
459.258	318.31
459.478	261.31
459.698	239.31
459.918	261.31
460.138	249.31
460.358	252.31
460.578	254.31
460.798	225.31
461.018	265.31
461.238	261.31
461.458	230.31
461.678	233.31
461.898	234.31
462.118	235.31
462.338	243.31
462.558	263.31
462.777	259.31
462.997	263.31
463.217	267.31
463.437	271.31
463.657	250.31
463.876	266.31
464.096	263.31
464.316	279.31
464.536	279.31
464.755	283.31
464.975	278.31
465.195	307.31
465.414	353.31
465.634	296.31
465.854	265.31
466.073	245.31
466.293	245.31
466.512	240.31
466.732	222.31
466.951	234.31
467.171	234.31
467.391	267.31
467.61	253.31
467.829	264.31
468.049	260.31
468.268	266.31
468.488	233.31
468.707	248.31
468.927	230.31
469.146	244.31
469.365	239.31
469.585	227.31
469.804	229.31
470.023	259.31
470.243	249.31
470.462	251.31
470.681	267.31
470.901	243.31
471.12	215.31
471.339	233.31
471.558	235.31
471.777	254.31
471.997	236.31
472.216	248.31
472.435	288.31
472.654	251.31
472.873	244.31
473.092	238.31
473.311	250.31
473.53	246.31
473.749	244.31
473.968	259.31
474.187	327.31
474.406	308.31
474.625	265.31
474.844	252.31
475.063	222.31
475.282	238.31
475.501	245.31
475.72	234.31
475.939	236.31
476.158	241.31
476.377	223.31
476.596	247.31
476.814	254.31
477.033	246.31
477.252	243.31
477.471	256.31
477.69	250.31
477.908	251.31
478.127	276.31
478.346	257.31
478.564	268.31
478.783	272.31
479.002	261.31
479.22	256.31
479.439	287.31
479.658	295.31
479.876	280.31
480.095	283.31
480.313	300.31
480.532	308.31
480.751	293.31
480.969	292.31
481.188	365.31
481.406	401.31
481.624	335.31
481.843	301.31
482.061	271.31
482.28	270.31
482.498	259.31
482.717	271.31
482.935	277.31
483.153	283.31
483.372	272.31
483.59	261.31
483.808	264.31
484.027	259.31
484.245	277.31
484.463	263.31
484.681	275.31
484.9	296.31
485.118	264.31
485.336	275.31
485.554	271.31
485.772	297.31
485.99	289.31
486.209	283.31
486.427	284.31
486.645	321.31
486.863	295.31
487.081	332.31
487.299	275.31
487.517	275.31
487.735	278.31
487.953	290.31
488.171	305.31
488.389	290.31
488.607	294.31
488.825	292.31
489.043	295.31
489.261	298.31
489.479	306.31
489.696	293.31
489.914	318.31
490.132	303.31
490.35	305.31
490.568	319.31
490.786	311.31
491.003	321.31
491.221	330.31
491.439	334.31
491.657	329.31
491.874	348.31
492.092	357.31
492.31	343.31
492.527	350.31
492.745	341.31
492.963	343.31
493.18	358.31
493.398	360.31
493.615	364.31
493.833	327.31
494.05	357.31
494.268	339.31
494.485	365.31
494.703	356.31
494.92	337.31
495.138	338.31
495.355	379.31
495.573	350.31
495.79	339.31
496.008	360.31
496.225	358.31
496.442	345.31
496.66	348.31
496.877	342.31
497.094	352.31
497.312	354.31
497.529	338.31
497.746	363.31
497.963	363.31
498.181	356.31
498.398	357.31
498.615	386.31
498.832	371.31
499.049	380.31
499.267	391.31
499.484	393.31
499.701	397.31
499.918	413.31
500.135	446.31
500.352	454.31
500.569	459.31
500.786	459.31
501.003	436.31
501.22	460.31
501.437	444.31
501.654	413.31
501.871	428.31
502.088	430.31
502.305	383.31
502.522	382.31
