Data from 1966.PennyLincolnUp.Lamp.En5.5.200Scan.071719.P1.Scan2.head_HRD10591_14-18-40-206.txt Node
Date: Thu Jul 18 14:18:40 EDT 2019
User: cochatt
Spectrometer: HR+D1059
Trigger mode: 1
Integration Time (sec): 1.000000E-1
Scans to average: 1
Electric dark correction enabled: true
Nonlinearity correction enabled: false
Boxcar width: 0
XAxis mode: Wavelengths
Number of Pixels in Spectrum: 2048
>>>>>Begin Spectral Data<<<<<
223.165	-10.56
223.4	-10.56
223.635	-10.56
223.869	-23.56
224.104	-14.56
224.338	-20.56
224.573	-23.56
224.808	-16.56
225.042	-12.56
225.277	-10.56
225.511	3.44
225.746	4.44
225.98	3.44
226.215	9.44
226.449	17.44
226.683	31.44
226.918	32.44
227.152	30.44
227.387	35.44
227.621	36.44
227.856	39.44
228.09	55.44
228.324	41.44
228.559	48.44
228.793	62.44
229.027	103.44
229.262	107.44
229.496	117.44
229.73	135.44
229.964	168.44
230.199	131.44
230.433	109.44
230.667	118.44
230.901	131.44
231.136	111.44
231.37	110.44
231.604	112.44
231.838	105.44
232.072	125.44
232.306	116.44
232.541	96.44
232.775	118.44
233.009	107.44
233.243	123.44
233.477	119.44
233.711	127.44
233.945	119.44
234.179	121.44
234.413	125.44
234.647	115.44
234.881	126.44
235.115	127.44
235.349	118.44
235.583	112.44
235.817	119.44
236.051	121.44
236.285	145.44
236.519	121.44
236.753	125.44
236.987	149.44
237.221	183.44
237.455	245.44
237.689	196.44
237.922	160.44
238.156	123.44
238.39	129.44
238.624	126.44
238.858	139.44
239.091	119.44
239.325	129.44
239.559	131.44
239.793	127.44
240.027	144.44
240.26	134.44
240.494	165.44
240.728	157.44
240.961	169.44
241.195	154.44
241.429	133.44
241.662	153.44
241.896	131.44
242.13	151.44
242.363	122.44
242.597	148.44
242.83	141.44
243.064	152.44
243.298	145.44
243.531	133.44
243.765	152.44
243.998	144.44
244.232	149.44
244.465	160.44
244.699	155.44
244.932	151.44
245.166	151.44
245.399	136.44
245.633	144.44
245.866	154.44
246.099	158.44
246.333	180.44
246.566	155.44
246.8	158.44
247.033	151.44
247.266	163.44
247.5	167.44
247.733	176.44
247.966	165.44
248.2	166.44
248.433	184.44
248.666	176.44
248.899	202.44
249.133	203.44
249.366	207.44
249.599	190.44
249.832	198.44
250.066	190.44
250.299	197.44
250.532	216.44
250.765	204.44
250.998	225.44
251.231	225.44
251.465	214.44
251.698	199.44
251.931	208.44
252.164	221.44
252.397	206.44
252.63	209.44
252.863	197.44
253.096	205.44
253.329	247.44
253.562	225.44
253.795	237.44
254.028	228.44
254.261	229.44
254.494	220.44
254.727	240.44
254.96	311.44
255.193	275.44
255.426	244.44
255.659	246.44
255.892	235.44
256.124	238.44
256.357	233.44
256.59	235.44
256.823	224.44
257.056	226.44
257.289	222.44
257.521	214.44
257.754	211.44
257.987	216.44
258.22	208.44
258.452	225.44
258.685	218.44
258.918	225.44
259.151	229.44
259.383	209.44
259.616	219.44
259.849	213.44
260.081	233.44
260.314	255.44
260.547	265.44
260.779	239.44
261.012	234.44
261.244	244.44
261.477	234.44
261.71	214.44
261.942	241.44
262.175	261.44
262.407	230.44
262.64	207.44
262.872	224.44
263.105	221.44
263.337	224.44
263.57	205.44
263.802	225.44
264.035	229.44
264.267	213.44
264.499	213.44
264.732	207.44
264.964	215.44
265.197	212.44
265.429	221.44
265.661	215.44
265.894	224.44
266.126	204.44
266.358	234.44
266.591	224.44
266.823	222.44
267.055	236.44
267.287	225.44
267.52	220.44
267.752	244.44
267.984	239.44
268.216	239.44
268.448	229.44
268.681	226.44
268.913	250.44
269.145	256.44
269.377	281.44
269.609	264.44
269.841	290.44
270.073	295.44
270.306	294.44
270.538	309.44
270.77	320.44
271.002	311.44
271.234	286.44
271.466	304.44
271.698	311.44
271.93	320.44
272.162	326.44
272.394	319.44
272.626	305.44
272.858	270.44
273.09	289.44
273.322	283.44
273.553	267.44
273.785	273.44
274.017	266.44
274.249	272.44
274.481	280.44
274.713	274.44
274.945	266.44
275.176	279.44
275.408	275.44
275.64	282.44
275.872	280.44
276.104	279.44
276.335	278.44
276.567	277.44
276.799	282.44
277.031	311.44
277.262	335.44
277.494	297.44
277.726	324.44
277.957	302.44
278.189	287.44
278.421	271.44
278.652	266.44
278.884	288.44
279.115	282.44
279.347	264.44
279.579	271.44
279.81	268.44
280.042	268.44
280.273	276.44
280.505	261.44
280.736	283.44
280.968	285.44
281.199	288.44
281.431	269.44
281.662	271.44
281.894	272.44
282.125	281.44
282.356	312.44
282.588	335.44
282.819	319.44
283.051	300.44
283.282	287.44
283.513	277.44
283.745	289.44
283.976	297.44
284.207	298.44
284.439	295.44
284.67	307.44
284.901	275.44
285.132	298.44
285.364	269.44
285.595	305.44
285.826	283.44
286.057	295.44
286.288	287.44
286.52	276.44
286.751	304.44
286.982	300.44
287.213	294.44
287.444	295.44
287.675	303.44
287.906	303.44
288.138	310.44
288.369	310.44
288.6	325.44
288.831	311.44
289.062	318.44
289.293	287.44
289.524	318.44
289.755	327.44
289.986	305.44
290.217	295.44
290.448	294.44
290.679	301.44
290.91	306.44
291.141	303.44
291.371	320.44
291.602	307.44
291.833	291.44
292.064	290.44
292.295	296.44
292.526	312.44
292.757	308.44
292.987	291.44
293.218	281.44
293.449	300.44
293.68	288.44
293.91	314.44
294.141	299.44
294.372	304.44
294.603	300.44
294.833	291.44
295.064	303.44
295.295	296.44
295.525	319.44
295.756	323.44
295.987	303.44
296.217	331.44
296.448	340.44
296.679	330.44
296.909	329.44
297.14	325.44
297.37	332.44
297.601	329.44
297.831	305.44
298.062	307.44
298.292	311.44
298.523	329.44
298.753	319.44
298.984	326.44
299.214	310.44
299.445	329.44
299.675	332.44
299.905	319.44
300.136	319.44
300.366	328.44
300.597	316.44
300.827	328.44
301.057	325.44
301.288	364.44
301.518	356.44
301.748	351.44
301.979	312.44
302.209	330.44
302.439	336.44
302.669	334.44
302.9	328.44
303.13	336.44
303.36	332.44
303.59	340.44
303.82	363.44
304.051	362.44
304.281	331.44
304.511	343.44
304.741	355.44
304.971	319.44
305.201	343.44
305.431	340.44
305.661	345.44
305.891	346.44
306.121	353.44
306.352	350.44
306.582	356.44
306.812	340.44
307.042	355.44
307.272	344.44
307.502	342.44
307.731	343.44
307.961	330.44
308.191	356.44
308.421	336.44
308.651	345.44
308.881	341.44
309.111	347.44
309.341	361.44
309.571	354.44
309.8	375.44
310.03	362.44
310.26	396.44
310.49	393.44
310.72	399.44
310.949	391.44
311.179	410.44
311.409	373.44
311.639	388.44
311.868	382.44
312.098	374.44
312.328	399.44
312.557	415.44
312.787	439.44
313.017	458.44
313.246	413.44
313.476	362.44
313.706	385.44
313.935	411.44
314.165	409.44
314.394	411.44
314.624	426.44
314.853	410.44
315.083	395.44
315.312	382.44
315.542	399.44
315.771	387.44
316.001	400.44
316.23	386.44
316.46	398.44
316.689	398.44
316.919	385.44
317.148	411.44
317.377	413.44
317.607	420.44
317.836	387.44
318.065	394.44
318.295	419.44
318.524	399.44
318.753	387.44
318.983	396.44
319.212	391.44
319.441	388.44
319.67	416.44
319.9	399.44
320.129	385.44
320.358	426.44
320.587	405.44
320.816	389.44
321.046	416.44
321.275	415.44
321.504	404.44
321.733	406.44
321.962	427.44
322.191	431.44
322.42	449.44
322.649	459.44
322.878	465.44
323.108	469.44
323.337	503.44
323.566	513.44
323.795	535.44
324.024	576.44
324.253	679.44
324.482	933.44
324.71	1526.44
324.939	2329.44
325.168	2017.44
325.397	983.44
325.626	680.44
325.855	553.44
326.084	510.44
326.313	493.44
326.542	509.44
326.77	576.44
326.999	658.44
327.228	904.44
327.457	1417.44
327.686	1734.44
327.914	1148.44
328.143	765.44
328.372	631.44
328.6	604.44
328.829	583.44
329.058	585.44
329.287	599.44
329.515	561.44
329.744	534.44
329.972	547.44
330.201	558.44
330.43	604.44
330.658	629.44
330.887	635.44
331.115	620.44
331.344	550.44
331.572	525.44
331.801	514.44
332.03	523.44
332.258	489.44
332.486	468.44
332.715	479.44
332.943	472.44
333.172	492.44
333.4	481.44
333.629	504.44
333.857	512.44
334.085	527.44
334.314	536.44
334.542	557.44
334.771	613.44
334.999	540.44
335.227	512.44
335.455	478.44
335.684	472.44
335.912	490.44
336.14	484.44
336.369	472.44
336.597	489.44
336.825	495.44
337.053	469.44
337.281	463.44
337.51	488.44
337.738	465.44
337.966	465.44
338.194	457.44
338.422	477.44
338.65	474.44
338.878	472.44
339.106	452.44
339.334	447.44
339.562	457.44
339.79	451.44
340.018	443.44
340.246	452.44
340.474	468.44
340.702	453.44
340.93	462.44
341.158	435.44
341.386	445.44
341.614	467.44
341.842	455.44
342.07	471.44
342.298	457.44
342.526	428.44
342.754	447.44
342.981	434.44
343.209	457.44
343.437	474.44
343.665	455.44
343.893	447.44
344.12	493.44
344.348	481.44
344.576	479.44
344.804	488.44
345.031	493.44
345.259	469.44
345.487	487.44
345.714	470.44
345.942	461.44
346.17	440.44
346.397	459.44
346.625	442.44
346.853	435.44
347.08	439.44
347.308	454.44
347.535	445.44
347.763	457.44
347.99	453.44
348.218	436.44
348.445	460.44
348.673	461.44
348.9	463.44
349.128	452.44
349.355	455.44
349.583	439.44
349.81	435.44
350.037	442.44
350.265	431.44
350.492	460.44
350.72	430.44
350.947	429.44
351.174	446.44
351.402	464.44
351.629	465.44
351.856	449.44
352.083	464.44
352.311	473.44
352.538	461.44
352.765	454.44
352.992	447.44
353.22	460.44
353.447	447.44
353.674	435.44
353.901	423.44
354.128	431.44
354.355	429.44
354.583	453.44
354.81	441.44
355.037	422.44
355.264	421.44
355.491	420.44
355.718	417.44
355.945	421.44
356.172	414.44
356.399	433.44
356.626	425.44
356.853	426.44
357.08	427.44
357.307	437.44
357.534	425.44
357.761	436.44
357.988	430.44
358.215	416.44
358.441	431.44
358.668	433.44
358.895	448.44
359.122	445.44
359.349	454.44
359.576	451.44
359.802	464.44
360.029	470.44
360.256	500.44
360.483	473.44
360.709	461.44
360.936	437.44
361.163	440.44
361.39	448.44
361.616	463.44
361.843	447.44
362.07	428.44
362.296	447.44
362.523	455.44
362.749	438.44
362.976	429.44
363.203	452.44
363.429	454.44
363.656	429.44
363.882	457.44
364.109	440.44
364.335	414.44
364.562	424.44
364.788	416.44
365.015	438.44
365.241	435.44
365.468	427.44
365.694	443.44
365.92	451.44
366.147	438.44
366.373	430.44
366.599	429.44
366.826	416.44
367.052	410.44
367.278	438.44
367.505	435.44
367.731	442.44
367.957	441.44
368.184	416.44
368.41	448.44
368.636	441.44
368.862	441.44
369.089	454.44
369.315	435.44
369.541	441.44
369.767	436.44
369.993	453.44
370.219	448.44
370.445	426.44
370.672	432.44
370.898	421.44
371.124	445.44
371.35	432.44
371.576	471.44
371.802	459.44
372.028	433.44
372.254	447.44
372.48	440.44
372.706	439.44
372.932	453.44
373.158	462.44
373.384	447.44
373.61	446.44
373.835	453.44
374.061	449.44
374.287	449.44
374.513	451.44
374.739	433.44
374.965	447.44
375.191	457.44
375.416	462.44
375.642	442.44
375.868	453.44
376.094	444.44
376.319	462.44
376.545	439.44
376.771	441.44
376.997	437.44
377.222	438.44
377.448	436.44
377.674	441.44
377.899	426.44
378.125	455.44
378.35	437.44
378.576	444.44
378.802	456.44
379.027	442.44
379.253	443.44
379.478	423.44
379.704	424.44
379.929	458.44
380.155	444.44
380.38	446.44
380.606	467.44
380.831	429.44
381.057	443.44
381.282	439.44
381.507	452.44
381.733	441.44
381.958	445.44
382.184	462.44
382.409	455.44
382.634	466.44
382.86	464.44
383.085	465.44
383.31	458.44
383.535	470.44
383.761	477.44
383.986	468.44
384.211	471.44
384.436	465.44
384.662	464.44
384.887	454.44
385.112	483.44
385.337	501.44
385.562	481.44
385.787	517.44
386.013	507.44
386.238	495.44
386.463	506.44
386.688	496.44
386.913	490.44
387.138	493.44
387.363	491.44
387.588	473.44
387.813	472.44
388.038	484.44
388.263	499.44
388.488	497.44
388.713	485.44
388.938	487.44
389.163	505.44
389.387	489.44
389.612	491.44
389.837	489.44
390.062	487.44
390.287	498.44
390.512	496.44
390.736	482.44
390.961	469.44
391.186	488.44
391.411	499.44
391.636	483.44
391.86	514.44
392.085	505.44
392.31	508.44
392.534	531.44
392.759	505.44
392.984	508.44
393.208	520.44
393.433	501.44
393.658	499.44
393.882	518.44
394.107	499.44
394.331	481.44
394.556	507.44
394.78	488.44
395.005	485.44
395.229	494.44
395.454	531.44
395.678	523.44
395.903	547.44
396.127	572.44
396.352	551.44
396.576	529.44
396.801	512.44
397.025	529.44
397.249	534.44
397.474	543.44
397.698	520.44
397.922	560.44
398.147	581.44
398.371	558.44
398.595	563.44
398.82	553.44
399.044	581.44
399.268	588.44
399.492	637.44
399.717	665.44
399.941	692.44
400.165	726.44
400.389	710.44
400.613	635.44
400.837	635.44
401.062	591.44
401.286	588.44
401.51	569.44
401.734	578.44
401.958	584.44
402.182	585.44
402.406	611.44
402.63	625.44
402.854	584.44
403.078	604.44
403.302	601.44
403.526	604.44
403.75	612.44
403.974	614.44
404.198	593.44
404.422	611.44
404.645	599.44
404.869	631.44
405.093	626.44
405.317	677.44
405.541	739.44
405.765	676.44
405.988	629.44
406.212	597.44
406.436	653.44
406.66	675.44
406.883	649.44
407.107	692.44
407.331	719.44
407.555	809.44
407.778	784.44
408.002	740.44
408.226	697.44
408.449	683.44
408.673	663.44
408.896	695.44
409.12	720.44
409.344	684.44
409.567	632.44
409.791	615.44
410.014	617.44
410.238	599.44
410.461	602.44
410.685	610.44
410.908	631.44
411.132	655.44
411.355	699.44
411.578	679.44
411.802	609.44
412.025	602.44
412.249	603.44
412.472	650.44
412.695	684.44
412.919	675.44
413.142	629.44
413.365	596.44
413.589	608.44
413.812	560.44
414.035	565.44
414.258	571.44
414.482	565.44
414.705	559.44
414.928	566.44
415.151	571.44
415.374	573.44
415.597	569.44
415.821	556.44
416.044	558.44
416.267	569.44
416.49	547.44
416.713	569.44
416.936	586.44
417.159	559.44
417.382	597.44
417.605	591.44
417.828	570.44
418.051	581.44
418.274	580.44
418.497	559.44
418.72	570.44
418.943	563.44
419.166	559.44
419.389	628.44
419.611	619.44
419.834	635.44
420.057	607.44
420.28	586.44
420.503	567.44
420.726	608.44
420.948	620.44
421.171	687.44
421.394	703.44
421.617	636.44
421.839	603.44
422.062	588.44
422.285	613.44
422.507	702.44
422.73	764.44
422.953	766.44
423.175	646.44
423.398	624.44
423.621	613.44
423.843	647.44
424.066	624.44
424.288	629.44
424.511	647.44
424.733	725.44
424.956	810.44
425.178	765.44
425.401	756.44
425.623	796.44
425.846	696.44
426.068	638.44
426.291	628.44
426.513	641.44
426.735	641.44
426.958	676.44
427.18	796.44
427.402	937.44
427.625	1041.44
427.847	893.44
428.069	756.44
428.292	681.44
428.514	661.44
428.736	599.44
428.958	613.44
429.181	569.44
429.403	566.44
429.625	602.44
429.847	633.44
430.069	695.44
430.292	703.44
430.514	625.44
430.736	588.44
430.958	584.44
431.18	570.44
431.402	555.44
431.624	523.44
431.846	568.44
432.068	557.44
432.29	561.44
432.512	557.44
432.734	577.44
432.956	584.44
433.178	581.44
433.4	563.44
433.622	574.44
433.844	574.44
434.066	576.44
434.287	552.44
434.509	583.44
434.731	576.44
434.953	592.44
435.175	593.44
435.397	626.44
435.618	628.44
435.84	681.44
436.062	797.44
436.284	877.44
436.505	715.44
436.727	677.44
436.949	605.44
437.17	602.44
437.392	616.44
437.614	602.44
437.835	657.44
438.057	742.44
438.278	858.44
438.5	853.44
438.721	937.44
438.943	917.44
439.165	715.44
439.386	699.44
439.608	636.44
439.829	629.44
440.05	674.44
440.272	741.44
440.493	688.44
440.715	622.44
440.936	593.44
441.158	616.44
441.379	597.44
441.6	625.44
441.822	617.44
442.043	687.44
442.264	778.44
442.486	839.44
442.707	704.44
442.928	684.44
443.149	661.44
443.371	683.44
443.592	755.44
443.813	832.44
444.034	908.44
444.255	764.44
444.476	671.44
444.698	666.44
444.919	632.44
445.14	747.44
445.361	687.44
445.582	699.44
445.803	756.44
446.024	837.44
446.245	870.44
446.466	809.44
446.687	689.44
446.908	643.44
447.129	605.44
447.35	599.44
447.571	599.44
447.792	582.44
448.013	601.44
448.234	606.44
448.455	653.44
448.675	783.44
448.896	941.44
449.117	783.44
449.338	734.44
449.559	859.44
449.779	975.44
450	785.44
450.221	655.44
450.442	602.44
450.662	585.44
450.883	569.44
451.104	589.44
451.324	565.44
451.545	554.44
451.766	551.44
451.986	539.44
452.207	523.44
452.428	526.44
452.648	527.44
452.869	493.44
453.089	531.44
453.31	541.44
453.53	552.44
453.751	545.44
453.971	515.44
454.192	524.44
454.412	556.44
454.633	507.44
454.853	519.44
455.073	529.44
455.294	561.44
455.514	626.44
455.734	609.44
455.955	537.44
456.175	516.44
456.395	502.44
456.616	508.44
456.836	504.44
457.056	485.44
457.276	486.44
457.497	496.44
457.717	490.44
457.937	490.44
458.157	524.44
458.377	519.44
458.598	540.44
458.818	593.44
459.038	681.44
459.258	743.44
459.478	599.44
459.698	539.44
459.918	581.44
460.138	559.44
460.358	588.44
460.578	581.44
460.798	597.44
461.018	576.44
461.238	573.44
461.458	598.44
461.678	560.44
461.898	571.44
462.118	571.44
462.338	588.44
462.558	589.44
462.777	601.44
462.997	638.44
463.217	628.44
463.437	622.44
463.657	623.44
463.876	631.44
464.096	630.44
464.316	620.44
464.536	612.44
464.755	621.44
464.975	621.44
465.195	650.44
465.414	744.44
465.634	623.44
465.854	605.44
466.073	598.44
466.293	585.44
466.512	543.44
466.732	549.44
466.951	555.44
467.171	552.44
467.391	581.44
467.61	561.44
467.829	558.44
468.049	559.44
468.268	561.44
468.488	561.44
468.707	522.44
468.927	550.44
469.146	538.44
469.365	539.44
469.585	518.44
469.804	543.44
470.023	543.44
470.243	552.44
470.462	570.44
470.681	593.44
470.901	573.44
471.12	563.44
471.339	556.44
471.558	551.44
471.777	553.44
471.997	538.44
472.216	549.44
472.435	577.44
472.654	578.44
472.873	556.44
473.092	556.44
473.311	555.44
473.53	574.44
473.749	567.44
473.968	623.44
474.187	732.44
474.406	746.44
474.625	596.44
474.844	594.44
475.063	564.44
475.282	550.44
475.501	560.44
475.72	579.44
475.939	555.44
476.158	590.44
476.377	565.44
476.596	572.44
476.814	582.44
477.033	588.44
477.252	580.44
477.471	575.44
477.69	571.44
477.908	613.44
478.127	596.44
478.346	603.44
478.564	613.44
478.783	609.44
479.002	623.44
479.22	639.44
479.439	654.44
479.658	658.44
479.876	654.44
480.095	669.44
480.313	727.44
480.532	705.44
480.751	664.44
480.969	699.44
481.188	734.44
481.406	783.44
481.624	729.44
481.843	663.44
482.061	669.44
482.28	651.44
482.498	651.44
482.717	648.44
482.935	651.44
483.153	645.44
483.372	638.44
483.59	633.44
483.808	637.44
484.027	676.44
484.245	649.44
484.463	661.44
484.681	663.44
484.9	658.44
485.118	673.44
485.336	657.44
485.554	667.44
485.772	663.44
485.99	671.44
486.209	667.44
486.427	683.44
486.645	699.44
486.863	701.44
487.081	703.44
487.299	692.44
487.517	706.44
487.735	701.44
487.953	712.44
488.171	681.44
488.389	711.44
488.607	675.44
488.825	702.44
489.043	689.44
489.261	700.44
489.479	714.44
489.696	693.44
489.914	735.44
490.132	733.44
490.35	734.44
490.568	743.44
490.786	736.44
491.003	747.44
491.221	728.44
491.439	787.44
491.657	799.44
491.874	802.44
492.092	781.44
492.31	792.44
492.527	801.44
492.745	830.44
492.963	815.44
493.18	832.44
493.398	827.44
493.615	819.44
493.833	860.44
494.05	846.44
494.268	799.44
494.485	818.44
494.703	833.44
494.92	854.44
495.138	819.44
495.355	847.44
495.573	824.44
495.79	843.44
496.008	832.44
496.225	829.44
496.442	824.44
496.66	824.44
496.877	842.44
497.094	867.44
497.312	841.44
497.529	860.44
497.746	871.44
497.963	875.44
498.181	916.44
498.398	924.44
498.615	927.44
498.832	937.44
499.049	972.44
499.267	995.44
499.484	1008.44
499.701	1053.44
499.918	1091.44
500.135	1155.44
500.352	1183.44
500.569	1220.44
500.786	1215.44
501.003	1188.44
501.22	1147.44
501.437	1124.44
501.654	1102.44
