Data from 1966.PennyLincolnUp.Lamp.En5.5.200Scan.071719.P1._HRD10591_14-13-38-914.txt Node
Date: Thu Jul 18 14:13:38 EDT 2019
User: cochatt
Spectrometer: HR+D1059
Trigger mode: 1
Integration Time (sec): 1.000000E-1
Scans to average: 1
Electric dark correction enabled: true
Nonlinearity correction enabled: false
Boxcar width: 0
XAxis mode: Wavelengths
Number of Pixels in Spectrum: 2048
>>>>>Begin Spectral Data<<<<<
223.165	-14.19
223.4	-14.19
223.635	-14.19
223.869	-11.19
224.104	-21.19
224.338	-14.19
224.573	-12.19
224.808	-7.19
225.042	-1.19
225.277	3.81
225.511	1.81
225.746	-13.19
225.98	3.81
226.215	12.81
226.449	15.81
226.683	22.81
226.918	21.81
227.152	11.81
227.387	20.81
227.621	33.81
227.856	31.81
228.09	43.81
228.324	51.81
228.559	63.81
228.793	59.81
229.027	81.81
229.262	87.81
229.496	94.81
229.73	86.81
229.964	100.81
230.199	94.81
230.433	107.81
230.667	100.81
230.901	87.81
231.136	87.81
231.37	95.81
231.604	92.81
231.838	87.81
232.072	83.81
232.306	110.81
232.541	80.81
232.775	99.81
233.009	102.81
233.243	95.81
233.477	101.81
233.711	90.81
233.945	96.81
234.179	121.81
234.413	103.81
234.647	94.81
234.881	89.81
235.115	94.81
235.349	84.81
235.583	99.81
235.817	97.81
236.051	100.81
236.285	109.81
236.519	86.81
236.753	110.81
236.987	105.81
237.221	121.81
237.455	139.81
237.689	127.81
237.922	101.81
238.156	99.81
238.39	102.81
238.624	97.81
238.858	116.81
239.091	95.81
239.325	81.81
239.559	94.81
239.793	93.81
240.027	108.81
240.26	110.81
240.494	110.81
240.728	115.81
240.961	86.81
241.195	113.81
241.429	91.81
241.662	95.81
241.896	101.81
242.13	87.81
242.363	106.81
242.597	96.81
242.83	110.81
243.064	95.81
243.298	96.81
243.531	97.81
243.765	96.81
243.998	98.81
244.232	111.81
244.465	101.81
244.699	98.81
244.932	99.81
245.166	115.81
245.399	100.81
245.633	109.81
245.866	104.81
246.099	112.81
246.333	104.81
246.566	112.81
246.8	108.81
247.033	103.81
247.266	115.81
247.5	107.81
247.733	102.81
247.966	116.81
248.2	112.81
248.433	116.81
248.666	111.81
248.899	121.81
249.133	120.81
249.366	130.81
249.599	121.81
249.832	125.81
250.066	119.81
250.299	108.81
250.532	125.81
250.765	134.81
250.998	135.81
251.231	133.81
251.465	124.81
251.698	139.81
251.931	120.81
252.164	125.81
252.397	119.81
252.63	115.81
252.863	137.81
253.096	122.81
253.329	147.81
253.562	137.81
253.795	115.81
254.028	126.81
254.261	123.81
254.494	141.81
254.727	154.81
254.96	172.81
255.193	137.81
255.426	145.81
255.659	127.81
255.892	152.81
256.124	128.81
256.357	134.81
256.59	139.81
256.823	133.81
257.056	109.81
257.289	133.81
257.521	129.81
257.754	141.81
257.987	133.81
258.22	141.81
258.452	132.81
258.685	140.81
258.918	128.81
259.151	129.81
259.383	130.81
259.616	119.81
259.849	138.81
260.081	151.81
260.314	159.81
260.547	150.81
260.779	150.81
261.012	125.81
261.244	133.81
261.477	131.81
261.71	129.81
261.942	136.81
262.175	128.81
262.407	124.81
262.64	131.81
262.872	126.81
263.105	129.81
263.337	140.81
263.57	133.81
263.802	118.81
264.035	120.81
264.267	118.81
264.499	125.81
264.732	128.81
264.964	125.81
265.197	143.81
265.429	126.81
265.661	129.81
265.894	132.81
266.126	135.81
266.358	133.81
266.591	129.81
266.823	128.81
267.055	148.81
267.287	151.81
267.52	140.81
267.752	134.81
267.984	142.81
268.216	139.81
268.448	145.81
268.681	144.81
268.913	143.81
269.145	146.81
269.377	171.81
269.609	164.81
269.841	157.81
270.073	166.81
270.306	167.81
270.538	182.81
270.77	170.81
271.002	172.81
271.234	163.81
271.466	183.81
271.698	169.81
271.93	177.81
272.162	173.81
272.394	196.81
272.626	160.81
272.858	184.81
273.09	168.81
273.322	159.81
273.553	161.81
273.785	154.81
274.017	146.81
274.249	159.81
274.481	144.81
274.713	151.81
274.945	158.81
275.176	159.81
275.408	176.81
275.64	146.81
275.872	137.81
276.104	136.81
276.335	150.81
276.567	161.81
276.799	176.81
277.031	176.81
277.262	185.81
277.494	180.81
277.726	157.81
277.957	171.81
278.189	164.81
278.421	167.81
278.652	145.81
278.884	152.81
279.115	165.81
279.347	162.81
279.579	145.81
279.81	154.81
280.042	167.81
280.273	167.81
280.505	160.81
280.736	140.81
280.968	162.81
281.199	149.81
281.431	154.81
281.662	161.81
281.894	162.81
282.125	151.81
282.356	172.81
282.588	169.81
282.819	170.81
283.051	156.81
283.282	159.81
283.513	151.81
283.745	147.81
283.976	157.81
284.207	163.81
284.439	152.81
284.67	157.81
284.901	151.81
285.132	159.81
285.364	172.81
285.595	155.81
285.826	157.81
286.057	150.81
286.288	170.81
286.52	146.81
286.751	172.81
286.982	152.81
287.213	165.81
287.444	165.81
287.675	170.81
287.906	167.81
288.138	171.81
288.369	172.81
288.6	177.81
288.831	165.81
289.062	149.81
289.293	173.81
289.524	177.81
289.755	170.81
289.986	148.81
290.217	163.81
290.448	157.81
290.679	161.81
290.91	172.81
291.141	167.81
291.371	167.81
291.602	164.81
291.833	156.81
292.064	171.81
292.295	160.81
292.526	173.81
292.757	173.81
292.987	152.81
293.218	161.81
293.449	164.81
293.68	163.81
293.91	160.81
294.141	169.81
294.372	163.81
294.603	175.81
294.833	159.81
295.064	171.81
295.295	187.81
295.525	167.81
295.756	174.81
295.987	160.81
296.217	189.81
296.448	185.81
296.679	181.81
296.909	164.81
297.14	161.81
297.37	174.81
297.601	168.81
297.831	156.81
298.062	170.81
298.292	181.81
298.523	165.81
298.753	175.81
298.984	165.81
299.214	169.81
299.445	168.81
299.675	184.81
299.905	183.81
300.136	179.81
300.366	170.81
300.597	163.81
300.827	172.81
301.057	182.81
301.288	171.81
301.518	185.81
301.748	181.81
301.979	181.81
302.209	189.81
302.439	170.81
302.669	169.81
302.9	179.81
303.13	170.81
303.36	174.81
303.59	184.81
303.82	195.81
304.051	188.81
304.281	170.81
304.511	190.81
304.741	187.81
304.971	161.81
305.201	168.81
305.431	181.81
305.661	176.81
305.891	170.81
306.121	186.81
306.352	193.81
306.582	176.81
306.812	177.81
307.042	174.81
307.272	196.81
307.502	176.81
307.731	179.81
307.961	182.81
308.191	175.81
308.421	177.81
308.651	178.81
308.881	188.81
309.111	186.81
309.341	179.81
309.571	187.81
309.8	203.81
310.03	199.81
310.26	182.81
310.49	202.81
310.72	219.81
310.949	227.81
311.179	216.81
311.409	199.81
311.639	209.81
311.868	214.81
312.098	212.81
312.328	201.81
312.557	214.81
312.787	216.81
313.017	208.81
313.246	215.81
313.476	189.81
313.706	199.81
313.935	211.81
314.165	216.81
314.394	220.81
314.624	211.81
314.853	204.81
315.083	200.81
315.312	194.81
315.542	183.81
315.771	193.81
316.001	200.81
316.23	198.81
316.46	204.81
316.689	207.81
316.919	207.81
317.148	214.81
317.377	212.81
317.607	223.81
317.836	189.81
318.065	200.81
318.295	198.81
318.524	199.81
318.753	192.81
318.983	196.81
319.212	201.81
319.441	203.81
319.67	206.81
319.9	202.81
320.129	203.81
320.358	189.81
320.587	201.81
320.816	197.81
321.046	213.81
321.275	216.81
321.504	203.81
321.733	204.81
321.962	210.81
322.191	208.81
322.42	224.81
322.649	215.81
322.878	233.81
323.108	231.81
323.337	232.81
323.566	241.81
323.795	270.81
324.024	295.81
324.253	344.81
324.482	490.81
324.71	718.81
324.939	938.81
325.168	748.81
325.397	412.81
325.626	308.81
325.855	253.81
326.084	225.81
326.313	248.81
326.542	240.81
326.77	267.81
326.999	333.81
327.228	443.81
327.457	622.81
327.686	695.81
327.914	497.81
328.143	341.81
328.372	319.81
328.6	286.81
328.829	280.81
329.058	283.81
329.287	301.81
329.515	284.81
329.744	252.81
329.972	251.81
330.201	280.81
330.43	315.81
330.658	331.81
330.887	323.81
331.115	315.81
331.344	258.81
331.572	278.81
331.801	257.81
332.03	224.81
332.258	250.81
332.486	229.81
332.715	236.81
332.943	227.81
333.172	218.81
333.4	220.81
333.629	253.81
333.857	264.81
334.085	243.81
334.314	267.81
334.542	296.81
334.771	303.81
334.999	274.81
335.227	240.81
335.455	227.81
335.684	248.81
335.912	227.81
336.14	235.81
336.369	230.81
336.597	233.81
336.825	213.81
337.053	228.81
337.281	229.81
337.51	203.81
337.738	204.81
337.966	222.81
338.194	230.81
338.422	226.81
338.65	211.81
338.878	209.81
339.106	207.81
339.334	225.81
339.562	222.81
339.79	219.81
340.018	209.81
340.246	222.81
340.474	214.81
340.702	222.81
340.93	214.81
341.158	213.81
341.386	217.81
341.614	205.81
341.842	232.81
342.07	219.81
342.298	219.81
342.526	216.81
342.754	212.81
342.981	199.81
343.209	200.81
343.437	208.81
343.665	231.81
343.893	223.81
344.12	228.81
344.348	229.81
344.576	219.81
344.804	218.81
345.031	236.81
345.259	228.81
345.487	215.81
345.714	227.81
345.942	200.81
346.17	219.81
346.397	193.81
346.625	201.81
346.853	196.81
347.08	208.81
347.308	212.81
347.535	217.81
347.763	225.81
347.99	213.81
348.218	227.81
348.445	206.81
348.673	233.81
348.9	220.81
349.128	200.81
349.355	211.81
349.583	192.81
349.81	198.81
350.037	190.81
350.265	210.81
350.492	202.81
350.72	212.81
350.947	214.81
351.174	212.81
351.402	200.81
351.629	218.81
351.856	205.81
352.083	227.81
352.311	233.81
352.538	236.81
352.765	215.81
352.992	214.81
353.22	212.81
353.447	208.81
353.674	215.81
353.901	200.81
354.128	213.81
354.355	202.81
354.583	203.81
354.81	184.81
355.037	207.81
355.264	192.81
355.491	192.81
355.718	207.81
355.945	205.81
356.172	204.81
356.399	199.81
356.626	174.81
356.853	196.81
357.08	194.81
357.307	195.81
357.534	183.81
357.761	200.81
357.988	192.81
358.215	210.81
358.441	203.81
358.668	203.81
358.895	197.81
359.122	203.81
359.349	200.81
359.576	203.81
359.802	240.81
360.029	232.81
360.256	233.81
360.483	244.81
360.709	214.81
360.936	211.81
361.163	221.81
361.39	209.81
361.616	216.81
361.843	213.81
362.07	206.81
362.296	203.81
362.523	232.81
362.749	231.81
362.976	209.81
363.203	202.81
363.429	203.81
363.656	213.81
363.882	200.81
364.109	207.81
364.335	204.81
364.562	204.81
364.788	205.81
365.015	189.81
365.241	199.81
365.468	213.81
365.694	200.81
365.92	211.81
366.147	200.81
366.373	209.81
366.599	213.81
366.826	221.81
367.052	204.81
367.278	189.81
367.505	191.81
367.731	200.81
367.957	189.81
368.184	196.81
368.41	220.81
368.636	216.81
368.862	227.81
369.089	207.81
369.315	204.81
369.541	195.81
369.767	211.81
369.993	218.81
370.219	209.81
370.445	199.81
370.672	205.81
370.898	188.81
371.124	189.81
371.35	199.81
371.576	192.81
371.802	197.81
372.028	195.81
372.254	210.81
372.48	205.81
372.706	195.81
372.932	180.81
373.158	175.81
373.384	197.81
373.61	207.81
373.835	199.81
374.061	191.81
374.287	209.81
374.513	201.81
374.739	200.81
374.965	207.81
375.191	218.81
375.416	208.81
375.642	193.81
375.868	202.81
376.094	211.81
376.319	208.81
376.545	211.81
376.771	197.81
376.997	204.81
377.222	199.81
377.448	192.81
377.674	190.81
377.899	180.81
378.125	201.81
378.35	198.81
378.576	197.81
378.802	179.81
379.027	203.81
379.253	201.81
379.478	186.81
379.704	195.81
379.929	184.81
380.155	192.81
380.38	204.81
380.606	193.81
380.831	199.81
381.057	212.81
381.282	203.81
381.507	204.81
381.733	212.81
381.958	205.81
382.184	212.81
382.409	201.81
382.634	193.81
382.86	204.81
383.085	197.81
383.31	205.81
383.535	193.81
383.761	203.81
383.986	192.81
384.211	197.81
384.436	215.81
384.662	217.81
384.887	193.81
385.112	201.81
385.337	214.81
385.562	220.81
385.787	218.81
386.013	227.81
386.238	215.81
386.463	222.81
386.688	220.81
386.913	234.81
387.138	212.81
387.363	210.81
387.588	221.81
387.813	216.81
388.038	221.81
388.263	190.81
388.488	211.81
388.713	212.81
388.938	217.81
389.163	212.81
389.387	210.81
389.612	215.81
389.837	207.81
390.062	219.81
390.287	204.81
390.512	220.81
390.736	209.81
390.961	226.81
391.186	209.81
391.411	209.81
391.636	216.81
391.86	225.81
392.085	216.81
392.31	225.81
392.534	209.81
392.759	221.81
392.984	222.81
393.208	220.81
393.433	221.81
393.658	220.81
393.882	202.81
394.107	214.81
394.331	228.81
394.556	231.81
394.78	213.81
395.005	215.81
395.229	218.81
395.454	219.81
395.678	225.81
395.903	214.81
396.127	235.81
396.352	246.81
396.576	223.81
396.801	223.81
397.025	221.81
397.249	231.81
397.474	223.81
397.698	220.81
397.922	235.81
398.147	248.81
398.371	243.81
398.595	229.81
398.82	229.81
399.044	252.81
399.268	249.81
399.492	258.81
399.717	269.81
399.941	285.81
400.165	275.81
400.389	284.81
400.613	257.81
400.837	245.81
401.062	237.81
401.286	244.81
401.51	258.81
401.734	243.81
401.958	246.81
402.182	241.81
402.406	259.81
402.63	249.81
402.854	261.81
403.078	244.81
403.302	247.81
403.526	241.81
403.75	263.81
403.974	243.81
404.198	245.81
404.422	258.81
404.645	262.81
404.869	246.81
405.093	294.81
405.317	300.81
405.541	287.81
405.765	281.81
405.988	268.81
406.212	265.81
406.436	291.81
406.66	288.81
406.883	283.81
407.107	277.81
407.331	291.81
407.555	297.81
407.778	308.81
408.002	259.81
408.226	277.81
408.449	263.81
408.673	269.81
408.896	265.81
409.12	288.81
409.344	275.81
409.567	269.81
409.791	253.81
410.014	251.81
410.238	248.81
410.461	240.81
410.685	247.81
410.908	266.81
411.132	262.81
411.355	277.81
411.578	261.81
411.802	238.81
412.025	252.81
412.249	262.81
412.472	258.81
412.695	298.81
412.919	280.81
413.142	263.81
413.365	247.81
413.589	251.81
413.812	232.81
414.035	229.81
414.258	230.81
414.482	232.81
414.705	219.81
414.928	233.81
415.151	245.81
415.374	246.81
415.597	225.81
415.821	233.81
416.044	233.81
416.267	239.81
416.49	226.81
416.713	240.81
416.936	231.81
417.159	255.81
417.382	247.81
417.605	237.81
417.828	265.81
418.051	239.81
418.274	228.81
418.497	238.81
418.72	226.81
418.943	249.81
419.166	257.81
419.389	264.81
419.611	243.81
419.834	244.81
420.057	261.81
420.28	251.81
420.503	251.81
420.726	257.81
420.948	261.81
421.171	286.81
421.394	284.81
421.617	262.81
421.839	260.81
422.062	250.81
422.285	259.81
422.507	264.81
422.73	302.81
422.953	291.81
423.175	261.81
423.398	258.81
423.621	250.81
423.843	272.81
424.066	270.81
424.288	249.81
424.511	266.81
424.733	298.81
424.956	334.81
425.178	307.81
425.401	311.81
425.623	310.81
425.846	273.81
426.068	265.81
426.291	283.81
426.513	272.81
426.735	255.81
426.958	277.81
427.18	316.81
427.402	374.81
427.625	375.81
427.847	360.81
428.069	319.81
428.292	293.81
428.514	254.81
428.736	243.81
428.958	251.81
429.181	247.81
429.403	234.81
429.625	255.81
429.847	263.81
430.069	300.81
430.292	294.81
430.514	265.81
430.736	238.81
430.958	249.81
431.18	219.81
431.402	222.81
431.624	227.81
431.846	224.81
432.068	244.81
432.29	235.81
432.512	236.81
432.734	235.81
432.956	244.81
433.178	242.81
433.4	254.81
433.622	238.81
433.844	234.81
434.066	235.81
434.287	231.81
434.509	235.81
434.731	227.81
434.953	251.81
435.175	250.81
435.397	256.81
435.618	261.81
435.84	275.81
436.062	319.81
436.284	330.81
436.505	280.81
436.727	277.81
436.949	248.81
437.17	248.81
437.392	243.81
437.614	255.81
437.835	271.81
438.057	308.81
438.278	334.81
438.5	311.81
438.721	371.81
438.943	348.81
439.165	287.81
439.386	276.81
439.608	257.81
439.829	272.81
440.05	270.81
440.272	271.81
440.493	281.81
440.715	260.81
440.936	277.81
441.158	258.81
441.379	256.81
441.6	269.81
441.822	270.81
442.043	254.81
442.264	321.81
442.486	321.81
442.707	273.81
442.928	288.81
443.149	269.81
443.371	286.81
443.592	290.81
443.813	317.81
444.034	312.81
444.255	316.81
444.476	273.81
444.698	267.81
444.919	262.81
445.14	354.81
445.361	312.81
445.582	290.81
445.803	320.81
446.024	352.81
446.245	352.81
446.466	321.81
446.687	288.81
446.908	252.81
447.129	249.81
447.35	239.81
447.571	246.81
447.792	238.81
448.013	236.81
448.234	247.81
448.455	265.81
448.675	308.81
448.896	356.81
449.117	304.81
449.338	300.81
449.559	315.81
449.779	377.81
450	303.81
450.221	262.81
450.442	250.81
450.662	247.81
450.883	261.81
451.104	245.81
451.324	245.81
451.545	251.81
451.766	241.81
451.986	206.81
452.207	231.81
452.428	209.81
452.648	219.81
452.869	229.81
453.089	248.81
453.31	221.81
453.53	227.81
453.751	229.81
453.971	229.81
454.192	247.81
454.412	233.81
454.633	235.81
454.853	216.81
455.073	217.81
455.294	245.81
455.514	261.81
455.734	262.81
455.955	233.81
456.175	219.81
456.395	225.81
456.616	201.81
456.836	204.81
457.056	224.81
457.276	197.81
457.497	213.81
457.717	210.81
457.937	216.81
458.157	215.81
458.377	234.81
458.598	234.81
458.818	258.81
459.038	308.81
459.258	291.81
459.478	259.81
459.698	232.81
459.918	239.81
460.138	229.81
460.358	237.81
460.578	240.81
460.798	239.81
461.018	229.81
461.238	245.81
461.458	231.81
461.678	219.81
461.898	227.81
462.118	241.81
462.338	250.81
462.558	228.81
462.777	249.81
462.997	251.81
463.217	239.81
463.437	239.81
463.657	263.81
463.876	241.81
464.096	250.81
464.316	243.81
464.536	259.81
464.755	261.81
464.975	249.81
465.195	296.81
465.414	343.81
465.634	281.81
465.854	262.81
466.073	250.81
466.293	239.81
466.512	235.81
466.732	219.81
466.951	225.81
467.171	240.81
467.391	246.81
467.61	223.81
467.829	229.81
468.049	220.81
468.268	232.81
468.488	234.81
468.707	233.81
468.927	222.81
469.146	216.81
469.365	231.81
469.585	227.81
469.804	216.81
470.023	239.81
470.243	243.81
470.462	241.81
470.681	251.81
470.901	237.81
471.12	240.81
471.339	223.81
471.558	243.81
471.777	250.81
471.997	231.81
472.216	229.81
472.435	270.81
472.654	236.81
472.873	245.81
473.092	224.81
473.311	211.81
473.53	221.81
473.749	226.81
473.968	253.81
474.187	300.81
474.406	299.81
474.625	259.81
474.844	233.81
475.063	232.81
475.282	241.81
475.501	228.81
475.72	246.81
475.939	246.81
476.158	238.81
476.377	259.81
476.596	236.81
476.814	250.81
477.033	255.81
477.252	237.81
477.471	247.81
477.69	256.81
477.908	243.81
478.127	244.81
478.346	236.81
478.564	248.81
478.783	254.81
479.002	249.81
479.22	275.81
479.439	252.81
479.658	265.81
479.876	283.81
480.095	271.81
480.313	291.81
480.532	291.81
480.751	264.81
480.969	285.81
481.188	348.81
481.406	362.81
481.624	295.81
481.843	281.81
482.061	271.81
482.28	269.81
482.498	256.81
482.717	246.81
482.935	263.81
483.153	264.81
483.372	265.81
483.59	271.81
483.808	271.81
484.027	264.81
484.245	275.81
484.463	284.81
484.681	264.81
484.9	272.81
485.118	273.81
485.336	274.81
485.554	277.81
485.772	279.81
485.99	276.81
486.209	288.81
486.427	276.81
486.645	270.81
486.863	296.81
487.081	302.81
487.299	291.81
487.517	293.81
487.735	293.81
487.953	291.81
488.171	277.81
488.389	289.81
488.607	282.81
488.825	279.81
489.043	272.81
489.261	281.81
489.479	288.81
489.696	296.81
489.914	295.81
490.132	290.81
490.35	281.81
490.568	323.81
490.786	308.81
491.003	308.81
491.221	304.81
491.439	315.81
491.657	317.81
491.874	333.81
492.092	320.81
492.31	328.81
492.527	339.81
492.745	329.81
492.963	329.81
493.18	329.81
493.398	339.81
493.615	357.81
493.833	331.81
494.05	334.81
494.268	315.81
494.485	349.81
494.703	328.81
494.92	341.81
495.138	337.81
495.355	351.81
495.573	337.81
495.79	343.81
496.008	340.81
496.225	315.81
496.442	328.81
496.66	341.81
496.877	339.81
497.094	324.81
497.312	329.81
497.529	337.81
497.746	331.81
497.963	329.81
498.181	343.81
498.398	353.81
498.615	360.81
498.832	371.81
499.049	350.81
499.267	376.81
499.484	371.81
499.701	392.81
499.918	391.81
500.135	407.81
500.352	436.81
500.569	437.81
500.786	420.81
501.003	441.81
501.22	425.81
501.437	399.81
501.654	391.81
501.871	385.81
502.088	391.81
502.305	352.81
502.522	360.81
