Data from 1966.PennyLincolnUp.Lamp.En5.5.200Scan.071719.P1._HRD10591_14-14-54-914.txt Node
Date: Thu Jul 18 14:14:54 EDT 2019
User: cochatt
Spectrometer: HR+D1059
Trigger mode: 1
Integration Time (sec): 1.000000E-1
Scans to average: 1
Electric dark correction enabled: true
Nonlinearity correction enabled: false
Boxcar width: 0
XAxis mode: Wavelengths
Number of Pixels in Spectrum: 2048
>>>>>Begin Spectral Data<<<<<
223.165	-29.12
223.4	-29.12
223.635	-29.12
223.869	-13.12
224.104	-16.12
224.338	-8.12
224.573	-18.12
224.808	-4.12
225.042	-2.12
225.277	-9.12
225.511	13.88
225.746	-3.12
225.98	0.88
226.215	9.88
226.449	13.88
226.683	1.88
226.918	24.88
227.152	37.88
227.387	24.88
227.621	33.88
227.856	44.88
228.09	45.88
228.324	50.88
228.559	50.88
228.793	55.88
229.027	68.88
229.262	78.88
229.496	79.88
229.73	95.88
229.964	99.88
230.199	91.88
230.433	87.88
230.667	80.88
230.901	83.88
231.136	94.88
231.37	87.88
231.604	95.88
231.838	89.88
232.072	83.88
232.306	86.88
232.541	106.88
232.775	91.88
233.009	98.88
233.243	84.88
233.477	83.88
233.711	90.88
233.945	90.88
234.179	101.88
234.413	95.88
234.647	85.88
234.881	97.88
235.115	99.88
235.349	97.88
235.583	97.88
235.817	98.88
236.051	100.88
236.285	90.88
236.519	94.88
236.753	108.88
236.987	104.88
237.221	125.88
237.455	148.88
237.689	123.88
237.922	109.88
238.156	94.88
238.39	97.88
238.624	92.88
238.858	101.88
239.091	106.88
239.325	99.88
239.559	90.88
239.793	93.88
240.027	97.88
240.26	102.88
240.494	125.88
240.728	119.88
240.961	100.88
241.195	111.88
241.429	107.88
241.662	103.88
241.896	121.88
242.13	106.88
242.363	85.88
242.597	100.88
242.83	92.88
243.064	104.88
243.298	110.88
243.531	114.88
243.765	103.88
243.998	100.88
244.232	100.88
244.465	95.88
244.699	116.88
244.932	101.88
245.166	87.88
245.399	115.88
245.633	100.88
245.866	112.88
246.099	109.88
246.333	104.88
246.566	110.88
246.8	122.88
247.033	108.88
247.266	109.88
247.5	122.88
247.733	118.88
247.966	105.88
248.2	108.88
248.433	122.88
248.666	130.88
248.899	122.88
249.133	136.88
249.366	143.88
249.599	137.88
249.832	121.88
250.066	132.88
250.299	114.88
250.532	135.88
250.765	129.88
250.998	141.88
251.231	154.88
251.465	142.88
251.698	139.88
251.931	136.88
252.164	119.88
252.397	125.88
252.63	132.88
252.863	129.88
253.096	139.88
253.329	149.88
253.562	154.88
253.795	138.88
254.028	143.88
254.261	143.88
254.494	153.88
254.727	170.88
254.96	168.88
255.193	167.88
255.426	140.88
255.659	146.88
255.892	157.88
256.124	152.88
256.357	148.88
256.59	135.88
256.823	131.88
257.056	135.88
257.289	135.88
257.521	152.88
257.754	128.88
257.987	133.88
258.22	134.88
258.452	123.88
258.685	145.88
258.918	128.88
259.151	146.88
259.383	142.88
259.616	136.88
259.849	147.88
260.081	157.88
260.314	160.88
260.547	166.88
260.779	159.88
261.012	134.88
261.244	140.88
261.477	131.88
261.71	147.88
261.942	138.88
262.175	135.88
262.407	151.88
262.64	147.88
262.872	144.88
263.105	146.88
263.337	133.88
263.57	139.88
263.802	154.88
264.035	153.88
264.267	130.88
264.499	128.88
264.732	136.88
264.964	127.88
265.197	139.88
265.429	138.88
265.661	130.88
265.894	139.88
266.126	153.88
266.358	140.88
266.591	146.88
266.823	136.88
267.055	135.88
267.287	145.88
267.52	132.88
267.752	147.88
267.984	144.88
268.216	140.88
268.448	141.88
268.681	160.88
268.913	158.88
269.145	165.88
269.377	163.88
269.609	164.88
269.841	161.88
270.073	171.88
270.306	185.88
270.538	198.88
270.77	184.88
271.002	156.88
271.234	168.88
271.466	186.88
271.698	186.88
271.93	183.88
272.162	190.88
272.394	208.88
272.626	191.88
272.858	176.88
273.09	167.88
273.322	162.88
273.553	155.88
273.785	154.88
274.017	144.88
274.249	156.88
274.481	155.88
274.713	150.88
274.945	166.88
275.176	170.88
275.408	144.88
275.64	142.88
275.872	167.88
276.104	158.88
276.335	159.88
276.567	170.88
276.799	195.88
277.031	202.88
277.262	197.88
277.494	182.88
277.726	189.88
277.957	173.88
278.189	168.88
278.421	163.88
278.652	167.88
278.884	164.88
279.115	149.88
279.347	162.88
279.579	169.88
279.81	163.88
280.042	178.88
280.273	154.88
280.505	178.88
280.736	168.88
280.968	160.88
281.199	160.88
281.431	159.88
281.662	172.88
281.894	160.88
282.125	184.88
282.356	191.88
282.588	190.88
282.819	180.88
283.051	159.88
283.282	150.88
283.513	164.88
283.745	162.88
283.976	170.88
284.207	156.88
284.439	174.88
284.67	162.88
284.901	156.88
285.132	183.88
285.364	178.88
285.595	171.88
285.826	162.88
286.057	181.88
286.288	163.88
286.52	179.88
286.751	162.88
286.982	178.88
287.213	168.88
287.444	180.88
287.675	176.88
287.906	194.88
288.138	199.88
288.369	189.88
288.6	171.88
288.831	186.88
289.062	176.88
289.293	184.88
289.524	182.88
289.755	167.88
289.986	168.88
290.217	156.88
290.448	176.88
290.679	175.88
290.91	175.88
291.141	171.88
291.371	171.88
291.602	175.88
291.833	174.88
292.064	179.88
292.295	186.88
292.526	170.88
292.757	164.88
292.987	172.88
293.218	189.88
293.449	163.88
293.68	169.88
293.91	171.88
294.141	175.88
294.372	178.88
294.603	162.88
294.833	192.88
295.064	178.88
295.295	190.88
295.525	181.88
295.756	189.88
295.987	180.88
296.217	181.88
296.448	205.88
296.679	173.88
296.909	175.88
297.14	176.88
297.37	179.88
297.601	178.88
297.831	187.88
298.062	179.88
298.292	183.88
298.523	176.88
298.753	180.88
298.984	168.88
299.214	175.88
299.445	172.88
299.675	179.88
299.905	186.88
300.136	170.88
300.366	166.88
300.597	198.88
300.827	172.88
301.057	182.88
301.288	197.88
301.518	182.88
301.748	172.88
301.979	204.88
302.209	196.88
302.439	181.88
302.669	195.88
302.9	186.88
303.13	194.88
303.36	176.88
303.59	175.88
303.82	208.88
304.051	201.88
304.281	203.88
304.511	184.88
304.741	182.88
304.971	174.88
305.201	200.88
305.431	174.88
305.661	202.88
305.891	203.88
306.121	188.88
306.352	206.88
306.582	204.88
306.812	190.88
307.042	208.88
307.272	188.88
307.502	199.88
307.731	189.88
307.961	190.88
308.191	207.88
308.421	200.88
308.651	195.88
308.881	179.88
309.111	208.88
309.341	190.88
309.571	220.88
309.8	212.88
310.03	204.88
310.26	210.88
310.49	211.88
310.72	243.88
310.949	218.88
311.179	218.88
311.409	218.88
311.639	207.88
311.868	214.88
312.098	210.88
312.328	217.88
312.557	214.88
312.787	224.88
313.017	222.88
313.246	210.88
313.476	205.88
313.706	217.88
313.935	228.88
314.165	237.88
314.394	232.88
314.624	233.88
314.853	212.88
315.083	207.88
315.312	213.88
315.542	215.88
315.771	226.88
316.001	216.88
316.23	204.88
316.46	205.88
316.689	224.88
316.919	222.88
317.148	215.88
317.377	225.88
317.607	214.88
317.836	206.88
318.065	222.88
318.295	199.88
318.524	205.88
318.753	198.88
318.983	201.88
319.212	208.88
319.441	201.88
319.67	216.88
319.9	225.88
320.129	227.88
320.358	211.88
320.587	219.88
320.816	199.88
321.046	213.88
321.275	230.88
321.504	207.88
321.733	223.88
321.962	221.88
322.191	239.88
322.42	255.88
322.649	245.88
322.878	235.88
323.108	245.88
323.337	280.88
323.566	276.88
323.795	275.88
324.024	309.88
324.253	358.88
324.482	534.88
324.71	789.88
324.939	1028.88
325.168	826.88
325.397	456.88
325.626	315.88
325.855	276.88
326.084	277.88
326.313	257.88
326.542	278.88
326.77	291.88
326.999	350.88
327.228	467.88
327.457	684.88
327.686	777.88
327.914	516.88
328.143	372.88
328.372	330.88
328.6	310.88
328.829	311.88
329.058	296.88
329.287	305.88
329.515	290.88
329.744	276.88
329.972	275.88
330.201	297.88
330.43	324.88
330.658	332.88
330.887	340.88
331.115	343.88
331.344	289.88
331.572	269.88
331.801	253.88
332.03	263.88
332.258	256.88
332.486	247.88
332.715	243.88
332.943	249.88
333.172	263.88
333.4	263.88
333.629	271.88
333.857	273.88
334.085	277.88
334.314	281.88
334.542	314.88
334.771	333.88
334.999	300.88
335.227	264.88
335.455	243.88
335.684	253.88
335.912	255.88
336.14	238.88
336.369	226.88
336.597	254.88
336.825	263.88
337.053	226.88
337.281	230.88
337.51	224.88
337.738	243.88
337.966	238.88
338.194	244.88
338.422	241.88
338.65	244.88
338.878	234.88
339.106	234.88
339.334	258.88
339.562	223.88
339.79	226.88
340.018	226.88
340.246	246.88
340.474	245.88
340.702	242.88
340.93	235.88
341.158	242.88
341.386	226.88
341.614	235.88
341.842	256.88
342.07	247.88
342.298	227.88
342.526	226.88
342.754	234.88
342.981	234.88
343.209	234.88
343.437	239.88
343.665	229.88
343.893	230.88
344.12	247.88
344.348	242.88
344.576	249.88
344.804	240.88
345.031	244.88
345.259	269.88
345.487	256.88
345.714	232.88
345.942	226.88
346.17	202.88
346.397	223.88
346.625	198.88
346.853	214.88
347.08	223.88
347.308	232.88
347.535	248.88
347.763	255.88
347.99	239.88
348.218	236.88
348.445	243.88
348.673	238.88
348.9	226.88
349.128	221.88
349.355	231.88
349.583	227.88
349.81	236.88
350.037	228.88
350.265	223.88
350.492	225.88
350.72	222.88
350.947	209.88
351.174	220.88
351.402	216.88
351.629	232.88
351.856	231.88
352.083	236.88
352.311	235.88
352.538	233.88
352.765	232.88
352.992	244.88
353.22	221.88
353.447	226.88
353.674	240.88
353.901	219.88
354.128	208.88
354.355	223.88
354.583	217.88
354.81	216.88
355.037	223.88
355.264	208.88
355.491	213.88
355.718	220.88
355.945	208.88
356.172	217.88
356.399	218.88
356.626	205.88
356.853	205.88
357.08	210.88
357.307	211.88
357.534	223.88
357.761	230.88
357.988	210.88
358.215	221.88
358.441	212.88
358.668	219.88
358.895	211.88
359.122	208.88
359.349	234.88
359.576	209.88
359.802	235.88
360.029	261.88
360.256	264.88
360.483	251.88
360.709	220.88
360.936	221.88
361.163	213.88
361.39	235.88
361.616	228.88
361.843	228.88
362.07	227.88
362.296	230.88
362.523	224.88
362.749	229.88
362.976	213.88
363.203	221.88
363.429	227.88
363.656	221.88
363.882	209.88
364.109	210.88
364.335	213.88
364.562	211.88
364.788	232.88
365.015	203.88
365.241	208.88
365.468	228.88
365.694	213.88
365.92	229.88
366.147	237.88
366.373	203.88
366.599	213.88
366.826	203.88
367.052	211.88
367.278	230.88
367.505	215.88
367.731	203.88
367.957	218.88
368.184	205.88
368.41	211.88
368.636	234.88
368.862	199.88
369.089	198.88
369.315	214.88
369.541	223.88
369.767	218.88
369.993	209.88
370.219	198.88
370.445	210.88
370.672	220.88
370.898	201.88
371.124	202.88
371.35	215.88
371.576	215.88
371.802	215.88
372.028	207.88
372.254	196.88
372.48	215.88
372.706	214.88
372.932	197.88
373.158	197.88
373.384	218.88
373.61	213.88
373.835	206.88
374.061	233.88
374.287	211.88
374.513	226.88
374.739	220.88
374.965	217.88
375.191	216.88
375.416	215.88
375.642	215.88
375.868	229.88
376.094	213.88
376.319	215.88
376.545	203.88
376.771	207.88
376.997	208.88
377.222	206.88
377.448	199.88
377.674	201.88
377.899	205.88
378.125	215.88
378.35	214.88
378.576	208.88
378.802	207.88
379.027	202.88
379.253	199.88
379.478	201.88
379.704	223.88
379.929	218.88
380.155	219.88
380.38	223.88
380.606	215.88
380.831	219.88
381.057	209.88
381.282	214.88
381.507	221.88
381.733	209.88
381.958	217.88
382.184	231.88
382.409	234.88
382.634	203.88
382.86	220.88
383.085	217.88
383.31	217.88
383.535	231.88
383.761	201.88
383.986	221.88
384.211	211.88
384.436	229.88
384.662	212.88
384.887	226.88
385.112	234.88
385.337	233.88
385.562	219.88
385.787	246.88
386.013	238.88
386.238	224.88
386.463	228.88
386.688	243.88
386.913	220.88
387.138	226.88
387.363	229.88
387.588	225.88
387.813	225.88
388.038	229.88
388.263	235.88
388.488	220.88
388.713	228.88
388.938	231.88
389.163	220.88
389.387	225.88
389.612	238.88
389.837	224.88
390.062	232.88
390.287	222.88
390.512	230.88
390.736	242.88
390.961	211.88
391.186	237.88
391.411	215.88
391.636	235.88
391.86	233.88
392.085	245.88
392.31	221.88
392.534	220.88
392.759	242.88
392.984	234.88
393.208	247.88
393.433	245.88
393.658	246.88
393.882	214.88
394.107	229.88
394.331	236.88
394.556	223.88
394.78	238.88
395.005	215.88
395.229	217.88
395.454	225.88
395.678	230.88
395.903	233.88
396.127	259.88
396.352	254.88
396.576	238.88
396.801	235.88
397.025	243.88
397.249	241.88
397.474	268.88
397.698	240.88
397.922	259.88
398.147	255.88
398.371	243.88
398.595	242.88
398.82	240.88
399.044	258.88
399.268	278.88
399.492	291.88
399.717	298.88
399.941	290.88
400.165	312.88
400.389	310.88
400.613	277.88
400.837	264.88
401.062	282.88
401.286	267.88
401.51	227.88
401.734	250.88
401.958	252.88
402.182	253.88
402.406	278.88
402.63	278.88
402.854	280.88
403.078	251.88
403.302	270.88
403.526	291.88
403.75	268.88
403.974	270.88
404.198	282.88
404.422	276.88
404.645	278.88
404.869	268.88
405.093	292.88
405.317	298.88
405.541	296.88
405.765	299.88
405.988	294.88
406.212	289.88
406.436	293.88
406.66	314.88
406.883	308.88
407.107	320.88
407.331	332.88
407.555	354.88
407.778	333.88
408.002	302.88
408.226	304.88
408.449	294.88
408.673	304.88
408.896	291.88
409.12	328.88
409.344	310.88
409.567	271.88
409.791	257.88
410.014	284.88
410.238	266.88
410.461	288.88
410.685	279.88
410.908	278.88
411.132	311.88
411.355	310.88
411.578	292.88
411.802	279.88
412.025	279.88
412.249	280.88
412.472	295.88
412.695	294.88
412.919	298.88
413.142	280.88
413.365	263.88
413.589	262.88
413.812	267.88
414.035	260.88
414.258	271.88
414.482	256.88
414.705	250.88
414.928	251.88
415.151	259.88
415.374	250.88
415.597	265.88
415.821	245.88
416.044	245.88
416.267	263.88
416.49	267.88
416.713	259.88
416.936	263.88
417.159	262.88
417.382	270.88
417.605	277.88
417.828	267.88
418.051	284.88
418.274	267.88
418.497	249.88
418.72	238.88
418.943	238.88
419.166	260.88
419.389	250.88
419.611	263.88
419.834	264.88
420.057	291.88
420.28	261.88
420.503	258.88
420.726	277.88
420.948	284.88
421.171	309.88
421.394	319.88
421.617	282.88
421.839	286.88
422.062	267.88
422.285	268.88
422.507	286.88
422.73	319.88
422.953	321.88
423.175	294.88
423.398	278.88
423.621	275.88
423.843	286.88
424.066	294.88
424.288	287.88
424.511	286.88
424.733	325.88
424.956	334.88
425.178	338.88
425.401	318.88
425.623	347.88
425.846	305.88
426.068	302.88
426.291	262.88
426.513	268.88
426.735	286.88
426.958	301.88
427.18	345.88
427.402	396.88
427.625	422.88
427.847	400.88
428.069	346.88
428.292	298.88
428.514	280.88
428.736	262.88
428.958	249.88
429.181	246.88
429.403	268.88
429.625	265.88
429.847	274.88
430.069	308.88
430.292	309.88
430.514	278.88
430.736	274.88
430.958	253.88
431.18	262.88
431.402	260.88
431.624	258.88
431.846	234.88
432.068	260.88
432.29	248.88
432.512	246.88
432.734	254.88
432.956	270.88
433.178	258.88
433.4	263.88
433.622	250.88
433.844	260.88
434.066	249.88
434.287	260.88
434.509	267.88
434.731	248.88
434.953	268.88
435.175	281.88
435.397	295.88
435.618	278.88
435.84	291.88
436.062	351.88
436.284	372.88
436.505	295.88
436.727	284.88
436.949	270.88
437.17	263.88
437.392	267.88
437.614	270.88
437.835	279.88
438.057	325.88
438.278	364.88
438.5	371.88
438.721	414.88
438.943	359.88
439.165	301.88
439.386	285.88
439.608	287.88
439.829	298.88
440.05	292.88
440.272	310.88
440.493	295.88
440.715	287.88
440.936	278.88
441.158	249.88
441.379	256.88
441.6	281.88
441.822	298.88
442.043	306.88
442.264	337.88
442.486	360.88
442.707	280.88
442.928	295.88
443.149	301.88
443.371	311.88
443.592	332.88
443.813	368.88
444.034	372.88
444.255	301.88
444.476	313.88
444.698	283.88
444.919	275.88
445.14	364.88
445.361	330.88
445.582	297.88
445.803	329.88
446.024	395.88
446.245	375.88
446.466	353.88
446.687	301.88
446.908	295.88
447.129	270.88
447.35	269.88
447.571	266.88
447.792	247.88
448.013	246.88
448.234	280.88
448.455	294.88
448.675	370.88
448.896	408.88
449.117	323.88
449.338	335.88
449.559	376.88
449.779	406.88
450	316.88
450.221	263.88
450.442	252.88
450.662	272.88
450.883	265.88
451.104	290.88
451.324	269.88
451.545	255.88
451.766	251.88
451.986	240.88
452.207	253.88
452.428	242.88
452.648	258.88
452.869	239.88
453.089	262.88
453.31	265.88
453.53	235.88
453.751	220.88
453.971	251.88
454.192	254.88
454.412	248.88
454.633	220.88
454.853	247.88
455.073	238.88
455.294	247.88
455.514	288.88
455.734	282.88
455.955	244.88
456.175	222.88
456.395	227.88
456.616	233.88
456.836	229.88
457.056	227.88
457.276	229.88
457.497	220.88
457.717	237.88
457.937	231.88
458.157	231.88
458.377	240.88
458.598	237.88
458.818	303.88
459.038	314.88
459.258	316.88
459.478	269.88
459.698	262.88
459.918	256.88
460.138	258.88
460.358	261.88
460.578	254.88
460.798	272.88
461.018	253.88
461.238	245.88
461.458	263.88
461.678	237.88
461.898	246.88
462.118	247.88
462.338	246.88
462.558	266.88
462.777	272.88
462.997	276.88
463.217	286.88
463.437	288.88
463.657	279.88
463.876	267.88
464.096	267.88
464.316	280.88
464.536	276.88
464.755	277.88
464.975	297.88
465.195	302.88
465.414	340.88
465.634	300.88
465.854	291.88
466.073	255.88
466.293	237.88
466.512	249.88
466.732	253.88
466.951	233.88
467.171	236.88
467.391	248.88
467.61	254.88
467.829	264.88
468.049	262.88
468.268	270.88
468.488	248.88
468.707	229.88
468.927	242.88
469.146	234.88
469.365	231.88
469.585	253.88
469.804	238.88
470.023	277.88
470.243	253.88
470.462	266.88
470.681	260.88
470.901	253.88
471.12	251.88
471.339	235.88
471.558	260.88
471.777	253.88
471.997	233.88
472.216	248.88
472.435	292.88
472.654	273.88
472.873	248.88
473.092	230.88
473.311	249.88
473.53	234.88
473.749	244.88
473.968	282.88
474.187	323.88
474.406	328.88
474.625	264.88
474.844	261.88
475.063	270.88
475.282	262.88
475.501	259.88
475.72	250.88
475.939	253.88
476.158	275.88
476.377	267.88
476.596	246.88
476.814	258.88
477.033	277.88
477.252	277.88
477.471	265.88
477.69	264.88
477.908	278.88
478.127	259.88
478.346	279.88
478.564	263.88
478.783	278.88
479.002	270.88
479.22	284.88
479.439	288.88
479.658	290.88
479.876	295.88
480.095	300.88
480.313	337.88
480.532	303.88
480.751	280.88
480.969	303.88
481.188	377.88
481.406	402.88
481.624	317.88
481.843	312.88
482.061	286.88
482.28	294.88
482.498	299.88
482.717	280.88
482.935	270.88
483.153	285.88
483.372	279.88
483.59	282.88
483.808	287.88
484.027	276.88
484.245	293.88
484.463	289.88
484.681	299.88
484.9	285.88
485.118	302.88
485.336	288.88
485.554	282.88
485.772	296.88
485.99	296.88
486.209	311.88
486.427	327.88
486.645	303.88
486.863	307.88
487.081	299.88
487.299	302.88
487.517	290.88
487.735	294.88
487.953	302.88
488.171	296.88
488.389	306.88
488.607	308.88
488.825	306.88
489.043	293.88
489.261	297.88
489.479	300.88
489.696	316.88
489.914	308.88
490.132	308.88
490.35	324.88
490.568	337.88
490.786	326.88
491.003	325.88
491.221	333.88
491.439	350.88
491.657	356.88
491.874	351.88
492.092	354.88
492.31	359.88
492.527	364.88
492.745	365.88
492.963	365.88
493.18	360.88
493.398	389.88
493.615	368.88
493.833	354.88
494.05	359.88
494.268	334.88
494.485	362.88
494.703	356.88
494.92	347.88
495.138	344.88
495.355	358.88
495.573	359.88
495.79	360.88
496.008	363.88
496.225	354.88
496.442	364.88
496.66	378.88
496.877	352.88
497.094	374.88
497.312	355.88
497.529	370.88
497.746	372.88
497.963	367.88
498.181	378.88
498.398	356.88
498.615	398.88
498.832	388.88
499.049	382.88
499.267	381.88
499.484	401.88
499.701	420.88
499.918	442.88
500.135	459.88
500.352	460.88
500.569	455.88
500.786	495.88
501.003	470.88
501.22	480.88
501.437	447.88
501.654	451.88
501.871	444.88
502.088	413.88
502.305	396.88
502.522	400.88
