Data from 1966.PennyLincolnUp.Lamp.En5.5.200Scan.071719.P1._HRD10591_14-12-46-914.txt Node
Date: Thu Jul 18 14:12:46 EDT 2019
User: cochatt
Spectrometer: HR+D1059
Trigger mode: 1
Integration Time (sec): 1.000000E-1
Scans to average: 1
Electric dark correction enabled: true
Nonlinearity correction enabled: false
Boxcar width: 0
XAxis mode: Wavelengths
Number of Pixels in Spectrum: 2048
>>>>>Begin Spectral Data<<<<<
223.165	-16.06
223.4	-16.06
223.635	-16.06
223.869	-21.06
224.104	-19.06
224.338	-17.06
224.573	-19.06
224.808	-20.06
225.042	8.94
225.277	0.94
225.511	-4.06
225.746	-7.06
225.98	-0.06
226.215	13.94
226.449	24.94
226.683	14.94
226.918	21.94
227.152	37.94
227.387	37.94
227.621	44.94
227.856	47.94
228.09	38.94
228.324	52.94
228.559	45.94
228.793	62.94
229.027	76.94
229.262	78.94
229.496	80.94
229.73	91.94
229.964	99.94
230.199	83.94
230.433	82.94
230.667	79.94
230.901	96.94
231.136	95.94
231.37	80.94
231.604	94.94
231.838	91.94
232.072	94.94
232.306	88.94
232.541	88.94
232.775	102.94
233.009	78.94
233.243	87.94
233.477	93.94
233.711	100.94
233.945	83.94
234.179	91.94
234.413	103.94
234.647	97.94
234.881	94.94
235.115	86.94
235.349	90.94
235.583	94.94
235.817	97.94
236.051	99.94
236.285	103.94
236.519	85.94
236.753	85.94
236.987	103.94
237.221	123.94
237.455	153.94
237.689	108.94
237.922	98.94
238.156	98.94
238.39	101.94
238.624	87.94
238.858	94.94
239.091	99.94
239.325	99.94
239.559	89.94
239.793	96.94
240.027	106.94
240.26	93.94
240.494	126.94
240.728	93.94
240.961	104.94
241.195	96.94
241.429	93.94
241.662	99.94
241.896	92.94
242.13	96.94
242.363	94.94
242.597	87.94
242.83	96.94
243.064	95.94
243.298	109.94
243.531	89.94
243.765	103.94
243.998	105.94
244.232	101.94
244.465	109.94
244.699	90.94
244.932	94.94
245.166	87.94
245.399	113.94
245.633	109.94
245.866	108.94
246.099	88.94
246.333	87.94
246.566	105.94
246.8	109.94
247.033	123.94
247.266	106.94
247.5	108.94
247.733	107.94
247.966	104.94
248.2	120.94
248.433	129.94
248.666	97.94
248.899	106.94
249.133	122.94
249.366	137.94
249.599	126.94
249.832	118.94
250.066	126.94
250.299	118.94
250.532	121.94
250.765	130.94
250.998	122.94
251.231	132.94
251.465	135.94
251.698	103.94
251.931	123.94
252.164	130.94
252.397	122.94
252.63	133.94
252.863	119.94
253.096	135.94
253.329	143.94
253.562	129.94
253.795	136.94
254.028	126.94
254.261	146.94
254.494	140.94
254.727	150.94
254.96	143.94
255.193	141.94
255.426	143.94
255.659	138.94
255.892	130.94
256.124	144.94
256.357	132.94
256.59	142.94
256.823	132.94
257.056	129.94
257.289	124.94
257.521	128.94
257.754	141.94
257.987	119.94
258.22	117.94
258.452	124.94
258.685	128.94
258.918	126.94
259.151	123.94
259.383	135.94
259.616	116.94
259.849	143.94
260.081	147.94
260.314	148.94
260.547	167.94
260.779	135.94
261.012	137.94
261.244	130.94
261.477	127.94
261.71	128.94
261.942	128.94
262.175	145.94
262.407	137.94
262.64	123.94
262.872	121.94
263.105	140.94
263.337	139.94
263.57	126.94
263.802	121.94
264.035	128.94
264.267	132.94
264.499	118.94
264.732	135.94
264.964	135.94
265.197	117.94
265.429	131.94
265.661	116.94
265.894	118.94
266.126	145.94
266.358	132.94
266.591	121.94
266.823	121.94
267.055	141.94
267.287	126.94
267.52	132.94
267.752	138.94
267.984	126.94
268.216	127.94
268.448	139.94
268.681	134.94
268.913	125.94
269.145	150.94
269.377	142.94
269.609	149.94
269.841	160.94
270.073	147.94
270.306	152.94
270.538	158.94
270.77	167.94
271.002	165.94
271.234	172.94
271.466	166.94
271.698	190.94
271.93	176.94
272.162	169.94
272.394	186.94
272.626	163.94
272.858	142.94
273.09	154.94
273.322	162.94
273.553	145.94
273.785	141.94
274.017	138.94
274.249	158.94
274.481	140.94
274.713	164.94
274.945	145.94
275.176	154.94
275.408	156.94
275.64	142.94
275.872	160.94
276.104	169.94
276.335	155.94
276.567	157.94
276.799	158.94
277.031	168.94
277.262	170.94
277.494	161.94
277.726	162.94
277.957	166.94
278.189	158.94
278.421	151.94
278.652	159.94
278.884	154.94
279.115	144.94
279.347	154.94
279.579	124.94
279.81	144.94
280.042	141.94
280.273	170.94
280.505	159.94
280.736	161.94
280.968	143.94
281.199	146.94
281.431	144.94
281.662	149.94
281.894	148.94
282.125	163.94
282.356	158.94
282.588	160.94
282.819	151.94
283.051	140.94
283.282	152.94
283.513	155.94
283.745	154.94
283.976	161.94
284.207	149.94
284.439	155.94
284.67	139.94
284.901	135.94
285.132	142.94
285.364	146.94
285.595	154.94
285.826	158.94
286.057	157.94
286.288	141.94
286.52	159.94
286.751	164.94
286.982	153.94
287.213	151.94
287.444	157.94
287.675	170.94
287.906	167.94
288.138	175.94
288.369	174.94
288.6	160.94
288.831	148.94
289.062	171.94
289.293	165.94
289.524	162.94
289.755	156.94
289.986	158.94
290.217	158.94
290.448	150.94
290.679	157.94
290.91	171.94
291.141	162.94
291.371	165.94
291.602	152.94
291.833	163.94
292.064	166.94
292.295	166.94
292.526	164.94
292.757	151.94
292.987	136.94
293.218	163.94
293.449	170.94
293.68	169.94
293.91	148.94
294.141	177.94
294.372	169.94
294.603	155.94
294.833	163.94
295.064	150.94
295.295	152.94
295.525	163.94
295.756	158.94
295.987	162.94
296.217	170.94
296.448	162.94
296.679	152.94
296.909	151.94
297.14	185.94
297.37	169.94
297.601	140.94
297.831	164.94
298.062	163.94
298.292	163.94
298.523	169.94
298.753	154.94
298.984	163.94
299.214	160.94
299.445	171.94
299.675	178.94
299.905	167.94
300.136	166.94
300.366	156.94
300.597	155.94
300.827	158.94
301.057	164.94
301.288	186.94
301.518	169.94
301.748	172.94
301.979	195.94
302.209	179.94
302.439	171.94
302.669	169.94
302.9	168.94
303.13	165.94
303.36	184.94
303.59	166.94
303.82	180.94
304.051	187.94
304.281	180.94
304.511	182.94
304.741	152.94
304.971	172.94
305.201	156.94
305.431	166.94
305.661	170.94
305.891	197.94
306.121	156.94
306.352	167.94
306.582	179.94
306.812	170.94
307.042	156.94
307.272	164.94
307.502	167.94
307.731	169.94
307.961	168.94
308.191	171.94
308.421	187.94
308.651	154.94
308.881	188.94
309.111	167.94
309.341	168.94
309.571	185.94
309.8	198.94
310.03	196.94
310.26	171.94
310.49	210.94
310.72	190.94
310.949	211.94
311.179	214.94
311.409	196.94
311.639	192.94
311.868	201.94
312.098	194.94
312.328	188.94
312.557	200.94
312.787	206.94
313.017	218.94
313.246	208.94
313.476	188.94
313.706	189.94
313.935	201.94
314.165	217.94
314.394	199.94
314.624	208.94
314.853	214.94
315.083	198.94
315.312	185.94
315.542	198.94
315.771	191.94
316.001	182.94
316.23	186.94
316.46	193.94
316.689	206.94
316.919	199.94
317.148	208.94
317.377	207.94
317.607	212.94
317.836	187.94
318.065	182.94
318.295	186.94
318.524	184.94
318.753	183.94
318.983	209.94
319.212	176.94
319.441	186.94
319.67	189.94
319.9	190.94
320.129	179.94
320.358	193.94
320.587	182.94
320.816	186.94
321.046	202.94
321.275	203.94
321.504	197.94
321.733	198.94
321.962	189.94
322.191	207.94
322.42	221.94
322.649	215.94
322.878	226.94
323.108	206.94
323.337	218.94
323.566	234.94
323.795	263.94
324.024	280.94
324.253	317.94
324.482	467.94
324.71	686.94
324.939	924.94
325.168	756.94
325.397	381.94
325.626	273.94
325.855	234.94
326.084	225.94
326.313	227.94
326.542	235.94
326.77	258.94
326.999	319.94
327.228	424.94
327.457	597.94
327.686	683.94
327.914	462.94
328.143	335.94
328.372	300.94
328.6	290.94
328.829	270.94
329.058	280.94
329.287	283.94
329.515	268.94
329.744	255.94
329.972	260.94
330.201	266.94
330.43	284.94
330.658	298.94
330.887	287.94
331.115	279.94
331.344	249.94
331.572	233.94
331.801	231.94
332.03	219.94
332.258	233.94
332.486	235.94
332.715	228.94
332.943	215.94
333.172	241.94
333.4	219.94
333.629	223.94
333.857	233.94
334.085	232.94
334.314	256.94
334.542	274.94
334.771	268.94
334.999	250.94
335.227	229.94
335.455	228.94
335.684	224.94
335.912	216.94
336.14	226.94
336.369	216.94
336.597	215.94
336.825	229.94
337.053	217.94
337.281	210.94
337.51	200.94
337.738	217.94
337.966	202.94
338.194	219.94
338.422	221.94
338.65	207.94
338.878	213.94
339.106	198.94
339.334	212.94
339.562	219.94
339.79	196.94
340.018	218.94
340.246	199.94
340.474	212.94
340.702	211.94
340.93	210.94
341.158	205.94
341.386	218.94
341.614	219.94
341.842	218.94
342.07	209.94
342.298	218.94
342.526	208.94
342.754	203.94
342.981	198.94
343.209	199.94
343.437	208.94
343.665	224.94
343.893	222.94
344.12	221.94
344.348	213.94
344.576	214.94
344.804	216.94
345.031	202.94
345.259	224.94
345.487	190.94
345.714	203.94
345.942	205.94
346.17	204.94
346.397	212.94
346.625	213.94
346.853	200.94
347.08	196.94
347.308	214.94
347.535	201.94
347.763	203.94
347.99	205.94
348.218	227.94
348.445	221.94
348.673	226.94
348.9	219.94
349.128	211.94
349.355	188.94
349.583	187.94
349.81	216.94
350.037	187.94
350.265	199.94
350.492	195.94
350.72	198.94
350.947	198.94
351.174	211.94
351.402	203.94
351.629	185.94
351.856	201.94
352.083	203.94
352.311	212.94
352.538	215.94
352.765	214.94
352.992	209.94
353.22	207.94
353.447	207.94
353.674	209.94
353.901	213.94
354.128	204.94
354.355	199.94
354.583	203.94
354.81	189.94
355.037	197.94
355.264	204.94
355.491	186.94
355.718	185.94
355.945	190.94
356.172	190.94
356.399	188.94
356.626	199.94
356.853	187.94
357.08	211.94
357.307	198.94
357.534	180.94
357.761	202.94
357.988	183.94
358.215	183.94
358.441	195.94
358.668	204.94
358.895	188.94
359.122	196.94
359.349	204.94
359.576	201.94
359.802	226.94
360.029	218.94
360.256	228.94
360.483	214.94
360.709	209.94
360.936	196.94
361.163	206.94
361.39	206.94
361.616	208.94
361.843	190.94
362.07	202.94
362.296	216.94
362.523	197.94
362.749	202.94
362.976	201.94
363.203	189.94
363.429	175.94
363.656	198.94
363.882	200.94
364.109	201.94
364.335	198.94
364.562	200.94
364.788	188.94
365.015	199.94
365.241	189.94
365.468	196.94
365.694	186.94
365.92	195.94
366.147	213.94
366.373	194.94
366.599	206.94
366.826	183.94
367.052	205.94
367.278	202.94
367.505	203.94
367.731	200.94
367.957	199.94
368.184	188.94
368.41	195.94
368.636	197.94
368.862	215.94
369.089	183.94
369.315	187.94
369.541	195.94
369.767	187.94
369.993	187.94
370.219	202.94
370.445	208.94
370.672	192.94
370.898	199.94
371.124	194.94
371.35	195.94
371.576	193.94
371.802	183.94
372.028	203.94
372.254	194.94
372.48	189.94
372.706	199.94
372.932	200.94
373.158	176.94
373.384	195.94
373.61	197.94
373.835	205.94
374.061	190.94
374.287	191.94
374.513	204.94
374.739	205.94
374.965	205.94
375.191	190.94
375.416	182.94
375.642	171.94
375.868	203.94
376.094	205.94
376.319	190.94
376.545	186.94
376.771	175.94
376.997	198.94
377.222	198.94
377.448	196.94
377.674	178.94
377.899	198.94
378.125	173.94
378.35	208.94
378.576	183.94
378.802	181.94
379.027	191.94
379.253	191.94
379.478	184.94
379.704	186.94
379.929	207.94
380.155	186.94
380.38	198.94
380.606	208.94
380.831	203.94
381.057	202.94
381.282	202.94
381.507	196.94
381.733	197.94
381.958	194.94
382.184	193.94
382.409	188.94
382.634	197.94
382.86	213.94
383.085	203.94
383.31	189.94
383.535	201.94
383.761	207.94
383.986	203.94
384.211	201.94
384.436	189.94
384.662	195.94
384.887	207.94
385.112	206.94
385.337	193.94
385.562	215.94
385.787	203.94
386.013	227.94
386.238	215.94
386.463	206.94
386.688	215.94
386.913	225.94
387.138	195.94
387.363	199.94
387.588	217.94
387.813	198.94
388.038	205.94
388.263	207.94
388.488	205.94
388.713	191.94
388.938	217.94
389.163	213.94
389.387	233.94
389.612	208.94
389.837	197.94
390.062	199.94
390.287	210.94
390.512	192.94
390.736	214.94
390.961	205.94
391.186	216.94
391.411	213.94
391.636	214.94
391.86	208.94
392.085	210.94
392.31	194.94
392.534	216.94
392.759	223.94
392.984	218.94
393.208	216.94
393.433	220.94
393.658	214.94
393.882	229.94
394.107	204.94
394.331	214.94
394.556	214.94
394.78	206.94
395.005	203.94
395.229	215.94
395.454	216.94
395.678	214.94
395.903	222.94
396.127	208.94
396.352	214.94
396.576	202.94
396.801	222.94
397.025	224.94
397.249	210.94
397.474	207.94
397.698	210.94
397.922	220.94
398.147	221.94
398.371	228.94
398.595	232.94
398.82	212.94
399.044	233.94
399.268	234.94
399.492	231.94
399.717	272.94
399.941	282.94
400.165	274.94
400.389	284.94
400.613	254.94
400.837	244.94
401.062	232.94
401.286	230.94
401.51	240.94
401.734	230.94
401.958	228.94
402.182	253.94
402.406	258.94
402.63	232.94
402.854	235.94
403.078	244.94
403.302	239.94
403.526	239.94
403.75	260.94
403.974	255.94
404.198	232.94
404.422	237.94
404.645	249.94
404.869	253.94
405.093	256.94
405.317	260.94
405.541	275.94
405.765	271.94
405.988	262.94
406.212	256.94
406.436	251.94
406.66	258.94
406.883	266.94
407.107	264.94
407.331	302.94
407.555	297.94
407.778	304.94
408.002	281.94
408.226	260.94
408.449	228.94
408.673	269.94
408.896	268.94
409.12	274.94
409.344	278.94
409.567	241.94
409.791	243.94
410.014	230.94
410.238	238.94
410.461	236.94
410.685	223.94
410.908	251.94
411.132	251.94
411.355	268.94
411.578	246.94
411.802	244.94
412.025	253.94
412.249	256.94
412.472	252.94
412.695	260.94
412.919	253.94
413.142	271.94
413.365	256.94
413.589	234.94
413.812	247.94
414.035	238.94
414.258	232.94
414.482	242.94
414.705	237.94
414.928	225.94
415.151	213.94
415.374	221.94
415.597	232.94
415.821	235.94
416.044	243.94
416.267	231.94
416.49	225.94
416.713	221.94
416.936	228.94
417.159	231.94
417.382	233.94
417.605	251.94
417.828	264.94
418.051	244.94
418.274	260.94
418.497	237.94
418.72	232.94
418.943	228.94
419.166	227.94
419.389	244.94
419.611	237.94
419.834	262.94
420.057	262.94
420.28	252.94
420.503	242.94
420.726	248.94
420.948	251.94
421.171	257.94
421.394	275.94
421.617	239.94
421.839	255.94
422.062	233.94
422.285	244.94
422.507	266.94
422.73	299.94
422.953	294.94
423.175	255.94
423.398	270.94
423.621	267.94
423.843	259.94
424.066	255.94
424.288	246.94
424.511	262.94
424.733	287.94
424.956	303.94
425.178	293.94
425.401	310.94
425.623	306.94
425.846	273.94
426.068	275.94
426.291	240.94
426.513	250.94
426.735	266.94
426.958	264.94
427.18	291.94
427.402	343.94
427.625	394.94
427.847	370.94
428.069	290.94
428.292	253.94
428.514	262.94
428.736	261.94
428.958	244.94
429.181	239.94
429.403	240.94
429.625	232.94
429.847	249.94
430.069	290.94
430.292	286.94
430.514	248.94
430.736	229.94
430.958	226.94
431.18	220.94
431.402	227.94
431.624	231.94
431.846	226.94
432.068	223.94
432.29	230.94
432.512	228.94
432.734	237.94
432.956	267.94
433.178	248.94
433.4	227.94
433.622	230.94
433.844	233.94
434.066	242.94
434.287	242.94
434.509	224.94
434.731	225.94
434.953	231.94
435.175	259.94
435.397	248.94
435.618	257.94
435.84	270.94
436.062	303.94
436.284	320.94
436.505	282.94
436.727	251.94
436.949	261.94
437.17	232.94
437.392	235.94
437.614	240.94
437.835	263.94
438.057	308.94
438.278	338.94
438.5	309.94
438.721	336.94
438.943	331.94
439.165	263.94
439.386	250.94
439.608	258.94
439.829	277.94
440.05	279.94
440.272	287.94
440.493	261.94
440.715	269.94
440.936	235.94
441.158	246.94
441.379	244.94
441.6	260.94
441.822	256.94
442.043	280.94
442.264	315.94
442.486	347.94
442.707	282.94
442.928	275.94
443.149	268.94
443.371	286.94
443.592	300.94
443.813	335.94
444.034	332.94
444.255	269.94
444.476	281.94
444.698	246.94
444.919	242.94
445.14	330.94
445.361	301.94
445.582	269.94
445.803	312.94
446.024	332.94
446.245	357.94
446.466	317.94
446.687	271.94
446.908	239.94
447.129	244.94
447.35	246.94
447.571	233.94
447.792	229.94
448.013	240.94
448.234	239.94
448.455	259.94
448.675	300.94
448.896	343.94
449.117	288.94
449.338	297.94
449.559	336.94
449.779	361.94
450	297.94
450.221	251.94
450.442	220.94
450.662	223.94
450.883	237.94
451.104	240.94
451.324	232.94
451.545	214.94
451.766	216.94
451.986	215.94
452.207	207.94
452.428	217.94
452.648	223.94
452.869	229.94
453.089	213.94
453.31	245.94
453.53	219.94
453.751	228.94
453.971	209.94
454.192	228.94
454.412	221.94
454.633	208.94
454.853	222.94
455.073	224.94
455.294	235.94
455.514	266.94
455.734	238.94
455.955	219.94
456.175	204.94
456.395	222.94
456.616	206.94
456.836	199.94
457.056	200.94
457.276	196.94
457.497	212.94
457.717	214.94
457.937	207.94
458.157	220.94
458.377	214.94
458.598	233.94
458.818	254.94
459.038	312.94
459.258	285.94
459.478	242.94
459.698	244.94
459.918	233.94
460.138	226.94
460.358	226.94
460.578	232.94
460.798	228.94
461.018	228.94
461.238	229.94
461.458	242.94
461.678	234.94
461.898	241.94
462.118	217.94
462.338	232.94
462.558	236.94
462.777	249.94
462.997	238.94
463.217	255.94
463.437	261.94
463.657	256.94
463.876	238.94
464.096	232.94
464.316	238.94
464.536	244.94
464.755	256.94
464.975	260.94
465.195	270.94
465.414	321.94
465.634	280.94
465.854	237.94
466.073	237.94
466.293	212.94
466.512	206.94
466.732	214.94
466.951	222.94
467.171	226.94
467.391	227.94
467.61	223.94
467.829	240.94
468.049	228.94
468.268	230.94
468.488	232.94
468.707	227.94
468.927	202.94
469.146	228.94
469.365	224.94
469.585	222.94
469.804	233.94
470.023	212.94
470.243	222.94
470.462	225.94
470.681	245.94
470.901	246.94
471.12	226.94
471.339	222.94
471.558	217.94
471.777	231.94
471.997	228.94
472.216	235.94
472.435	268.94
472.654	235.94
472.873	231.94
473.092	219.94
473.311	226.94
473.53	208.94
473.749	224.94
473.968	255.94
474.187	290.94
474.406	278.94
474.625	262.94
474.844	232.94
475.063	216.94
475.282	234.94
475.501	232.94
475.72	231.94
475.939	225.94
476.158	228.94
476.377	231.94
476.596	223.94
476.814	228.94
477.033	222.94
477.252	244.94
477.471	212.94
477.69	232.94
477.908	240.94
478.127	222.94
478.346	243.94
478.564	246.94
478.783	260.94
479.002	234.94
479.22	239.94
479.439	256.94
479.658	271.94
479.876	265.94
480.095	260.94
480.313	271.94
480.532	265.94
480.751	270.94
480.969	277.94
481.188	310.94
481.406	335.94
481.624	281.94
481.843	246.94
482.061	269.94
482.28	247.94
482.498	260.94
482.717	254.94
482.935	266.94
483.153	276.94
483.372	245.94
483.59	256.94
483.808	240.94
484.027	248.94
484.245	243.94
484.463	260.94
484.681	262.94
484.9	275.94
485.118	258.94
485.336	251.94
485.554	246.94
485.772	265.94
485.99	254.94
486.209	270.94
486.427	293.94
486.645	280.94
486.863	286.94
487.081	284.94
487.299	269.94
487.517	262.94
487.735	272.94
487.953	273.94
488.171	281.94
488.389	269.94
488.607	282.94
488.825	270.94
489.043	294.94
489.261	284.94
489.479	284.94
489.696	262.94
489.914	268.94
490.132	277.94
490.35	296.94
490.568	292.94
490.786	292.94
491.003	290.94
491.221	303.94
491.439	314.94
491.657	324.94
491.874	317.94
492.092	327.94
492.31	312.94
492.527	314.94
492.745	335.94
492.963	342.94
493.18	323.94
493.398	336.94
493.615	340.94
493.833	310.94
494.05	333.94
494.268	332.94
494.485	326.94
494.703	329.94
494.92	320.94
495.138	301.94
495.355	306.94
495.573	324.94
495.79	325.94
496.008	319.94
496.225	325.94
496.442	311.94
496.66	324.94
496.877	336.94
497.094	308.94
497.312	328.94
497.529	347.94
497.746	349.94
497.963	328.94
498.181	348.94
498.398	352.94
498.615	331.94
498.832	370.94
499.049	361.94
499.267	342.94
499.484	371.94
499.701	397.94
499.918	382.94
500.135	393.94
500.352	420.94
500.569	410.94
500.786	410.94
501.003	423.94
501.22	398.94
501.437	395.94
501.654	384.94
501.871	374.94
502.088	366.94
502.305	348.94
502.522	354.94
502.739	346.94
