Data from 1966.PennyLincolnUp.Lamp.En5.5.200Scan.071719.P1._HRD10591_14-12-44-913.txt Node
Date: Thu Jul 18 14:12:44 EDT 2019
User: cochatt
Spectrometer: HR+D1059
Trigger mode: 1
Integration Time (sec): 1.000000E-1
Scans to average: 1
Electric dark correction enabled: true
Nonlinearity correction enabled: false
Boxcar width: 0
XAxis mode: Wavelengths
Number of Pixels in Spectrum: 2048
>>>>>Begin Spectral Data<<<<<
223.165	-23.5
223.4	-23.5
223.635	-23.5
223.869	-6.5
224.104	-6.5
224.338	-10.5
224.573	-21.5
224.808	-6.5
225.042	0.5
225.277	-17.5
225.511	-13.5
225.746	0.5
225.98	3.5
226.215	5.5
226.449	25.5
226.683	15.5
226.918	33.5
227.152	21.5
227.387	42.5
227.621	45.5
227.856	46.5
228.09	50.5
228.324	63.5
228.559	53.5
228.793	66.5
229.027	77.5
229.262	91.5
229.496	91.5
229.73	101.5
229.964	117.5
230.199	86.5
230.433	84.5
230.667	98.5
230.901	95.5
231.136	99.5
231.37	95.5
231.604	92.5
231.838	83.5
232.072	85.5
232.306	84.5
232.541	113.5
232.775	105.5
233.009	89.5
233.243	90.5
233.477	90.5
233.711	101.5
233.945	102.5
234.179	94.5
234.413	95.5
234.647	89.5
234.881	101.5
235.115	105.5
235.349	90.5
235.583	93.5
235.817	97.5
236.051	100.5
236.285	103.5
236.519	95.5
236.753	110.5
236.987	107.5
237.221	138.5
237.455	150.5
237.689	120.5
237.922	113.5
238.156	99.5
238.39	99.5
238.624	110.5
238.858	107.5
239.091	99.5
239.325	90.5
239.559	106.5
239.793	93.5
240.027	103.5
240.26	109.5
240.494	98.5
240.728	98.5
240.961	117.5
241.195	106.5
241.429	105.5
241.662	105.5
241.896	106.5
242.13	92.5
242.363	98.5
242.597	106.5
242.83	114.5
243.064	100.5
243.298	112.5
243.531	96.5
243.765	110.5
243.998	98.5
244.232	110.5
244.465	105.5
244.699	103.5
244.932	112.5
245.166	110.5
245.399	103.5
245.633	111.5
245.866	103.5
246.099	111.5
246.333	118.5
246.566	103.5
246.8	123.5
247.033	106.5
247.266	87.5
247.5	125.5
247.733	107.5
247.966	112.5
248.2	133.5
248.433	113.5
248.666	116.5
248.899	124.5
249.133	138.5
249.366	140.5
249.599	129.5
249.832	124.5
250.066	110.5
250.299	117.5
250.532	123.5
250.765	129.5
250.998	153.5
251.231	128.5
251.465	125.5
251.698	129.5
251.931	135.5
252.164	141.5
252.397	137.5
252.63	130.5
252.863	130.5
253.096	137.5
253.329	144.5
253.562	146.5
253.795	120.5
254.028	154.5
254.261	142.5
254.494	143.5
254.727	151.5
254.96	173.5
255.193	167.5
255.426	141.5
255.659	140.5
255.892	147.5
256.124	155.5
256.357	160.5
256.59	150.5
256.823	137.5
257.056	133.5
257.289	143.5
257.521	134.5
257.754	135.5
257.987	141.5
258.22	130.5
258.452	129.5
258.685	130.5
258.918	137.5
259.151	133.5
259.383	133.5
259.616	146.5
259.849	144.5
260.081	155.5
260.314	165.5
260.547	153.5
260.779	142.5
261.012	133.5
261.244	145.5
261.477	137.5
261.71	135.5
261.942	117.5
262.175	152.5
262.407	159.5
262.64	128.5
262.872	159.5
263.105	129.5
263.337	132.5
263.57	136.5
263.802	123.5
264.035	141.5
264.267	142.5
264.499	123.5
264.732	129.5
264.964	127.5
265.197	121.5
265.429	138.5
265.661	128.5
265.894	144.5
266.126	126.5
266.358	144.5
266.591	148.5
266.823	151.5
267.055	128.5
267.287	135.5
267.52	153.5
267.752	119.5
267.984	129.5
268.216	139.5
268.448	149.5
268.681	118.5
268.913	157.5
269.145	160.5
269.377	155.5
269.609	174.5
269.841	156.5
270.073	160.5
270.306	167.5
270.538	163.5
270.77	193.5
271.002	177.5
271.234	178.5
271.466	178.5
271.698	180.5
271.93	165.5
272.162	187.5
272.394	181.5
272.626	146.5
272.858	171.5
273.09	153.5
273.322	178.5
273.553	156.5
273.785	151.5
274.017	164.5
274.249	162.5
274.481	155.5
274.713	162.5
274.945	170.5
275.176	165.5
275.408	155.5
275.64	162.5
275.872	161.5
276.104	165.5
276.335	164.5
276.567	145.5
276.799	157.5
277.031	189.5
277.262	171.5
277.494	175.5
277.726	174.5
277.957	172.5
278.189	151.5
278.421	151.5
278.652	154.5
278.884	158.5
279.115	169.5
279.347	147.5
279.579	160.5
279.81	160.5
280.042	161.5
280.273	172.5
280.505	151.5
280.736	152.5
280.968	172.5
281.199	162.5
281.431	146.5
281.662	156.5
281.894	153.5
282.125	160.5
282.356	152.5
282.588	182.5
282.819	183.5
283.051	157.5
283.282	169.5
283.513	169.5
283.745	165.5
283.976	175.5
284.207	160.5
284.439	171.5
284.67	173.5
284.901	159.5
285.132	157.5
285.364	174.5
285.595	156.5
285.826	160.5
286.057	160.5
286.288	170.5
286.52	158.5
286.751	163.5
286.982	160.5
287.213	169.5
287.444	166.5
287.675	156.5
287.906	178.5
288.138	183.5
288.369	170.5
288.6	175.5
288.831	172.5
289.062	177.5
289.293	167.5
289.524	168.5
289.755	168.5
289.986	164.5
290.217	144.5
290.448	165.5
290.679	171.5
290.91	160.5
291.141	171.5
291.371	158.5
291.602	177.5
291.833	165.5
292.064	162.5
292.295	172.5
292.526	162.5
292.757	172.5
292.987	169.5
293.218	157.5
293.449	162.5
293.68	168.5
293.91	163.5
294.141	151.5
294.372	162.5
294.603	165.5
294.833	170.5
295.064	181.5
295.295	181.5
295.525	167.5
295.756	174.5
295.987	191.5
296.217	181.5
296.448	185.5
296.679	171.5
296.909	165.5
297.14	162.5
297.37	169.5
297.601	172.5
297.831	172.5
298.062	162.5
298.292	170.5
298.523	173.5
298.753	193.5
298.984	178.5
299.214	165.5
299.445	169.5
299.675	167.5
299.905	183.5
300.136	157.5
300.366	155.5
300.597	182.5
300.827	171.5
301.057	171.5
301.288	189.5
301.518	189.5
301.748	175.5
301.979	182.5
302.209	189.5
302.439	187.5
302.669	178.5
302.9	186.5
303.13	171.5
303.36	173.5
303.59	195.5
303.82	192.5
304.051	194.5
304.281	183.5
304.511	187.5
304.741	173.5
304.971	186.5
305.201	173.5
305.431	185.5
305.661	180.5
305.891	186.5
306.121	190.5
306.352	194.5
306.582	168.5
306.812	181.5
307.042	193.5
307.272	194.5
307.502	187.5
307.731	175.5
307.961	184.5
308.191	178.5
308.421	179.5
308.651	182.5
308.881	192.5
309.111	183.5
309.341	177.5
309.571	200.5
309.8	191.5
310.03	207.5
310.26	196.5
310.49	202.5
310.72	208.5
310.949	196.5
311.179	204.5
311.409	194.5
311.639	200.5
311.868	192.5
312.098	203.5
312.328	204.5
312.557	215.5
312.787	226.5
313.017	231.5
313.246	214.5
313.476	207.5
313.706	205.5
313.935	210.5
314.165	204.5
314.394	218.5
314.624	208.5
314.853	206.5
315.083	207.5
315.312	198.5
315.542	186.5
315.771	193.5
316.001	191.5
316.23	182.5
316.46	205.5
316.689	188.5
316.919	212.5
317.148	198.5
317.377	218.5
317.607	191.5
317.836	206.5
318.065	195.5
318.295	190.5
318.524	205.5
318.753	202.5
318.983	199.5
319.212	203.5
319.441	206.5
319.67	210.5
319.9	200.5
320.129	203.5
320.358	219.5
320.587	203.5
320.816	217.5
321.046	218.5
321.275	207.5
321.504	205.5
321.733	212.5
321.962	222.5
322.191	219.5
322.42	209.5
322.649	220.5
322.878	216.5
323.108	227.5
323.337	240.5
323.566	263.5
323.795	259.5
324.024	290.5
324.253	330.5
324.482	447.5
324.71	681.5
324.939	936.5
325.168	748.5
325.397	397.5
325.626	272.5
325.855	235.5
326.084	251.5
326.313	227.5
326.542	242.5
326.77	271.5
326.999	324.5
327.228	439.5
327.457	611.5
327.686	695.5
327.914	457.5
328.143	329.5
328.372	309.5
328.6	291.5
328.829	280.5
329.058	279.5
329.287	286.5
329.515	279.5
329.744	261.5
329.972	246.5
330.201	269.5
330.43	298.5
330.658	281.5
330.887	322.5
331.115	301.5
331.344	277.5
331.572	248.5
331.801	250.5
332.03	264.5
332.258	235.5
332.486	236.5
332.715	232.5
332.943	223.5
333.172	227.5
333.4	249.5
333.629	242.5
333.857	239.5
334.085	244.5
334.314	266.5
334.542	298.5
334.771	298.5
334.999	255.5
335.227	241.5
335.455	229.5
335.684	233.5
335.912	219.5
336.14	225.5
336.369	215.5
336.597	221.5
336.825	249.5
337.053	221.5
337.281	207.5
337.51	212.5
337.738	210.5
337.966	203.5
338.194	212.5
338.422	238.5
338.65	211.5
338.878	230.5
339.106	188.5
339.334	243.5
339.562	221.5
339.79	222.5
340.018	218.5
340.246	234.5
340.474	225.5
340.702	226.5
340.93	225.5
341.158	206.5
341.386	203.5
341.614	234.5
341.842	221.5
342.07	210.5
342.298	215.5
342.526	205.5
342.754	206.5
342.981	197.5
343.209	211.5
343.437	222.5
343.665	227.5
343.893	221.5
344.12	220.5
344.348	234.5
344.576	217.5
344.804	217.5
345.031	235.5
345.259	223.5
345.487	234.5
345.714	231.5
345.942	215.5
346.17	213.5
346.397	202.5
346.625	213.5
346.853	219.5
347.08	206.5
347.308	216.5
347.535	215.5
347.763	231.5
347.99	224.5
348.218	225.5
348.445	216.5
348.673	222.5
348.9	205.5
349.128	219.5
349.355	215.5
349.583	197.5
349.81	216.5
350.037	227.5
350.265	190.5
350.492	219.5
350.72	206.5
350.947	210.5
351.174	199.5
351.402	212.5
351.629	218.5
351.856	216.5
352.083	213.5
352.311	232.5
352.538	222.5
352.765	211.5
352.992	237.5
353.22	209.5
353.447	205.5
353.674	198.5
353.901	203.5
354.128	205.5
354.355	207.5
354.583	215.5
354.81	191.5
355.037	199.5
355.264	205.5
355.491	214.5
355.718	196.5
355.945	203.5
356.172	195.5
356.399	189.5
356.626	200.5
356.853	201.5
357.08	190.5
357.307	202.5
357.534	201.5
357.761	196.5
357.988	207.5
358.215	198.5
358.441	202.5
358.668	201.5
358.895	208.5
359.122	207.5
359.349	203.5
359.576	215.5
359.802	231.5
360.029	235.5
360.256	228.5
360.483	229.5
360.709	220.5
360.936	220.5
361.163	215.5
361.39	208.5
361.616	219.5
361.843	226.5
362.07	207.5
362.296	224.5
362.523	198.5
362.749	208.5
362.976	212.5
363.203	201.5
363.429	205.5
363.656	205.5
363.882	207.5
364.109	201.5
364.335	225.5
364.562	223.5
364.788	201.5
365.015	205.5
365.241	209.5
365.468	212.5
365.694	207.5
365.92	203.5
366.147	206.5
366.373	202.5
366.599	201.5
366.826	207.5
367.052	203.5
367.278	200.5
367.505	201.5
367.731	214.5
367.957	214.5
368.184	210.5
368.41	212.5
368.636	213.5
368.862	221.5
369.089	208.5
369.315	190.5
369.541	207.5
369.767	221.5
369.993	203.5
370.219	203.5
370.445	211.5
370.672	221.5
370.898	200.5
371.124	205.5
371.35	209.5
371.576	207.5
371.802	205.5
372.028	212.5
372.254	231.5
372.48	193.5
372.706	214.5
372.932	202.5
373.158	208.5
373.384	209.5
373.61	203.5
373.835	190.5
374.061	197.5
374.287	199.5
374.513	215.5
374.739	206.5
374.965	205.5
375.191	189.5
375.416	220.5
375.642	196.5
375.868	209.5
376.094	197.5
376.319	189.5
376.545	200.5
376.771	205.5
376.997	208.5
377.222	202.5
377.448	200.5
377.674	201.5
377.899	190.5
378.125	203.5
378.35	196.5
378.576	199.5
378.802	209.5
379.027	198.5
379.253	202.5
379.478	188.5
379.704	183.5
379.929	212.5
380.155	206.5
380.38	206.5
380.606	210.5
380.831	220.5
381.057	224.5
381.282	218.5
381.507	206.5
381.733	219.5
381.958	206.5
382.184	206.5
382.409	207.5
382.634	215.5
382.86	208.5
383.085	218.5
383.31	210.5
383.535	200.5
383.761	215.5
383.986	213.5
384.211	216.5
384.436	224.5
384.662	211.5
384.887	203.5
385.112	201.5
385.337	215.5
385.562	235.5
385.787	217.5
386.013	235.5
386.238	204.5
386.463	231.5
386.688	217.5
386.913	214.5
387.138	206.5
387.363	214.5
387.588	234.5
387.813	208.5
388.038	220.5
388.263	208.5
388.488	218.5
388.713	227.5
388.938	211.5
389.163	224.5
389.387	205.5
389.612	217.5
389.837	207.5
390.062	203.5
390.287	216.5
390.512	221.5
390.736	204.5
390.961	223.5
391.186	204.5
391.411	214.5
391.636	227.5
391.86	217.5
392.085	226.5
392.31	249.5
392.534	229.5
392.759	236.5
392.984	220.5
393.208	213.5
393.433	226.5
393.658	219.5
393.882	221.5
394.107	213.5
394.331	219.5
394.556	217.5
394.78	222.5
395.005	220.5
395.229	238.5
395.454	230.5
395.678	218.5
395.903	228.5
396.127	224.5
396.352	234.5
396.576	236.5
396.801	211.5
397.025	226.5
397.249	226.5
397.474	231.5
397.698	215.5
397.922	232.5
398.147	246.5
398.371	255.5
398.595	236.5
398.82	240.5
399.044	245.5
399.268	265.5
399.492	263.5
399.717	267.5
399.941	286.5
400.165	284.5
400.389	278.5
400.613	269.5
400.837	257.5
401.062	239.5
401.286	249.5
401.51	238.5
401.734	235.5
401.958	267.5
402.182	247.5
402.406	259.5
402.63	261.5
402.854	260.5
403.078	261.5
403.302	255.5
403.526	254.5
403.75	267.5
403.974	250.5
404.198	259.5
404.422	271.5
404.645	249.5
404.869	269.5
405.093	289.5
405.317	279.5
405.541	302.5
405.765	273.5
405.988	272.5
406.212	247.5
406.436	290.5
406.66	290.5
406.883	293.5
407.107	292.5
407.331	297.5
407.555	320.5
407.778	307.5
408.002	287.5
408.226	286.5
408.449	274.5
408.673	272.5
408.896	283.5
409.12	294.5
409.344	268.5
409.567	273.5
409.791	267.5
410.014	250.5
410.238	258.5
410.461	245.5
410.685	281.5
410.908	263.5
411.132	276.5
411.355	288.5
411.578	271.5
411.802	251.5
412.025	242.5
412.249	247.5
412.472	263.5
412.695	273.5
412.919	278.5
413.142	272.5
413.365	259.5
413.589	249.5
413.812	221.5
414.035	252.5
414.258	238.5
414.482	236.5
414.705	240.5
414.928	250.5
415.151	249.5
415.374	240.5
415.597	241.5
415.821	245.5
416.044	253.5
416.267	235.5
416.49	249.5
416.713	251.5
416.936	238.5
417.159	241.5
417.382	246.5
417.605	265.5
417.828	247.5
418.051	250.5
418.274	250.5
418.497	253.5
418.72	247.5
418.943	233.5
419.166	255.5
419.389	269.5
419.611	252.5
419.834	252.5
420.057	260.5
420.28	266.5
420.503	262.5
420.726	262.5
420.948	249.5
421.171	277.5
421.394	275.5
421.617	276.5
421.839	262.5
422.062	258.5
422.285	263.5
422.507	287.5
422.73	325.5
422.953	294.5
423.175	269.5
423.398	263.5
423.621	274.5
423.843	270.5
424.066	271.5
424.288	283.5
424.511	264.5
424.733	304.5
424.956	326.5
425.178	303.5
425.401	290.5
425.623	341.5
425.846	286.5
426.068	280.5
426.291	295.5
426.513	270.5
426.735	266.5
426.958	269.5
427.18	324.5
427.402	361.5
427.625	415.5
427.847	360.5
428.069	301.5
428.292	280.5
428.514	267.5
428.736	263.5
428.958	262.5
429.181	244.5
429.403	247.5
429.625	263.5
429.847	266.5
430.069	290.5
430.292	299.5
430.514	258.5
430.736	248.5
430.958	236.5
431.18	235.5
431.402	239.5
431.624	249.5
431.846	220.5
432.068	235.5
432.29	236.5
432.512	228.5
432.734	247.5
432.956	231.5
433.178	236.5
433.4	241.5
433.622	232.5
433.844	263.5
434.066	233.5
434.287	259.5
434.509	242.5
434.731	252.5
434.953	243.5
435.175	265.5
435.397	263.5
435.618	271.5
435.84	278.5
436.062	319.5
436.284	341.5
436.505	294.5
436.727	253.5
436.949	274.5
437.17	264.5
437.392	263.5
437.614	264.5
437.835	296.5
438.057	328.5
438.278	353.5
438.5	327.5
438.721	386.5
438.943	354.5
439.165	285.5
439.386	265.5
439.608	276.5
439.829	286.5
440.05	282.5
440.272	299.5
440.493	275.5
440.715	264.5
440.936	247.5
441.158	256.5
441.379	257.5
441.6	263.5
441.822	277.5
442.043	313.5
442.264	333.5
442.486	336.5
442.707	282.5
442.928	253.5
443.149	288.5
443.371	298.5
443.592	303.5
443.813	326.5
444.034	353.5
444.255	290.5
444.476	285.5
444.698	277.5
444.919	264.5
445.14	360.5
445.361	326.5
445.582	292.5
445.803	314.5
446.024	356.5
446.245	357.5
446.466	317.5
446.687	293.5
446.908	255.5
447.129	238.5
447.35	240.5
447.571	265.5
447.792	258.5
448.013	270.5
448.234	264.5
448.455	275.5
448.675	308.5
448.896	363.5
449.117	313.5
449.338	299.5
449.559	327.5
449.779	371.5
450	320.5
450.221	256.5
450.442	268.5
450.662	240.5
450.883	244.5
451.104	274.5
451.324	224.5
451.545	221.5
451.766	235.5
451.986	218.5
452.207	215.5
452.428	205.5
452.648	233.5
452.869	245.5
453.089	223.5
453.31	257.5
453.53	230.5
453.751	238.5
453.971	231.5
454.192	255.5
454.412	233.5
454.633	223.5
454.853	226.5
455.073	215.5
455.294	241.5
455.514	277.5
455.734	247.5
455.955	222.5
456.175	213.5
456.395	224.5
456.616	209.5
456.836	209.5
457.056	202.5
457.276	215.5
457.497	208.5
457.717	221.5
457.937	230.5
458.157	219.5
458.377	220.5
458.598	237.5
458.818	280.5
459.038	295.5
459.258	304.5
459.478	263.5
459.698	234.5
459.918	241.5
460.138	240.5
460.358	241.5
460.578	239.5
460.798	267.5
461.018	236.5
461.238	255.5
461.458	231.5
461.678	234.5
461.898	248.5
462.118	233.5
462.338	238.5
462.558	247.5
462.777	231.5
462.997	251.5
463.217	269.5
463.437	284.5
463.657	262.5
463.876	267.5
464.096	256.5
464.316	262.5
464.536	288.5
464.755	253.5
464.975	267.5
465.195	305.5
465.414	333.5
465.634	280.5
465.854	258.5
466.073	239.5
466.293	243.5
466.512	225.5
466.732	253.5
466.951	240.5
467.171	231.5
467.391	219.5
467.61	245.5
467.829	261.5
468.049	253.5
468.268	257.5
468.488	232.5
468.707	228.5
468.927	249.5
469.146	231.5
469.365	246.5
469.585	223.5
469.804	241.5
470.023	251.5
470.243	253.5
470.462	246.5
470.681	247.5
470.901	213.5
471.12	231.5
471.339	222.5
471.558	233.5
471.777	247.5
471.997	240.5
472.216	229.5
472.435	280.5
472.654	261.5
472.873	235.5
473.092	230.5
473.311	224.5
473.53	219.5
473.749	227.5
473.968	259.5
474.187	305.5
474.406	313.5
474.625	271.5
474.844	231.5
475.063	230.5
475.282	219.5
475.501	235.5
475.72	234.5
475.939	236.5
476.158	237.5
476.377	234.5
476.596	248.5
476.814	248.5
477.033	244.5
477.252	233.5
477.471	271.5
477.69	271.5
477.908	253.5
478.127	246.5
478.346	261.5
478.564	270.5
478.783	262.5
479.002	272.5
479.22	275.5
479.439	256.5
479.658	293.5
479.876	279.5
480.095	284.5
480.313	305.5
480.532	297.5
480.751	293.5
480.969	290.5
481.188	333.5
481.406	368.5
481.624	290.5
481.843	285.5
482.061	282.5
482.28	268.5
482.498	268.5
482.717	273.5
482.935	271.5
483.153	259.5
483.372	275.5
483.59	269.5
483.808	279.5
484.027	267.5
484.245	268.5
484.463	286.5
484.681	270.5
484.9	258.5
485.118	301.5
485.336	270.5
485.554	277.5
485.772	290.5
485.99	263.5
486.209	277.5
486.427	294.5
486.645	287.5
486.863	319.5
487.081	291.5
487.299	296.5
487.517	296.5
487.735	295.5
487.953	271.5
488.171	293.5
488.389	280.5
488.607	261.5
488.825	283.5
489.043	283.5
489.261	299.5
489.479	300.5
489.696	299.5
489.914	297.5
490.132	314.5
490.35	296.5
490.568	313.5
490.786	292.5
491.003	327.5
491.221	329.5
491.439	325.5
491.657	331.5
491.874	339.5
492.092	344.5
492.31	347.5
492.527	329.5
492.745	328.5
492.963	319.5
493.18	347.5
493.398	352.5
493.615	368.5
493.833	343.5
494.05	334.5
494.268	341.5
494.485	337.5
494.703	337.5
494.92	330.5
495.138	349.5
495.355	338.5
495.573	352.5
495.79	360.5
496.008	336.5
496.225	361.5
496.442	343.5
496.66	315.5
496.877	321.5
497.094	354.5
497.312	330.5
497.529	345.5
497.746	354.5
497.963	336.5
498.181	358.5
498.398	362.5
498.615	353.5
498.832	373.5
499.049	365.5
499.267	398.5
499.484	381.5
499.701	401.5
499.918	401.5
500.135	435.5
500.352	448.5
500.569	456.5
500.786	458.5
501.003	419.5
501.22	415.5
501.437	434.5
501.654	423.5
501.871	431.5
502.088	379.5
502.305	372.5
502.522	365.5
502.739	353.5
502.956	346.5
503.172	347.5
503.389	335.5
503.606	331.5
503.823	352.5
504.04	330.5
504.256	340.5
504.473	335.5
504.69	332.5
504.907	343.5
505.123	317.5
505.34	306.5
505.557	296.5
505.773	304.5
505.99	326.5
506.207	317.5
506.423	328.5
506.64	302.5
506.856	300.5
507.073	314.5
507.289	304.5
507.506	312.5
507.722	321.5
507.939	328.5
508.155	305.5
508.372	287.5
508.588	297.5
508.805	285.5
509.021	306.5
509.238	313.5
509.454	311.5
509.67	312.5
509.887	318.5
510.103	317.5
510.319	309.5
510.536	379.5
510.752	702.5
510.968	505.5
511.184	311.5
511.401	307.5
511.617	291.5
511.833	299.5
512.049	254.5
512.265	301.5
512.481	298.5
512.698	269.5
512.914	284.5
513.13	272.5
513.346	279.5
513.562	278.5
513.778	302.5
513.994	271.5
514.21	299.5
514.426	297.5
514.642	350.5
514.858	335.5
515.074	357.5
515.29	458.5
515.506	733.5
515.721	560.5
515.937	348.5
516.153	313.5
516.369	299.5
516.585	285.5
516.801	299.5
517.016	290.5
517.232	296.5
517.448	300.5
517.664	316.5
517.879	298.5
518.095	279.5
518.311	279.5
518.527	291.5
518.742	288.5
518.958	295.5
519.173	291.5
519.389	294.5
519.605	287.5
519.82	293.5
520.036	289.5
520.251	303.5
520.467	322.5
