Data from 1966.PennyLincolnUp.Lamp.En5.5.200Scan.071719.P1._HRD10591_14-14-24-915.txt Node
Date: Thu Jul 18 14:14:24 EDT 2019
User: cochatt
Spectrometer: HR+D1059
Trigger mode: 1
Integration Time (sec): 1.000000E-1
Scans to average: 1
Electric dark correction enabled: true
Nonlinearity correction enabled: false
Boxcar width: 0
XAxis mode: Wavelengths
Number of Pixels in Spectrum: 2048
>>>>>Begin Spectral Data<<<<<
223.165	-7.19
223.4	-7.19
223.635	-7.19
223.869	-11.19
224.104	-17.19
224.338	-3.19
224.573	-26.19
224.808	-20.19
225.042	-13.19
225.277	-10.19
225.511	-4.19
225.746	16.81
225.98	4.81
226.215	18.81
226.449	8.81
226.683	17.81
226.918	19.81
227.152	25.81
227.387	42.81
227.621	19.81
227.856	39.81
228.09	50.81
228.324	57.81
228.559	62.81
228.793	61.81
229.027	74.81
229.262	73.81
229.496	82.81
229.73	98.81
229.964	123.81
230.199	104.81
230.433	88.81
230.667	73.81
230.901	97.81
231.136	82.81
231.37	95.81
231.604	84.81
231.838	84.81
232.072	89.81
232.306	90.81
232.541	88.81
232.775	90.81
233.009	91.81
233.243	100.81
233.477	93.81
233.711	96.81
233.945	95.81
234.179	94.81
234.413	84.81
234.647	94.81
234.881	87.81
235.115	102.81
235.349	86.81
235.583	92.81
235.817	107.81
236.051	111.81
236.285	92.81
236.519	91.81
236.753	99.81
236.987	104.81
237.221	122.81
237.455	155.81
237.689	130.81
237.922	97.81
238.156	110.81
238.39	105.81
238.624	95.81
238.858	96.81
239.091	84.81
239.325	85.81
239.559	98.81
239.793	103.81
240.027	104.81
240.26	104.81
240.494	109.81
240.728	120.81
240.961	114.81
241.195	98.81
241.429	101.81
241.662	89.81
241.896	94.81
242.13	98.81
242.363	98.81
242.597	101.81
242.83	113.81
243.064	117.81
243.298	109.81
243.531	96.81
243.765	84.81
243.998	100.81
244.232	110.81
244.465	114.81
244.699	115.81
244.932	103.81
245.166	114.81
245.399	107.81
245.633	109.81
245.866	119.81
246.099	119.81
246.333	112.81
246.566	115.81
246.8	117.81
247.033	105.81
247.266	122.81
247.5	121.81
247.733	111.81
247.966	115.81
248.2	113.81
248.433	102.81
248.666	121.81
248.899	127.81
249.133	149.81
249.366	142.81
249.599	136.81
249.832	117.81
250.066	136.81
250.299	123.81
250.532	121.81
250.765	131.81
250.998	153.81
251.231	143.81
251.465	122.81
251.698	130.81
251.931	127.81
252.164	136.81
252.397	126.81
252.63	139.81
252.863	137.81
253.096	141.81
253.329	135.81
253.562	151.81
253.795	150.81
254.028	147.81
254.261	129.81
254.494	133.81
254.727	158.81
254.96	169.81
255.193	153.81
255.426	138.81
255.659	132.81
255.892	130.81
256.124	139.81
256.357	145.81
256.59	139.81
256.823	150.81
257.056	143.81
257.289	149.81
257.521	147.81
257.754	136.81
257.987	123.81
258.22	136.81
258.452	122.81
258.685	135.81
258.918	151.81
259.151	147.81
259.383	140.81
259.616	144.81
259.849	148.81
260.081	154.81
260.314	153.81
260.547	146.81
260.779	158.81
261.012	152.81
261.244	131.81
261.477	130.81
261.71	141.81
261.942	137.81
262.175	146.81
262.407	147.81
262.64	128.81
262.872	126.81
263.105	137.81
263.337	134.81
263.57	136.81
263.802	122.81
264.035	134.81
264.267	149.81
264.499	127.81
264.732	132.81
264.964	131.81
265.197	141.81
265.429	145.81
265.661	129.81
265.894	151.81
266.126	135.81
266.358	148.81
266.591	121.81
266.823	142.81
267.055	141.81
267.287	139.81
267.52	143.81
267.752	157.81
267.984	149.81
268.216	139.81
268.448	140.81
268.681	145.81
268.913	163.81
269.145	169.81
269.377	173.81
269.609	162.81
269.841	163.81
270.073	172.81
270.306	173.81
270.538	187.81
270.77	182.81
271.002	165.81
271.234	173.81
271.466	190.81
271.698	192.81
271.93	189.81
272.162	181.81
272.394	189.81
272.626	161.81
272.858	162.81
273.09	166.81
273.322	147.81
273.553	158.81
273.785	157.81
274.017	153.81
274.249	160.81
274.481	143.81
274.713	154.81
274.945	153.81
275.176	180.81
275.408	146.81
275.64	157.81
275.872	154.81
276.104	151.81
276.335	175.81
276.567	159.81
276.799	172.81
277.031	199.81
277.262	196.81
277.494	194.81
277.726	196.81
277.957	184.81
278.189	169.81
278.421	143.81
278.652	177.81
278.884	156.81
279.115	164.81
279.347	145.81
279.579	151.81
279.81	149.81
280.042	146.81
280.273	158.81
280.505	175.81
280.736	169.81
280.968	153.81
281.199	174.81
281.431	156.81
281.662	157.81
281.894	163.81
282.125	167.81
282.356	184.81
282.588	189.81
282.819	174.81
283.051	149.81
283.282	173.81
283.513	161.81
283.745	162.81
283.976	150.81
284.207	168.81
284.439	159.81
284.67	182.81
284.901	172.81
285.132	156.81
285.364	152.81
285.595	166.81
285.826	159.81
286.057	155.81
286.288	155.81
286.52	160.81
286.751	170.81
286.982	165.81
287.213	156.81
287.444	171.81
287.675	178.81
287.906	177.81
288.138	190.81
288.369	178.81
288.6	197.81
288.831	173.81
289.062	162.81
289.293	159.81
289.524	167.81
289.755	177.81
289.986	169.81
290.217	163.81
290.448	158.81
290.679	175.81
290.91	165.81
291.141	159.81
291.371	173.81
291.602	170.81
291.833	177.81
292.064	160.81
292.295	163.81
292.526	168.81
292.757	175.81
292.987	165.81
293.218	166.81
293.449	174.81
293.68	167.81
293.91	163.81
294.141	168.81
294.372	171.81
294.603	165.81
294.833	181.81
295.064	179.81
295.295	175.81
295.525	173.81
295.756	181.81
295.987	179.81
296.217	196.81
296.448	202.81
296.679	203.81
296.909	171.81
297.14	177.81
297.37	166.81
297.601	169.81
297.831	166.81
298.062	174.81
298.292	177.81
298.523	181.81
298.753	175.81
298.984	173.81
299.214	171.81
299.445	173.81
299.675	172.81
299.905	178.81
300.136	178.81
300.366	174.81
300.597	182.81
300.827	180.81
301.057	168.81
301.288	198.81
301.518	174.81
301.748	183.81
301.979	205.81
302.209	199.81
302.439	190.81
302.669	195.81
302.9	195.81
303.13	202.81
303.36	195.81
303.59	199.81
303.82	173.81
304.051	184.81
304.281	187.81
304.511	183.81
304.741	189.81
304.971	168.81
305.201	177.81
305.431	181.81
305.661	191.81
305.891	198.81
306.121	190.81
306.352	187.81
306.582	198.81
306.812	205.81
307.042	190.81
307.272	181.81
307.502	196.81
307.731	187.81
307.961	181.81
308.191	183.81
308.421	194.81
308.651	181.81
308.881	189.81
309.111	186.81
309.341	189.81
309.571	190.81
309.8	198.81
310.03	195.81
310.26	197.81
310.49	196.81
310.72	221.81
310.949	219.81
311.179	234.81
311.409	218.81
311.639	206.81
311.868	201.81
312.098	196.81
312.328	200.81
312.557	219.81
312.787	220.81
313.017	245.81
313.246	222.81
313.476	204.81
313.706	221.81
313.935	217.81
314.165	221.81
314.394	237.81
314.624	230.81
314.853	220.81
315.083	202.81
315.312	207.81
315.542	217.81
315.771	197.81
316.001	195.81
316.23	202.81
316.46	201.81
316.689	214.81
316.919	221.81
317.148	204.81
317.377	217.81
317.607	206.81
317.836	217.81
318.065	206.81
318.295	206.81
318.524	210.81
318.753	221.81
318.983	223.81
319.212	214.81
319.441	208.81
319.67	229.81
319.9	209.81
320.129	213.81
320.358	211.81
320.587	205.81
320.816	213.81
321.046	217.81
321.275	210.81
321.504	204.81
321.733	220.81
321.962	214.81
322.191	221.81
322.42	236.81
322.649	249.81
322.878	250.81
323.108	241.81
323.337	246.81
323.566	274.81
323.795	266.81
324.024	321.81
324.253	371.81
324.482	524.81
324.71	779.81
324.939	1031.81
325.168	869.81
325.397	452.81
325.626	305.81
325.855	277.81
326.084	278.81
326.313	259.81
326.542	273.81
326.77	290.81
326.999	366.81
327.228	471.81
327.457	703.81
327.686	788.81
327.914	511.81
328.143	363.81
328.372	306.81
328.6	313.81
328.829	288.81
329.058	317.81
329.287	323.81
329.515	293.81
329.744	277.81
329.972	279.81
330.201	288.81
330.43	317.81
330.658	341.81
330.887	343.81
331.115	331.81
331.344	284.81
331.572	270.81
331.801	271.81
332.03	252.81
332.258	251.81
332.486	249.81
332.715	245.81
332.943	258.81
333.172	222.81
333.4	247.81
333.629	261.81
333.857	258.81
334.085	280.81
334.314	291.81
334.542	302.81
334.771	329.81
334.999	264.81
335.227	263.81
335.455	255.81
335.684	269.81
335.912	238.81
336.14	261.81
336.369	230.81
336.597	260.81
336.825	241.81
337.053	251.81
337.281	237.81
337.51	243.81
337.738	229.81
337.966	232.81
338.194	242.81
338.422	238.81
338.65	226.81
338.878	234.81
339.106	217.81
339.334	233.81
339.562	228.81
339.79	226.81
340.018	244.81
340.246	238.81
340.474	237.81
340.702	235.81
340.93	218.81
341.158	236.81
341.386	226.81
341.614	241.81
341.842	215.81
342.07	219.81
342.298	221.81
342.526	226.81
342.754	226.81
342.981	219.81
343.209	225.81
343.437	234.81
343.665	234.81
343.893	220.81
344.12	222.81
344.348	250.81
344.576	238.81
344.804	230.81
345.031	233.81
345.259	233.81
345.487	238.81
345.714	225.81
345.942	233.81
346.17	214.81
346.397	241.81
346.625	233.81
346.853	225.81
347.08	207.81
347.308	224.81
347.535	230.81
347.763	222.81
347.99	243.81
348.218	225.81
348.445	241.81
348.673	228.81
348.9	205.81
349.128	204.81
349.355	214.81
349.583	219.81
349.81	216.81
350.037	197.81
350.265	221.81
350.492	208.81
350.72	211.81
350.947	202.81
351.174	218.81
351.402	237.81
351.629	230.81
351.856	221.81
352.083	214.81
352.311	234.81
352.538	238.81
352.765	227.81
352.992	219.81
353.22	244.81
353.447	222.81
353.674	221.81
353.901	228.81
354.128	219.81
354.355	203.81
354.583	207.81
354.81	230.81
355.037	206.81
355.264	201.81
355.491	187.81
355.718	206.81
355.945	210.81
356.172	222.81
356.399	187.81
356.626	200.81
356.853	205.81
357.08	189.81
357.307	186.81
357.534	199.81
357.761	197.81
357.988	200.81
358.215	206.81
358.441	201.81
358.668	207.81
358.895	215.81
359.122	241.81
359.349	234.81
359.576	235.81
359.802	271.81
360.029	247.81
360.256	280.81
360.483	253.81
360.709	214.81
360.936	223.81
361.163	215.81
361.39	210.81
361.616	242.81
361.843	218.81
362.07	200.81
362.296	222.81
362.523	226.81
362.749	224.81
362.976	214.81
363.203	220.81
363.429	223.81
363.656	220.81
363.882	209.81
364.109	185.81
364.335	213.81
364.562	213.81
364.788	202.81
365.015	215.81
365.241	227.81
365.468	220.81
365.694	232.81
365.92	220.81
366.147	207.81
366.373	222.81
366.599	190.81
366.826	217.81
367.052	195.81
367.278	189.81
367.505	215.81
367.731	212.81
367.957	204.81
368.184	209.81
368.41	207.81
368.636	207.81
368.862	233.81
369.089	226.81
369.315	205.81
369.541	195.81
369.767	215.81
369.993	207.81
370.219	221.81
370.445	208.81
370.672	209.81
370.898	210.81
371.124	186.81
371.35	204.81
371.576	194.81
371.802	228.81
372.028	204.81
372.254	191.81
372.48	209.81
372.706	213.81
372.932	198.81
373.158	205.81
373.384	204.81
373.61	206.81
373.835	205.81
374.061	210.81
374.287	207.81
374.513	206.81
374.739	207.81
374.965	217.81
375.191	221.81
375.416	197.81
375.642	221.81
375.868	196.81
376.094	211.81
376.319	207.81
376.545	205.81
376.771	203.81
376.997	218.81
377.222	205.81
377.448	214.81
377.674	209.81
377.899	206.81
378.125	189.81
378.35	205.81
378.576	206.81
378.802	198.81
379.027	210.81
379.253	198.81
379.478	202.81
379.704	205.81
379.929	204.81
380.155	215.81
380.38	213.81
380.606	215.81
380.831	205.81
381.057	196.81
381.282	191.81
381.507	203.81
381.733	219.81
381.958	204.81
382.184	198.81
382.409	225.81
382.634	203.81
382.86	225.81
383.085	212.81
383.31	216.81
383.535	202.81
383.761	220.81
383.986	198.81
384.211	223.81
384.436	213.81
384.662	207.81
384.887	234.81
385.112	200.81
385.337	211.81
385.562	218.81
385.787	232.81
386.013	223.81
386.238	220.81
386.463	207.81
386.688	213.81
386.913	230.81
387.138	225.81
387.363	220.81
387.588	218.81
387.813	237.81
388.038	232.81
388.263	222.81
388.488	205.81
388.713	215.81
388.938	210.81
389.163	229.81
389.387	222.81
389.612	221.81
389.837	235.81
390.062	223.81
390.287	230.81
390.512	210.81
390.736	209.81
390.961	220.81
391.186	207.81
391.411	222.81
391.636	220.81
391.86	231.81
392.085	231.81
392.31	246.81
392.534	224.81
392.759	246.81
392.984	223.81
393.208	235.81
393.433	248.81
393.658	234.81
393.882	228.81
394.107	232.81
394.331	226.81
394.556	228.81
394.78	220.81
395.005	215.81
395.229	209.81
395.454	221.81
395.678	223.81
395.903	236.81
396.127	256.81
396.352	224.81
396.576	234.81
396.801	226.81
397.025	241.81
397.249	247.81
397.474	241.81
397.698	228.81
397.922	237.81
398.147	245.81
398.371	241.81
398.595	249.81
398.82	244.81
399.044	238.81
399.268	271.81
399.492	280.81
399.717	292.81
399.941	290.81
400.165	294.81
400.389	282.81
400.613	276.81
400.837	254.81
401.062	250.81
401.286	246.81
401.51	251.81
401.734	249.81
401.958	262.81
402.182	260.81
402.406	272.81
402.63	273.81
402.854	267.81
403.078	270.81
403.302	267.81
403.526	279.81
403.75	277.81
403.974	257.81
404.198	269.81
404.422	279.81
404.645	276.81
404.869	270.81
405.093	274.81
405.317	301.81
405.541	303.81
405.765	278.81
405.988	269.81
406.212	264.81
406.436	321.81
406.66	294.81
406.883	271.81
407.107	296.81
407.331	318.81
407.555	330.81
407.778	325.81
408.002	291.81
408.226	281.81
408.449	294.81
408.673	292.81
408.896	318.81
409.12	313.81
409.344	277.81
409.567	272.81
409.791	255.81
410.014	257.81
410.238	258.81
410.461	257.81
410.685	263.81
410.908	254.81
411.132	279.81
411.355	293.81
411.578	289.81
411.802	269.81
412.025	281.81
412.249	282.81
412.472	274.81
412.695	296.81
412.919	294.81
413.142	262.81
413.365	256.81
413.589	242.81
413.812	263.81
414.035	257.81
414.258	268.81
414.482	240.81
414.705	245.81
414.928	259.81
415.151	247.81
415.374	246.81
415.597	245.81
415.821	237.81
416.044	249.81
416.267	255.81
416.49	261.81
416.713	252.81
416.936	261.81
417.159	261.81
417.382	260.81
417.605	243.81
417.828	267.81
418.051	265.81
418.274	260.81
418.497	254.81
418.72	251.81
418.943	250.81
419.166	263.81
419.389	287.81
419.611	259.81
419.834	273.81
420.057	269.81
420.28	278.81
420.503	289.81
420.726	274.81
420.948	266.81
421.171	289.81
421.394	292.81
421.617	253.81
421.839	262.81
422.062	257.81
422.285	262.81
422.507	289.81
422.73	328.81
422.953	305.81
423.175	278.81
423.398	244.81
423.621	279.81
423.843	278.81
424.066	290.81
424.288	283.81
424.511	277.81
424.733	320.81
424.956	335.81
425.178	318.81
425.401	334.81
425.623	334.81
425.846	306.81
426.068	273.81
426.291	264.81
426.513	274.81
426.735	283.81
426.958	284.81
427.18	333.81
427.402	389.81
427.625	417.81
427.847	372.81
428.069	309.81
428.292	283.81
428.514	273.81
428.736	284.81
428.958	273.81
429.181	265.81
429.403	246.81
429.625	257.81
429.847	270.81
430.069	305.81
430.292	300.81
430.514	249.81
430.736	249.81
430.958	256.81
431.18	247.81
431.402	258.81
431.624	245.81
431.846	220.81
432.068	257.81
432.29	238.81
432.512	254.81
432.734	247.81
432.956	258.81
433.178	254.81
433.4	262.81
433.622	259.81
433.844	244.81
434.066	248.81
434.287	248.81
434.509	229.81
434.731	267.81
434.953	245.81
435.175	272.81
435.397	271.81
435.618	277.81
435.84	323.81
436.062	346.81
436.284	359.81
436.505	300.81
436.727	281.81
436.949	261.81
437.17	251.81
437.392	261.81
437.614	259.81
437.835	298.81
438.057	343.81
438.278	367.81
438.5	366.81
438.721	385.81
438.943	350.81
439.165	294.81
439.386	289.81
439.608	281.81
439.829	294.81
440.05	289.81
440.272	302.81
440.493	296.81
440.715	267.81
440.936	256.81
441.158	254.81
441.379	280.81
441.6	275.81
441.822	289.81
442.043	308.81
442.264	348.81
442.486	346.81
442.707	317.81
442.928	306.81
443.149	301.81
443.371	304.81
443.592	309.81
443.813	351.81
444.034	360.81
444.255	309.81
444.476	280.81
444.698	282.81
444.919	285.81
445.14	398.81
445.361	317.81
445.582	294.81
445.803	348.81
446.024	392.81
446.245	377.81
446.466	356.81
446.687	317.81
446.908	292.81
447.129	267.81
447.35	260.81
447.571	258.81
447.792	260.81
448.013	247.81
448.234	263.81
448.455	306.81
448.675	349.81
448.896	382.81
449.117	314.81
449.338	308.81
449.559	375.81
449.779	383.81
450	337.81
450.221	273.81
450.442	257.81
450.662	242.81
450.883	255.81
451.104	259.81
451.324	271.81
451.545	247.81
451.766	229.81
451.986	249.81
452.207	230.81
452.428	259.81
452.648	244.81
452.869	248.81
453.089	250.81
453.31	243.81
453.53	232.81
453.751	252.81
453.971	253.81
454.192	257.81
454.412	234.81
454.633	225.81
454.853	223.81
455.073	228.81
455.294	250.81
455.514	284.81
455.734	266.81
455.955	236.81
456.175	215.81
456.395	215.81
456.616	230.81
456.836	207.81
457.056	206.81
457.276	219.81
457.497	231.81
457.717	234.81
457.937	211.81
458.157	226.81
458.377	232.81
458.598	260.81
458.818	291.81
459.038	322.81
459.258	313.81
459.478	248.81
459.698	246.81
459.918	237.81
460.138	249.81
460.358	240.81
460.578	272.81
460.798	247.81
461.018	266.81
461.238	262.81
461.458	233.81
461.678	245.81
461.898	250.81
462.118	261.81
462.338	250.81
462.558	251.81
462.777	268.81
462.997	252.81
463.217	261.81
463.437	265.81
463.657	261.81
463.876	246.81
464.096	253.81
464.316	267.81
464.536	280.81
464.755	277.81
464.975	275.81
465.195	295.81
465.414	370.81
465.634	295.81
465.854	260.81
466.073	253.81
466.293	251.81
466.512	237.81
466.732	246.81
466.951	249.81
467.171	230.81
467.391	251.81
467.61	234.81
467.829	258.81
468.049	243.81
468.268	254.81
468.488	243.81
468.707	243.81
468.927	241.81
469.146	233.81
469.365	212.81
469.585	249.81
469.804	246.81
470.023	250.81
470.243	252.81
470.462	239.81
470.681	281.81
470.901	269.81
471.12	240.81
471.339	247.81
471.558	250.81
471.777	238.81
471.997	231.81
472.216	247.81
472.435	277.81
472.654	260.81
472.873	237.81
473.092	240.81
473.311	241.81
473.53	237.81
473.749	230.81
473.968	263.81
474.187	344.81
474.406	315.81
474.625	243.81
474.844	269.81
475.063	228.81
475.282	236.81
475.501	251.81
475.72	251.81
475.939	246.81
476.158	249.81
476.377	264.81
476.596	246.81
476.814	254.81
477.033	275.81
477.252	267.81
477.471	267.81
477.69	256.81
477.908	272.81
478.127	262.81
478.346	248.81
478.564	271.81
478.783	248.81
479.002	252.81
479.22	277.81
479.439	289.81
479.658	295.81
479.876	294.81
480.095	317.81
480.313	313.81
480.532	299.81
480.751	284.81
480.969	316.81
481.188	356.81
481.406	390.81
481.624	323.81
481.843	306.81
482.061	299.81
482.28	300.81
482.498	293.81
482.717	278.81
482.935	295.81
483.153	273.81
483.372	271.81
483.59	274.81
483.808	283.81
484.027	259.81
484.245	275.81
484.463	283.81
484.681	298.81
484.9	289.81
485.118	271.81
485.336	290.81
485.554	294.81
485.772	289.81
485.99	288.81
486.209	295.81
486.427	294.81
486.645	312.81
486.863	306.81
487.081	312.81
487.299	310.81
487.517	281.81
487.735	293.81
487.953	308.81
488.171	298.81
488.389	287.81
488.607	281.81
488.825	293.81
489.043	286.81
489.261	307.81
489.479	302.81
489.696	308.81
489.914	295.81
490.132	314.81
490.35	315.81
490.568	328.81
490.786	321.81
491.003	326.81
491.221	343.81
491.439	337.81
491.657	342.81
491.874	350.81
492.092	350.81
492.31	354.81
492.527	355.81
492.745	363.81
492.963	357.81
493.18	359.81
493.398	366.81
493.615	373.81
493.833	359.81
494.05	360.81
494.268	348.81
494.485	378.81
494.703	345.81
494.92	344.81
495.138	333.81
495.355	348.81
495.573	359.81
495.79	372.81
496.008	341.81
496.225	349.81
496.442	336.81
496.66	342.81
496.877	337.81
497.094	345.81
497.312	363.81
497.529	330.81
497.746	351.81
497.963	357.81
498.181	394.81
498.398	377.81
498.615	378.81
498.832	383.81
499.049	385.81
499.267	374.81
499.484	429.81
499.701	419.81
499.918	443.81
500.135	432.81
500.352	453.81
500.569	464.81
500.786	473.81
501.003	456.81
501.22	464.81
501.437	441.81
501.654	418.81
501.871	440.81
502.088	426.81
502.305	396.81
502.522	382.81
