Data from 1966.PennyLincolnUp.Lamp.En5.5.200Scan.071719.P1.Scan2.head_HRD10591_14-17-37-122.txt Node
Date: Thu Jul 18 14:17:37 EDT 2019
User: cochatt
Spectrometer: HR+D1059
Trigger mode: 1
Integration Time (sec): 1.000000E-1
Scans to average: 1
Electric dark correction enabled: true
Nonlinearity correction enabled: false
Boxcar width: 0
XAxis mode: Wavelengths
Number of Pixels in Spectrum: 2048
>>>>>Begin Spectral Data<<<<<
223.165	-4.38
223.4	-4.38
223.635	-4.38
223.869	-16.38
224.104	-26.38
224.338	-15.38
224.573	-14.38
224.808	-8.38
225.042	-5.38
225.277	-3.38
225.511	0.62
225.746	-7.38
225.98	12.62
226.215	4.62
226.449	13.62
226.683	25.62
226.918	12.62
227.152	31.62
227.387	32.62
227.621	44.62
227.856	59.62
228.09	62.62
228.324	54.62
228.559	61.62
228.793	71.62
229.027	96.62
229.262	95.62
229.496	115.62
229.73	134.62
229.964	143.62
230.199	129.62
230.433	105.62
230.667	115.62
230.901	117.62
231.136	117.62
231.37	121.62
231.604	116.62
231.838	121.62
232.072	117.62
232.306	113.62
232.541	116.62
232.775	106.62
233.009	127.62
233.243	117.62
233.477	111.62
233.711	120.62
233.945	120.62
234.179	117.62
234.413	111.62
234.647	126.62
234.881	122.62
235.115	115.62
235.349	124.62
235.583	118.62
235.817	114.62
236.051	121.62
236.285	127.62
236.519	132.62
236.753	132.62
236.987	142.62
237.221	180.62
237.455	242.62
237.689	180.62
237.922	140.62
238.156	124.62
238.39	131.62
238.624	123.62
238.858	140.62
239.091	111.62
239.325	136.62
239.559	121.62
239.793	133.62
240.027	138.62
240.26	133.62
240.494	150.62
240.728	149.62
240.961	152.62
241.195	141.62
241.429	144.62
241.662	150.62
241.896	138.62
242.13	138.62
242.363	137.62
242.597	153.62
242.83	146.62
243.064	129.62
243.298	144.62
243.531	132.62
243.765	135.62
243.998	136.62
244.232	144.62
244.465	138.62
244.699	144.62
244.932	144.62
245.166	145.62
245.399	142.62
245.633	145.62
245.866	146.62
246.099	125.62
246.333	144.62
246.566	152.62
246.8	145.62
247.033	147.62
247.266	166.62
247.5	161.62
247.733	165.62
247.966	166.62
248.2	193.62
248.433	166.62
248.666	180.62
248.899	193.62
249.133	190.62
249.366	218.62
249.599	187.62
249.832	175.62
250.066	173.62
250.299	185.62
250.532	194.62
250.765	211.62
250.998	221.62
251.231	206.62
251.465	220.62
251.698	206.62
251.931	212.62
252.164	193.62
252.397	193.62
252.63	201.62
252.863	196.62
253.096	221.62
253.329	224.62
253.562	204.62
253.795	207.62
254.028	221.62
254.261	219.62
254.494	221.62
254.727	238.62
254.96	269.62
255.193	264.62
255.426	262.62
255.659	229.62
255.892	232.62
256.124	235.62
256.357	237.62
256.59	233.62
256.823	217.62
257.056	225.62
257.289	216.62
257.521	207.62
257.754	202.62
257.987	205.62
258.22	222.62
258.452	214.62
258.685	212.62
258.918	196.62
259.151	206.62
259.383	208.62
259.616	213.62
259.849	226.62
260.081	234.62
260.314	254.62
260.547	254.62
260.779	251.62
261.012	225.62
261.244	226.62
261.477	238.62
261.71	222.62
261.942	230.62
262.175	240.62
262.407	246.62
262.64	216.62
262.872	216.62
263.105	227.62
263.337	225.62
263.57	221.62
263.802	227.62
264.035	206.62
264.267	218.62
264.499	206.62
264.732	214.62
264.964	200.62
265.197	212.62
265.429	222.62
265.661	202.62
265.894	207.62
266.126	219.62
266.358	204.62
266.591	227.62
266.823	219.62
267.055	229.62
267.287	226.62
267.52	228.62
267.752	208.62
267.984	203.62
268.216	230.62
268.448	235.62
268.681	234.62
268.913	257.62
269.145	243.62
269.377	274.62
269.609	264.62
269.841	269.62
270.073	244.62
270.306	291.62
270.538	294.62
270.77	278.62
271.002	285.62
271.234	290.62
271.466	294.62
271.698	296.62
271.93	312.62
272.162	301.62
272.394	309.62
272.626	299.62
272.858	276.62
273.09	263.62
273.322	268.62
273.553	239.62
273.785	261.62
274.017	248.62
274.249	251.62
274.481	235.62
274.713	261.62
274.945	278.62
275.176	274.62
275.408	264.62
275.64	260.62
275.872	263.62
276.104	265.62
276.335	241.62
276.567	270.62
276.799	285.62
277.031	284.62
277.262	314.62
277.494	324.62
277.726	287.62
277.957	281.62
278.189	284.62
278.421	274.62
278.652	281.62
278.884	263.62
279.115	244.62
279.347	265.62
279.579	266.62
279.81	271.62
280.042	245.62
280.273	266.62
280.505	272.62
280.736	262.62
280.968	268.62
281.199	266.62
281.431	276.62
281.662	264.62
281.894	247.62
282.125	283.62
282.356	273.62
282.588	302.62
282.819	297.62
283.051	269.62
283.282	284.62
283.513	279.62
283.745	282.62
283.976	286.62
284.207	264.62
284.439	274.62
284.67	277.62
284.901	266.62
285.132	284.62
285.364	253.62
285.595	290.62
285.826	285.62
286.057	289.62
286.288	287.62
286.52	287.62
286.751	270.62
286.982	282.62
287.213	268.62
287.444	285.62
287.675	300.62
287.906	299.62
288.138	292.62
288.369	304.62
288.6	311.62
288.831	296.62
289.062	298.62
289.293	287.62
289.524	292.62
289.755	267.62
289.986	276.62
290.217	278.62
290.448	290.62
290.679	288.62
290.91	281.62
291.141	298.62
291.371	286.62
291.602	292.62
291.833	289.62
292.064	268.62
292.295	286.62
292.526	286.62
292.757	286.62
292.987	285.62
293.218	292.62
293.449	296.62
293.68	295.62
293.91	269.62
294.141	287.62
294.372	284.62
294.603	302.62
294.833	287.62
295.064	288.62
295.295	298.62
295.525	294.62
295.756	296.62
295.987	309.62
296.217	320.62
296.448	332.62
296.679	304.62
296.909	296.62
297.14	294.62
297.37	325.62
297.601	288.62
297.831	310.62
298.062	311.62
298.292	308.62
298.523	311.62
298.753	301.62
298.984	303.62
299.214	310.62
299.445	304.62
299.675	312.62
299.905	310.62
300.136	295.62
300.366	297.62
300.597	296.62
300.827	325.62
301.057	319.62
301.288	331.62
301.518	325.62
301.748	319.62
301.979	324.62
302.209	326.62
302.439	318.62
302.669	316.62
302.9	327.62
303.13	309.62
303.36	339.62
303.59	336.62
303.82	357.62
304.051	336.62
304.281	344.62
304.511	334.62
304.741	328.62
304.971	310.62
305.201	317.62
305.431	324.62
305.661	298.62
305.891	317.62
306.121	328.62
306.352	339.62
306.582	329.62
306.812	336.62
307.042	329.62
307.272	328.62
307.502	348.62
307.731	334.62
307.961	312.62
308.191	316.62
308.421	330.62
308.651	330.62
308.881	332.62
309.111	361.62
309.341	333.62
309.571	345.62
309.8	342.62
310.03	359.62
310.26	380.62
310.49	363.62
310.72	379.62
310.949	380.62
311.179	375.62
311.409	360.62
311.639	360.62
311.868	373.62
312.098	372.62
312.328	373.62
312.557	379.62
312.787	390.62
313.017	376.62
313.246	388.62
313.476	356.62
313.706	354.62
313.935	364.62
314.165	380.62
314.394	414.62
314.624	389.62
314.853	376.62
315.083	367.62
315.312	381.62
315.542	376.62
315.771	363.62
316.001	367.62
316.23	365.62
316.46	360.62
316.689	364.62
316.919	367.62
317.148	384.62
317.377	369.62
317.607	382.62
317.836	371.62
318.065	385.62
318.295	367.62
318.524	374.62
318.753	357.62
318.983	392.62
319.212	377.62
319.441	359.62
319.67	384.62
319.9	395.62
320.129	376.62
320.358	373.62
320.587	378.62
320.816	386.62
321.046	386.62
321.275	381.62
321.504	400.62
321.733	412.62
321.962	401.62
322.191	382.62
322.42	425.62
322.649	442.62
322.878	446.62
323.108	440.62
323.337	461.62
323.566	468.62
323.795	513.62
324.024	540.62
324.253	643.62
324.482	891.62
324.71	1341.62
324.939	2023.62
325.168	1772.62
325.397	858.62
325.626	615.62
325.855	520.62
326.084	480.62
326.313	467.62
326.542	477.62
326.77	540.62
326.999	600.62
327.228	809.62
327.457	1219.62
327.686	1520.62
327.914	1016.62
328.143	665.62
328.372	577.62
328.6	544.62
328.829	518.62
329.058	538.62
329.287	556.62
329.515	535.62
329.744	503.62
329.972	497.62
330.201	496.62
330.43	538.62
330.658	586.62
330.887	585.62
331.115	546.62
331.344	513.62
331.572	473.62
331.801	465.62
332.03	477.62
332.258	454.62
332.486	441.62
332.715	445.62
332.943	448.62
333.172	454.62
333.4	460.62
333.629	454.62
333.857	474.62
334.085	463.62
334.314	504.62
334.542	502.62
334.771	530.62
334.999	501.62
335.227	476.62
335.455	470.62
335.684	469.62
335.912	446.62
336.14	435.62
336.369	473.62
336.597	434.62
336.825	459.62
337.053	430.62
337.281	434.62
337.51	453.62
337.738	447.62
337.966	426.62
338.194	438.62
338.422	438.62
338.65	420.62
338.878	444.62
339.106	408.62
339.334	426.62
339.562	449.62
339.79	415.62
340.018	425.62
340.246	430.62
340.474	437.62
340.702	429.62
340.93	416.62
341.158	415.62
341.386	410.62
341.614	419.62
341.842	432.62
342.07	426.62
342.298	427.62
342.526	408.62
342.754	420.62
342.981	414.62
343.209	390.62
343.437	446.62
343.665	438.62
343.893	447.62
344.12	436.62
344.348	436.62
344.576	437.62
344.804	460.62
345.031	429.62
345.259	450.62
345.487	433.62
345.714	440.62
345.942	410.62
346.17	424.62
346.397	425.62
346.625	426.62
346.853	426.62
347.08	421.62
347.308	425.62
347.535	431.62
347.763	442.62
347.99	418.62
348.218	422.62
348.445	414.62
348.673	436.62
348.9	417.62
349.128	405.62
349.355	402.62
349.583	420.62
349.81	421.62
350.037	395.62
350.265	423.62
350.492	399.62
350.72	429.62
350.947	421.62
351.174	447.62
351.402	427.62
351.629	416.62
351.856	424.62
352.083	436.62
352.311	432.62
352.538	438.62
352.765	442.62
352.992	434.62
353.22	424.62
353.447	429.62
353.674	406.62
353.901	389.62
354.128	415.62
354.355	395.62
354.583	415.62
354.81	400.62
355.037	415.62
355.264	409.62
355.491	374.62
355.718	375.62
355.945	393.62
356.172	404.62
356.399	394.62
356.626	366.62
356.853	377.62
357.08	377.62
357.307	392.62
357.534	404.62
357.761	389.62
357.988	409.62
358.215	398.62
358.441	408.62
358.668	406.62
358.895	401.62
359.122	416.62
359.349	407.62
359.576	415.62
359.802	445.62
360.029	473.62
360.256	474.62
360.483	455.62
360.709	447.62
360.936	439.62
361.163	410.62
361.39	421.62
361.616	428.62
361.843	403.62
362.07	428.62
362.296	424.62
362.523	427.62
362.749	441.62
362.976	406.62
363.203	413.62
363.429	406.62
363.656	423.62
363.882	408.62
364.109	420.62
364.335	385.62
364.562	417.62
364.788	399.62
365.015	398.62
365.241	415.62
365.468	429.62
365.694	416.62
365.92	428.62
366.147	414.62
366.373	429.62
366.599	405.62
366.826	392.62
367.052	406.62
367.278	430.62
367.505	405.62
367.731	439.62
367.957	418.62
368.184	428.62
368.41	423.62
368.636	427.62
368.862	439.62
369.089	437.62
369.315	411.62
369.541	388.62
369.767	386.62
369.993	422.62
370.219	422.62
370.445	412.62
370.672	429.62
370.898	415.62
371.124	407.62
371.35	404.62
371.576	396.62
371.802	414.62
372.028	422.62
372.254	411.62
372.48	437.62
372.706	420.62
372.932	404.62
373.158	429.62
373.384	428.62
373.61	428.62
373.835	414.62
374.061	424.62
374.287	438.62
374.513	432.62
374.739	429.62
374.965	455.62
375.191	436.62
375.416	446.62
375.642	448.62
375.868	416.62
376.094	421.62
376.319	427.62
376.545	417.62
376.771	421.62
376.997	413.62
377.222	411.62
377.448	408.62
377.674	408.62
377.899	420.62
378.125	408.62
378.35	420.62
378.576	401.62
378.802	399.62
379.027	411.62
379.253	443.62
379.478	432.62
379.704	422.62
379.929	434.62
380.155	431.62
380.38	412.62
380.606	433.62
380.831	420.62
381.057	427.62
381.282	417.62
381.507	441.62
381.733	417.62
381.958	431.62
382.184	420.62
382.409	423.62
382.634	418.62
382.86	418.62
383.085	437.62
383.31	431.62
383.535	437.62
383.761	440.62
383.986	442.62
384.211	425.62
384.436	445.62
384.662	449.62
384.887	445.62
385.112	457.62
385.337	443.62
385.562	463.62
385.787	464.62
386.013	458.62
386.238	486.62
386.463	466.62
386.688	468.62
386.913	476.62
387.138	450.62
387.363	461.62
387.588	458.62
387.813	469.62
388.038	477.62
388.263	478.62
388.488	454.62
388.713	489.62
388.938	469.62
389.163	500.62
389.387	483.62
389.612	459.62
389.837	464.62
390.062	460.62
390.287	464.62
390.512	456.62
390.736	470.62
390.961	456.62
391.186	468.62
391.411	484.62
391.636	473.62
391.86	488.62
392.085	486.62
392.31	474.62
392.534	479.62
392.759	485.62
392.984	495.62
393.208	480.62
393.433	496.62
393.658	479.62
393.882	472.62
394.107	484.62
394.331	480.62
394.556	487.62
394.78	485.62
395.005	489.62
395.229	497.62
395.454	471.62
395.678	499.62
395.903	541.62
396.127	524.62
396.352	522.62
396.576	504.62
396.801	496.62
397.025	488.62
397.249	491.62
397.474	493.62
397.698	509.62
397.922	521.62
398.147	533.62
398.371	530.62
398.595	531.62
398.82	526.62
399.044	532.62
399.268	580.62
399.492	573.62
399.717	632.62
399.941	648.62
400.165	653.62
400.389	648.62
400.613	635.62
400.837	570.62
401.062	570.62
401.286	539.62
401.51	570.62
401.734	549.62
401.958	552.62
402.182	526.62
402.406	553.62
402.63	559.62
402.854	553.62
403.078	546.62
403.302	545.62
403.526	539.62
403.75	570.62
403.974	557.62
404.198	568.62
404.422	586.62
404.645	597.62
404.869	582.62
405.093	626.62
405.317	646.62
405.541	666.62
405.765	642.62
405.988	625.62
406.212	575.62
406.436	619.62
406.66	609.62
406.883	595.62
407.107	615.62
407.331	672.62
407.555	749.62
407.778	748.62
408.002	684.62
408.226	610.62
408.449	636.62
408.673	603.62
408.896	651.62
409.12	704.62
409.344	643.62
409.567	598.62
409.791	589.62
410.014	563.62
410.238	583.62
410.461	555.62
410.685	577.62
410.908	586.62
411.132	645.62
411.355	664.62
411.578	625.62
411.802	582.62
412.025	564.62
412.249	574.62
412.472	610.62
412.695	642.62
412.919	650.62
413.142	588.62
413.365	546.62
413.589	547.62
413.812	550.62
414.035	546.62
414.258	561.62
414.482	526.62
414.705	542.62
414.928	541.62
415.151	551.62
415.374	550.62
415.597	518.62
415.821	546.62
416.044	531.62
416.267	535.62
416.49	517.62
416.713	538.62
416.936	536.62
417.159	556.62
417.382	516.62
417.605	554.62
417.828	544.62
418.051	570.62
418.274	573.62
418.497	530.62
418.72	564.62
418.943	522.62
419.166	568.62
419.389	594.62
419.611	589.62
419.834	582.62
420.057	585.62
420.28	585.62
420.503	575.62
420.726	575.62
420.948	581.62
421.171	609.62
421.394	656.62
421.617	570.62
421.839	556.62
422.062	558.62
422.285	585.62
422.507	646.62
422.73	746.62
422.953	688.62
423.175	609.62
423.398	593.62
423.621	575.62
423.843	600.62
424.066	608.62
424.288	592.62
424.511	624.62
424.733	672.62
424.956	733.62
425.178	704.62
425.401	708.62
425.623	743.62
425.846	638.62
426.068	616.62
426.291	580.62
426.513	594.62
426.735	602.62
426.958	657.62
427.18	740.62
427.402	886.62
427.625	938.62
427.847	823.62
428.069	728.62
428.292	650.62
428.514	602.62
428.736	548.62
428.958	582.62
429.181	547.62
429.403	554.62
429.625	573.62
429.847	606.62
430.069	662.62
430.292	672.62
430.514	568.62
430.736	577.62
430.958	535.62
431.18	516.62
431.402	514.62
431.624	512.62
431.846	539.62
432.068	533.62
432.29	525.62
432.512	533.62
432.734	532.62
432.956	526.62
433.178	540.62
433.4	547.62
433.622	531.62
433.844	536.62
434.066	526.62
434.287	540.62
434.509	522.62
434.731	527.62
434.953	561.62
435.175	577.62
435.397	600.62
435.618	575.62
435.84	650.62
436.062	745.62
436.284	833.62
436.505	680.62
436.727	598.62
436.949	586.62
437.17	570.62
437.392	584.62
437.614	569.62
437.835	609.62
438.057	684.62
438.278	806.62
438.5	775.62
438.721	879.62
438.943	881.62
439.165	674.62
439.386	634.62
439.608	615.62
439.829	606.62
440.05	639.62
440.272	678.62
440.493	636.62
440.715	601.62
440.936	579.62
441.158	554.62
441.379	579.62
441.6	586.62
441.822	597.62
442.043	644.62
442.264	739.62
442.486	776.62
442.707	664.62
442.928	613.62
443.149	622.62
443.371	645.62
443.592	696.62
443.813	784.62
444.034	839.62
444.255	709.62
444.476	639.62
444.698	623.62
444.919	615.62
445.14	701.62
445.361	663.62
445.582	641.62
445.803	723.62
446.024	828.62
446.245	810.62
446.466	726.62
446.687	658.62
446.908	586.62
447.129	573.62
447.35	571.62
447.571	557.62
447.792	529.62
448.013	525.62
448.234	568.62
448.455	635.62
448.675	732.62
448.896	843.62
449.117	735.62
449.338	704.62
449.559	792.62
449.779	925.62
450	740.62
450.221	592.62
450.442	548.62
450.662	533.62
450.883	545.62
451.104	543.62
451.324	527.62
451.545	530.62
451.766	501.62
451.986	513.62
452.207	495.62
452.428	478.62
452.648	498.62
452.869	504.62
453.089	491.62
453.31	509.62
453.53	495.62
453.751	500.62
453.971	497.62
454.192	536.62
454.412	504.62
454.633	484.62
454.853	490.62
455.073	504.62
455.294	528.62
455.514	587.62
455.734	572.62
455.955	488.62
456.175	488.62
456.395	482.62
456.616	476.62
456.836	466.62
457.056	469.62
457.276	462.62
457.497	468.62
457.717	481.62
457.937	473.62
458.157	484.62
458.377	507.62
458.598	511.62
458.818	553.62
459.038	650.62
459.258	641.62
459.478	571.62
459.698	556.62
459.918	549.62
460.138	513.62
460.358	538.62
460.578	536.62
460.798	565.62
461.018	560.62
461.238	529.62
461.458	527.62
461.678	518.62
461.898	569.62
462.118	565.62
462.338	571.62
462.558	573.62
462.777	592.62
462.997	612.62
463.217	604.62
463.437	614.62
463.657	589.62
463.876	588.62
464.096	586.62
464.316	583.62
464.536	593.62
464.755	589.62
464.975	587.62
465.195	594.62
465.414	662.62
465.634	612.62
465.854	580.62
466.073	547.62
466.293	540.62
466.512	522.62
466.732	514.62
466.951	521.62
467.171	515.62
467.391	493.62
467.61	516.62
467.829	543.62
468.049	535.62
468.268	526.62
468.488	493.62
468.707	501.62
468.927	521.62
469.146	498.62
469.365	514.62
469.585	488.62
469.804	495.62
470.023	554.62
470.243	546.62
470.462	537.62
470.681	527.62
470.901	516.62
471.12	514.62
471.339	495.62
471.558	519.62
471.777	523.62
471.997	520.62
472.216	497.62
472.435	566.62
472.654	587.62
472.873	530.62
473.092	518.62
473.311	509.62
473.53	525.62
473.749	520.62
473.968	568.62
474.187	647.62
474.406	664.62
474.625	602.62
474.844	551.62
475.063	531.62
475.282	531.62
475.501	538.62
475.72	539.62
475.939	528.62
476.158	541.62
476.377	550.62
476.596	543.62
476.814	535.62
477.033	551.62
477.252	552.62
477.471	584.62
477.69	575.62
477.908	577.62
478.127	568.62
478.346	580.62
478.564	584.62
478.783	607.62
479.002	597.62
479.22	594.62
479.439	602.62
479.658	641.62
479.876	622.62
480.095	652.62
480.313	672.62
480.532	654.62
480.751	621.62
480.969	650.62
481.188	694.62
481.406	739.62
481.624	671.62
481.843	662.62
482.061	624.62
482.28	630.62
482.498	606.62
482.717	602.62
482.935	605.62
483.153	614.62
483.372	619.62
483.59	612.62
483.808	625.62
484.027	617.62
484.245	634.62
484.463	632.62
484.681	612.62
484.9	622.62
485.118	617.62
485.336	637.62
485.554	642.62
485.772	631.62
485.99	652.62
486.209	621.62
486.427	658.62
486.645	652.62
486.863	649.62
487.081	665.62
487.299	671.62
487.517	663.62
487.735	682.62
487.953	650.62
488.171	649.62
488.389	652.62
488.607	673.62
488.825	682.62
489.043	664.62
489.261	647.62
489.479	647.62
489.696	672.62
489.914	717.62
490.132	695.62
490.35	674.62
490.568	714.62
490.786	682.62
491.003	692.62
491.221	715.62
491.439	717.62
491.657	729.62
491.874	762.62
492.092	740.62
492.31	742.62
492.527	761.62
492.745	758.62
492.963	754.62
493.18	757.62
493.398	807.62
493.615	772.62
493.833	778.62
494.05	774.62
494.268	786.62
494.485	777.62
494.703	778.62
494.92	777.62
495.138	778.62
495.355	778.62
495.573	761.62
495.79	776.62
496.008	810.62
496.225	792.62
496.442	784.62
496.66	771.62
496.877	778.62
497.094	760.62
497.312	804.62
497.529	799.62
497.746	813.62
497.963	840.62
498.181	855.62
498.398	859.62
498.615	893.62
498.832	894.62
499.049	918.62
499.267	912.62
499.484	958.62
499.701	984.62
499.918	1044.62
500.135	1082.62
500.352	1110.62
500.569	1129.62
500.786	1145.62
501.003	1111.62
501.22	1080.62
501.437	1052.62
501.654	1036.62
