Data from 1966.PennyLincolnUp.Lamp.En5.5.200Scan.071719.P1._HRD10591_14-15-30-955.txt Node
Date: Thu Jul 18 14:15:30 EDT 2019
User: cochatt
Spectrometer: HR+D1059
Trigger mode: 1
Integration Time (sec): 1.000000E-1
Scans to average: 1
Electric dark correction enabled: true
Nonlinearity correction enabled: false
Boxcar width: 0
XAxis mode: Wavelengths
Number of Pixels in Spectrum: 2048
>>>>>Begin Spectral Data<<<<<
223.165	-7.44
223.4	-7.44
223.635	-7.44
223.869	-15.44
224.104	-19.44
224.338	-32.44
224.573	-2.44
224.808	-13.44
225.042	-9.44
225.277	-0.44
225.511	-1.44
225.746	-3.44
225.98	12.56
226.215	10.56
226.449	32.56
226.683	12.56
226.918	16.56
227.152	20.56
227.387	33.56
227.621	29.56
227.856	39.56
228.09	32.56
228.324	40.56
228.559	52.56
228.793	51.56
229.027	67.56
229.262	74.56
229.496	75.56
229.73	98.56
229.964	114.56
230.199	82.56
230.433	98.56
230.667	86.56
230.901	84.56
231.136	91.56
231.37	91.56
231.604	75.56
231.838	89.56
232.072	92.56
232.306	84.56
232.541	91.56
232.775	85.56
233.009	102.56
233.243	104.56
233.477	68.56
233.711	93.56
233.945	99.56
234.179	105.56
234.413	96.56
234.647	93.56
234.881	93.56
235.115	99.56
235.349	92.56
235.583	101.56
235.817	94.56
236.051	89.56
236.285	91.56
236.519	87.56
236.753	87.56
236.987	99.56
237.221	112.56
237.455	139.56
237.689	123.56
237.922	113.56
238.156	102.56
238.39	96.56
238.624	92.56
238.858	82.56
239.091	91.56
239.325	90.56
239.559	98.56
239.793	100.56
240.027	102.56
240.26	107.56
240.494	124.56
240.728	112.56
240.961	100.56
241.195	103.56
241.429	108.56
241.662	98.56
241.896	104.56
242.13	115.56
242.363	103.56
242.597	104.56
242.83	93.56
243.064	87.56
243.298	112.56
243.531	93.56
243.765	99.56
243.998	107.56
244.232	101.56
244.465	104.56
244.699	112.56
244.932	107.56
245.166	110.56
245.399	114.56
245.633	107.56
245.866	94.56
246.099	95.56
246.333	123.56
246.566	120.56
246.8	107.56
247.033	98.56
247.266	98.56
247.5	90.56
247.733	126.56
247.966	113.56
248.2	126.56
248.433	101.56
248.666	125.56
248.899	124.56
249.133	139.56
249.366	131.56
249.599	128.56
249.832	120.56
250.066	117.56
250.299	124.56
250.532	123.56
250.765	132.56
250.998	147.56
251.231	149.56
251.465	139.56
251.698	142.56
251.931	133.56
252.164	124.56
252.397	100.56
252.63	132.56
252.863	136.56
253.096	142.56
253.329	159.56
253.562	144.56
253.795	133.56
254.028	139.56
254.261	119.56
254.494	134.56
254.727	160.56
254.96	180.56
255.193	178.56
255.426	135.56
255.659	149.56
255.892	156.56
256.124	138.56
256.357	120.56
256.59	132.56
256.823	125.56
257.056	125.56
257.289	132.56
257.521	129.56
257.754	134.56
257.987	142.56
258.22	125.56
258.452	123.56
258.685	123.56
258.918	132.56
259.151	133.56
259.383	137.56
259.616	146.56
259.849	144.56
260.081	149.56
260.314	155.56
260.547	162.56
260.779	156.56
261.012	147.56
261.244	136.56
261.477	135.56
261.71	145.56
261.942	144.56
262.175	160.56
262.407	139.56
262.64	151.56
262.872	150.56
263.105	142.56
263.337	136.56
263.57	125.56
263.802	124.56
264.035	144.56
264.267	134.56
264.499	146.56
264.732	128.56
264.964	160.56
265.197	124.56
265.429	141.56
265.661	143.56
265.894	130.56
266.126	150.56
266.358	158.56
266.591	147.56
266.823	150.56
267.055	157.56
267.287	149.56
267.52	132.56
267.752	136.56
267.984	140.56
268.216	139.56
268.448	137.56
268.681	152.56
268.913	146.56
269.145	161.56
269.377	165.56
269.609	166.56
269.841	161.56
270.073	178.56
270.306	182.56
270.538	190.56
270.77	192.56
271.002	186.56
271.234	169.56
271.466	165.56
271.698	184.56
271.93	186.56
272.162	194.56
272.394	189.56
272.626	170.56
272.858	168.56
273.09	159.56
273.322	168.56
273.553	155.56
273.785	161.56
274.017	167.56
274.249	153.56
274.481	161.56
274.713	161.56
274.945	161.56
275.176	167.56
275.408	156.56
275.64	158.56
275.872	162.56
276.104	170.56
276.335	155.56
276.567	168.56
276.799	183.56
277.031	192.56
277.262	194.56
277.494	193.56
277.726	182.56
277.957	176.56
278.189	157.56
278.421	162.56
278.652	156.56
278.884	160.56
279.115	152.56
279.347	171.56
279.579	181.56
279.81	165.56
280.042	160.56
280.273	171.56
280.505	165.56
280.736	158.56
280.968	173.56
281.199	164.56
281.431	157.56
281.662	166.56
281.894	157.56
282.125	183.56
282.356	163.56
282.588	195.56
282.819	183.56
283.051	168.56
283.282	161.56
283.513	152.56
283.745	171.56
283.976	169.56
284.207	165.56
284.439	154.56
284.67	160.56
284.901	141.56
285.132	144.56
285.364	171.56
285.595	173.56
285.826	162.56
286.057	165.56
286.288	163.56
286.52	175.56
286.751	187.56
286.982	156.56
287.213	161.56
287.444	178.56
287.675	171.56
287.906	181.56
288.138	182.56
288.369	181.56
288.6	178.56
288.831	164.56
289.062	182.56
289.293	173.56
289.524	172.56
289.755	158.56
289.986	157.56
290.217	174.56
290.448	166.56
290.679	177.56
290.91	184.56
291.141	169.56
291.371	173.56
291.602	161.56
291.833	169.56
292.064	183.56
292.295	170.56
292.526	166.56
292.757	167.56
292.987	171.56
293.218	159.56
293.449	174.56
293.68	178.56
293.91	182.56
294.141	178.56
294.372	176.56
294.603	190.56
294.833	172.56
295.064	163.56
295.295	175.56
295.525	186.56
295.756	178.56
295.987	193.56
296.217	190.56
296.448	206.56
296.679	187.56
296.909	199.56
297.14	178.56
297.37	166.56
297.601	167.56
297.831	163.56
298.062	178.56
298.292	165.56
298.523	167.56
298.753	173.56
298.984	179.56
299.214	183.56
299.445	173.56
299.675	170.56
299.905	186.56
300.136	187.56
300.366	182.56
300.597	187.56
300.827	202.56
301.057	200.56
301.288	188.56
301.518	197.56
301.748	179.56
301.979	196.56
302.209	188.56
302.439	206.56
302.669	205.56
302.9	187.56
303.13	201.56
303.36	198.56
303.59	187.56
303.82	213.56
304.051	197.56
304.281	188.56
304.511	192.56
304.741	204.56
304.971	189.56
305.201	193.56
305.431	167.56
305.661	184.56
305.891	182.56
306.121	180.56
306.352	168.56
306.582	188.56
306.812	180.56
307.042	184.56
307.272	181.56
307.502	199.56
307.731	188.56
307.961	193.56
308.191	182.56
308.421	186.56
308.651	187.56
308.881	204.56
309.111	195.56
309.341	209.56
309.571	179.56
309.8	195.56
310.03	208.56
310.26	214.56
310.49	225.56
310.72	210.56
310.949	217.56
311.179	224.56
311.409	206.56
311.639	208.56
311.868	217.56
312.098	214.56
312.328	226.56
312.557	218.56
312.787	244.56
313.017	240.56
313.246	234.56
313.476	210.56
313.706	218.56
313.935	210.56
314.165	221.56
314.394	214.56
314.624	231.56
314.853	223.56
315.083	213.56
315.312	211.56
315.542	216.56
315.771	215.56
316.001	213.56
316.23	192.56
316.46	208.56
316.689	205.56
316.919	210.56
317.148	225.56
317.377	221.56
317.607	209.56
317.836	221.56
318.065	198.56
318.295	199.56
318.524	197.56
318.753	186.56
318.983	213.56
319.212	204.56
319.441	218.56
319.67	220.56
319.9	220.56
320.129	214.56
320.358	199.56
320.587	223.56
320.816	212.56
321.046	208.56
321.275	214.56
321.504	225.56
321.733	206.56
321.962	231.56
322.191	241.56
322.42	242.56
322.649	246.56
322.878	249.56
323.108	247.56
323.337	279.56
323.566	265.56
323.795	275.56
324.024	306.56
324.253	389.56
324.482	553.56
324.71	836.56
324.939	1133.56
325.168	927.56
325.397	444.56
325.626	329.56
325.855	251.56
326.084	251.56
326.313	267.56
326.542	260.56
326.77	300.56
326.999	377.56
327.228	508.56
327.457	752.56
327.686	812.56
327.914	524.56
328.143	375.56
328.372	331.56
328.6	313.56
328.829	301.56
329.058	310.56
329.287	339.56
329.515	298.56
329.744	282.56
329.972	273.56
330.201	329.56
330.43	324.56
330.658	350.56
330.887	343.56
331.115	347.56
331.344	276.56
331.572	263.56
331.801	272.56
332.03	267.56
332.258	268.56
332.486	228.56
332.715	242.56
332.943	244.56
333.172	245.56
333.4	269.56
333.629	274.56
333.857	256.56
334.085	273.56
334.314	294.56
334.542	334.56
334.771	323.56
334.999	286.56
335.227	261.56
335.455	250.56
335.684	238.56
335.912	251.56
336.14	240.56
336.369	258.56
336.597	230.56
336.825	241.56
337.053	251.56
337.281	229.56
337.51	235.56
337.738	240.56
337.966	223.56
338.194	253.56
338.422	240.56
338.65	236.56
338.878	237.56
339.106	243.56
339.334	220.56
339.562	232.56
339.79	218.56
340.018	234.56
340.246	234.56
340.474	246.56
340.702	233.56
340.93	235.56
341.158	217.56
341.386	241.56
341.614	213.56
341.842	221.56
342.07	232.56
342.298	211.56
342.526	213.56
342.754	220.56
342.981	228.56
343.209	210.56
343.437	222.56
343.665	218.56
343.893	241.56
344.12	221.56
344.348	256.56
344.576	240.56
344.804	233.56
345.031	234.56
345.259	241.56
345.487	241.56
345.714	245.56
345.942	214.56
346.17	219.56
346.397	218.56
346.625	219.56
346.853	221.56
347.08	236.56
347.308	236.56
347.535	224.56
347.763	258.56
347.99	242.56
348.218	237.56
348.445	238.56
348.673	246.56
348.9	216.56
349.128	225.56
349.355	227.56
349.583	212.56
349.81	218.56
350.037	212.56
350.265	207.56
350.492	219.56
350.72	201.56
350.947	212.56
351.174	232.56
351.402	249.56
351.629	224.56
351.856	237.56
352.083	217.56
352.311	236.56
352.538	255.56
352.765	245.56
352.992	241.56
353.22	220.56
353.447	223.56
353.674	223.56
353.901	230.56
354.128	221.56
354.355	220.56
354.583	209.56
354.81	211.56
355.037	203.56
355.264	210.56
355.491	199.56
355.718	208.56
355.945	221.56
356.172	224.56
356.399	201.56
356.626	222.56
356.853	203.56
357.08	221.56
357.307	210.56
357.534	212.56
357.761	214.56
357.988	209.56
358.215	210.56
358.441	220.56
358.668	206.56
358.895	225.56
359.122	215.56
359.349	222.56
359.576	226.56
359.802	233.56
360.029	253.56
360.256	267.56
360.483	261.56
360.709	225.56
360.936	221.56
361.163	221.56
361.39	217.56
361.616	220.56
361.843	236.56
362.07	209.56
362.296	223.56
362.523	232.56
362.749	212.56
362.976	212.56
363.203	214.56
363.429	218.56
363.656	213.56
363.882	210.56
364.109	215.56
364.335	221.56
364.562	196.56
364.788	212.56
365.015	225.56
365.241	212.56
365.468	228.56
365.694	216.56
365.92	207.56
366.147	229.56
366.373	219.56
366.599	217.56
366.826	212.56
367.052	212.56
367.278	230.56
367.505	210.56
367.731	212.56
367.957	213.56
368.184	199.56
368.41	199.56
368.636	212.56
368.862	205.56
369.089	210.56
369.315	206.56
369.541	209.56
369.767	218.56
369.993	224.56
370.219	222.56
370.445	211.56
370.672	212.56
370.898	204.56
371.124	217.56
371.35	221.56
371.576	221.56
371.802	217.56
372.028	197.56
372.254	212.56
372.48	223.56
372.706	211.56
372.932	213.56
373.158	202.56
373.384	222.56
373.61	211.56
373.835	207.56
374.061	218.56
374.287	209.56
374.513	215.56
374.739	216.56
374.965	204.56
375.191	214.56
375.416	214.56
375.642	222.56
375.868	214.56
376.094	205.56
376.319	194.56
376.545	200.56
376.771	203.56
376.997	206.56
377.222	202.56
377.448	202.56
377.674	200.56
377.899	202.56
378.125	220.56
378.35	205.56
378.576	207.56
378.802	203.56
379.027	211.56
379.253	212.56
379.478	208.56
379.704	202.56
379.929	216.56
380.155	217.56
380.38	206.56
380.606	220.56
380.831	212.56
381.057	199.56
381.282	209.56
381.507	206.56
381.733	212.56
381.958	200.56
382.184	228.56
382.409	202.56
382.634	213.56
382.86	206.56
383.085	223.56
383.31	216.56
383.535	224.56
383.761	214.56
383.986	224.56
384.211	215.56
384.436	211.56
384.662	224.56
384.887	203.56
385.112	220.56
385.337	222.56
385.562	220.56
385.787	236.56
386.013	230.56
386.238	240.56
386.463	214.56
386.688	228.56
386.913	224.56
387.138	218.56
387.363	215.56
387.588	218.56
387.813	207.56
388.038	217.56
388.263	250.56
388.488	219.56
388.713	229.56
388.938	213.56
389.163	217.56
389.387	236.56
389.612	243.56
389.837	225.56
390.062	240.56
390.287	226.56
390.512	203.56
390.736	224.56
390.961	211.56
391.186	227.56
391.411	223.56
391.636	250.56
391.86	228.56
392.085	247.56
392.31	233.56
392.534	242.56
392.759	212.56
392.984	223.56
393.208	224.56
393.433	216.56
393.658	225.56
393.882	234.56
394.107	204.56
394.331	200.56
394.556	223.56
394.78	223.56
395.005	243.56
395.229	235.56
395.454	236.56
395.678	246.56
395.903	228.56
396.127	252.56
396.352	239.56
396.576	252.56
396.801	218.56
397.025	223.56
397.249	230.56
397.474	243.56
397.698	249.56
397.922	246.56
398.147	237.56
398.371	252.56
398.595	251.56
398.82	242.56
399.044	229.56
399.268	268.56
399.492	268.56
399.717	283.56
399.941	300.56
400.165	310.56
400.389	284.56
400.613	273.56
400.837	263.56
401.062	264.56
401.286	249.56
401.51	258.56
401.734	248.56
401.958	238.56
402.182	264.56
402.406	266.56
402.63	286.56
402.854	253.56
403.078	276.56
403.302	282.56
403.526	269.56
403.75	266.56
403.974	268.56
404.198	263.56
404.422	262.56
404.645	274.56
404.869	288.56
405.093	285.56
405.317	288.56
405.541	290.56
405.765	290.56
405.988	271.56
406.212	282.56
406.436	297.56
406.66	308.56
406.883	296.56
407.107	296.56
407.331	322.56
407.555	330.56
407.778	331.56
408.002	307.56
408.226	286.56
408.449	283.56
408.673	274.56
408.896	303.56
409.12	304.56
409.344	288.56
409.567	274.56
409.791	262.56
410.014	264.56
410.238	263.56
410.461	269.56
410.685	258.56
410.908	280.56
411.132	277.56
411.355	284.56
411.578	297.56
411.802	270.56
412.025	262.56
412.249	260.56
412.472	292.56
412.695	320.56
412.919	277.56
413.142	270.56
413.365	245.56
413.589	250.56
413.812	258.56
414.035	249.56
414.258	254.56
414.482	252.56
414.705	253.56
414.928	236.56
415.151	236.56
415.374	251.56
415.597	261.56
415.821	252.56
416.044	257.56
416.267	243.56
416.49	253.56
416.713	251.56
416.936	232.56
417.159	256.56
417.382	236.56
417.605	258.56
417.828	280.56
418.051	264.56
418.274	258.56
418.497	264.56
418.72	266.56
418.943	262.56
419.166	260.56
419.389	249.56
419.611	274.56
419.834	261.56
420.057	256.56
420.28	280.56
420.503	259.56
420.726	268.56
420.948	264.56
421.171	289.56
421.394	287.56
421.617	256.56
421.839	249.56
422.062	259.56
422.285	271.56
422.507	289.56
422.73	340.56
422.953	310.56
423.175	286.56
423.398	267.56
423.621	272.56
423.843	264.56
424.066	286.56
424.288	284.56
424.511	294.56
424.733	308.56
424.956	326.56
425.178	330.56
425.401	328.56
425.623	327.56
425.846	290.56
426.068	271.56
426.291	260.56
426.513	270.56
426.735	285.56
426.958	291.56
427.18	329.56
427.402	398.56
427.625	417.56
427.847	361.56
428.069	326.56
428.292	280.56
428.514	272.56
428.736	263.56
428.958	265.56
429.181	262.56
429.403	251.56
429.625	263.56
429.847	275.56
430.069	317.56
430.292	308.56
430.514	270.56
430.736	254.56
430.958	247.56
431.18	244.56
431.402	225.56
431.624	246.56
431.846	248.56
432.068	257.56
432.29	238.56
432.512	243.56
432.734	262.56
432.956	248.56
433.178	249.56
433.4	262.56
433.622	251.56
433.844	249.56
434.066	255.56
434.287	244.56
434.509	249.56
434.731	270.56
434.953	260.56
435.175	253.56
435.397	274.56
435.618	280.56
435.84	301.56
436.062	329.56
436.284	361.56
436.505	312.56
436.727	278.56
436.949	265.56
437.17	260.56
437.392	271.56
437.614	253.56
437.835	258.56
438.057	325.56
438.278	356.56
438.5	353.56
438.721	363.56
438.943	377.56
439.165	304.56
439.386	258.56
439.608	276.56
439.829	288.56
440.05	299.56
440.272	332.56
440.493	298.56
440.715	284.56
440.936	268.56
441.158	268.56
441.379	256.56
441.6	277.56
441.822	280.56
442.043	292.56
442.264	347.56
442.486	359.56
442.707	301.56
442.928	279.56
443.149	304.56
443.371	319.56
443.592	325.56
443.813	354.56
444.034	375.56
444.255	322.56
444.476	294.56
444.698	302.56
444.919	277.56
445.14	363.56
445.361	350.56
445.582	296.56
445.803	344.56
446.024	374.56
446.245	381.56
446.466	345.56
446.687	280.56
446.908	264.56
447.129	273.56
447.35	257.56
447.571	265.56
447.792	267.56
448.013	251.56
448.234	282.56
448.455	286.56
448.675	328.56
448.896	379.56
449.117	317.56
449.338	308.56
449.559	354.56
449.779	375.56
450	322.56
450.221	270.56
450.442	257.56
450.662	272.56
450.883	262.56
451.104	278.56
451.324	268.56
451.545	245.56
451.766	240.56
451.986	233.56
452.207	226.56
452.428	231.56
452.648	241.56
452.869	226.56
453.089	235.56
453.31	266.56
453.53	244.56
453.751	237.56
453.971	244.56
454.192	230.56
454.412	236.56
454.633	258.56
454.853	238.56
455.073	248.56
455.294	258.56
455.514	292.56
455.734	272.56
455.955	247.56
456.175	209.56
456.395	216.56
456.616	231.56
456.836	224.56
457.056	218.56
457.276	200.56
457.497	218.56
457.717	228.56
457.937	238.56
458.157	226.56
458.377	226.56
458.598	243.56
458.818	293.56
459.038	327.56
459.258	321.56
459.478	277.56
459.698	250.56
459.918	269.56
460.138	257.56
460.358	240.56
460.578	243.56
460.798	274.56
461.018	245.56
461.238	253.56
461.458	247.56
461.678	248.56
461.898	253.56
462.118	239.56
462.338	238.56
462.558	255.56
462.777	250.56
462.997	262.56
463.217	269.56
463.437	262.56
463.657	261.56
463.876	249.56
464.096	265.56
464.316	277.56
464.536	268.56
464.755	260.56
464.975	264.56
465.195	312.56
465.414	369.56
465.634	290.56
465.854	272.56
466.073	270.56
466.293	249.56
466.512	255.56
466.732	242.56
466.951	227.56
467.171	229.56
467.391	230.56
467.61	259.56
467.829	275.56
468.049	243.56
468.268	267.56
468.488	246.56
468.707	224.56
468.927	242.56
469.146	225.56
469.365	235.56
469.585	227.56
469.804	257.56
470.023	254.56
470.243	241.56
470.462	258.56
470.681	265.56
470.901	254.56
471.12	229.56
471.339	246.56
471.558	246.56
471.777	250.56
471.997	234.56
472.216	253.56
472.435	280.56
472.654	286.56
472.873	268.56
473.092	244.56
473.311	237.56
473.53	228.56
473.749	261.56
473.968	267.56
474.187	311.56
474.406	316.56
474.625	260.56
474.844	254.56
475.063	241.56
475.282	244.56
475.501	237.56
475.72	255.56
475.939	248.56
476.158	261.56
476.377	238.56
476.596	235.56
476.814	259.56
477.033	255.56
477.252	259.56
477.471	268.56
477.69	250.56
477.908	275.56
478.127	266.56
478.346	258.56
478.564	267.56
478.783	261.56
479.002	267.56
479.22	271.56
479.439	280.56
479.658	285.56
479.876	293.56
480.095	300.56
480.313	312.56
480.532	306.56
480.751	310.56
480.969	313.56
481.188	384.56
481.406	416.56
481.624	325.56
481.843	302.56
482.061	277.56
482.28	293.56
482.498	273.56
482.717	274.56
482.935	279.56
483.153	288.56
483.372	273.56
483.59	277.56
483.808	284.56
484.027	296.56
484.245	300.56
484.463	287.56
484.681	277.56
484.9	288.56
485.118	285.56
485.336	298.56
485.554	300.56
485.772	299.56
485.99	297.56
486.209	283.56
486.427	290.56
486.645	304.56
486.863	306.56
487.081	307.56
487.299	302.56
487.517	303.56
487.735	299.56
487.953	297.56
488.171	309.56
488.389	316.56
488.607	323.56
488.825	292.56
489.043	303.56
489.261	304.56
489.479	298.56
489.696	314.56
489.914	319.56
490.132	317.56
490.35	310.56
490.568	326.56
490.786	328.56
491.003	325.56
491.221	334.56
491.439	323.56
491.657	335.56
491.874	345.56
492.092	352.56
492.31	322.56
492.527	366.56
492.745	362.56
492.963	350.56
493.18	357.56
493.398	340.56
493.615	356.56
493.833	360.56
494.05	345.56
494.268	363.56
494.485	346.56
494.703	329.56
494.92	355.56
495.138	348.56
495.355	348.56
495.573	359.56
495.79	326.56
496.008	352.56
496.225	339.56
496.442	354.56
496.66	355.56
496.877	348.56
497.094	363.56
497.312	359.56
497.529	337.56
497.746	361.56
497.963	352.56
498.181	354.56
498.398	355.56
498.615	372.56
498.832	368.56
499.049	373.56
499.267	398.56
499.484	396.56
499.701	389.56
499.918	418.56
500.135	442.56
500.352	443.56
500.569	469.56
500.786	476.56
501.003	461.56
501.22	443.56
501.437	458.56
501.654	424.56
501.871	418.56
502.088	419.56
502.305	403.56
502.522	378.56
