Data from 1966.PennyLincolnUp.Lamp.En5.5.200Scan.071719.P1._HRD10591_14-14-06-913.txt Node
Date: Thu Jul 18 14:14:06 EDT 2019
User: cochatt
Spectrometer: HR+D1059
Trigger mode: 1
Integration Time (sec): 1.000000E-1
Scans to average: 1
Electric dark correction enabled: true
Nonlinearity correction enabled: false
Boxcar width: 0
XAxis mode: Wavelengths
Number of Pixels in Spectrum: 2048
>>>>>Begin Spectral Data<<<<<
223.165	-10.38
223.4	-10.38
223.635	-10.38
223.869	-11.38
224.104	-31.38
224.338	3.62
224.573	-8.38
224.808	-15.38
225.042	-3.38
225.277	-15.38
225.511	-15.38
225.746	1.62
225.98	10.62
226.215	18.62
226.449	16.62
226.683	7.62
226.918	23.62
227.152	28.62
227.387	35.62
227.621	38.62
227.856	32.62
228.09	39.62
228.324	62.62
228.559	55.62
228.793	57.62
229.027	83.62
229.262	86.62
229.496	87.62
229.73	94.62
229.964	106.62
230.199	95.62
230.433	91.62
230.667	97.62
230.901	78.62
231.136	92.62
231.37	85.62
231.604	92.62
231.838	95.62
232.072	93.62
232.306	107.62
232.541	109.62
232.775	93.62
233.009	110.62
233.243	104.62
233.477	101.62
233.711	94.62
233.945	87.62
234.179	100.62
234.413	101.62
234.647	105.62
234.881	92.62
235.115	81.62
235.349	101.62
235.583	105.62
235.817	101.62
236.051	104.62
236.285	91.62
236.519	103.62
236.753	105.62
236.987	103.62
237.221	136.62
237.455	131.62
237.689	110.62
237.922	101.62
238.156	104.62
238.39	98.62
238.624	99.62
238.858	79.62
239.091	83.62
239.325	97.62
239.559	110.62
239.793	94.62
240.027	102.62
240.26	94.62
240.494	110.62
240.728	111.62
240.961	117.62
241.195	104.62
241.429	108.62
241.662	106.62
241.896	100.62
242.13	102.62
242.363	105.62
242.597	96.62
242.83	91.62
243.064	106.62
243.298	93.62
243.531	102.62
243.765	108.62
243.998	107.62
244.232	99.62
244.465	98.62
244.699	116.62
244.932	106.62
245.166	112.62
245.399	92.62
245.633	105.62
245.866	103.62
246.099	111.62
246.333	100.62
246.566	94.62
246.8	104.62
247.033	106.62
247.266	104.62
247.5	115.62
247.733	122.62
247.966	123.62
248.2	117.62
248.433	107.62
248.666	120.62
248.899	106.62
249.133	145.62
249.366	135.62
249.599	126.62
249.832	115.62
250.066	126.62
250.299	127.62
250.532	133.62
250.765	127.62
250.998	139.62
251.231	151.62
251.465	147.62
251.698	133.62
251.931	131.62
252.164	128.62
252.397	117.62
252.63	126.62
252.863	134.62
253.096	139.62
253.329	142.62
253.562	140.62
253.795	145.62
254.028	120.62
254.261	126.62
254.494	155.62
254.727	143.62
254.96	155.62
255.193	149.62
255.426	144.62
255.659	136.62
255.892	153.62
256.124	147.62
256.357	152.62
256.59	140.62
256.823	131.62
257.056	121.62
257.289	121.62
257.521	135.62
257.754	116.62
257.987	124.62
258.22	136.62
258.452	139.62
258.685	122.62
258.918	124.62
259.151	151.62
259.383	143.62
259.616	133.62
259.849	135.62
260.081	158.62
260.314	155.62
260.547	155.62
260.779	136.62
261.012	155.62
261.244	147.62
261.477	130.62
261.71	145.62
261.942	143.62
262.175	151.62
262.407	144.62
262.64	139.62
262.872	131.62
263.105	125.62
263.337	131.62
263.57	124.62
263.802	140.62
264.035	137.62
264.267	123.62
264.499	137.62
264.732	130.62
264.964	136.62
265.197	132.62
265.429	127.62
265.661	111.62
265.894	125.62
266.126	143.62
266.358	134.62
266.591	143.62
266.823	151.62
267.055	136.62
267.287	139.62
267.52	137.62
267.752	143.62
267.984	151.62
268.216	140.62
268.448	137.62
268.681	156.62
268.913	156.62
269.145	171.62
269.377	172.62
269.609	166.62
269.841	143.62
270.073	153.62
270.306	174.62
270.538	209.62
270.77	180.62
271.002	171.62
271.234	170.62
271.466	176.62
271.698	193.62
271.93	183.62
272.162	179.62
272.394	189.62
272.626	173.62
272.858	175.62
273.09	155.62
273.322	161.62
273.553	157.62
273.785	158.62
274.017	152.62
274.249	161.62
274.481	166.62
274.713	180.62
274.945	153.62
275.176	159.62
275.408	161.62
275.64	145.62
275.872	148.62
276.104	164.62
276.335	146.62
276.567	163.62
276.799	166.62
277.031	167.62
277.262	185.62
277.494	185.62
277.726	165.62
277.957	168.62
278.189	168.62
278.421	152.62
278.652	168.62
278.884	152.62
279.115	159.62
279.347	162.62
279.579	159.62
279.81	159.62
280.042	146.62
280.273	150.62
280.505	159.62
280.736	161.62
280.968	169.62
281.199	160.62
281.431	157.62
281.662	157.62
281.894	157.62
282.125	160.62
282.356	155.62
282.588	183.62
282.819	188.62
283.051	158.62
283.282	161.62
283.513	163.62
283.745	155.62
283.976	157.62
284.207	167.62
284.439	165.62
284.67	184.62
284.901	155.62
285.132	166.62
285.364	164.62
285.595	161.62
285.826	179.62
286.057	165.62
286.288	152.62
286.52	146.62
286.751	159.62
286.982	143.62
287.213	155.62
287.444	166.62
287.675	167.62
287.906	177.62
288.138	190.62
288.369	167.62
288.6	174.62
288.831	162.62
289.062	175.62
289.293	170.62
289.524	166.62
289.755	156.62
289.986	175.62
290.217	157.62
290.448	155.62
290.679	173.62
290.91	165.62
291.141	165.62
291.371	168.62
291.602	170.62
291.833	171.62
292.064	181.62
292.295	171.62
292.526	179.62
292.757	179.62
292.987	160.62
293.218	153.62
293.449	171.62
293.68	152.62
293.91	161.62
294.141	179.62
294.372	157.62
294.603	163.62
294.833	164.62
295.064	152.62
295.295	172.62
295.525	171.62
295.756	173.62
295.987	179.62
296.217	190.62
296.448	177.62
296.679	189.62
296.909	172.62
297.14	160.62
297.37	164.62
297.601	166.62
297.831	171.62
298.062	158.62
298.292	171.62
298.523	177.62
298.753	161.62
298.984	168.62
299.214	179.62
299.445	179.62
299.675	181.62
299.905	176.62
300.136	187.62
300.366	175.62
300.597	178.62
300.827	189.62
301.057	176.62
301.288	182.62
301.518	199.62
301.748	176.62
301.979	169.62
302.209	182.62
302.439	174.62
302.669	188.62
302.9	179.62
303.13	169.62
303.36	193.62
303.59	179.62
303.82	192.62
304.051	182.62
304.281	171.62
304.511	186.62
304.741	179.62
304.971	177.62
305.201	191.62
305.431	181.62
305.661	191.62
305.891	175.62
306.121	197.62
306.352	193.62
306.582	190.62
306.812	173.62
307.042	197.62
307.272	191.62
307.502	190.62
307.731	189.62
307.961	205.62
308.191	165.62
308.421	176.62
308.651	182.62
308.881	180.62
309.111	188.62
309.341	169.62
309.571	201.62
309.8	201.62
310.03	206.62
310.26	200.62
310.49	201.62
310.72	222.62
310.949	216.62
311.179	215.62
311.409	211.62
311.639	206.62
311.868	201.62
312.098	206.62
312.328	199.62
312.557	217.62
312.787	230.62
313.017	227.62
313.246	213.62
313.476	199.62
313.706	187.62
313.935	196.62
314.165	221.62
314.394	227.62
314.624	210.62
314.853	209.62
315.083	209.62
315.312	198.62
315.542	191.62
315.771	188.62
316.001	196.62
316.23	213.62
316.46	211.62
316.689	192.62
316.919	206.62
317.148	206.62
317.377	207.62
317.607	197.62
317.836	218.62
318.065	204.62
318.295	190.62
318.524	184.62
318.753	189.62
318.983	200.62
319.212	207.62
319.441	215.62
319.67	207.62
319.9	202.62
320.129	206.62
320.358	201.62
320.587	205.62
320.816	203.62
321.046	217.62
321.275	231.62
321.504	232.62
321.733	204.62
321.962	198.62
322.191	234.62
322.42	227.62
322.649	244.62
322.878	234.62
323.108	255.62
323.337	231.62
323.566	249.62
323.795	266.62
324.024	289.62
324.253	355.62
324.482	527.62
324.71	761.62
324.939	1016.62
325.168	800.62
325.397	438.62
325.626	303.62
325.855	268.62
326.084	221.62
326.313	245.62
326.542	247.62
326.77	295.62
326.999	331.62
327.228	456.62
327.457	685.62
327.686	769.62
327.914	522.62
328.143	342.62
328.372	327.62
328.6	311.62
328.829	303.62
329.058	293.62
329.287	326.62
329.515	292.62
329.744	267.62
329.972	265.62
330.201	285.62
330.43	311.62
330.658	327.62
330.887	337.62
331.115	319.62
331.344	262.62
331.572	275.62
331.801	256.62
332.03	251.62
332.258	236.62
332.486	248.62
332.715	225.62
332.943	208.62
333.172	216.62
333.4	216.62
333.629	255.62
333.857	263.62
334.085	281.62
334.314	275.62
334.542	301.62
334.771	303.62
334.999	277.62
335.227	248.62
335.455	240.62
335.684	245.62
335.912	226.62
336.14	213.62
336.369	220.62
336.597	237.62
336.825	235.62
337.053	222.62
337.281	225.62
337.51	225.62
337.738	234.62
337.966	236.62
338.194	236.62
338.422	253.62
338.65	236.62
338.878	226.62
339.106	223.62
339.334	222.62
339.562	231.62
339.79	230.62
340.018	225.62
340.246	217.62
340.474	233.62
340.702	213.62
340.93	201.62
341.158	205.62
341.386	217.62
341.614	233.62
341.842	237.62
342.07	228.62
342.298	212.62
342.526	219.62
342.754	199.62
342.981	205.62
343.209	225.62
343.437	227.62
343.665	223.62
343.893	216.62
344.12	219.62
344.348	236.62
344.576	221.62
344.804	229.62
345.031	233.62
345.259	240.62
345.487	222.62
345.714	212.62
345.942	226.62
346.17	216.62
346.397	217.62
346.625	214.62
346.853	213.62
347.08	230.62
347.308	220.62
347.535	231.62
347.763	221.62
347.99	224.62
348.218	215.62
348.445	227.62
348.673	220.62
348.9	208.62
349.128	208.62
349.355	218.62
349.583	213.62
349.81	199.62
350.037	217.62
350.265	193.62
350.492	216.62
350.72	230.62
350.947	211.62
351.174	228.62
351.402	214.62
351.629	218.62
351.856	218.62
352.083	229.62
352.311	227.62
352.538	223.62
352.765	249.62
352.992	235.62
353.22	211.62
353.447	239.62
353.674	207.62
353.901	205.62
354.128	222.62
354.355	199.62
354.583	207.62
354.81	199.62
355.037	198.62
355.264	192.62
355.491	191.62
355.718	225.62
355.945	212.62
356.172	205.62
356.399	199.62
356.626	189.62
356.853	200.62
357.08	204.62
357.307	206.62
357.534	200.62
357.761	201.62
357.988	207.62
358.215	192.62
358.441	206.62
358.668	200.62
358.895	190.62
359.122	191.62
359.349	219.62
359.576	205.62
359.802	231.62
360.029	238.62
360.256	251.62
360.483	238.62
360.709	222.62
360.936	208.62
361.163	207.62
361.39	239.62
361.616	213.62
361.843	224.62
362.07	208.62
362.296	223.62
362.523	213.62
362.749	220.62
362.976	208.62
363.203	201.62
363.429	208.62
363.656	198.62
363.882	199.62
364.109	224.62
364.335	205.62
364.562	198.62
364.788	203.62
365.015	221.62
365.241	208.62
365.468	203.62
365.694	209.62
365.92	210.62
366.147	202.62
366.373	214.62
366.599	191.62
366.826	204.62
367.052	208.62
367.278	204.62
367.505	219.62
367.731	198.62
367.957	197.62
368.184	192.62
368.41	204.62
368.636	223.62
368.862	219.62
369.089	206.62
369.315	205.62
369.541	189.62
369.767	208.62
369.993	207.62
370.219	200.62
370.445	213.62
370.672	213.62
370.898	204.62
371.124	211.62
371.35	199.62
371.576	187.62
371.802	203.62
372.028	202.62
372.254	203.62
372.48	188.62
372.706	215.62
372.932	198.62
373.158	204.62
373.384	209.62
373.61	191.62
373.835	201.62
374.061	208.62
374.287	197.62
374.513	206.62
374.739	196.62
374.965	199.62
375.191	205.62
375.416	195.62
375.642	215.62
375.868	206.62
376.094	191.62
376.319	191.62
376.545	204.62
376.771	224.62
376.997	207.62
377.222	213.62
377.448	203.62
377.674	191.62
377.899	210.62
378.125	209.62
378.35	225.62
378.576	188.62
378.802	200.62
379.027	202.62
379.253	200.62
379.478	209.62
379.704	207.62
379.929	199.62
380.155	190.62
380.38	193.62
380.606	204.62
380.831	202.62
381.057	205.62
381.282	218.62
381.507	211.62
381.733	202.62
381.958	199.62
382.184	201.62
382.409	193.62
382.634	191.62
382.86	220.62
383.085	213.62
383.31	197.62
383.535	206.62
383.761	204.62
383.986	216.62
384.211	198.62
384.436	206.62
384.662	208.62
384.887	218.62
385.112	211.62
385.337	219.62
385.562	211.62
385.787	225.62
386.013	221.62
386.238	225.62
386.463	208.62
386.688	216.62
386.913	227.62
387.138	221.62
387.363	217.62
387.588	223.62
387.813	231.62
388.038	211.62
388.263	216.62
388.488	220.62
388.713	229.62
388.938	210.62
389.163	208.62
389.387	204.62
389.612	204.62
389.837	209.62
390.062	219.62
390.287	232.62
390.512	205.62
390.736	215.62
390.961	220.62
391.186	205.62
391.411	221.62
391.636	220.62
391.86	222.62
392.085	247.62
392.31	237.62
392.534	232.62
392.759	221.62
392.984	231.62
393.208	223.62
393.433	192.62
393.658	227.62
393.882	225.62
394.107	202.62
394.331	220.62
394.556	210.62
394.78	215.62
395.005	215.62
395.229	229.62
395.454	222.62
395.678	215.62
395.903	232.62
396.127	242.62
396.352	248.62
396.576	217.62
396.801	211.62
397.025	221.62
397.249	229.62
397.474	244.62
397.698	240.62
397.922	235.62
398.147	259.62
398.371	258.62
398.595	243.62
398.82	246.62
399.044	237.62
399.268	251.62
399.492	269.62
399.717	269.62
399.941	287.62
400.165	291.62
400.389	304.62
400.613	278.62
400.837	267.62
401.062	268.62
401.286	248.62
401.51	249.62
401.734	238.62
401.958	253.62
402.182	248.62
402.406	256.62
402.63	269.62
402.854	276.62
403.078	267.62
403.302	259.62
403.526	261.62
403.75	259.62
403.974	267.62
404.198	244.62
404.422	276.62
404.645	263.62
404.869	279.62
405.093	275.62
405.317	285.62
405.541	318.62
405.765	275.62
405.988	274.62
406.212	287.62
406.436	302.62
406.66	297.62
406.883	287.62
407.107	285.62
407.331	291.62
407.555	331.62
407.778	312.62
408.002	321.62
408.226	287.62
408.449	269.62
408.673	276.62
408.896	287.62
409.12	299.62
409.344	286.62
409.567	250.62
409.791	279.62
410.014	261.62
410.238	252.62
410.461	251.62
410.685	245.62
410.908	264.62
411.132	265.62
411.355	284.62
411.578	291.62
411.802	252.62
412.025	259.62
412.249	267.62
412.472	273.62
412.695	290.62
412.919	265.62
413.142	273.62
413.365	229.62
413.589	250.62
413.812	255.62
414.035	253.62
414.258	232.62
414.482	228.62
414.705	228.62
414.928	248.62
415.151	232.62
415.374	250.62
415.597	227.62
415.821	249.62
416.044	238.62
416.267	250.62
416.49	236.62
416.713	247.62
416.936	247.62
417.159	233.62
417.382	260.62
417.605	241.62
417.828	263.62
418.051	267.62
418.274	256.62
418.497	229.62
418.72	248.62
418.943	241.62
419.166	252.62
419.389	266.62
419.611	239.62
419.834	252.62
420.057	228.62
420.28	245.62
420.503	258.62
420.726	263.62
420.948	265.62
421.171	299.62
421.394	287.62
421.617	246.62
421.839	261.62
422.062	264.62
422.285	248.62
422.507	296.62
422.73	313.62
422.953	297.62
423.175	279.62
423.398	280.62
423.621	263.62
423.843	270.62
424.066	275.62
424.288	277.62
424.511	260.62
424.733	297.62
424.956	316.62
425.178	322.62
425.401	305.62
425.623	314.62
425.846	273.62
426.068	277.62
426.291	266.62
426.513	291.62
426.735	279.62
426.958	296.62
427.18	336.62
427.402	383.62
427.625	403.62
427.847	382.62
428.069	315.62
428.292	281.62
428.514	272.62
428.736	264.62
428.958	253.62
429.181	243.62
429.403	229.62
429.625	272.62
429.847	273.62
430.069	294.62
430.292	301.62
430.514	246.62
430.736	245.62
430.958	248.62
431.18	243.62
431.402	237.62
431.624	232.62
431.846	260.62
432.068	249.62
432.29	264.62
432.512	235.62
432.734	251.62
432.956	245.62
433.178	251.62
433.4	239.62
433.622	257.62
433.844	248.62
434.066	235.62
434.287	245.62
434.509	245.62
434.731	263.62
434.953	238.62
435.175	247.62
435.397	271.62
435.618	264.62
435.84	289.62
436.062	323.62
436.284	334.62
436.505	284.62
436.727	262.62
436.949	244.62
437.17	238.62
437.392	232.62
437.614	254.62
437.835	277.62
438.057	320.62
438.278	340.62
438.5	349.62
438.721	383.62
438.943	347.62
439.165	281.62
439.386	276.62
439.608	279.62
439.829	271.62
440.05	295.62
440.272	307.62
440.493	280.62
440.715	276.62
440.936	262.62
441.158	246.62
441.379	256.62
441.6	280.62
441.822	278.62
442.043	291.62
442.264	343.62
442.486	342.62
442.707	306.62
442.928	269.62
443.149	287.62
443.371	297.62
443.592	302.62
443.813	351.62
444.034	365.62
444.255	311.62
444.476	281.62
444.698	276.62
444.919	268.62
445.14	377.62
445.361	321.62
445.582	311.62
445.803	331.62
446.024	367.62
446.245	373.62
446.466	307.62
446.687	279.62
446.908	262.62
447.129	252.62
447.35	251.62
447.571	261.62
447.792	250.62
448.013	265.62
448.234	267.62
448.455	271.62
448.675	326.62
448.896	366.62
449.117	309.62
449.338	319.62
449.559	349.62
449.779	390.62
450	311.62
450.221	281.62
450.442	247.62
450.662	247.62
450.883	263.62
451.104	267.62
451.324	281.62
451.545	236.62
451.766	222.62
451.986	220.62
452.207	223.62
452.428	213.62
452.648	219.62
452.869	221.62
453.089	255.62
453.31	241.62
453.53	236.62
453.751	237.62
453.971	256.62
454.192	235.62
454.412	231.62
454.633	237.62
454.853	238.62
455.073	191.62
455.294	230.62
455.514	272.62
455.734	255.62
455.955	234.62
456.175	222.62
456.395	204.62
456.616	216.62
456.836	206.62
457.056	214.62
457.276	208.62
457.497	205.62
457.717	214.62
457.937	195.62
458.157	238.62
458.377	224.62
458.598	231.62
458.818	280.62
459.038	326.62
459.258	315.62
459.478	269.62
459.698	239.62
459.918	252.62
460.138	241.62
460.358	228.62
460.578	224.62
460.798	232.62
461.018	240.62
461.238	232.62
461.458	246.62
461.678	239.62
461.898	245.62
462.118	223.62
462.338	231.62
462.558	263.62
462.777	259.62
462.997	237.62
463.217	279.62
463.437	259.62
463.657	240.62
463.876	245.62
464.096	263.62
464.316	244.62
464.536	262.62
464.755	247.62
464.975	263.62
465.195	304.62
465.414	356.62
465.634	290.62
465.854	260.62
466.073	233.62
466.293	252.62
466.512	236.62
466.732	227.62
466.951	223.62
467.171	241.62
467.391	230.62
467.61	248.62
467.829	253.62
468.049	238.62
468.268	245.62
468.488	241.62
468.707	235.62
468.927	233.62
469.146	226.62
469.365	225.62
469.585	237.62
469.804	243.62
470.023	238.62
470.243	245.62
470.462	259.62
470.681	268.62
470.901	266.62
471.12	229.62
471.339	243.62
471.558	235.62
471.777	238.62
471.997	247.62
472.216	240.62
472.435	285.62
472.654	256.62
472.873	238.62
473.092	232.62
473.311	227.62
473.53	229.62
473.749	235.62
473.968	261.62
474.187	325.62
474.406	333.62
474.625	267.62
474.844	249.62
475.063	231.62
475.282	239.62
475.501	229.62
475.72	238.62
475.939	245.62
476.158	216.62
476.377	235.62
476.596	232.62
476.814	239.62
477.033	241.62
477.252	256.62
477.471	234.62
477.69	222.62
477.908	260.62
478.127	257.62
478.346	259.62
478.564	276.62
478.783	273.62
479.002	265.62
479.22	269.62
479.439	276.62
479.658	285.62
479.876	293.62
480.095	282.62
480.313	315.62
480.532	291.62
480.751	315.62
480.969	323.62
481.188	333.62
481.406	383.62
481.624	307.62
481.843	280.62
482.061	262.62
482.28	283.62
482.498	265.62
482.717	280.62
482.935	271.62
483.153	271.62
483.372	287.62
483.59	271.62
483.808	281.62
484.027	280.62
484.245	257.62
484.463	277.62
484.681	286.62
484.9	272.62
485.118	295.62
485.336	287.62
485.554	279.62
485.772	287.62
485.99	281.62
486.209	284.62
486.427	272.62
486.645	282.62
486.863	301.62
487.081	308.62
487.299	299.62
487.517	300.62
487.735	284.62
487.953	288.62
488.171	316.62
488.389	298.62
488.607	304.62
488.825	296.62
489.043	279.62
489.261	273.62
489.479	304.62
489.696	314.62
489.914	315.62
490.132	295.62
490.35	312.62
490.568	310.62
490.786	308.62
491.003	323.62
491.221	325.62
491.439	340.62
491.657	343.62
491.874	343.62
492.092	333.62
492.31	319.62
492.527	349.62
492.745	349.62
492.963	323.62
493.18	322.62
493.398	321.62
493.615	356.62
493.833	345.62
494.05	337.62
494.268	348.62
494.485	335.62
494.703	339.62
494.92	341.62
495.138	347.62
495.355	353.62
495.573	357.62
495.79	344.62
496.008	333.62
496.225	340.62
496.442	333.62
496.66	353.62
496.877	330.62
497.094	320.62
497.312	331.62
497.529	361.62
497.746	342.62
497.963	342.62
498.181	345.62
498.398	379.62
498.615	379.62
498.832	360.62
499.049	373.62
499.267	387.62
499.484	382.62
499.701	408.62
499.918	412.62
500.135	439.62
500.352	443.62
500.569	434.62
500.786	437.62
501.003	458.62
501.22	441.62
501.437	402.62
501.654	430.62
501.871	404.62
502.088	397.62
502.305	379.62
502.522	361.62
