Data from 1966.PennyLincolnUp.Lamp.En5.5.200Scan.071719.P1._HRD10591_14-15-31-956.txt Node
Date: Thu Jul 18 14:15:31 EDT 2019
User: cochatt
Spectrometer: HR+D1059
Trigger mode: 1
Integration Time (sec): 1.000000E-1
Scans to average: 1
Electric dark correction enabled: true
Nonlinearity correction enabled: false
Boxcar width: 0
XAxis mode: Wavelengths
Number of Pixels in Spectrum: 2048
>>>>>Begin Spectral Data<<<<<
223.165	-17.06
223.4	-17.06
223.635	-17.06
223.869	-21.06
224.104	-19.06
224.338	-20.06
224.573	-16.06
224.808	-21.06
225.042	-1.06
225.277	-8.06
225.511	-6.06
225.746	-2.06
225.98	7.94
226.215	18.94
226.449	21.94
226.683	33.94
226.918	27.94
227.152	20.94
227.387	22.94
227.621	59.94
227.856	45.94
228.09	41.94
228.324	55.94
228.559	47.94
228.793	58.94
229.027	71.94
229.262	67.94
229.496	91.94
229.73	99.94
229.964	105.94
230.199	85.94
230.433	85.94
230.667	95.94
230.901	96.94
231.136	80.94
231.37	99.94
231.604	89.94
231.838	92.94
232.072	100.94
232.306	93.94
232.541	95.94
232.775	113.94
233.009	95.94
233.243	90.94
233.477	97.94
233.711	95.94
233.945	92.94
234.179	87.94
234.413	97.94
234.647	110.94
234.881	100.94
235.115	88.94
235.349	92.94
235.583	87.94
235.817	93.94
236.051	106.94
236.285	73.94
236.519	88.94
236.753	102.94
236.987	102.94
237.221	140.94
237.455	154.94
237.689	117.94
237.922	106.94
238.156	102.94
238.39	106.94
238.624	94.94
238.858	88.94
239.091	85.94
239.325	84.94
239.559	91.94
239.793	89.94
240.027	113.94
240.26	101.94
240.494	123.94
240.728	118.94
240.961	104.94
241.195	102.94
241.429	97.94
241.662	94.94
241.896	85.94
242.13	105.94
242.363	95.94
242.597	96.94
242.83	113.94
243.064	106.94
243.298	88.94
243.531	101.94
243.765	103.94
243.998	92.94
244.232	100.94
244.465	101.94
244.699	113.94
244.932	109.94
245.166	113.94
245.399	116.94
245.633	117.94
245.866	108.94
246.099	105.94
246.333	109.94
246.566	121.94
246.8	96.94
247.033	108.94
247.266	109.94
247.5	120.94
247.733	124.94
247.966	122.94
248.2	115.94
248.433	105.94
248.666	121.94
248.899	127.94
249.133	121.94
249.366	140.94
249.599	129.94
249.832	123.94
250.066	129.94
250.299	116.94
250.532	121.94
250.765	144.94
250.998	132.94
251.231	144.94
251.465	153.94
251.698	132.94
251.931	139.94
252.164	131.94
252.397	117.94
252.63	131.94
252.863	136.94
253.096	133.94
253.329	144.94
253.562	153.94
253.795	137.94
254.028	131.94
254.261	139.94
254.494	141.94
254.727	156.94
254.96	178.94
255.193	160.94
255.426	158.94
255.659	152.94
255.892	135.94
256.124	155.94
256.357	137.94
256.59	131.94
256.823	147.94
257.056	143.94
257.289	121.94
257.521	140.94
257.754	139.94
257.987	131.94
258.22	126.94
258.452	131.94
258.685	131.94
258.918	136.94
259.151	131.94
259.383	133.94
259.616	146.94
259.849	129.94
260.081	145.94
260.314	162.94
260.547	170.94
260.779	136.94
261.012	148.94
261.244	132.94
261.477	143.94
261.71	140.94
261.942	136.94
262.175	137.94
262.407	146.94
262.64	135.94
262.872	139.94
263.105	129.94
263.337	130.94
263.57	126.94
263.802	139.94
264.035	125.94
264.267	136.94
264.499	144.94
264.732	135.94
264.964	140.94
265.197	135.94
265.429	134.94
265.661	138.94
265.894	131.94
266.126	133.94
266.358	126.94
266.591	143.94
266.823	155.94
267.055	144.94
267.287	130.94
267.52	133.94
267.752	132.94
267.984	153.94
268.216	150.94
268.448	152.94
268.681	161.94
268.913	148.94
269.145	162.94
269.377	168.94
269.609	155.94
269.841	161.94
270.073	173.94
270.306	181.94
270.538	198.94
270.77	194.94
271.002	173.94
271.234	177.94
271.466	182.94
271.698	182.94
271.93	211.94
272.162	188.94
272.394	185.94
272.626	169.94
272.858	181.94
273.09	172.94
273.322	161.94
273.553	165.94
273.785	176.94
274.017	154.94
274.249	157.94
274.481	149.94
274.713	164.94
274.945	152.94
275.176	148.94
275.408	153.94
275.64	166.94
275.872	155.94
276.104	177.94
276.335	137.94
276.567	167.94
276.799	181.94
277.031	183.94
277.262	184.94
277.494	201.94
277.726	189.94
277.957	176.94
278.189	167.94
278.421	161.94
278.652	159.94
278.884	164.94
279.115	153.94
279.347	155.94
279.579	165.94
279.81	173.94
280.042	165.94
280.273	167.94
280.505	151.94
280.736	171.94
280.968	159.94
281.199	165.94
281.431	140.94
281.662	161.94
281.894	169.94
282.125	166.94
282.356	191.94
282.588	193.94
282.819	183.94
283.051	184.94
283.282	157.94
283.513	165.94
283.745	172.94
283.976	161.94
284.207	174.94
284.439	174.94
284.67	170.94
284.901	168.94
285.132	161.94
285.364	175.94
285.595	169.94
285.826	162.94
286.057	179.94
286.288	162.94
286.52	182.94
286.751	166.94
286.982	169.94
287.213	157.94
287.444	171.94
287.675	186.94
287.906	187.94
288.138	177.94
288.369	192.94
288.6	192.94
288.831	181.94
289.062	183.94
289.293	182.94
289.524	179.94
289.755	157.94
289.986	159.94
290.217	167.94
290.448	170.94
290.679	174.94
290.91	170.94
291.141	168.94
291.371	167.94
291.602	174.94
291.833	182.94
292.064	163.94
292.295	185.94
292.526	162.94
292.757	174.94
292.987	171.94
293.218	193.94
293.449	173.94
293.68	181.94
293.91	171.94
294.141	172.94
294.372	183.94
294.603	168.94
294.833	161.94
295.064	168.94
295.295	188.94
295.525	175.94
295.756	187.94
295.987	199.94
296.217	202.94
296.448	205.94
296.679	181.94
296.909	168.94
297.14	180.94
297.37	169.94
297.601	189.94
297.831	173.94
298.062	182.94
298.292	190.94
298.523	189.94
298.753	188.94
298.984	178.94
299.214	178.94
299.445	181.94
299.675	188.94
299.905	193.94
300.136	169.94
300.366	198.94
300.597	170.94
300.827	164.94
301.057	181.94
301.288	212.94
301.518	193.94
301.748	173.94
301.979	185.94
302.209	201.94
302.439	203.94
302.669	185.94
302.9	205.94
303.13	153.94
303.36	180.94
303.59	183.94
303.82	199.94
304.051	181.94
304.281	199.94
304.511	190.94
304.741	202.94
304.971	165.94
305.201	168.94
305.431	190.94
305.661	190.94
305.891	175.94
306.121	179.94
306.352	184.94
306.582	190.94
306.812	188.94
307.042	187.94
307.272	201.94
307.502	188.94
307.731	172.94
307.961	187.94
308.191	195.94
308.421	190.94
308.651	195.94
308.881	189.94
309.111	213.94
309.341	206.94
309.571	209.94
309.8	189.94
310.03	217.94
310.26	203.94
310.49	212.94
310.72	219.94
310.949	237.94
311.179	225.94
311.409	217.94
311.639	227.94
311.868	214.94
312.098	221.94
312.328	224.94
312.557	226.94
312.787	246.94
313.017	237.94
313.246	225.94
313.476	196.94
313.706	218.94
313.935	236.94
314.165	221.94
314.394	223.94
314.624	225.94
314.853	205.94
315.083	226.94
315.312	205.94
315.542	205.94
315.771	207.94
316.001	205.94
316.23	204.94
316.46	180.94
316.689	190.94
316.919	216.94
317.148	224.94
317.377	228.94
317.607	218.94
317.836	220.94
318.065	222.94
318.295	218.94
318.524	202.94
318.753	210.94
318.983	200.94
319.212	207.94
319.441	201.94
319.67	225.94
319.9	216.94
320.129	210.94
320.358	205.94
320.587	204.94
320.816	210.94
321.046	230.94
321.275	232.94
321.504	222.94
321.733	227.94
321.962	215.94
322.191	236.94
322.42	241.94
322.649	243.94
322.878	248.94
323.108	244.94
323.337	264.94
323.566	289.94
323.795	284.94
324.024	324.94
324.253	377.94
324.482	537.94
324.71	850.94
324.939	1085.94
325.168	897.94
325.397	468.94
325.626	303.94
325.855	260.94
326.084	277.94
326.313	258.94
326.542	266.94
326.77	301.94
326.999	346.94
327.228	479.94
327.457	724.94
327.686	798.94
327.914	545.94
328.143	359.94
328.372	344.94
328.6	309.94
328.829	302.94
329.058	314.94
329.287	309.94
329.515	302.94
329.744	272.94
329.972	260.94
330.201	318.94
330.43	341.94
330.658	323.94
330.887	343.94
331.115	331.94
331.344	287.94
331.572	270.94
331.801	282.94
332.03	280.94
332.258	273.94
332.486	237.94
332.715	247.94
332.943	242.94
333.172	245.94
333.4	254.94
333.629	250.94
333.857	257.94
334.085	268.94
334.314	297.94
334.542	322.94
334.771	329.94
334.999	290.94
335.227	257.94
335.455	260.94
335.684	255.94
335.912	236.94
336.14	229.94
336.369	237.94
336.597	249.94
336.825	255.94
337.053	249.94
337.281	230.94
337.51	221.94
337.738	249.94
337.966	241.94
338.194	268.94
338.422	239.94
338.65	225.94
338.878	235.94
339.106	226.94
339.334	232.94
339.562	222.94
339.79	236.94
340.018	221.94
340.246	228.94
340.474	236.94
340.702	236.94
340.93	232.94
341.158	238.94
341.386	230.94
341.614	230.94
341.842	242.94
342.07	241.94
342.298	211.94
342.526	230.94
342.754	221.94
342.981	206.94
343.209	217.94
343.437	237.94
343.665	232.94
343.893	214.94
344.12	257.94
344.348	226.94
344.576	233.94
344.804	242.94
345.031	245.94
345.259	242.94
345.487	234.94
345.714	230.94
345.942	223.94
346.17	231.94
346.397	205.94
346.625	239.94
346.853	248.94
347.08	246.94
347.308	218.94
347.535	229.94
347.763	233.94
347.99	234.94
348.218	244.94
348.445	217.94
348.673	230.94
348.9	234.94
349.128	232.94
349.355	206.94
349.583	216.94
349.81	212.94
350.037	199.94
350.265	228.94
350.492	222.94
350.72	214.94
350.947	237.94
351.174	230.94
351.402	253.94
351.629	231.94
351.856	236.94
352.083	235.94
352.311	251.94
352.538	221.94
352.765	245.94
352.992	254.94
353.22	243.94
353.447	233.94
353.674	221.94
353.901	202.94
354.128	215.94
354.355	211.94
354.583	211.94
354.81	199.94
355.037	192.94
355.264	222.94
355.491	218.94
355.718	212.94
355.945	204.94
356.172	224.94
356.399	207.94
356.626	198.94
356.853	209.94
357.08	201.94
357.307	193.94
357.534	222.94
357.761	237.94
357.988	219.94
358.215	210.94
358.441	201.94
358.668	206.94
358.895	222.94
359.122	203.94
359.349	202.94
359.576	196.94
359.802	250.94
360.029	257.94
360.256	256.94
360.483	271.94
360.709	233.94
360.936	232.94
361.163	229.94
361.39	225.94
361.616	215.94
361.843	223.94
362.07	235.94
362.296	215.94
362.523	229.94
362.749	233.94
362.976	239.94
363.203	219.94
363.429	207.94
363.656	227.94
363.882	238.94
364.109	225.94
364.335	226.94
364.562	211.94
364.788	194.94
365.015	219.94
365.241	212.94
365.468	226.94
365.694	229.94
365.92	223.94
366.147	220.94
366.373	213.94
366.599	218.94
366.826	201.94
367.052	214.94
367.278	212.94
367.505	214.94
367.731	228.94
367.957	222.94
368.184	220.94
368.41	225.94
368.636	227.94
368.862	220.94
369.089	226.94
369.315	210.94
369.541	214.94
369.767	211.94
369.993	210.94
370.219	213.94
370.445	221.94
370.672	198.94
370.898	211.94
371.124	203.94
371.35	215.94
371.576	211.94
371.802	213.94
372.028	202.94
372.254	221.94
372.48	220.94
372.706	208.94
372.932	220.94
373.158	201.94
373.384	211.94
373.61	218.94
373.835	219.94
374.061	203.94
374.287	211.94
374.513	222.94
374.739	230.94
374.965	215.94
375.191	208.94
375.416	206.94
375.642	227.94
375.868	202.94
376.094	223.94
376.319	231.94
376.545	241.94
376.771	212.94
376.997	217.94
377.222	208.94
377.448	206.94
377.674	195.94
377.899	199.94
378.125	211.94
378.35	213.94
378.576	214.94
378.802	234.94
379.027	199.94
379.253	231.94
379.478	193.94
379.704	208.94
379.929	203.94
380.155	222.94
380.38	204.94
380.606	186.94
380.831	216.94
381.057	214.94
381.282	210.94
381.507	213.94
381.733	198.94
381.958	216.94
382.184	204.94
382.409	215.94
382.634	215.94
382.86	202.94
383.085	209.94
383.31	226.94
383.535	223.94
383.761	231.94
383.986	221.94
384.211	207.94
384.436	226.94
384.662	229.94
384.887	225.94
385.112	214.94
385.337	230.94
385.562	228.94
385.787	209.94
386.013	220.94
386.238	249.94
386.463	225.94
386.688	221.94
386.913	220.94
387.138	228.94
387.363	232.94
387.588	227.94
387.813	222.94
388.038	214.94
388.263	261.94
388.488	245.94
388.713	214.94
388.938	216.94
389.163	221.94
389.387	211.94
389.612	218.94
389.837	222.94
390.062	217.94
390.287	219.94
390.512	230.94
390.736	215.94
390.961	211.94
391.186	198.94
391.411	227.94
391.636	225.94
391.86	250.94
392.085	228.94
392.31	236.94
392.534	233.94
392.759	238.94
392.984	229.94
393.208	234.94
393.433	224.94
393.658	219.94
393.882	229.94
394.107	253.94
394.331	216.94
394.556	210.94
394.78	215.94
395.005	235.94
395.229	237.94
395.454	232.94
395.678	242.94
395.903	252.94
396.127	259.94
396.352	244.94
396.576	245.94
396.801	246.94
397.025	242.94
397.249	230.94
397.474	233.94
397.698	236.94
397.922	231.94
398.147	250.94
398.371	237.94
398.595	245.94
398.82	258.94
399.044	255.94
399.268	257.94
399.492	290.94
399.717	274.94
399.941	283.94
400.165	306.94
400.389	297.94
400.613	289.94
400.837	274.94
401.062	252.94
401.286	262.94
401.51	252.94
401.734	256.94
401.958	268.94
402.182	252.94
402.406	252.94
402.63	253.94
402.854	271.94
403.078	294.94
403.302	277.94
403.526	277.94
403.75	270.94
403.974	274.94
404.198	252.94
404.422	270.94
404.645	269.94
404.869	277.94
405.093	277.94
405.317	303.94
405.541	319.94
405.765	301.94
405.988	274.94
406.212	275.94
406.436	330.94
406.66	319.94
406.883	298.94
407.107	294.94
407.331	317.94
407.555	365.94
407.778	333.94
408.002	322.94
408.226	294.94
408.449	281.94
408.673	298.94
408.896	299.94
409.12	331.94
409.344	317.94
409.567	270.94
409.791	274.94
410.014	276.94
410.238	269.94
410.461	275.94
410.685	263.94
410.908	280.94
411.132	296.94
411.355	307.94
411.578	291.94
411.802	277.94
412.025	244.94
412.249	290.94
412.472	286.94
412.695	295.94
412.919	300.94
413.142	269.94
413.365	260.94
413.589	272.94
413.812	254.94
414.035	257.94
414.258	267.94
414.482	251.94
414.705	264.94
414.928	249.94
415.151	235.94
415.374	235.94
415.597	247.94
415.821	239.94
416.044	253.94
416.267	265.94
416.49	250.94
416.713	253.94
416.936	245.94
417.159	268.94
417.382	270.94
417.605	270.94
417.828	250.94
418.051	262.94
418.274	259.94
418.497	260.94
418.72	260.94
418.943	263.94
419.166	250.94
419.389	276.94
419.611	277.94
419.834	269.94
420.057	278.94
420.28	271.94
420.503	276.94
420.726	261.94
420.948	291.94
421.171	305.94
421.394	320.94
421.617	274.94
421.839	262.94
422.062	263.94
422.285	266.94
422.507	285.94
422.73	322.94
422.953	313.94
423.175	279.94
423.398	264.94
423.621	265.94
423.843	270.94
424.066	301.94
424.288	281.94
424.511	297.94
424.733	319.94
424.956	344.94
425.178	353.94
425.401	325.94
425.623	341.94
425.846	309.94
426.068	281.94
426.291	277.94
426.513	284.94
426.735	272.94
426.958	300.94
427.18	361.94
427.402	394.94
427.625	433.94
427.847	392.94
428.069	328.94
428.292	302.94
428.514	274.94
428.736	270.94
428.958	267.94
429.181	258.94
429.403	249.94
429.625	266.94
429.847	291.94
430.069	313.94
430.292	305.94
430.514	259.94
430.736	263.94
430.958	266.94
431.18	249.94
431.402	248.94
431.624	238.94
431.846	247.94
432.068	251.94
432.29	246.94
432.512	258.94
432.734	257.94
432.956	257.94
433.178	275.94
433.4	248.94
433.622	245.94
433.844	261.94
434.066	267.94
434.287	255.94
434.509	251.94
434.731	258.94
434.953	276.94
435.175	271.94
435.397	292.94
435.618	282.94
435.84	311.94
436.062	332.94
436.284	359.94
436.505	289.94
436.727	279.94
436.949	260.94
437.17	266.94
437.392	258.94
437.614	252.94
437.835	309.94
438.057	347.94
438.278	371.94
438.5	353.94
438.721	407.94
438.943	365.94
439.165	296.94
439.386	309.94
439.608	290.94
439.829	296.94
440.05	305.94
440.272	313.94
440.493	291.94
440.715	266.94
440.936	263.94
441.158	276.94
441.379	279.94
441.6	269.94
441.822	298.94
442.043	305.94
442.264	337.94
442.486	358.94
442.707	313.94
442.928	298.94
443.149	284.94
443.371	337.94
443.592	308.94
443.813	374.94
444.034	386.94
444.255	316.94
444.476	279.94
444.698	290.94
444.919	279.94
445.14	342.94
445.361	334.94
445.582	313.94
445.803	329.94
446.024	381.94
446.245	376.94
446.466	348.94
446.687	300.94
446.908	267.94
447.129	286.94
447.35	264.94
447.571	260.94
447.792	255.94
448.013	261.94
448.234	270.94
448.455	290.94
448.675	333.94
448.896	385.94
449.117	314.94
449.338	330.94
449.559	380.94
449.779	399.94
450	328.94
450.221	287.94
450.442	266.94
450.662	267.94
450.883	268.94
451.104	292.94
451.324	269.94
451.545	246.94
451.766	246.94
451.986	239.94
452.207	223.94
452.428	238.94
452.648	225.94
452.869	244.94
453.089	260.94
453.31	231.94
453.53	246.94
453.751	251.94
453.971	237.94
454.192	260.94
454.412	260.94
454.633	255.94
454.853	220.94
455.073	243.94
455.294	279.94
455.514	270.94
455.734	265.94
455.955	223.94
456.175	235.94
456.395	220.94
456.616	211.94
456.836	244.94
457.056	229.94
457.276	224.94
457.497	225.94
457.717	225.94
457.937	230.94
458.157	226.94
458.377	238.94
458.598	252.94
458.818	293.94
459.038	334.94
459.258	322.94
459.478	270.94
459.698	255.94
459.918	245.94
460.138	232.94
460.358	251.94
460.578	257.94
460.798	249.94
461.018	239.94
461.238	250.94
461.458	257.94
461.678	264.94
461.898	266.94
462.118	243.94
462.338	265.94
462.558	268.94
462.777	266.94
462.997	274.94
463.217	273.94
463.437	272.94
463.657	250.94
463.876	261.94
464.096	257.94
464.316	278.94
464.536	281.94
464.755	267.94
464.975	272.94
465.195	327.94
465.414	367.94
465.634	317.94
465.854	277.94
466.073	249.94
466.293	262.94
466.512	253.94
466.732	228.94
466.951	265.94
467.171	259.94
467.391	233.94
467.61	241.94
467.829	256.94
468.049	258.94
468.268	266.94
468.488	253.94
468.707	253.94
468.927	220.94
469.146	233.94
469.365	231.94
469.585	233.94
469.804	243.94
470.023	263.94
470.243	245.94
470.462	253.94
470.681	269.94
470.901	261.94
471.12	249.94
471.339	262.94
471.558	255.94
471.777	246.94
471.997	234.94
472.216	249.94
472.435	309.94
472.654	269.94
472.873	263.94
473.092	267.94
473.311	232.94
473.53	241.94
473.749	256.94
473.968	268.94
474.187	297.94
474.406	343.94
474.625	283.94
474.844	243.94
475.063	262.94
475.282	266.94
475.501	242.94
475.72	253.94
475.939	246.94
476.158	249.94
476.377	245.94
476.596	239.94
476.814	249.94
477.033	257.94
477.252	266.94
477.471	266.94
477.69	271.94
477.908	274.94
478.127	278.94
478.346	273.94
478.564	259.94
478.783	266.94
479.002	274.94
479.22	268.94
479.439	275.94
479.658	291.94
479.876	278.94
480.095	311.94
480.313	316.94
480.532	282.94
480.751	298.94
480.969	326.94
481.188	375.94
481.406	397.94
481.624	327.94
481.843	282.94
482.061	275.94
482.28	269.94
482.498	294.94
482.717	270.94
482.935	271.94
483.153	300.94
483.372	291.94
483.59	271.94
483.808	263.94
484.027	273.94
484.245	293.94
484.463	296.94
484.681	287.94
484.9	282.94
485.118	298.94
485.336	277.94
485.554	280.94
485.772	287.94
485.99	273.94
486.209	271.94
486.427	290.94
486.645	318.94
486.863	321.94
487.081	305.94
487.299	298.94
487.517	289.94
487.735	310.94
487.953	307.94
488.171	299.94
488.389	293.94
488.607	308.94
488.825	293.94
489.043	299.94
489.261	291.94
489.479	316.94
489.696	322.94
489.914	300.94
490.132	312.94
490.35	342.94
490.568	317.94
490.786	327.94
491.003	329.94
491.221	330.94
491.439	349.94
491.657	355.94
491.874	359.94
492.092	328.94
492.31	344.94
492.527	359.94
492.745	365.94
492.963	370.94
493.18	366.94
493.398	350.94
493.615	364.94
493.833	366.94
494.05	366.94
494.268	374.94
494.485	347.94
494.703	353.94
494.92	353.94
495.138	339.94
495.355	355.94
495.573	359.94
495.79	344.94
496.008	345.94
496.225	352.94
496.442	369.94
496.66	357.94
496.877	352.94
497.094	340.94
497.312	366.94
497.529	367.94
497.746	375.94
497.963	355.94
498.181	379.94
498.398	383.94
498.615	378.94
498.832	390.94
499.049	404.94
499.267	393.94
499.484	412.94
499.701	417.94
499.918	396.94
500.135	453.94
500.352	458.94
500.569	461.94
500.786	470.94
501.003	463.94
501.22	456.94
501.437	427.94
501.654	442.94
501.871	411.94
502.088	405.94
502.305	383.94
502.522	378.94
