Data from 1966.PennyLincolnUp.Lamp.En5.5.200Scan.071719.P1.Scan2.head_HRD10591_14-16-58-070.txt Node
Date: Thu Jul 18 14:16:58 EDT 2019
User: cochatt
Spectrometer: HR+D1059
Trigger mode: 1
Integration Time (sec): 1.000000E-1
Scans to average: 1
Electric dark correction enabled: true
Nonlinearity correction enabled: false
Boxcar width: 0
XAxis mode: Wavelengths
Number of Pixels in Spectrum: 2048
>>>>>Begin Spectral Data<<<<<
223.165	-4.75
223.4	-4.75
223.635	-4.75
223.869	-18.75
224.104	-9.75
224.338	-18.75
224.573	-15.75
224.808	-27.75
225.042	-2.75
225.277	-0.75
225.511	-6.75
225.746	10.25
225.98	9.25
226.215	1.25
226.449	15.25
226.683	17.25
226.918	26.25
227.152	26.25
227.387	34.25
227.621	44.25
227.856	51.25
228.09	48.25
228.324	54.25
228.559	54.25
228.793	63.25
229.027	91.25
229.262	109.25
229.496	120.25
229.73	130.25
229.964	153.25
230.199	126.25
230.433	100.25
230.667	112.25
230.901	107.25
231.136	110.25
231.37	108.25
231.604	113.25
231.838	104.25
232.072	114.25
232.306	121.25
232.541	108.25
232.775	119.25
233.009	111.25
233.243	102.25
233.477	104.25
233.711	125.25
233.945	122.25
234.179	123.25
234.413	120.25
234.647	104.25
234.881	120.25
235.115	120.25
235.349	126.25
235.583	112.25
235.817	106.25
236.051	131.25
236.285	130.25
236.519	125.25
236.753	105.25
236.987	128.25
237.221	162.25
237.455	223.25
237.689	173.25
237.922	137.25
238.156	120.25
238.39	123.25
238.624	120.25
238.858	128.25
239.091	130.25
239.325	115.25
239.559	127.25
239.793	129.25
240.027	149.25
240.26	145.25
240.494	156.25
240.728	141.25
240.961	138.25
241.195	153.25
241.429	140.25
241.662	128.25
241.896	128.25
242.13	134.25
242.363	128.25
242.597	127.25
242.83	126.25
243.064	141.25
243.298	132.25
243.531	144.25
243.765	128.25
243.998	151.25
244.232	132.25
244.465	139.25
244.699	139.25
244.932	137.25
245.166	149.25
245.399	149.25
245.633	129.25
245.866	145.25
246.099	149.25
246.333	137.25
246.566	145.25
246.8	140.25
247.033	150.25
247.266	143.25
247.5	163.25
247.733	158.25
247.966	169.25
248.2	169.25
248.433	169.25
248.666	169.25
248.899	165.25
249.133	198.25
249.366	196.25
249.599	195.25
249.832	177.25
250.066	176.25
250.299	162.25
250.532	193.25
250.765	187.25
250.998	206.25
251.231	211.25
251.465	216.25
251.698	206.25
251.931	192.25
252.164	177.25
252.397	202.25
252.63	177.25
252.863	182.25
253.096	194.25
253.329	214.25
253.562	210.25
253.795	210.25
254.028	217.25
254.261	203.25
254.494	212.25
254.727	232.25
254.96	244.25
255.193	229.25
255.426	229.25
255.659	209.25
255.892	205.25
256.124	221.25
256.357	214.25
256.59	202.25
256.823	195.25
257.056	203.25
257.289	204.25
257.521	207.25
257.754	200.25
257.987	212.25
258.22	207.25
258.452	192.25
258.685	206.25
258.918	200.25
259.151	217.25
259.383	196.25
259.616	199.25
259.849	211.25
260.081	212.25
260.314	222.25
260.547	230.25
260.779	236.25
261.012	223.25
261.244	223.25
261.477	205.25
261.71	216.25
261.942	209.25
262.175	232.25
262.407	223.25
262.64	206.25
262.872	204.25
263.105	197.25
263.337	208.25
263.57	192.25
263.802	220.25
264.035	207.25
264.267	196.25
264.499	202.25
264.732	222.25
264.964	191.25
265.197	204.25
265.429	193.25
265.661	217.25
265.894	196.25
266.126	216.25
266.358	219.25
266.591	207.25
266.823	225.25
267.055	205.25
267.287	228.25
267.52	216.25
267.752	206.25
267.984	220.25
268.216	234.25
268.448	227.25
268.681	217.25
268.913	239.25
269.145	245.25
269.377	257.25
269.609	240.25
269.841	250.25
270.073	264.25
270.306	269.25
270.538	284.25
270.77	297.25
271.002	282.25
271.234	280.25
271.466	277.25
271.698	293.25
271.93	289.25
272.162	287.25
272.394	286.25
272.626	285.25
272.858	258.25
273.09	249.25
273.322	253.25
273.553	239.25
273.785	248.25
274.017	225.25
274.249	230.25
274.481	247.25
274.713	258.25
274.945	256.25
275.176	238.25
275.408	259.25
275.64	249.25
275.872	247.25
276.104	242.25
276.335	247.25
276.567	239.25
276.799	276.25
277.031	270.25
277.262	278.25
277.494	312.25
277.726	281.25
277.957	267.25
278.189	255.25
278.421	230.25
278.652	234.25
278.884	263.25
279.115	250.25
279.347	256.25
279.579	251.25
279.81	262.25
280.042	260.25
280.273	254.25
280.505	247.25
280.736	267.25
280.968	226.25
281.199	255.25
281.431	257.25
281.662	252.25
281.894	268.25
282.125	241.25
282.356	276.25
282.588	264.25
282.819	298.25
283.051	259.25
283.282	252.25
283.513	273.25
283.745	256.25
283.976	248.25
284.207	268.25
284.439	269.25
284.67	275.25
284.901	257.25
285.132	255.25
285.364	268.25
285.595	261.25
285.826	255.25
286.057	270.25
286.288	274.25
286.52	263.25
286.751	286.25
286.982	263.25
287.213	248.25
287.444	266.25
287.675	268.25
287.906	271.25
288.138	277.25
288.369	303.25
288.6	299.25
288.831	273.25
289.062	270.25
289.293	273.25
289.524	272.25
289.755	274.25
289.986	272.25
290.217	249.25
290.448	289.25
290.679	282.25
290.91	286.25
291.141	271.25
291.371	287.25
291.602	260.25
291.833	280.25
292.064	270.25
292.295	280.25
292.526	263.25
292.757	278.25
292.987	273.25
293.218	291.25
293.449	281.25
293.68	275.25
293.91	275.25
294.141	286.25
294.372	293.25
294.603	277.25
294.833	297.25
295.064	273.25
295.295	265.25
295.525	293.25
295.756	293.25
295.987	274.25
296.217	302.25
296.448	313.25
296.679	297.25
296.909	273.25
297.14	279.25
297.37	298.25
297.601	280.25
297.831	291.25
298.062	297.25
298.292	298.25
298.523	298.25
298.753	294.25
298.984	296.25
299.214	296.25
299.445	283.25
299.675	283.25
299.905	302.25
300.136	283.25
300.366	290.25
300.597	281.25
300.827	311.25
301.057	315.25
301.288	301.25
301.518	300.25
301.748	312.25
301.979	317.25
302.209	306.25
302.439	310.25
302.669	318.25
302.9	313.25
303.13	305.25
303.36	310.25
303.59	299.25
303.82	328.25
304.051	312.25
304.281	304.25
304.511	318.25
304.741	316.25
304.971	322.25
305.201	296.25
305.431	328.25
305.661	317.25
305.891	299.25
306.121	292.25
306.352	309.25
306.582	316.25
306.812	301.25
307.042	304.25
307.272	303.25
307.502	313.25
307.731	339.25
307.961	344.25
308.191	298.25
308.421	316.25
308.651	326.25
308.881	321.25
309.111	329.25
309.341	335.25
309.571	334.25
309.8	329.25
310.03	330.25
310.26	350.25
310.49	337.25
310.72	343.25
310.949	354.25
311.179	334.25
311.409	344.25
311.639	363.25
311.868	376.25
312.098	358.25
312.328	366.25
312.557	354.25
312.787	379.25
313.017	372.25
313.246	358.25
313.476	361.25
313.706	345.25
313.935	339.25
314.165	361.25
314.394	363.25
314.624	375.25
314.853	352.25
315.083	373.25
315.312	356.25
315.542	348.25
315.771	357.25
316.001	343.25
316.23	349.25
316.46	349.25
316.689	357.25
316.919	371.25
317.148	369.25
317.377	376.25
317.607	347.25
317.836	337.25
318.065	353.25
318.295	353.25
318.524	351.25
318.753	338.25
318.983	346.25
319.212	352.25
319.441	374.25
319.67	372.25
319.9	352.25
320.129	375.25
320.358	372.25
320.587	379.25
320.816	368.25
321.046	378.25
321.275	382.25
321.504	368.25
321.733	390.25
321.962	383.25
322.191	389.25
322.42	378.25
322.649	412.25
322.878	413.25
323.108	406.25
323.337	418.25
323.566	429.25
323.795	436.25
324.024	457.25
324.253	567.25
324.482	785.25
324.71	1231.25
324.939	1826.25
325.168	1612.25
325.397	791.25
325.626	544.25
325.855	462.25
326.084	456.25
326.313	447.25
326.542	427.25
326.77	492.25
326.999	540.25
327.228	726.25
327.457	1103.25
327.686	1390.25
327.914	928.25
328.143	617.25
328.372	534.25
328.6	517.25
328.829	512.25
329.058	517.25
329.287	512.25
329.515	481.25
329.744	466.25
329.972	460.25
330.201	479.25
330.43	510.25
330.658	490.25
330.887	534.25
331.115	512.25
331.344	455.25
331.572	433.25
331.801	437.25
332.03	438.25
332.258	440.25
332.486	418.25
332.715	415.25
332.943	419.25
333.172	404.25
333.4	412.25
333.629	455.25
333.857	440.25
334.085	448.25
334.314	490.25
334.542	495.25
334.771	494.25
334.999	457.25
335.227	446.25
335.455	408.25
335.684	430.25
335.912	433.25
336.14	431.25
336.369	431.25
336.597	462.25
336.825	420.25
337.053	432.25
337.281	431.25
337.51	393.25
337.738	440.25
337.966	417.25
338.194	419.25
338.422	434.25
338.65	423.25
338.878	426.25
339.106	419.25
339.334	418.25
339.562	414.25
339.79	404.25
340.018	402.25
340.246	403.25
340.474	410.25
340.702	428.25
340.93	424.25
341.158	396.25
341.386	412.25
341.614	425.25
341.842	402.25
342.07	401.25
342.298	393.25
342.526	421.25
342.754	401.25
342.981	381.25
343.209	401.25
343.437	408.25
343.665	442.25
343.893	420.25
344.12	438.25
344.348	435.25
344.576	431.25
344.804	429.25
345.031	438.25
345.259	433.25
345.487	422.25
345.714	417.25
345.942	418.25
346.17	402.25
346.397	410.25
346.625	402.25
346.853	402.25
347.08	408.25
347.308	410.25
347.535	422.25
347.763	399.25
347.99	405.25
348.218	405.25
348.445	411.25
348.673	393.25
348.9	404.25
349.128	406.25
349.355	385.25
349.583	390.25
349.81	394.25
350.037	377.25
350.265	385.25
350.492	399.25
350.72	391.25
350.947	386.25
351.174	412.25
351.402	405.25
351.629	391.25
351.856	406.25
352.083	397.25
352.311	419.25
352.538	406.25
352.765	412.25
352.992	407.25
353.22	402.25
353.447	412.25
353.674	398.25
353.901	393.25
354.128	383.25
354.355	388.25
354.583	366.25
354.81	383.25
355.037	394.25
355.264	368.25
355.491	380.25
355.718	384.25
355.945	379.25
356.172	374.25
356.399	361.25
356.626	374.25
356.853	394.25
357.08	410.25
357.307	381.25
357.534	388.25
357.761	366.25
357.988	384.25
358.215	390.25
358.441	374.25
358.668	389.25
358.895	383.25
359.122	400.25
359.349	388.25
359.576	404.25
359.802	416.25
360.029	432.25
360.256	461.25
360.483	417.25
360.709	416.25
360.936	417.25
361.163	409.25
361.39	426.25
361.616	389.25
361.843	390.25
362.07	406.25
362.296	406.25
362.523	415.25
362.749	411.25
362.976	395.25
363.203	398.25
363.429	390.25
363.656	398.25
363.882	385.25
364.109	369.25
364.335	404.25
364.562	403.25
364.788	406.25
365.015	392.25
365.241	384.25
365.468	406.25
365.694	427.25
365.92	404.25
366.147	382.25
366.373	400.25
366.599	406.25
366.826	410.25
367.052	386.25
367.278	397.25
367.505	395.25
367.731	413.25
367.957	400.25
368.184	400.25
368.41	388.25
368.636	405.25
368.862	408.25
369.089	400.25
369.315	382.25
369.541	413.25
369.767	403.25
369.993	392.25
370.219	398.25
370.445	381.25
370.672	398.25
370.898	404.25
371.124	381.25
371.35	394.25
371.576	411.25
371.802	422.25
372.028	400.25
372.254	409.25
372.48	397.25
372.706	417.25
372.932	414.25
373.158	401.25
373.384	400.25
373.61	407.25
373.835	410.25
374.061	385.25
374.287	412.25
374.513	417.25
374.739	412.25
374.965	415.25
375.191	423.25
375.416	410.25
375.642	417.25
375.868	435.25
376.094	408.25
376.319	410.25
376.545	398.25
376.771	394.25
376.997	406.25
377.222	411.25
377.448	388.25
377.674	418.25
377.899	391.25
378.125	398.25
378.35	406.25
378.576	408.25
378.802	406.25
379.027	400.25
379.253	397.25
379.478	422.25
379.704	400.25
379.929	409.25
380.155	399.25
380.38	428.25
380.606	417.25
380.831	390.25
381.057	408.25
381.282	409.25
381.507	397.25
381.733	403.25
381.958	438.25
382.184	413.25
382.409	413.25
382.634	441.25
382.86	397.25
383.085	412.25
383.31	415.25
383.535	414.25
383.761	429.25
383.986	425.25
384.211	443.25
384.436	439.25
384.662	451.25
384.887	452.25
385.112	420.25
385.337	439.25
385.562	438.25
385.787	429.25
386.013	457.25
386.238	437.25
386.463	457.25
386.688	469.25
386.913	434.25
387.138	458.25
387.363	447.25
387.588	445.25
387.813	455.25
388.038	461.25
388.263	428.25
388.488	470.25
388.713	461.25
388.938	458.25
389.163	457.25
389.387	439.25
389.612	429.25
389.837	462.25
390.062	443.25
390.287	430.25
390.512	455.25
390.736	441.25
390.961	453.25
391.186	481.25
391.411	460.25
391.636	461.25
391.86	465.25
392.085	493.25
392.31	443.25
392.534	458.25
392.759	476.25
392.984	465.25
393.208	458.25
393.433	458.25
393.658	478.25
393.882	444.25
394.107	458.25
394.331	471.25
394.556	453.25
394.78	474.25
395.005	467.25
395.229	453.25
395.454	461.25
395.678	473.25
395.903	492.25
396.127	516.25
396.352	498.25
396.576	474.25
396.801	493.25
397.025	486.25
397.249	491.25
397.474	491.25
397.698	484.25
397.922	487.25
398.147	501.25
398.371	516.25
398.595	508.25
398.82	527.25
399.044	532.25
399.268	557.25
399.492	567.25
399.717	608.25
399.941	656.25
400.165	646.25
400.389	649.25
400.613	598.25
400.837	584.25
401.062	570.25
401.286	526.25
401.51	520.25
401.734	519.25
401.958	513.25
402.182	535.25
402.406	528.25
402.63	540.25
402.854	543.25
403.078	523.25
403.302	544.25
403.526	534.25
403.75	542.25
403.974	556.25
404.198	548.25
404.422	554.25
404.645	541.25
404.869	561.25
405.093	591.25
405.317	622.25
405.541	654.25
405.765	606.25
405.988	596.25
406.212	560.25
406.436	606.25
406.66	599.25
406.883	602.25
407.107	628.25
407.331	662.25
407.555	705.25
407.778	736.25
408.002	670.25
408.226	610.25
408.449	612.25
408.673	597.25
408.896	625.25
409.12	662.25
409.344	644.25
409.567	591.25
409.791	580.25
410.014	555.25
410.238	552.25
410.461	565.25
410.685	559.25
410.908	541.25
411.132	612.25
411.355	630.25
411.578	615.25
411.802	556.25
412.025	538.25
412.249	545.25
412.472	557.25
412.695	607.25
412.919	576.25
413.142	553.25
413.365	540.25
413.589	552.25
413.812	545.25
414.035	536.25
414.258	529.25
414.482	536.25
414.705	536.25
414.928	519.25
415.151	523.25
415.374	520.25
415.597	546.25
415.821	550.25
416.044	515.25
416.267	505.25
416.49	522.25
416.713	494.25
416.936	535.25
417.159	506.25
417.382	513.25
417.605	524.25
417.828	540.25
418.051	557.25
418.274	535.25
418.497	520.25
418.72	520.25
418.943	534.25
419.166	539.25
419.389	561.25
419.611	576.25
419.834	540.25
420.057	565.25
420.28	545.25
420.503	553.25
420.726	556.25
420.948	566.25
421.171	608.25
421.394	610.25
421.617	550.25
421.839	528.25
422.062	544.25
422.285	557.25
422.507	615.25
422.73	658.25
422.953	644.25
423.175	588.25
423.398	546.25
423.621	534.25
423.843	583.25
424.066	568.25
424.288	564.25
424.511	594.25
424.733	642.25
424.956	730.25
425.178	698.25
425.401	673.25
425.623	696.25
425.846	604.25
426.068	568.25
426.291	587.25
426.513	552.25
426.735	575.25
426.958	609.25
427.18	698.25
427.402	805.25
427.625	917.25
427.847	784.25
428.069	693.25
428.292	620.25
428.514	574.25
428.736	540.25
428.958	565.25
429.181	531.25
429.403	560.25
429.625	556.25
429.847	571.25
430.069	650.25
430.292	617.25
430.514	527.25
430.736	538.25
430.958	528.25
431.18	513.25
431.402	507.25
431.624	504.25
431.846	495.25
432.068	500.25
432.29	520.25
432.512	509.25
432.734	539.25
432.956	518.25
433.178	521.25
433.4	520.25
433.622	517.25
433.844	525.25
434.066	492.25
434.287	517.25
434.509	513.25
434.731	523.25
434.953	542.25
435.175	552.25
435.397	609.25
435.618	575.25
435.84	592.25
436.062	699.25
436.284	796.25
436.505	654.25
436.727	607.25
436.949	554.25
437.17	537.25
437.392	538.25
437.614	543.25
437.835	578.25
438.057	645.25
438.278	763.25
438.5	764.25
438.721	838.25
438.943	807.25
439.165	652.25
439.386	589.25
439.608	571.25
439.829	573.25
440.05	568.25
440.272	621.25
440.493	589.25
440.715	575.25
440.936	531.25
441.158	508.25
441.379	547.25
441.6	550.25
441.822	551.25
442.043	608.25
442.264	680.25
442.486	721.25
442.707	636.25
442.928	593.25
443.149	597.25
443.371	617.25
443.592	650.25
443.813	751.25
444.034	827.25
444.255	657.25
444.476	593.25
444.698	605.25
444.919	582.25
445.14	654.25
445.361	635.25
445.582	625.25
445.803	708.25
446.024	772.25
446.245	792.25
446.466	717.25
446.687	617.25
446.908	567.25
447.129	527.25
447.35	534.25
447.571	536.25
447.792	523.25
448.013	509.25
448.234	544.25
448.455	578.25
448.675	690.25
448.896	810.25
449.117	663.25
449.338	655.25
449.559	780.25
449.779	872.25
450	685.25
450.221	561.25
450.442	523.25
450.662	545.25
450.883	512.25
451.104	507.25
451.324	530.25
451.545	484.25
451.766	511.25
451.986	472.25
452.207	482.25
452.428	484.25
452.648	473.25
452.869	470.25
453.089	493.25
453.31	486.25
453.53	470.25
453.751	473.25
453.971	461.25
454.192	482.25
454.412	482.25
454.633	473.25
454.853	471.25
455.073	476.25
455.294	479.25
455.514	548.25
455.734	567.25
455.955	468.25
456.175	456.25
456.395	452.25
456.616	449.25
456.836	450.25
457.056	442.25
457.276	434.25
457.497	462.25
457.717	462.25
457.937	459.25
458.157	480.25
458.377	491.25
458.598	485.25
458.818	533.25
459.038	600.25
459.258	631.25
459.478	562.25
459.698	518.25
459.918	488.25
460.138	516.25
460.358	534.25
460.578	518.25
460.798	518.25
461.018	544.25
461.238	502.25
461.458	508.25
461.678	514.25
461.898	521.25
462.118	529.25
462.338	525.25
462.558	539.25
462.777	565.25
462.997	568.25
463.217	594.25
463.437	592.25
463.657	573.25
463.876	582.25
464.096	558.25
464.316	560.25
464.536	566.25
464.755	569.25
464.975	556.25
465.195	597.25
465.414	618.25
465.634	550.25
465.854	544.25
466.073	526.25
466.293	508.25
466.512	506.25
466.732	495.25
466.951	488.25
467.171	526.25
467.391	488.25
467.61	522.25
467.829	509.25
468.049	497.25
468.268	525.25
468.488	478.25
468.707	482.25
468.927	454.25
469.146	460.25
469.365	510.25
469.585	505.25
469.804	503.25
470.023	505.25
470.243	507.25
470.462	503.25
470.681	490.25
470.901	510.25
471.12	497.25
471.339	510.25
471.558	524.25
471.777	511.25
471.997	502.25
472.216	494.25
472.435	519.25
472.654	507.25
472.873	496.25
473.092	494.25
473.311	497.25
473.53	503.25
473.749	504.25
473.968	548.25
474.187	641.25
474.406	662.25
474.625	526.25
474.844	512.25
475.063	514.25
475.282	516.25
475.501	525.25
475.72	541.25
475.939	516.25
476.158	527.25
476.377	508.25
476.596	517.25
476.814	531.25
477.033	530.25
477.252	543.25
477.471	556.25
477.69	540.25
477.908	552.25
478.127	555.25
478.346	560.25
478.564	584.25
478.783	585.25
479.002	559.25
479.22	568.25
479.439	558.25
479.658	582.25
479.876	588.25
480.095	611.25
480.313	626.25
480.532	636.25
480.751	616.25
480.969	629.25
481.188	649.25
481.406	695.25
481.624	599.25
481.843	611.25
482.061	595.25
482.28	607.25
482.498	595.25
482.717	590.25
482.935	586.25
483.153	593.25
483.372	605.25
483.59	585.25
483.808	598.25
484.027	581.25
484.245	583.25
484.463	575.25
484.681	615.25
484.9	593.25
485.118	621.25
485.336	613.25
485.554	620.25
485.772	600.25
485.99	605.25
486.209	589.25
486.427	628.25
486.645	607.25
486.863	646.25
487.081	639.25
487.299	626.25
487.517	639.25
487.735	630.25
487.953	618.25
488.171	628.25
488.389	641.25
488.607	656.25
488.825	631.25
489.043	650.25
489.261	644.25
489.479	634.25
489.696	620.25
489.914	650.25
490.132	661.25
490.35	640.25
490.568	676.25
490.786	686.25
491.003	673.25
491.221	681.25
491.439	678.25
491.657	684.25
491.874	694.25
492.092	701.25
492.31	702.25
492.527	718.25
492.745	735.25
492.963	729.25
493.18	703.25
493.398	744.25
493.615	719.25
493.833	713.25
494.05	740.25
494.268	742.25
494.485	758.25
494.703	721.25
494.92	739.25
495.138	741.25
495.355	719.25
495.573	744.25
495.79	735.25
496.008	752.25
496.225	729.25
496.442	751.25
496.66	753.25
496.877	761.25
497.094	749.25
497.312	760.25
497.529	767.25
497.746	777.25
497.963	775.25
498.181	813.25
498.398	834.25
498.615	855.25
498.832	854.25
499.049	857.25
499.267	887.25
499.484	929.25
499.701	957.25
499.918	1008.25
500.135	1047.25
500.352	1108.25
500.569	1112.25
500.786	1067.25
501.003	1088.25
501.22	1045.25
501.437	1017.25
501.654	973.25
