Data from 1966.PennyLincolnUp.Lamp.En5.5.200Scan.071719.P1.Scan2.head_HRD10591_14-16-41-048.txt Node
Date: Thu Jul 18 14:16:41 EDT 2019
User: cochatt
Spectrometer: HR+D1059
Trigger mode: 1
Integration Time (sec): 1.000000E-1
Scans to average: 1
Electric dark correction enabled: true
Nonlinearity correction enabled: false
Boxcar width: 0
XAxis mode: Wavelengths
Number of Pixels in Spectrum: 2048
>>>>>Begin Spectral Data<<<<<
223.165	-13.06
223.4	-13.06
223.635	-13.06
223.869	-2.06
224.104	-23.06
224.338	-12.06
224.573	-17.06
224.808	-15.06
225.042	-12.06
225.277	0.94
225.511	6.94
225.746	-3.06
225.98	4.94
226.215	16.94
226.449	5.94
226.683	28.94
226.918	11.94
227.152	20.94
227.387	58.94
227.621	41.94
227.856	41.94
228.09	50.94
228.324	48.94
228.559	65.94
228.793	62.94
229.027	93.94
229.262	93.94
229.496	101.94
229.73	124.94
229.964	146.94
230.199	119.94
230.433	122.94
230.667	106.94
230.901	101.94
231.136	101.94
231.37	109.94
231.604	111.94
231.838	120.94
232.072	105.94
232.306	120.94
232.541	112.94
232.775	118.94
233.009	122.94
233.243	117.94
233.477	108.94
233.711	95.94
233.945	104.94
234.179	117.94
234.413	107.94
234.647	111.94
234.881	102.94
235.115	114.94
235.349	128.94
235.583	109.94
235.817	115.94
236.051	98.94
236.285	129.94
236.519	137.94
236.753	124.94
236.987	129.94
237.221	156.94
237.455	206.94
237.689	176.94
237.922	139.94
238.156	128.94
238.39	116.94
238.624	115.94
238.858	128.94
239.091	103.94
239.325	121.94
239.559	116.94
239.793	118.94
240.027	134.94
240.26	136.94
240.494	141.94
240.728	139.94
240.961	141.94
241.195	133.94
241.429	122.94
241.662	111.94
241.896	136.94
242.13	128.94
242.363	120.94
242.597	131.94
242.83	136.94
243.064	130.94
243.298	112.94
243.531	118.94
243.765	130.94
243.998	133.94
244.232	126.94
244.465	129.94
244.699	139.94
244.932	127.94
245.166	140.94
245.399	131.94
245.633	153.94
245.866	137.94
246.099	148.94
246.333	149.94
246.566	136.94
246.8	142.94
247.033	144.94
247.266	140.94
247.5	143.94
247.733	157.94
247.966	166.94
248.2	158.94
248.433	154.94
248.666	168.94
248.899	164.94
249.133	183.94
249.366	177.94
249.599	173.94
249.832	173.94
250.066	165.94
250.299	167.94
250.532	169.94
250.765	184.94
250.998	206.94
251.231	226.94
251.465	192.94
251.698	185.94
251.931	174.94
252.164	164.94
252.397	179.94
252.63	185.94
252.863	177.94
253.096	188.94
253.329	213.94
253.562	208.94
253.795	194.94
254.028	201.94
254.261	205.94
254.494	206.94
254.727	222.94
254.96	240.94
255.193	233.94
255.426	217.94
255.659	207.94
255.892	203.94
256.124	222.94
256.357	219.94
256.59	199.94
256.823	187.94
257.056	210.94
257.289	189.94
257.521	198.94
257.754	189.94
257.987	184.94
258.22	188.94
258.452	199.94
258.685	188.94
258.918	189.94
259.151	178.94
259.383	181.94
259.616	213.94
259.849	191.94
260.081	219.94
260.314	226.94
260.547	205.94
260.779	214.94
261.012	232.94
261.244	196.94
261.477	195.94
261.71	200.94
261.942	216.94
262.175	192.94
262.407	192.94
262.64	193.94
262.872	204.94
263.105	192.94
263.337	190.94
263.57	202.94
263.802	196.94
264.035	204.94
264.267	204.94
264.499	184.94
264.732	190.94
264.964	212.94
265.197	193.94
265.429	203.94
265.661	201.94
265.894	206.94
266.126	209.94
266.358	214.94
266.591	198.94
266.823	208.94
267.055	202.94
267.287	214.94
267.52	214.94
267.752	203.94
267.984	207.94
268.216	213.94
268.448	224.94
268.681	208.94
268.913	215.94
269.145	257.94
269.377	232.94
269.609	244.94
269.841	230.94
270.073	247.94
270.306	253.94
270.538	264.94
270.77	263.94
271.002	261.94
271.234	248.94
271.466	259.94
271.698	263.94
271.93	279.94
272.162	270.94
272.394	273.94
272.626	281.94
272.858	258.94
273.09	258.94
273.322	221.94
273.553	228.94
273.785	246.94
274.017	229.94
274.249	239.94
274.481	270.94
274.713	238.94
274.945	242.94
275.176	244.94
275.408	226.94
275.64	242.94
275.872	231.94
276.104	230.94
276.335	242.94
276.567	239.94
276.799	245.94
277.031	270.94
277.262	273.94
277.494	275.94
277.726	269.94
277.957	270.94
278.189	263.94
278.421	244.94
278.652	235.94
278.884	258.94
279.115	233.94
279.347	242.94
279.579	236.94
279.81	249.94
280.042	265.94
280.273	229.94
280.505	232.94
280.736	242.94
280.968	237.94
281.199	250.94
281.431	258.94
281.662	243.94
281.894	254.94
282.125	254.94
282.356	243.94
282.588	266.94
282.819	255.94
283.051	251.94
283.282	226.94
283.513	250.94
283.745	240.94
283.976	272.94
284.207	241.94
284.439	246.94
284.67	273.94
284.901	254.94
285.132	271.94
285.364	267.94
285.595	251.94
285.826	244.94
286.057	277.94
286.288	246.94
286.52	258.94
286.751	255.94
286.982	254.94
287.213	255.94
287.444	260.94
287.675	264.94
287.906	276.94
288.138	286.94
288.369	280.94
288.6	268.94
288.831	271.94
289.062	271.94
289.293	280.94
289.524	281.94
289.755	270.94
289.986	262.94
290.217	280.94
290.448	262.94
290.679	271.94
290.91	261.94
291.141	249.94
291.371	280.94
291.602	279.94
291.833	254.94
292.064	268.94
292.295	280.94
292.526	264.94
292.757	260.94
292.987	259.94
293.218	259.94
293.449	257.94
293.68	260.94
293.91	269.94
294.141	278.94
294.372	263.94
294.603	263.94
294.833	258.94
295.064	278.94
295.295	278.94
295.525	269.94
295.756	267.94
295.987	284.94
296.217	293.94
296.448	290.94
296.679	283.94
296.909	278.94
297.14	280.94
297.37	275.94
297.601	284.94
297.831	272.94
298.062	260.94
298.292	279.94
298.523	292.94
298.753	279.94
298.984	274.94
299.214	287.94
299.445	283.94
299.675	283.94
299.905	295.94
300.136	294.94
300.366	295.94
300.597	291.94
300.827	298.94
301.057	297.94
301.288	299.94
301.518	317.94
301.748	303.94
301.979	304.94
302.209	306.94
302.439	301.94
302.669	277.94
302.9	309.94
303.13	301.94
303.36	303.94
303.59	312.94
303.82	322.94
304.051	301.94
304.281	306.94
304.511	301.94
304.741	310.94
304.971	307.94
305.201	307.94
305.431	303.94
305.661	314.94
305.891	291.94
306.121	299.94
306.352	320.94
306.582	314.94
306.812	283.94
307.042	304.94
307.272	310.94
307.502	314.94
307.731	306.94
307.961	310.94
308.191	303.94
308.421	302.94
308.651	309.94
308.881	300.94
309.111	313.94
309.341	301.94
309.571	320.94
309.8	314.94
310.03	323.94
310.26	342.94
310.49	319.94
310.72	342.94
310.949	350.94
311.179	355.94
311.409	328.94
311.639	334.94
311.868	338.94
312.098	348.94
312.328	343.94
312.557	359.94
312.787	344.94
313.017	343.94
313.246	352.94
313.476	330.94
313.706	348.94
313.935	346.94
314.165	359.94
314.394	364.94
314.624	336.94
314.853	356.94
315.083	332.94
315.312	338.94
315.542	346.94
315.771	330.94
316.001	319.94
316.23	331.94
316.46	332.94
316.689	342.94
316.919	347.94
317.148	350.94
317.377	354.94
317.607	351.94
317.836	332.94
318.065	350.94
318.295	355.94
318.524	340.94
318.753	335.94
318.983	332.94
319.212	356.94
319.441	332.94
319.67	351.94
319.9	336.94
320.129	346.94
320.358	333.94
320.587	342.94
320.816	354.94
321.046	355.94
321.275	345.94
321.504	343.94
321.733	350.94
321.962	355.94
322.191	378.94
322.42	386.94
322.649	405.94
322.878	374.94
323.108	394.94
323.337	410.94
323.566	424.94
323.795	442.94
324.024	453.94
324.253	527.94
324.482	747.94
324.71	1153.94
324.939	1697.94
325.168	1482.94
325.397	745.94
325.626	498.94
325.855	451.94
326.084	429.94
326.313	398.94
326.542	423.94
326.77	440.94
326.999	512.94
327.228	727.94
327.457	1037.94
327.686	1319.94
327.914	832.94
328.143	562.94
328.372	524.94
328.6	476.94
328.829	463.94
329.058	461.94
329.287	483.94
329.515	476.94
329.744	412.94
329.972	460.94
330.201	438.94
330.43	462.94
330.658	517.94
330.887	502.94
331.115	498.94
331.344	437.94
331.572	418.94
331.801	410.94
332.03	419.94
332.258	398.94
332.486	418.94
332.715	417.94
332.943	389.94
333.172	410.94
333.4	424.94
333.629	418.94
333.857	443.94
334.085	432.94
334.314	457.94
334.542	475.94
334.771	462.94
334.999	430.94
335.227	431.94
335.455	422.94
335.684	411.94
335.912	428.94
336.14	412.94
336.369	416.94
336.597	406.94
336.825	410.94
337.053	430.94
337.281	394.94
337.51	420.94
337.738	404.94
337.966	405.94
338.194	390.94
338.422	402.94
338.65	413.94
338.878	400.94
339.106	407.94
339.334	404.94
339.562	401.94
339.79	395.94
340.018	396.94
340.246	383.94
340.474	392.94
340.702	406.94
340.93	412.94
341.158	386.94
341.386	386.94
341.614	412.94
341.842	394.94
342.07	399.94
342.298	382.94
342.526	390.94
342.754	411.94
342.981	374.94
343.209	368.94
343.437	410.94
343.665	416.94
343.893	409.94
344.12	435.94
344.348	418.94
344.576	416.94
344.804	408.94
345.031	421.94
345.259	421.94
345.487	410.94
345.714	415.94
345.942	392.94
346.17	385.94
346.397	384.94
346.625	381.94
346.853	376.94
347.08	381.94
347.308	390.94
347.535	399.94
347.763	394.94
347.99	374.94
348.218	383.94
348.445	397.94
348.673	400.94
348.9	396.94
349.128	375.94
349.355	382.94
349.583	392.94
349.81	378.94
350.037	389.94
350.265	379.94
350.492	382.94
350.72	377.94
350.947	376.94
351.174	385.94
351.402	391.94
351.629	396.94
351.856	395.94
352.083	378.94
352.311	390.94
352.538	401.94
352.765	404.94
352.992	377.94
353.22	393.94
353.447	387.94
353.674	383.94
353.901	378.94
354.128	396.94
354.355	355.94
354.583	350.94
354.81	390.94
355.037	382.94
355.264	378.94
355.491	353.94
355.718	370.94
355.945	371.94
356.172	377.94
356.399	361.94
356.626	372.94
356.853	381.94
357.08	351.94
357.307	397.94
357.534	365.94
357.761	346.94
357.988	373.94
358.215	363.94
358.441	370.94
358.668	367.94
358.895	374.94
359.122	370.94
359.349	392.94
359.576	394.94
359.802	407.94
360.029	414.94
360.256	442.94
360.483	414.94
360.709	393.94
360.936	401.94
361.163	377.94
361.39	392.94
361.616	376.94
361.843	395.94
362.07	378.94
362.296	389.94
362.523	400.94
362.749	381.94
362.976	379.94
363.203	393.94
363.429	383.94
363.656	380.94
363.882	374.94
364.109	375.94
364.335	391.94
364.562	387.94
364.788	386.94
365.015	392.94
365.241	398.94
365.468	381.94
365.694	390.94
365.92	382.94
366.147	378.94
366.373	385.94
366.599	387.94
366.826	406.94
367.052	366.94
367.278	380.94
367.505	376.94
367.731	377.94
367.957	360.94
368.184	387.94
368.41	386.94
368.636	403.94
368.862	396.94
369.089	396.94
369.315	388.94
369.541	382.94
369.767	386.94
369.993	391.94
370.219	388.94
370.445	393.94
370.672	383.94
370.898	382.94
371.124	390.94
371.35	392.94
371.576	388.94
371.802	386.94
372.028	396.94
372.254	380.94
372.48	385.94
372.706	411.94
372.932	401.94
373.158	391.94
373.384	395.94
373.61	374.94
373.835	396.94
374.061	384.94
374.287	386.94
374.513	386.94
374.739	384.94
374.965	416.94
375.191	399.94
375.416	398.94
375.642	388.94
375.868	392.94
376.094	393.94
376.319	397.94
376.545	398.94
376.771	403.94
376.997	403.94
377.222	415.94
377.448	406.94
377.674	380.94
377.899	402.94
378.125	395.94
378.35	389.94
378.576	388.94
378.802	410.94
379.027	377.94
379.253	397.94
379.478	405.94
379.704	400.94
379.929	402.94
380.155	413.94
380.38	405.94
380.606	407.94
380.831	395.94
381.057	390.94
381.282	399.94
381.507	418.94
381.733	413.94
381.958	416.94
382.184	413.94
382.409	418.94
382.634	406.94
382.86	396.94
383.085	412.94
383.31	409.94
383.535	413.94
383.761	415.94
383.986	414.94
384.211	412.94
384.436	408.94
384.662	437.94
384.887	435.94
385.112	431.94
385.337	435.94
385.562	430.94
385.787	420.94
386.013	455.94
386.238	444.94
386.463	460.94
386.688	462.94
386.913	453.94
387.138	449.94
387.363	447.94
387.588	435.94
387.813	446.94
388.038	423.94
388.263	438.94
388.488	436.94
388.713	456.94
388.938	452.94
389.163	447.94
389.387	445.94
389.612	440.94
389.837	434.94
390.062	439.94
390.287	439.94
390.512	444.94
390.736	442.94
390.961	434.94
391.186	432.94
391.411	458.94
391.636	439.94
391.86	472.94
392.085	463.94
392.31	482.94
392.534	471.94
392.759	461.94
392.984	471.94
393.208	466.94
393.433	488.94
393.658	491.94
393.882	471.94
394.107	462.94
394.331	472.94
394.556	454.94
394.78	443.94
395.005	459.94
395.229	455.94
395.454	471.94
395.678	479.94
395.903	461.94
396.127	478.94
396.352	503.94
396.576	493.94
396.801	488.94
397.025	486.94
397.249	482.94
397.474	482.94
397.698	473.94
397.922	491.94
398.147	501.94
398.371	504.94
398.595	478.94
398.82	508.94
399.044	557.94
399.268	525.94
399.492	559.94
399.717	599.94
399.941	633.94
400.165	622.94
400.389	630.94
400.613	575.94
400.837	551.94
401.062	518.94
401.286	525.94
401.51	527.94
401.734	498.94
401.958	538.94
402.182	511.94
402.406	527.94
402.63	526.94
402.854	524.94
403.078	519.94
403.302	547.94
403.526	543.94
403.75	538.94
403.974	543.94
404.198	534.94
404.422	540.94
404.645	544.94
404.869	565.94
405.093	584.94
405.317	611.94
405.541	626.94
405.765	590.94
405.988	563.94
406.212	558.94
406.436	570.94
406.66	592.94
406.883	580.94
407.107	588.94
407.331	611.94
407.555	687.94
407.778	700.94
408.002	620.94
408.226	611.94
408.449	593.94
408.673	582.94
408.896	619.94
409.12	667.94
409.344	622.94
409.567	546.94
409.791	548.94
410.014	528.94
410.238	528.94
410.461	549.94
410.685	550.94
410.908	573.94
411.132	598.94
411.355	606.94
411.578	585.94
411.802	542.94
412.025	546.94
412.249	544.94
412.472	538.94
412.695	576.94
412.919	590.94
413.142	538.94
413.365	537.94
413.589	528.94
413.812	534.94
414.035	530.94
414.258	514.94
414.482	501.94
414.705	516.94
414.928	508.94
415.151	516.94
415.374	522.94
415.597	516.94
415.821	508.94
416.044	510.94
416.267	520.94
416.49	517.94
416.713	516.94
416.936	515.94
417.159	493.94
417.382	510.94
417.605	520.94
417.828	520.94
418.051	539.94
418.274	552.94
418.497	502.94
418.72	517.94
418.943	499.94
419.166	506.94
419.389	544.94
419.611	557.94
419.834	546.94
420.057	538.94
420.28	531.94
420.503	517.94
420.726	519.94
420.948	523.94
421.171	576.94
421.394	583.94
421.617	551.94
421.839	531.94
422.062	517.94
422.285	538.94
422.507	579.94
422.73	670.94
422.953	619.94
423.175	578.94
423.398	539.94
423.621	533.94
423.843	586.94
424.066	556.94
424.288	556.94
424.511	555.94
424.733	619.94
424.956	700.94
425.178	680.94
425.401	657.94
425.623	690.94
425.846	587.94
426.068	568.94
426.291	530.94
426.513	545.94
426.735	551.94
426.958	603.94
427.18	671.94
427.402	791.94
427.625	861.94
427.847	731.94
428.069	628.94
428.292	592.94
428.514	536.94
428.736	523.94
428.958	532.94
429.181	506.94
429.403	505.94
429.625	518.94
429.847	547.94
430.069	616.94
430.292	606.94
430.514	530.94
430.736	528.94
430.958	506.94
431.18	506.94
431.402	484.94
431.624	469.94
431.846	489.94
432.068	508.94
432.29	486.94
432.512	498.94
432.734	519.94
432.956	480.94
433.178	502.94
433.4	528.94
433.622	492.94
433.844	479.94
434.066	490.94
434.287	499.94
434.509	499.94
434.731	520.94
434.953	516.94
435.175	553.94
435.397	548.94
435.618	573.94
435.84	590.94
436.062	682.94
436.284	760.94
436.505	629.94
436.727	562.94
436.949	524.94
437.17	500.94
437.392	538.94
437.614	550.94
437.835	543.94
438.057	632.94
438.278	748.94
438.5	740.94
438.721	818.94
438.943	784.94
439.165	618.94
439.386	552.94
439.608	564.94
439.829	551.94
440.05	577.94
440.272	627.94
440.493	590.94
440.715	545.94
440.936	516.94
441.158	541.94
441.379	531.94
441.6	534.94
441.822	553.94
442.043	585.94
442.264	663.94
442.486	704.94
442.707	599.94
442.928	574.94
443.149	580.94
443.371	578.94
443.592	630.94
443.813	688.94
444.034	769.94
444.255	651.94
444.476	580.94
444.698	603.94
444.919	568.94
445.14	671.94
445.361	581.94
445.582	596.94
445.803	634.94
446.024	741.94
446.245	726.94
446.466	670.94
446.687	609.94
446.908	570.94
447.129	516.94
447.35	506.94
447.571	518.94
447.792	493.94
448.013	515.94
448.234	532.94
448.455	581.94
448.675	693.94
448.896	816.94
449.117	675.94
449.338	616.94
449.559	735.94
449.779	839.94
450	676.94
450.221	552.94
450.442	521.94
450.662	491.94
450.883	482.94
451.104	513.94
451.324	482.94
451.545	500.94
451.766	476.94
451.986	465.94
452.207	470.94
452.428	460.94
452.648	460.94
452.869	464.94
453.089	469.94
453.31	495.94
453.53	463.94
453.751	444.94
453.971	448.94
454.192	483.94
454.412	471.94
454.633	455.94
454.853	443.94
455.073	476.94
455.294	474.94
455.514	528.94
455.734	514.94
455.955	458.94
456.175	461.94
456.395	437.94
456.616	431.94
456.836	444.94
457.056	456.94
457.276	432.94
457.497	456.94
457.717	442.94
457.937	447.94
458.157	458.94
458.377	461.94
458.598	476.94
458.818	514.94
459.038	590.94
459.258	615.94
459.478	519.94
459.698	507.94
459.918	502.94
460.138	513.94
460.358	505.94
460.578	515.94
460.798	502.94
461.018	493.94
461.238	510.94
461.458	532.94
461.678	513.94
461.898	524.94
462.118	505.94
462.338	529.94
462.558	512.94
462.777	553.94
462.997	538.94
463.217	554.94
463.437	580.94
463.657	576.94
463.876	563.94
464.096	543.94
464.316	557.94
464.536	543.94
464.755	554.94
464.975	538.94
465.195	575.94
465.414	600.94
465.634	574.94
465.854	547.94
466.073	505.94
466.293	507.94
466.512	499.94
466.732	486.94
466.951	485.94
467.171	477.94
467.391	491.94
467.61	487.94
467.829	483.94
468.049	482.94
468.268	479.94
468.488	463.94
468.707	475.94
468.927	471.94
469.146	437.94
469.365	445.94
469.585	461.94
469.804	496.94
470.023	491.94
470.243	484.94
470.462	476.94
470.681	493.94
470.901	491.94
471.12	481.94
471.339	471.94
471.558	484.94
471.777	490.94
471.997	485.94
472.216	485.94
472.435	513.94
472.654	503.94
472.873	487.94
473.092	479.94
473.311	456.94
473.53	483.94
473.749	474.94
473.968	535.94
474.187	608.94
474.406	647.94
474.625	517.94
474.844	515.94
475.063	495.94
475.282	505.94
475.501	491.94
475.72	485.94
475.939	490.94
476.158	480.94
476.377	507.94
476.596	514.94
476.814	511.94
477.033	522.94
477.252	519.94
477.471	517.94
477.69	517.94
477.908	517.94
478.127	523.94
478.346	536.94
478.564	534.94
478.783	572.94
479.002	554.94
479.22	569.94
479.439	573.94
479.658	591.94
479.876	574.94
480.095	575.94
480.313	630.94
480.532	629.94
480.751	600.94
480.969	614.94
481.188	636.94
481.406	650.94
481.624	610.94
481.843	586.94
482.061	569.94
482.28	589.94
482.498	574.94
482.717	579.94
482.935	585.94
483.153	592.94
483.372	572.94
483.59	598.94
483.808	586.94
484.027	595.94
484.245	559.94
484.463	575.94
484.681	582.94
484.9	602.94
485.118	589.94
485.336	599.94
485.554	615.94
485.772	605.94
485.99	582.94
486.209	598.94
486.427	580.94
486.645	593.94
486.863	627.94
487.081	620.94
487.299	615.94
487.517	590.94
487.735	586.94
487.953	599.94
488.171	620.94
488.389	605.94
488.607	612.94
488.825	620.94
489.043	584.94
489.261	602.94
489.479	634.94
489.696	618.94
489.914	644.94
490.132	636.94
490.35	653.94
490.568	654.94
490.786	665.94
491.003	644.94
491.221	656.94
491.439	663.94
491.657	671.94
491.874	695.94
492.092	711.94
492.31	716.94
492.527	717.94
492.745	682.94
492.963	696.94
493.18	698.94
493.398	700.94
493.615	720.94
493.833	717.94
494.05	702.94
494.268	683.94
494.485	700.94
494.703	725.94
494.92	708.94
495.138	701.94
495.355	702.94
495.573	727.94
495.79	740.94
496.008	716.94
496.225	735.94
496.442	727.94
496.66	708.94
496.877	693.94
497.094	718.94
497.312	748.94
497.529	758.94
497.746	755.94
497.963	760.94
498.181	767.94
498.398	791.94
498.615	796.94
498.832	820.94
499.049	870.94
499.267	863.94
499.484	878.94
499.701	936.94
499.918	998.94
500.135	1039.94
500.352	1096.94
500.569	1078.94
500.786	1104.94
501.003	1083.94
501.22	1039.94
501.437	997.94
501.654	986.94
501.871	935.94
