Data from 1966.PennyLincolnUp.Lamp.En5.5.200Scan.071719.P1._HRD10591_14-12-51-913.txt Node
Date: Thu Jul 18 14:12:51 EDT 2019
User: cochatt
Spectrometer: HR+D1059
Trigger mode: 1
Integration Time (sec): 1.000000E-1
Scans to average: 1
Electric dark correction enabled: true
Nonlinearity correction enabled: false
Boxcar width: 0
XAxis mode: Wavelengths
Number of Pixels in Spectrum: 2048
>>>>>Begin Spectral Data<<<<<
223.165	-11.19
223.4	-11.19
223.635	-11.19
223.869	-13.19
224.104	-21.19
224.338	-15.19
224.573	-11.19
224.808	-8.19
225.042	-16.19
225.277	1.81
225.511	-15.19
225.746	4.81
225.98	15.81
226.215	11.81
226.449	0.81
226.683	12.81
226.918	25.81
227.152	37.81
227.387	35.81
227.621	28.81
227.856	42.81
228.09	43.81
228.324	48.81
228.559	67.81
228.793	60.81
229.027	85.81
229.262	74.81
229.496	77.81
229.73	111.81
229.964	87.81
230.199	76.81
230.433	91.81
230.667	92.81
230.901	80.81
231.136	86.81
231.37	95.81
231.604	105.81
231.838	82.81
232.072	100.81
232.306	79.81
232.541	87.81
232.775	84.81
233.009	81.81
233.243	102.81
233.477	103.81
233.711	109.81
233.945	96.81
234.179	92.81
234.413	91.81
234.647	106.81
234.881	99.81
235.115	80.81
235.349	100.81
235.583	93.81
235.817	90.81
236.051	91.81
236.285	85.81
236.519	88.81
236.753	94.81
236.987	111.81
237.221	110.81
237.455	139.81
237.689	115.81
237.922	111.81
238.156	97.81
238.39	91.81
238.624	79.81
238.858	90.81
239.091	103.81
239.325	91.81
239.559	85.81
239.793	87.81
240.027	95.81
240.26	96.81
240.494	112.81
240.728	97.81
240.961	105.81
241.195	95.81
241.429	105.81
241.662	86.81
241.896	102.81
242.13	100.81
242.363	99.81
242.597	81.81
242.83	90.81
243.064	97.81
243.298	96.81
243.531	83.81
243.765	96.81
243.998	106.81
244.232	89.81
244.465	108.81
244.699	93.81
244.932	91.81
245.166	105.81
245.399	117.81
245.633	114.81
245.866	104.81
246.099	100.81
246.333	97.81
246.566	94.81
246.8	95.81
247.033	121.81
247.266	106.81
247.5	122.81
247.733	102.81
247.966	110.81
248.2	96.81
248.433	108.81
248.666	111.81
248.899	121.81
249.133	132.81
249.366	118.81
249.599	118.81
249.832	120.81
250.066	114.81
250.299	117.81
250.532	127.81
250.765	127.81
250.998	140.81
251.231	137.81
251.465	128.81
251.698	118.81
251.931	141.81
252.164	126.81
252.397	134.81
252.63	132.81
252.863	122.81
253.096	119.81
253.329	149.81
253.562	140.81
253.795	117.81
254.028	127.81
254.261	142.81
254.494	133.81
254.727	153.81
254.96	133.81
255.193	147.81
255.426	133.81
255.659	129.81
255.892	127.81
256.124	138.81
256.357	145.81
256.59	137.81
256.823	129.81
257.056	135.81
257.289	135.81
257.521	121.81
257.754	127.81
257.987	112.81
258.22	123.81
258.452	131.81
258.685	125.81
258.918	130.81
259.151	135.81
259.383	139.81
259.616	130.81
259.849	125.81
260.081	144.81
260.314	150.81
260.547	141.81
260.779	133.81
261.012	142.81
261.244	125.81
261.477	140.81
261.71	124.81
261.942	137.81
262.175	129.81
262.407	136.81
262.64	140.81
262.872	125.81
263.105	119.81
263.337	141.81
263.57	123.81
263.802	125.81
264.035	139.81
264.267	134.81
264.499	125.81
264.732	129.81
264.964	137.81
265.197	124.81
265.429	125.81
265.661	122.81
265.894	139.81
266.126	133.81
266.358	136.81
266.591	129.81
266.823	127.81
267.055	129.81
267.287	146.81
267.52	139.81
267.752	133.81
267.984	114.81
268.216	131.81
268.448	145.81
268.681	145.81
268.913	139.81
269.145	148.81
269.377	158.81
269.609	151.81
269.841	151.81
270.073	163.81
270.306	161.81
270.538	192.81
270.77	179.81
271.002	151.81
271.234	157.81
271.466	166.81
271.698	179.81
271.93	164.81
272.162	181.81
272.394	163.81
272.626	161.81
272.858	161.81
273.09	169.81
273.322	153.81
273.553	147.81
273.785	149.81
274.017	141.81
274.249	155.81
274.481	144.81
274.713	146.81
274.945	157.81
275.176	155.81
275.408	152.81
275.64	145.81
275.872	143.81
276.104	159.81
276.335	157.81
276.567	162.81
276.799	165.81
277.031	184.81
277.262	185.81
277.494	173.81
277.726	154.81
277.957	156.81
278.189	153.81
278.421	158.81
278.652	160.81
278.884	144.81
279.115	154.81
279.347	152.81
279.579	142.81
279.81	152.81
280.042	151.81
280.273	129.81
280.505	159.81
280.736	150.81
280.968	149.81
281.199	167.81
281.431	152.81
281.662	152.81
281.894	148.81
282.125	150.81
282.356	171.81
282.588	175.81
282.819	171.81
283.051	157.81
283.282	148.81
283.513	164.81
283.745	157.81
283.976	167.81
284.207	154.81
284.439	142.81
284.67	165.81
284.901	159.81
285.132	154.81
285.364	156.81
285.595	163.81
285.826	163.81
286.057	152.81
286.288	163.81
286.52	147.81
286.751	153.81
286.982	147.81
287.213	147.81
287.444	141.81
287.675	174.81
287.906	165.81
288.138	160.81
288.369	170.81
288.6	162.81
288.831	158.81
289.062	161.81
289.293	169.81
289.524	161.81
289.755	162.81
289.986	165.81
290.217	149.81
290.448	171.81
290.679	161.81
290.91	163.81
291.141	156.81
291.371	160.81
291.602	150.81
291.833	158.81
292.064	173.81
292.295	167.81
292.526	165.81
292.757	172.81
292.987	163.81
293.218	158.81
293.449	156.81
293.68	172.81
293.91	168.81
294.141	159.81
294.372	156.81
294.603	162.81
294.833	170.81
295.064	158.81
295.295	155.81
295.525	177.81
295.756	177.81
295.987	165.81
296.217	175.81
296.448	171.81
296.679	177.81
296.909	170.81
297.14	152.81
297.37	160.81
297.601	163.81
297.831	154.81
298.062	160.81
298.292	153.81
298.523	188.81
298.753	170.81
298.984	159.81
299.214	173.81
299.445	172.81
299.675	170.81
299.905	175.81
300.136	176.81
300.366	152.81
300.597	172.81
300.827	170.81
301.057	167.81
301.288	158.81
301.518	176.81
301.748	187.81
301.979	176.81
302.209	181.81
302.439	183.81
302.669	176.81
302.9	179.81
303.13	159.81
303.36	156.81
303.59	175.81
303.82	192.81
304.051	183.81
304.281	188.81
304.511	169.81
304.741	169.81
304.971	167.81
305.201	180.81
305.431	172.81
305.661	182.81
305.891	169.81
306.121	198.81
306.352	176.81
306.582	148.81
306.812	173.81
307.042	177.81
307.272	171.81
307.502	162.81
307.731	171.81
307.961	168.81
308.191	175.81
308.421	183.81
308.651	181.81
308.881	167.81
309.111	183.81
309.341	166.81
309.571	173.81
309.8	193.81
310.03	198.81
310.26	190.81
310.49	192.81
310.72	196.81
310.949	203.81
311.179	194.81
311.409	182.81
311.639	196.81
311.868	204.81
312.098	171.81
312.328	171.81
312.557	206.81
312.787	199.81
313.017	220.81
313.246	209.81
313.476	191.81
313.706	201.81
313.935	192.81
314.165	202.81
314.394	197.81
314.624	216.81
314.853	201.81
315.083	195.81
315.312	195.81
315.542	182.81
315.771	199.81
316.001	185.81
316.23	208.81
316.46	195.81
316.689	181.81
316.919	196.81
317.148	188.81
317.377	189.81
317.607	199.81
317.836	184.81
318.065	183.81
318.295	197.81
318.524	195.81
318.753	183.81
318.983	189.81
319.212	201.81
319.441	189.81
319.67	210.81
319.9	187.81
320.129	186.81
320.358	207.81
320.587	199.81
320.816	213.81
321.046	199.81
321.275	209.81
321.504	199.81
321.733	210.81
321.962	199.81
322.191	215.81
322.42	216.81
322.649	213.81
322.878	228.81
323.108	217.81
323.337	214.81
323.566	233.81
323.795	244.81
324.024	279.81
324.253	335.81
324.482	479.81
324.71	695.81
324.939	920.81
325.168	764.81
325.397	392.81
325.626	267.81
325.855	230.81
326.084	228.81
326.313	233.81
326.542	235.81
326.77	281.81
326.999	312.81
327.228	419.81
327.457	604.81
327.686	723.81
327.914	437.81
328.143	321.81
328.372	323.81
328.6	279.81
328.829	273.81
329.058	279.81
329.287	288.81
329.515	263.81
329.744	254.81
329.972	243.81
330.201	257.81
330.43	292.81
330.658	287.81
330.887	320.81
331.115	304.81
331.344	255.81
331.572	247.81
331.801	229.81
332.03	234.81
332.258	236.81
332.486	216.81
332.715	219.81
332.943	216.81
333.172	226.81
333.4	227.81
333.629	226.81
333.857	252.81
334.085	229.81
334.314	255.81
334.542	283.81
334.771	273.81
334.999	256.81
335.227	225.81
335.455	233.81
335.684	235.81
335.912	222.81
336.14	212.81
336.369	232.81
336.597	227.81
336.825	228.81
337.053	219.81
337.281	232.81
337.51	217.81
337.738	214.81
337.966	208.81
338.194	216.81
338.422	197.81
338.65	221.81
338.878	208.81
339.106	205.81
339.334	212.81
339.562	213.81
339.79	203.81
340.018	201.81
340.246	214.81
340.474	219.81
340.702	227.81
340.93	210.81
341.158	210.81
341.386	220.81
341.614	197.81
341.842	214.81
342.07	225.81
342.298	231.81
342.526	205.81
342.754	217.81
342.981	195.81
343.209	192.81
343.437	200.81
343.665	192.81
343.893	221.81
344.12	200.81
344.348	214.81
344.576	224.81
344.804	203.81
345.031	205.81
345.259	220.81
345.487	198.81
345.714	213.81
345.942	207.81
346.17	200.81
346.397	219.81
346.625	204.81
346.853	216.81
347.08	201.81
347.308	204.81
347.535	195.81
347.763	211.81
347.99	209.81
348.218	211.81
348.445	199.81
348.673	218.81
348.9	206.81
349.128	189.81
349.355	200.81
349.583	177.81
349.81	200.81
350.037	202.81
350.265	201.81
350.492	209.81
350.72	208.81
350.947	204.81
351.174	216.81
351.402	212.81
351.629	218.81
351.856	215.81
352.083	201.81
352.311	206.81
352.538	225.81
352.765	199.81
352.992	200.81
353.22	213.81
353.447	203.81
353.674	198.81
353.901	213.81
354.128	191.81
354.355	197.81
354.583	186.81
354.81	189.81
355.037	204.81
355.264	195.81
355.491	186.81
355.718	188.81
355.945	196.81
356.172	191.81
356.399	197.81
356.626	189.81
356.853	188.81
357.08	191.81
357.307	187.81
357.534	188.81
357.761	183.81
357.988	179.81
358.215	189.81
358.441	183.81
358.668	195.81
358.895	204.81
359.122	202.81
359.349	198.81
359.576	211.81
359.802	201.81
360.029	213.81
360.256	230.81
360.483	228.81
360.709	203.81
360.936	212.81
361.163	195.81
361.39	197.81
361.616	204.81
361.843	195.81
362.07	193.81
362.296	212.81
362.523	206.81
362.749	219.81
362.976	213.81
363.203	205.81
363.429	205.81
363.656	203.81
363.882	199.81
364.109	202.81
364.335	225.81
364.562	204.81
364.788	199.81
365.015	200.81
365.241	204.81
365.468	213.81
365.694	199.81
365.92	181.81
366.147	198.81
366.373	185.81
366.599	191.81
366.826	188.81
367.052	183.81
367.278	193.81
367.505	185.81
367.731	191.81
367.957	203.81
368.184	202.81
368.41	194.81
368.636	217.81
368.862	213.81
369.089	211.81
369.315	209.81
369.541	201.81
369.767	206.81
369.993	201.81
370.219	209.81
370.445	189.81
370.672	189.81
370.898	180.81
371.124	194.81
371.35	204.81
371.576	199.81
371.802	208.81
372.028	203.81
372.254	193.81
372.48	186.81
372.706	197.81
372.932	200.81
373.158	191.81
373.384	201.81
373.61	199.81
373.835	187.81
374.061	186.81
374.287	198.81
374.513	194.81
374.739	181.81
374.965	193.81
375.191	189.81
375.416	194.81
375.642	193.81
375.868	202.81
376.094	195.81
376.319	208.81
376.545	191.81
376.771	188.81
376.997	193.81
377.222	198.81
377.448	201.81
377.674	184.81
377.899	187.81
378.125	207.81
378.35	216.81
378.576	193.81
378.802	186.81
379.027	195.81
379.253	197.81
379.478	191.81
379.704	200.81
379.929	200.81
380.155	196.81
380.38	194.81
380.606	205.81
380.831	209.81
381.057	213.81
381.282	184.81
381.507	199.81
381.733	203.81
381.958	182.81
382.184	200.81
382.409	199.81
382.634	196.81
382.86	194.81
383.085	184.81
383.31	193.81
383.535	196.81
383.761	190.81
383.986	201.81
384.211	201.81
384.436	194.81
384.662	209.81
384.887	205.81
385.112	208.81
385.337	206.81
385.562	218.81
385.787	205.81
386.013	221.81
386.238	224.81
386.463	208.81
386.688	205.81
386.913	192.81
387.138	195.81
387.363	204.81
387.588	216.81
387.813	201.81
388.038	215.81
388.263	214.81
388.488	200.81
388.713	220.81
388.938	205.81
389.163	205.81
389.387	221.81
389.612	209.81
389.837	202.81
390.062	201.81
390.287	222.81
390.512	206.81
390.736	206.81
390.961	212.81
391.186	205.81
391.411	216.81
391.636	203.81
391.86	221.81
392.085	214.81
392.31	215.81
392.534	216.81
392.759	210.81
392.984	207.81
393.208	211.81
393.433	217.81
393.658	224.81
393.882	212.81
394.107	211.81
394.331	208.81
394.556	218.81
394.78	203.81
395.005	207.81
395.229	201.81
395.454	215.81
395.678	217.81
395.903	200.81
396.127	229.81
396.352	236.81
396.576	209.81
396.801	209.81
397.025	228.81
397.249	208.81
397.474	214.81
397.698	206.81
397.922	211.81
398.147	223.81
398.371	245.81
398.595	237.81
398.82	218.81
399.044	233.81
399.268	241.81
399.492	239.81
399.717	258.81
399.941	276.81
400.165	270.81
400.389	297.81
400.613	259.81
400.837	239.81
401.062	223.81
401.286	235.81
401.51	257.81
401.734	236.81
401.958	228.81
402.182	234.81
402.406	236.81
402.63	223.81
402.854	253.81
403.078	232.81
403.302	240.81
403.526	251.81
403.75	253.81
403.974	249.81
404.198	227.81
404.422	252.81
404.645	244.81
404.869	265.81
405.093	261.81
405.317	276.81
405.541	289.81
405.765	275.81
405.988	268.81
406.212	275.81
406.436	261.81
406.66	283.81
406.883	265.81
407.107	266.81
407.331	282.81
407.555	313.81
407.778	283.81
408.002	292.81
408.226	257.81
408.449	248.81
408.673	273.81
408.896	280.81
409.12	296.81
409.344	280.81
409.567	242.81
409.791	244.81
410.014	241.81
410.238	240.81
410.461	263.81
410.685	251.81
410.908	248.81
411.132	261.81
411.355	263.81
411.578	260.81
411.802	253.81
412.025	252.81
412.249	242.81
412.472	256.81
412.695	264.81
412.919	251.81
413.142	240.81
413.365	251.81
413.589	224.81
413.812	231.81
414.035	250.81
414.258	239.81
414.482	245.81
414.705	231.81
414.928	232.81
415.151	232.81
415.374	229.81
415.597	226.81
415.821	242.81
416.044	226.81
416.267	223.81
416.49	229.81
416.713	234.81
416.936	219.81
417.159	239.81
417.382	230.81
417.605	224.81
417.828	247.81
418.051	247.81
418.274	253.81
418.497	223.81
418.72	228.81
418.943	233.81
419.166	243.81
419.389	263.81
419.611	237.81
419.834	223.81
420.057	239.81
420.28	234.81
420.503	232.81
420.726	225.81
420.948	241.81
421.171	250.81
421.394	267.81
421.617	249.81
421.839	225.81
422.062	234.81
422.285	247.81
422.507	271.81
422.73	310.81
422.953	293.81
423.175	272.81
423.398	248.81
423.621	245.81
423.843	263.81
424.066	260.81
424.288	252.81
424.511	265.81
424.733	287.81
424.956	306.81
425.178	312.81
425.401	298.81
425.623	311.81
425.846	272.81
426.068	267.81
426.291	259.81
426.513	257.81
426.735	264.81
426.958	277.81
427.18	321.81
427.402	363.81
427.625	388.81
427.847	319.81
428.069	289.81
428.292	271.81
428.514	245.81
428.736	254.81
428.958	241.81
429.181	229.81
429.403	249.81
429.625	255.81
429.847	263.81
430.069	293.81
430.292	265.81
430.514	243.81
430.736	224.81
430.958	239.81
431.18	240.81
431.402	237.81
431.624	221.81
431.846	227.81
432.068	228.81
432.29	237.81
432.512	235.81
432.734	214.81
432.956	220.81
433.178	239.81
433.4	236.81
433.622	232.81
433.844	212.81
434.066	215.81
434.287	228.81
434.509	237.81
434.731	233.81
434.953	240.81
435.175	254.81
435.397	239.81
435.618	244.81
435.84	269.81
436.062	308.81
436.284	309.81
436.505	283.81
436.727	248.81
436.949	247.81
437.17	239.81
437.392	237.81
437.614	259.81
437.835	269.81
438.057	311.81
438.278	343.81
438.5	326.81
438.721	360.81
438.943	324.81
439.165	273.81
439.386	264.81
439.608	260.81
439.829	264.81
440.05	286.81
440.272	285.81
440.493	269.81
440.715	259.81
440.936	260.81
441.158	236.81
441.379	238.81
441.6	233.81
441.822	251.81
442.043	275.81
442.264	322.81
442.486	316.81
442.707	267.81
442.928	278.81
443.149	266.81
443.371	281.81
443.592	307.81
443.813	320.81
444.034	348.81
444.255	293.81
444.476	279.81
444.698	282.81
444.919	283.81
445.14	374.81
445.361	306.81
445.582	282.81
445.803	327.81
446.024	341.81
446.245	354.81
446.466	323.81
446.687	267.81
446.908	250.81
447.129	242.81
447.35	235.81
447.571	241.81
447.792	224.81
448.013	243.81
448.234	251.81
448.455	261.81
448.675	322.81
448.896	355.81
449.117	308.81
449.338	288.81
449.559	325.81
449.779	366.81
450	303.81
450.221	243.81
450.442	240.81
450.662	229.81
450.883	232.81
451.104	253.81
451.324	240.81
451.545	220.81
451.766	218.81
451.986	226.81
452.207	226.81
452.428	204.81
452.648	229.81
452.869	220.81
453.089	213.81
453.31	204.81
453.53	225.81
453.751	217.81
453.971	230.81
454.192	228.81
454.412	201.81
454.633	227.81
454.853	232.81
455.073	215.81
455.294	220.81
455.514	264.81
455.734	240.81
455.955	223.81
456.175	225.81
456.395	195.81
456.616	200.81
456.836	177.81
457.056	179.81
457.276	202.81
457.497	195.81
457.717	217.81
457.937	203.81
458.157	202.81
458.377	222.81
458.598	239.81
458.818	257.81
459.038	304.81
459.258	305.81
459.478	259.81
459.698	223.81
459.918	211.81
460.138	232.81
460.358	209.81
460.578	225.81
460.798	228.81
461.018	243.81
461.238	236.81
461.458	224.81
461.678	229.81
461.898	225.81
462.118	232.81
462.338	235.81
462.558	247.81
462.777	234.81
462.997	237.81
463.217	249.81
463.437	245.81
463.657	236.81
463.876	241.81
464.096	250.81
464.316	228.81
464.536	259.81
464.755	254.81
464.975	246.81
465.195	275.81
465.414	290.81
465.634	263.81
465.854	251.81
466.073	236.81
466.293	211.81
466.512	213.81
466.732	219.81
466.951	212.81
467.171	212.81
467.391	235.81
467.61	229.81
467.829	252.81
468.049	228.81
468.268	236.81
468.488	227.81
468.707	223.81
468.927	212.81
469.146	206.81
469.365	224.81
469.585	256.81
469.804	232.81
470.023	235.81
470.243	229.81
470.462	228.81
470.681	244.81
470.901	221.81
471.12	221.81
471.339	229.81
471.558	209.81
471.777	225.81
471.997	234.81
472.216	237.81
472.435	267.81
472.654	237.81
472.873	219.81
473.092	209.81
473.311	218.81
473.53	216.81
473.749	228.81
473.968	251.81
474.187	293.81
474.406	292.81
474.625	234.81
474.844	230.81
475.063	243.81
475.282	222.81
475.501	213.81
475.72	230.81
475.939	219.81
476.158	217.81
476.377	241.81
476.596	235.81
476.814	224.81
477.033	247.81
477.252	257.81
477.471	236.81
477.69	226.81
477.908	249.81
478.127	239.81
478.346	240.81
478.564	243.81
478.783	263.81
479.002	236.81
479.22	242.81
479.439	248.81
479.658	283.81
479.876	282.81
480.095	252.81
480.313	290.81
480.532	271.81
480.751	264.81
480.969	289.81
481.188	347.81
481.406	363.81
481.624	281.81
481.843	277.81
482.061	262.81
482.28	264.81
482.498	251.81
482.717	251.81
482.935	248.81
483.153	266.81
483.372	243.81
483.59	255.81
483.808	264.81
484.027	266.81
484.245	256.81
484.463	268.81
484.681	260.81
484.9	260.81
485.118	276.81
485.336	245.81
485.554	257.81
485.772	279.81
485.99	262.81
486.209	285.81
486.427	271.81
486.645	282.81
486.863	293.81
487.081	273.81
487.299	283.81
487.517	275.81
487.735	266.81
487.953	280.81
488.171	284.81
488.389	283.81
488.607	285.81
488.825	280.81
489.043	293.81
489.261	280.81
489.479	266.81
489.696	293.81
489.914	277.81
490.132	292.81
490.35	290.81
490.568	289.81
490.786	282.81
491.003	296.81
491.221	307.81
491.439	329.81
491.657	345.81
491.874	326.81
492.092	323.81
492.31	319.81
492.527	322.81
492.745	308.81
492.963	320.81
493.18	309.81
493.398	317.81
493.615	345.81
493.833	336.81
494.05	339.81
494.268	330.81
494.485	326.81
494.703	341.81
494.92	327.81
495.138	319.81
495.355	325.81
495.573	332.81
495.79	330.81
496.008	342.81
496.225	322.81
496.442	321.81
496.66	347.81
496.877	315.81
497.094	319.81
497.312	352.81
497.529	330.81
497.746	337.81
497.963	336.81
498.181	337.81
498.398	341.81
498.615	346.81
498.832	349.81
499.049	368.81
499.267	362.81
499.484	375.81
499.701	387.81
499.918	393.81
500.135	411.81
500.352	443.81
500.569	452.81
500.786	449.81
501.003	428.81
501.22	441.81
501.437	384.81
501.654	416.81
501.871	386.81
502.088	364.81
502.305	365.81
502.522	328.81
502.739	346.81
