Data from 1966.PennyLincolnUp.Lamp.En5.5.200Scan.071719.P1._HRD10591_14-13-07-913.txt Node
Date: Thu Jul 18 14:13:07 EDT 2019
User: cochatt
Spectrometer: HR+D1059
Trigger mode: 1
Integration Time (sec): 1.000000E-1
Scans to average: 1
Electric dark correction enabled: true
Nonlinearity correction enabled: false
Boxcar width: 0
XAxis mode: Wavelengths
Number of Pixels in Spectrum: 2048
>>>>>Begin Spectral Data<<<<<
223.165	-16.56
223.4	-16.56
223.635	-16.56
223.869	-6.56
224.104	-21.56
224.338	-15.56
224.573	-24.56
224.808	-17.56
225.042	-9.56
225.277	-8.56
225.511	4.44
225.746	-8.56
225.98	0.44
226.215	-0.56
226.449	40.44
226.683	29.44
226.918	26.44
227.152	28.44
227.387	25.44
227.621	23.44
227.856	37.44
228.09	31.44
228.324	37.44
228.559	42.44
228.793	57.44
229.027	61.44
229.262	85.44
229.496	90.44
229.73	84.44
229.964	105.44
230.199	89.44
230.433	81.44
230.667	89.44
230.901	85.44
231.136	71.44
231.37	84.44
231.604	92.44
231.838	105.44
232.072	90.44
232.306	84.44
232.541	83.44
232.775	90.44
233.009	93.44
233.243	93.44
233.477	95.44
233.711	95.44
233.945	85.44
234.179	80.44
234.413	90.44
234.647	85.44
234.881	97.44
235.115	87.44
235.349	99.44
235.583	95.44
235.817	98.44
236.051	96.44
236.285	92.44
236.519	86.44
236.753	98.44
236.987	103.44
237.221	120.44
237.455	142.44
237.689	106.44
237.922	102.44
238.156	98.44
238.39	94.44
238.624	76.44
238.858	95.44
239.091	101.44
239.325	78.44
239.559	84.44
239.793	96.44
240.027	85.44
240.26	102.44
240.494	113.44
240.728	77.44
240.961	92.44
241.195	106.44
241.429	88.44
241.662	82.44
241.896	100.44
242.13	89.44
242.363	104.44
242.597	103.44
242.83	95.44
243.064	108.44
243.298	89.44
243.531	104.44
243.765	114.44
243.998	92.44
244.232	102.44
244.465	99.44
244.699	89.44
244.932	99.44
245.166	84.44
245.399	101.44
245.633	99.44
245.866	105.44
246.099	97.44
246.333	99.44
246.566	101.44
246.8	96.44
247.033	118.44
247.266	107.44
247.5	124.44
247.733	132.44
247.966	96.44
248.2	114.44
248.433	109.44
248.666	114.44
248.899	118.44
249.133	137.44
249.366	128.44
249.599	123.44
249.832	119.44
250.066	106.44
250.299	112.44
250.532	123.44
250.765	128.44
250.998	128.44
251.231	126.44
251.465	131.44
251.698	135.44
251.931	125.44
252.164	131.44
252.397	135.44
252.63	118.44
252.863	122.44
253.096	129.44
253.329	144.44
253.562	139.44
253.795	131.44
254.028	140.44
254.261	131.44
254.494	138.44
254.727	146.44
254.96	158.44
255.193	147.44
255.426	147.44
255.659	131.44
255.892	138.44
256.124	127.44
256.357	128.44
256.59	146.44
256.823	124.44
257.056	122.44
257.289	131.44
257.521	114.44
257.754	115.44
257.987	117.44
258.22	124.44
258.452	116.44
258.685	130.44
258.918	118.44
259.151	134.44
259.383	130.44
259.616	123.44
259.849	148.44
260.081	125.44
260.314	170.44
260.547	144.44
260.779	131.44
261.012	146.44
261.244	132.44
261.477	146.44
261.71	137.44
261.942	132.44
262.175	140.44
262.407	125.44
262.64	128.44
262.872	139.44
263.105	124.44
263.337	141.44
263.57	130.44
263.802	124.44
264.035	128.44
264.267	120.44
264.499	130.44
264.732	138.44
264.964	126.44
265.197	137.44
265.429	141.44
265.661	122.44
265.894	122.44
266.126	128.44
266.358	132.44
266.591	132.44
266.823	124.44
267.055	128.44
267.287	136.44
267.52	137.44
267.752	136.44
267.984	130.44
268.216	130.44
268.448	137.44
268.681	141.44
268.913	155.44
269.145	155.44
269.377	149.44
269.609	165.44
269.841	138.44
270.073	144.44
270.306	154.44
270.538	178.44
270.77	190.44
271.002	174.44
271.234	163.44
271.466	157.44
271.698	169.44
271.93	178.44
272.162	166.44
272.394	179.44
272.626	174.44
272.858	162.44
273.09	151.44
273.322	150.44
273.553	139.44
273.785	154.44
274.017	141.44
274.249	138.44
274.481	154.44
274.713	165.44
274.945	157.44
275.176	150.44
275.408	153.44
275.64	162.44
275.872	148.44
276.104	158.44
276.335	155.44
276.567	155.44
276.799	157.44
277.031	172.44
277.262	177.44
277.494	184.44
277.726	177.44
277.957	168.44
278.189	154.44
278.421	153.44
278.652	160.44
278.884	158.44
279.115	136.44
279.347	142.44
279.579	161.44
279.81	152.44
280.042	158.44
280.273	140.44
280.505	157.44
280.736	154.44
280.968	149.44
281.199	153.44
281.431	139.44
281.662	154.44
281.894	172.44
282.125	158.44
282.356	162.44
282.588	157.44
282.819	164.44
283.051	160.44
283.282	128.44
283.513	153.44
283.745	160.44
283.976	158.44
284.207	161.44
284.439	178.44
284.67	152.44
284.901	147.44
285.132	152.44
285.364	150.44
285.595	157.44
285.826	148.44
286.057	145.44
286.288	141.44
286.52	153.44
286.751	144.44
286.982	165.44
287.213	164.44
287.444	157.44
287.675	180.44
287.906	168.44
288.138	169.44
288.369	181.44
288.6	178.44
288.831	176.44
289.062	165.44
289.293	170.44
289.524	167.44
289.755	165.44
289.986	158.44
290.217	164.44
290.448	160.44
290.679	176.44
290.91	164.44
291.141	148.44
291.371	167.44
291.602	153.44
291.833	172.44
292.064	165.44
292.295	148.44
292.526	157.44
292.757	169.44
292.987	156.44
293.218	162.44
293.449	167.44
293.68	156.44
293.91	170.44
294.141	170.44
294.372	147.44
294.603	171.44
294.833	164.44
295.064	185.44
295.295	184.44
295.525	171.44
295.756	163.44
295.987	168.44
296.217	169.44
296.448	184.44
296.679	163.44
296.909	165.44
297.14	172.44
297.37	158.44
297.601	178.44
297.831	156.44
298.062	173.44
298.292	178.44
298.523	168.44
298.753	157.44
298.984	153.44
299.214	161.44
299.445	167.44
299.675	161.44
299.905	168.44
300.136	164.44
300.366	178.44
300.597	177.44
300.827	170.44
301.057	173.44
301.288	157.44
301.518	183.44
301.748	163.44
301.979	184.44
302.209	184.44
302.439	168.44
302.669	170.44
302.9	184.44
303.13	174.44
303.36	170.44
303.59	184.44
303.82	178.44
304.051	178.44
304.281	176.44
304.511	177.44
304.741	184.44
304.971	182.44
305.201	168.44
305.431	173.44
305.661	180.44
305.891	170.44
306.121	168.44
306.352	179.44
306.582	180.44
306.812	168.44
307.042	180.44
307.272	172.44
307.502	188.44
307.731	172.44
307.961	174.44
308.191	196.44
308.421	174.44
308.651	173.44
308.881	199.44
309.111	185.44
309.341	180.44
309.571	188.44
309.8	194.44
310.03	196.44
310.26	181.44
310.49	193.44
310.72	205.44
310.949	213.44
311.179	211.44
311.409	187.44
311.639	188.44
311.868	205.44
312.098	200.44
312.328	189.44
312.557	188.44
312.787	192.44
313.017	213.44
313.246	185.44
313.476	200.44
313.706	200.44
313.935	199.44
314.165	205.44
314.394	199.44
314.624	212.44
314.853	200.44
315.083	207.44
315.312	189.44
315.542	197.44
315.771	194.44
316.001	191.44
316.23	194.44
316.46	206.44
316.689	188.44
316.919	194.44
317.148	193.44
317.377	193.44
317.607	198.44
317.836	193.44
318.065	185.44
318.295	191.44
318.524	202.44
318.753	190.44
318.983	200.44
319.212	189.44
319.441	211.44
319.67	195.44
319.9	197.44
320.129	196.44
320.358	205.44
320.587	190.44
320.816	206.44
321.046	205.44
321.275	213.44
321.504	200.44
321.733	201.44
321.962	198.44
322.191	208.44
322.42	220.44
322.649	229.44
322.878	222.44
323.108	228.44
323.337	225.44
323.566	240.44
323.795	244.44
324.024	289.44
324.253	324.44
324.482	478.44
324.71	708.44
324.939	924.44
325.168	755.44
325.397	397.44
325.626	293.44
325.855	243.44
326.084	242.44
326.313	226.44
326.542	247.44
326.77	250.44
326.999	305.44
327.228	436.44
327.457	632.44
327.686	686.44
327.914	447.44
328.143	325.44
328.372	303.44
328.6	290.44
328.829	269.44
329.058	267.44
329.287	300.44
329.515	264.44
329.744	256.44
329.972	264.44
330.201	271.44
330.43	284.44
330.658	311.44
330.887	293.44
331.115	304.44
331.344	262.44
331.572	254.44
331.801	241.44
332.03	256.44
332.258	236.44
332.486	229.44
332.715	219.44
332.943	221.44
333.172	227.44
333.4	236.44
333.629	222.44
333.857	242.44
334.085	253.44
334.314	263.44
334.542	277.44
334.771	290.44
334.999	243.44
335.227	231.44
335.455	228.44
335.684	233.44
335.912	232.44
336.14	225.44
336.369	216.44
336.597	239.44
336.825	236.44
337.053	220.44
337.281	220.44
337.51	219.44
337.738	212.44
337.966	218.44
338.194	213.44
338.422	214.44
338.65	215.44
338.878	203.44
339.106	209.44
339.334	214.44
339.562	226.44
339.79	222.44
340.018	208.44
340.246	209.44
340.474	212.44
340.702	206.44
340.93	220.44
341.158	204.44
341.386	208.44
341.614	217.44
341.842	214.44
342.07	217.44
342.298	202.44
342.526	218.44
342.754	206.44
342.981	202.44
343.209	201.44
343.437	211.44
343.665	209.44
343.893	212.44
344.12	228.44
344.348	230.44
344.576	220.44
344.804	209.44
345.031	229.44
345.259	237.44
345.487	213.44
345.714	216.44
345.942	206.44
346.17	201.44
346.397	200.44
346.625	200.44
346.853	220.44
347.08	204.44
347.308	187.44
347.535	204.44
347.763	224.44
347.99	214.44
348.218	213.44
348.445	219.44
348.673	206.44
348.9	204.44
349.128	192.44
349.355	206.44
349.583	187.44
349.81	204.44
350.037	205.44
350.265	202.44
350.492	204.44
350.72	217.44
350.947	220.44
351.174	218.44
351.402	192.44
351.629	220.44
351.856	214.44
352.083	220.44
352.311	210.44
352.538	217.44
352.765	227.44
352.992	221.44
353.22	204.44
353.447	206.44
353.674	209.44
353.901	186.44
354.128	220.44
354.355	189.44
354.583	202.44
354.81	206.44
355.037	192.44
355.264	190.44
355.491	206.44
355.718	187.44
355.945	179.44
356.172	214.44
356.399	182.44
356.626	203.44
356.853	202.44
357.08	200.44
357.307	197.44
357.534	204.44
357.761	187.44
357.988	205.44
358.215	196.44
358.441	203.44
358.668	197.44
358.895	215.44
359.122	216.44
359.349	203.44
359.576	185.44
359.802	204.44
360.029	236.44
360.256	253.44
360.483	217.44
360.709	198.44
360.936	224.44
361.163	203.44
361.39	213.44
361.616	197.44
361.843	206.44
362.07	207.44
362.296	209.44
362.523	209.44
362.749	216.44
362.976	201.44
363.203	210.44
363.429	196.44
363.656	202.44
363.882	202.44
364.109	195.44
364.335	191.44
364.562	202.44
364.788	190.44
365.015	204.44
365.241	203.44
365.468	216.44
365.694	193.44
365.92	205.44
366.147	196.44
366.373	189.44
366.599	207.44
366.826	204.44
367.052	194.44
367.278	190.44
367.505	210.44
367.731	210.44
367.957	194.44
368.184	224.44
368.41	201.44
368.636	209.44
368.862	203.44
369.089	213.44
369.315	188.44
369.541	197.44
369.767	209.44
369.993	212.44
370.219	204.44
370.445	202.44
370.672	178.44
370.898	184.44
371.124	184.44
371.35	197.44
371.576	200.44
371.802	176.44
372.028	197.44
372.254	182.44
372.48	183.44
372.706	212.44
372.932	194.44
373.158	195.44
373.384	186.44
373.61	215.44
373.835	205.44
374.061	211.44
374.287	196.44
374.513	209.44
374.739	212.44
374.965	205.44
375.191	212.44
375.416	197.44
375.642	188.44
375.868	213.44
376.094	213.44
376.319	198.44
376.545	194.44
376.771	198.44
376.997	203.44
377.222	202.44
377.448	210.44
377.674	198.44
377.899	194.44
378.125	203.44
378.35	184.44
378.576	173.44
378.802	211.44
379.027	209.44
379.253	200.44
379.478	222.44
379.704	201.44
379.929	194.44
380.155	189.44
380.38	206.44
380.606	206.44
380.831	202.44
381.057	211.44
381.282	186.44
381.507	206.44
381.733	217.44
381.958	215.44
382.184	190.44
382.409	182.44
382.634	197.44
382.86	202.44
383.085	209.44
383.31	199.44
383.535	208.44
383.761	205.44
383.986	212.44
384.211	204.44
384.436	222.44
384.662	216.44
384.887	205.44
385.112	219.44
385.337	209.44
385.562	208.44
385.787	216.44
386.013	237.44
386.238	203.44
386.463	215.44
386.688	231.44
386.913	200.44
387.138	216.44
387.363	228.44
387.588	210.44
387.813	202.44
388.038	201.44
388.263	222.44
388.488	209.44
388.713	201.44
388.938	207.44
389.163	217.44
389.387	207.44
389.612	211.44
389.837	215.44
390.062	197.44
390.287	199.44
390.512	192.44
390.736	195.44
390.961	206.44
391.186	207.44
391.411	221.44
391.636	213.44
391.86	187.44
392.085	203.44
392.31	231.44
392.534	216.44
392.759	205.44
392.984	214.44
393.208	204.44
393.433	211.44
393.658	232.44
393.882	218.44
394.107	212.44
394.331	221.44
394.556	215.44
394.78	206.44
395.005	211.44
395.229	224.44
395.454	220.44
395.678	224.44
395.903	225.44
396.127	227.44
396.352	237.44
396.576	229.44
396.801	209.44
397.025	227.44
397.249	225.44
397.474	215.44
397.698	220.44
397.922	225.44
398.147	234.44
398.371	233.44
398.595	218.44
398.82	218.44
399.044	227.44
399.268	242.44
399.492	256.44
399.717	278.44
399.941	264.44
400.165	289.44
400.389	292.44
400.613	274.44
400.837	243.44
401.062	247.44
401.286	226.44
401.51	237.44
401.734	230.44
401.958	235.44
402.182	229.44
402.406	250.44
402.63	246.44
402.854	248.44
403.078	244.44
403.302	238.44
403.526	259.44
403.75	221.44
403.974	258.44
404.198	245.44
404.422	237.44
404.645	256.44
404.869	241.44
405.093	275.44
405.317	279.44
405.541	279.44
405.765	253.44
405.988	277.44
406.212	272.44
406.436	280.44
406.66	301.44
406.883	262.44
407.107	264.44
407.331	279.44
407.555	324.44
407.778	304.44
408.002	291.44
408.226	273.44
408.449	256.44
408.673	275.44
408.896	278.44
409.12	285.44
409.344	293.44
409.567	253.44
409.791	263.44
410.014	243.44
410.238	236.44
410.461	247.44
410.685	278.44
410.908	243.44
411.132	276.44
411.355	266.44
411.578	271.44
411.802	268.44
412.025	251.44
412.249	244.44
412.472	257.44
412.695	269.44
412.919	246.44
413.142	250.44
413.365	247.44
413.589	229.44
413.812	227.44
414.035	251.44
414.258	247.44
414.482	229.44
414.705	217.44
414.928	248.44
415.151	231.44
415.374	233.44
415.597	231.44
415.821	238.44
416.044	232.44
416.267	240.44
416.49	234.44
416.713	234.44
416.936	238.44
417.159	231.44
417.382	231.44
417.605	219.44
417.828	259.44
418.051	248.44
418.274	238.44
418.497	240.44
418.72	239.44
418.943	236.44
419.166	235.44
419.389	242.44
419.611	236.44
419.834	253.44
420.057	250.44
420.28	249.44
420.503	246.44
420.726	237.44
420.948	250.44
421.171	275.44
421.394	264.44
421.617	260.44
421.839	248.44
422.062	252.44
422.285	257.44
422.507	286.44
422.73	316.44
422.953	277.44
423.175	250.44
423.398	238.44
423.621	258.44
423.843	265.44
424.066	265.44
424.288	258.44
424.511	257.44
424.733	291.44
424.956	340.44
425.178	296.44
425.401	323.44
425.623	297.44
425.846	284.44
426.068	280.44
426.291	268.44
426.513	247.44
426.735	257.44
426.958	270.44
427.18	294.44
427.402	341.44
427.625	388.44
427.847	357.44
428.069	308.44
428.292	276.44
428.514	260.44
428.736	238.44
428.958	242.44
429.181	242.44
429.403	220.44
429.625	242.44
429.847	269.44
430.069	280.44
430.292	288.44
430.514	247.44
430.736	255.44
430.958	244.44
431.18	227.44
431.402	237.44
431.624	206.44
431.846	229.44
432.068	235.44
432.29	238.44
432.512	249.44
432.734	227.44
432.956	245.44
433.178	237.44
433.4	251.44
433.622	231.44
433.844	229.44
434.066	251.44
434.287	232.44
434.509	223.44
434.731	242.44
434.953	256.44
435.175	255.44
435.397	258.44
435.618	248.44
435.84	260.44
436.062	306.44
436.284	320.44
436.505	272.44
436.727	250.44
436.949	263.44
437.17	234.44
437.392	233.44
437.614	229.44
437.835	260.44
438.057	304.44
438.278	339.44
438.5	317.44
438.721	362.44
438.943	341.44
439.165	287.44
439.386	258.44
439.608	261.44
439.829	252.44
440.05	299.44
440.272	295.44
440.493	266.44
440.715	266.44
440.936	233.44
441.158	254.44
441.379	244.44
441.6	254.44
441.822	268.44
442.043	271.44
442.264	320.44
442.486	306.44
442.707	264.44
442.928	263.44
443.149	269.44
443.371	294.44
443.592	298.44
443.813	326.44
444.034	333.44
444.255	289.44
444.476	280.44
444.698	242.44
444.919	267.44
445.14	356.44
445.361	302.44
445.582	284.44
445.803	304.44
446.024	334.44
446.245	350.44
446.466	316.44
446.687	283.44
446.908	263.44
447.129	253.44
447.35	234.44
447.571	244.44
447.792	230.44
448.013	217.44
448.234	244.44
448.455	269.44
448.675	304.44
448.896	345.44
449.117	300.44
449.338	294.44
449.559	331.44
449.779	352.44
450	304.44
450.221	252.44
450.442	236.44
450.662	233.44
450.883	244.44
451.104	262.44
451.324	243.44
451.545	221.44
451.766	226.44
451.986	221.44
452.207	221.44
452.428	226.44
452.648	213.44
452.869	220.44
453.089	214.44
453.31	229.44
453.53	229.44
453.751	225.44
453.971	229.44
454.192	251.44
454.412	214.44
454.633	219.44
454.853	220.44
455.073	213.44
455.294	225.44
455.514	257.44
455.734	258.44
455.955	214.44
456.175	202.44
456.395	213.44
456.616	211.44
456.836	213.44
457.056	200.44
457.276	191.44
457.497	212.44
457.717	196.44
457.937	226.44
458.157	224.44
458.377	209.44
458.598	233.44
458.818	265.44
459.038	295.44
459.258	282.44
459.478	270.44
459.698	220.44
459.918	216.44
460.138	225.44
460.358	228.44
460.578	235.44
460.798	237.44
461.018	251.44
461.238	229.44
461.458	224.44
461.678	229.44
461.898	217.44
462.118	236.44
462.338	226.44
462.558	226.44
462.777	238.44
462.997	251.44
463.217	258.44
463.437	265.44
463.657	253.44
463.876	249.44
464.096	259.44
464.316	232.44
464.536	257.44
464.755	250.44
464.975	255.44
465.195	283.44
465.414	301.44
465.634	277.44
465.854	243.44
466.073	226.44
466.293	212.44
466.512	231.44
466.732	243.44
466.951	221.44
467.171	227.44
467.391	227.44
467.61	245.44
467.829	237.44
468.049	224.44
468.268	251.44
468.488	217.44
468.707	205.44
468.927	241.44
469.146	214.44
469.365	231.44
469.585	215.44
469.804	228.44
470.023	233.44
470.243	224.44
470.462	226.44
470.681	262.44
470.901	245.44
471.12	252.44
471.339	221.44
471.558	225.44
471.777	236.44
471.997	226.44
472.216	239.44
472.435	258.44
472.654	240.44
472.873	232.44
473.092	231.44
473.311	234.44
473.53	213.44
473.749	222.44
473.968	238.44
474.187	287.44
474.406	292.44
474.625	249.44
474.844	240.44
475.063	230.44
475.282	212.44
475.501	230.44
475.72	227.44
475.939	221.44
476.158	225.44
476.377	238.44
476.596	242.44
476.814	242.44
477.033	245.44
477.252	232.44
477.471	243.44
477.69	235.44
477.908	254.44
478.127	264.44
478.346	251.44
478.564	249.44
478.783	249.44
479.002	262.44
479.22	268.44
479.439	260.44
479.658	270.44
479.876	272.44
480.095	260.44
480.313	285.44
480.532	272.44
480.751	286.44
480.969	298.44
481.188	321.44
481.406	351.44
481.624	282.44
481.843	264.44
482.061	272.44
482.28	258.44
482.498	276.44
482.717	253.44
482.935	258.44
483.153	258.44
483.372	257.44
483.59	259.44
483.808	257.44
484.027	243.44
484.245	267.44
484.463	274.44
484.681	260.44
484.9	268.44
485.118	262.44
485.336	280.44
485.554	252.44
485.772	255.44
485.99	264.44
486.209	265.44
486.427	271.44
486.645	285.44
486.863	285.44
487.081	305.44
487.299	284.44
487.517	280.44
487.735	297.44
487.953	292.44
488.171	289.44
488.389	281.44
488.607	274.44
488.825	278.44
489.043	285.44
489.261	278.44
489.479	284.44
489.696	266.44
489.914	283.44
490.132	285.44
490.35	316.44
490.568	303.44
490.786	296.44
491.003	303.44
491.221	319.44
491.439	317.44
491.657	316.44
491.874	323.44
492.092	328.44
492.31	321.44
492.527	316.44
492.745	334.44
492.963	337.44
493.18	346.44
493.398	355.44
493.615	334.44
493.833	321.44
494.05	317.44
494.268	341.44
494.485	337.44
494.703	328.44
494.92	330.44
495.138	325.44
495.355	327.44
495.573	315.44
495.79	323.44
496.008	318.44
496.225	308.44
496.442	317.44
496.66	334.44
496.877	314.44
497.094	327.44
497.312	322.44
497.529	345.44
497.746	336.44
497.963	321.44
498.181	366.44
498.398	360.44
498.615	364.44
498.832	354.44
499.049	356.44
499.267	374.44
499.484	355.44
499.701	394.44
499.918	410.44
500.135	448.44
500.352	423.44
500.569	435.44
500.786	440.44
501.003	440.44
501.22	430.44
501.437	406.44
501.654	399.44
501.871	380.44
502.088	380.44
502.305	368.44
502.522	335.44
502.739	344.44
