Data from 1966.PennyLincolnUp.Lamp.En5.5.200Scan.071719.P1._HRD10591_14-13-57-915.txt Node
Date: Thu Jul 18 14:13:57 EDT 2019
User: cochatt
Spectrometer: HR+D1059
Trigger mode: 1
Integration Time (sec): 1.000000E-1
Scans to average: 1
Electric dark correction enabled: true
Nonlinearity correction enabled: false
Boxcar width: 0
XAxis mode: Wavelengths
Number of Pixels in Spectrum: 2048
>>>>>Begin Spectral Data<<<<<
223.165	-15.06
223.4	-15.06
223.635	-15.06
223.869	-12.06
224.104	-18.06
224.338	-14.06
224.573	-19.06
224.808	-7.06
225.042	-14.06
225.277	-13.06
225.511	0.94
225.746	-1.06
225.98	6.94
226.215	8.94
226.449	18.94
226.683	18.94
226.918	26.94
227.152	31.94
227.387	41.94
227.621	34.94
227.856	38.94
228.09	44.94
228.324	52.94
228.559	44.94
228.793	72.94
229.027	67.94
229.262	66.94
229.496	90.94
229.73	98.94
229.964	109.94
230.199	103.94
230.433	91.94
230.667	91.94
230.901	97.94
231.136	95.94
231.37	84.94
231.604	83.94
231.838	91.94
232.072	104.94
232.306	98.94
232.541	90.94
232.775	103.94
233.009	90.94
233.243	93.94
233.477	91.94
233.711	93.94
233.945	106.94
234.179	91.94
234.413	90.94
234.647	91.94
234.881	84.94
235.115	102.94
235.349	106.94
235.583	107.94
235.817	80.94
236.051	98.94
236.285	106.94
236.519	85.94
236.753	106.94
236.987	99.94
237.221	120.94
237.455	143.94
237.689	118.94
237.922	115.94
238.156	111.94
238.39	121.94
238.624	104.94
238.858	109.94
239.091	88.94
239.325	100.94
239.559	104.94
239.793	97.94
240.027	120.94
240.26	104.94
240.494	124.94
240.728	116.94
240.961	120.94
241.195	106.94
241.429	113.94
241.662	88.94
241.896	110.94
242.13	109.94
242.363	95.94
242.597	95.94
242.83	104.94
243.064	98.94
243.298	113.94
243.531	117.94
243.765	104.94
243.998	94.94
244.232	100.94
244.465	121.94
244.699	104.94
244.932	115.94
245.166	102.94
245.399	127.94
245.633	113.94
245.866	102.94
246.099	133.94
246.333	118.94
246.566	120.94
246.8	107.94
247.033	128.94
247.266	126.94
247.5	110.94
247.733	120.94
247.966	119.94
248.2	112.94
248.433	100.94
248.666	128.94
248.899	124.94
249.133	129.94
249.366	125.94
249.599	113.94
249.832	124.94
250.066	134.94
250.299	140.94
250.532	122.94
250.765	134.94
250.998	143.94
251.231	157.94
251.465	134.94
251.698	140.94
251.931	120.94
252.164	138.94
252.397	119.94
252.63	131.94
252.863	143.94
253.096	146.94
253.329	148.94
253.562	149.94
253.795	146.94
254.028	137.94
254.261	134.94
254.494	144.94
254.727	159.94
254.96	170.94
255.193	180.94
255.426	138.94
255.659	132.94
255.892	139.94
256.124	154.94
256.357	134.94
256.59	136.94
256.823	139.94
257.056	133.94
257.289	134.94
257.521	128.94
257.754	131.94
257.987	153.94
258.22	155.94
258.452	140.94
258.685	129.94
258.918	132.94
259.151	121.94
259.383	136.94
259.616	131.94
259.849	143.94
260.081	150.94
260.314	154.94
260.547	149.94
260.779	158.94
261.012	140.94
261.244	142.94
261.477	139.94
261.71	159.94
261.942	138.94
262.175	160.94
262.407	153.94
262.64	137.94
262.872	130.94
263.105	132.94
263.337	136.94
263.57	140.94
263.802	138.94
264.035	119.94
264.267	142.94
264.499	133.94
264.732	144.94
264.964	144.94
265.197	139.94
265.429	135.94
265.661	127.94
265.894	143.94
266.126	132.94
266.358	134.94
266.591	138.94
266.823	146.94
267.055	141.94
267.287	154.94
267.52	147.94
267.752	142.94
267.984	134.94
268.216	147.94
268.448	133.94
268.681	157.94
268.913	137.94
269.145	154.94
269.377	179.94
269.609	167.94
269.841	161.94
270.073	167.94
270.306	173.94
270.538	187.94
270.77	200.94
271.002	180.94
271.234	182.94
271.466	198.94
271.698	190.94
271.93	174.94
272.162	175.94
272.394	186.94
272.626	182.94
272.858	178.94
273.09	166.94
273.322	163.94
273.553	162.94
273.785	158.94
274.017	140.94
274.249	154.94
274.481	151.94
274.713	146.94
274.945	164.94
275.176	182.94
275.408	166.94
275.64	174.94
275.872	154.94
276.104	160.94
276.335	154.94
276.567	174.94
276.799	191.94
277.031	193.94
277.262	179.94
277.494	185.94
277.726	177.94
277.957	152.94
278.189	170.94
278.421	161.94
278.652	168.94
278.884	166.94
279.115	161.94
279.347	161.94
279.579	167.94
279.81	166.94
280.042	160.94
280.273	169.94
280.505	152.94
280.736	167.94
280.968	157.94
281.199	166.94
281.431	163.94
281.662	172.94
281.894	168.94
282.125	164.94
282.356	179.94
282.588	196.94
282.819	184.94
283.051	161.94
283.282	163.94
283.513	162.94
283.745	165.94
283.976	175.94
284.207	186.94
284.439	174.94
284.67	163.94
284.901	172.94
285.132	163.94
285.364	168.94
285.595	167.94
285.826	175.94
286.057	170.94
286.288	168.94
286.52	172.94
286.751	160.94
286.982	162.94
287.213	162.94
287.444	169.94
287.675	182.94
287.906	163.94
288.138	195.94
288.369	186.94
288.6	175.94
288.831	186.94
289.062	186.94
289.293	163.94
289.524	175.94
289.755	154.94
289.986	177.94
290.217	157.94
290.448	166.94
290.679	167.94
290.91	169.94
291.141	182.94
291.371	175.94
291.602	159.94
291.833	173.94
292.064	178.94
292.295	169.94
292.526	175.94
292.757	186.94
292.987	168.94
293.218	177.94
293.449	170.94
293.68	167.94
293.91	178.94
294.141	175.94
294.372	177.94
294.603	170.94
294.833	164.94
295.064	167.94
295.295	166.94
295.525	172.94
295.756	189.94
295.987	185.94
296.217	194.94
296.448	193.94
296.679	189.94
296.909	191.94
297.14	184.94
297.37	178.94
297.601	188.94
297.831	179.94
298.062	179.94
298.292	153.94
298.523	172.94
298.753	186.94
298.984	168.94
299.214	186.94
299.445	182.94
299.675	166.94
299.905	174.94
300.136	180.94
300.366	163.94
300.597	163.94
300.827	181.94
301.057	174.94
301.288	172.94
301.518	192.94
301.748	184.94
301.979	174.94
302.209	182.94
302.439	192.94
302.669	195.94
302.9	186.94
303.13	191.94
303.36	175.94
303.59	193.94
303.82	175.94
304.051	193.94
304.281	178.94
304.511	186.94
304.741	182.94
304.971	175.94
305.201	177.94
305.431	195.94
305.661	196.94
305.891	178.94
306.121	201.94
306.352	191.94
306.582	198.94
306.812	191.94
307.042	189.94
307.272	195.94
307.502	174.94
307.731	183.94
307.961	196.94
308.191	200.94
308.421	195.94
308.651	182.94
308.881	176.94
309.111	190.94
309.341	192.94
309.571	194.94
309.8	193.94
310.03	204.94
310.26	222.94
310.49	204.94
310.72	203.94
310.949	219.94
311.179	231.94
311.409	195.94
311.639	201.94
311.868	210.94
312.098	208.94
312.328	211.94
312.557	224.94
312.787	224.94
313.017	207.94
313.246	222.94
313.476	213.94
313.706	195.94
313.935	206.94
314.165	228.94
314.394	210.94
314.624	219.94
314.853	214.94
315.083	208.94
315.312	209.94
315.542	194.94
315.771	191.94
316.001	205.94
316.23	206.94
316.46	205.94
316.689	213.94
316.919	205.94
317.148	223.94
317.377	235.94
317.607	211.94
317.836	206.94
318.065	216.94
318.295	218.94
318.524	212.94
318.753	195.94
318.983	205.94
319.212	208.94
319.441	218.94
319.67	214.94
319.9	213.94
320.129	218.94
320.358	224.94
320.587	204.94
320.816	211.94
321.046	210.94
321.275	221.94
321.504	205.94
321.733	215.94
321.962	223.94
322.191	218.94
322.42	236.94
322.649	252.94
322.878	254.94
323.108	238.94
323.337	246.94
323.566	261.94
323.795	278.94
324.024	298.94
324.253	357.94
324.482	508.94
324.71	751.94
324.939	999.94
325.168	802.94
325.397	438.94
325.626	302.94
325.855	270.94
326.084	262.94
326.313	230.94
326.542	240.94
326.77	291.94
326.999	339.94
327.228	454.94
327.457	676.94
327.686	758.94
327.914	494.94
328.143	352.94
328.372	320.94
328.6	298.94
328.829	305.94
329.058	310.94
329.287	307.94
329.515	282.94
329.744	280.94
329.972	271.94
330.201	294.94
330.43	303.94
330.658	321.94
330.887	323.94
331.115	315.94
331.344	264.94
331.572	266.94
331.801	263.94
332.03	252.94
332.258	254.94
332.486	237.94
332.715	239.94
332.943	231.94
333.172	231.94
333.4	246.94
333.629	241.94
333.857	265.94
334.085	265.94
334.314	292.94
334.542	292.94
334.771	301.94
334.999	275.94
335.227	264.94
335.455	246.94
335.684	246.94
335.912	239.94
336.14	223.94
336.369	238.94
336.597	236.94
336.825	246.94
337.053	226.94
337.281	244.94
337.51	236.94
337.738	227.94
337.966	212.94
338.194	230.94
338.422	253.94
338.65	237.94
338.878	240.94
339.106	212.94
339.334	230.94
339.562	227.94
339.79	226.94
340.018	237.94
340.246	226.94
340.474	234.94
340.702	225.94
340.93	221.94
341.158	218.94
341.386	213.94
341.614	215.94
341.842	218.94
342.07	222.94
342.298	232.94
342.526	236.94
342.754	220.94
342.981	211.94
343.209	218.94
343.437	214.94
343.665	218.94
343.893	213.94
344.12	239.94
344.348	223.94
344.576	212.94
344.804	216.94
345.031	223.94
345.259	233.94
345.487	235.94
345.714	231.94
345.942	221.94
346.17	217.94
346.397	216.94
346.625	222.94
346.853	224.94
347.08	216.94
347.308	223.94
347.535	218.94
347.763	227.94
347.99	244.94
348.218	222.94
348.445	216.94
348.673	217.94
348.9	218.94
349.128	238.94
349.355	217.94
349.583	219.94
349.81	202.94
350.037	219.94
350.265	216.94
350.492	194.94
350.72	226.94
350.947	221.94
351.174	236.94
351.402	234.94
351.629	220.94
351.856	230.94
352.083	225.94
352.311	225.94
352.538	221.94
352.765	223.94
352.992	225.94
353.22	228.94
353.447	224.94
353.674	225.94
353.901	207.94
354.128	217.94
354.355	212.94
354.583	196.94
354.81	201.94
355.037	200.94
355.264	201.94
355.491	191.94
355.718	220.94
355.945	214.94
356.172	199.94
356.399	188.94
356.626	219.94
356.853	211.94
357.08	227.94
357.307	210.94
357.534	189.94
357.761	193.94
357.988	207.94
358.215	213.94
358.441	198.94
358.668	194.94
358.895	210.94
359.122	214.94
359.349	219.94
359.576	202.94
359.802	228.94
360.029	240.94
360.256	258.94
360.483	223.94
360.709	231.94
360.936	222.94
361.163	206.94
361.39	246.94
361.616	222.94
361.843	223.94
362.07	220.94
362.296	231.94
362.523	228.94
362.749	221.94
362.976	231.94
363.203	234.94
363.429	208.94
363.656	223.94
363.882	198.94
364.109	206.94
364.335	216.94
364.562	215.94
364.788	206.94
365.015	213.94
365.241	210.94
365.468	220.94
365.694	216.94
365.92	204.94
366.147	189.94
366.373	222.94
366.599	209.94
366.826	215.94
367.052	218.94
367.278	204.94
367.505	212.94
367.731	208.94
367.957	195.94
368.184	226.94
368.41	204.94
368.636	218.94
368.862	206.94
369.089	216.94
369.315	223.94
369.541	203.94
369.767	220.94
369.993	202.94
370.219	205.94
370.445	206.94
370.672	215.94
370.898	193.94
371.124	213.94
371.35	211.94
371.576	214.94
371.802	199.94
372.028	202.94
372.254	205.94
372.48	199.94
372.706	213.94
372.932	204.94
373.158	206.94
373.384	225.94
373.61	210.94
373.835	206.94
374.061	205.94
374.287	224.94
374.513	200.94
374.739	214.94
374.965	218.94
375.191	220.94
375.416	217.94
375.642	200.94
375.868	215.94
376.094	200.94
376.319	222.94
376.545	199.94
376.771	200.94
376.997	192.94
377.222	209.94
377.448	201.94
377.674	202.94
377.899	198.94
378.125	208.94
378.35	202.94
378.576	203.94
378.802	194.94
379.027	202.94
379.253	226.94
379.478	222.94
379.704	206.94
379.929	194.94
380.155	195.94
380.38	225.94
380.606	195.94
380.831	203.94
381.057	208.94
381.282	212.94
381.507	208.94
381.733	200.94
381.958	200.94
382.184	198.94
382.409	219.94
382.634	203.94
382.86	196.94
383.085	218.94
383.31	208.94
383.535	221.94
383.761	206.94
383.986	206.94
384.211	221.94
384.436	219.94
384.662	210.94
384.887	222.94
385.112	210.94
385.337	208.94
385.562	217.94
385.787	223.94
386.013	212.94
386.238	226.94
386.463	215.94
386.688	215.94
386.913	212.94
387.138	209.94
387.363	222.94
387.588	205.94
387.813	216.94
388.038	228.94
388.263	223.94
388.488	216.94
388.713	215.94
388.938	203.94
389.163	221.94
389.387	218.94
389.612	217.94
389.837	233.94
390.062	218.94
390.287	206.94
390.512	211.94
390.736	219.94
390.961	218.94
391.186	231.94
391.411	217.94
391.636	228.94
391.86	215.94
392.085	238.94
392.31	229.94
392.534	212.94
392.759	223.94
392.984	232.94
393.208	222.94
393.433	240.94
393.658	224.94
393.882	230.94
394.107	232.94
394.331	227.94
394.556	209.94
394.78	211.94
395.005	208.94
395.229	235.94
395.454	227.94
395.678	217.94
395.903	234.94
396.127	225.94
396.352	227.94
396.576	223.94
396.801	232.94
397.025	235.94
397.249	233.94
397.474	214.94
397.698	216.94
397.922	233.94
398.147	239.94
398.371	251.94
398.595	251.94
398.82	236.94
399.044	262.94
399.268	262.94
399.492	280.94
399.717	288.94
399.941	290.94
400.165	304.94
400.389	295.94
400.613	272.94
400.837	256.94
401.062	249.94
401.286	247.94
401.51	234.94
401.734	238.94
401.958	255.94
402.182	263.94
402.406	265.94
402.63	263.94
402.854	245.94
403.078	262.94
403.302	258.94
403.526	266.94
403.75	261.94
403.974	259.94
404.198	256.94
404.422	247.94
404.645	258.94
404.869	264.94
405.093	276.94
405.317	294.94
405.541	288.94
405.765	290.94
405.988	265.94
406.212	284.94
406.436	280.94
406.66	285.94
406.883	273.94
407.107	293.94
407.331	302.94
407.555	333.94
407.778	339.94
408.002	303.94
408.226	279.94
408.449	280.94
408.673	282.94
408.896	285.94
409.12	298.94
409.344	275.94
409.567	256.94
409.791	268.94
410.014	251.94
410.238	268.94
410.461	257.94
410.685	257.94
410.908	268.94
411.132	291.94
411.355	312.94
411.578	268.94
411.802	255.94
412.025	257.94
412.249	282.94
412.472	282.94
412.695	284.94
412.919	285.94
413.142	269.94
413.365	241.94
413.589	244.94
413.812	251.94
414.035	244.94
414.258	247.94
414.482	244.94
414.705	242.94
414.928	252.94
415.151	226.94
415.374	240.94
415.597	240.94
415.821	256.94
416.044	245.94
416.267	243.94
416.49	250.94
416.713	246.94
416.936	237.94
417.159	260.94
417.382	246.94
417.605	245.94
417.828	258.94
418.051	273.94
418.274	266.94
418.497	242.94
418.72	258.94
418.943	253.94
419.166	263.94
419.389	278.94
419.611	263.94
419.834	263.94
420.057	265.94
420.28	273.94
420.503	271.94
420.726	267.94
420.948	288.94
421.171	303.94
421.394	279.94
421.617	260.94
421.839	248.94
422.062	243.94
422.285	266.94
422.507	282.94
422.73	303.94
422.953	290.94
423.175	279.94
423.398	261.94
423.621	273.94
423.843	264.94
424.066	276.94
424.288	276.94
424.511	271.94
424.733	314.94
424.956	333.94
425.178	351.94
425.401	333.94
425.623	328.94
425.846	294.94
426.068	290.94
426.291	283.94
426.513	268.94
426.735	294.94
426.958	295.94
427.18	321.94
427.402	378.94
427.625	417.94
427.847	364.94
428.069	312.94
428.292	285.94
428.514	267.94
428.736	246.94
428.958	264.94
429.181	261.94
429.403	256.94
429.625	274.94
429.847	278.94
430.069	280.94
430.292	298.94
430.514	262.94
430.736	258.94
430.958	249.94
431.18	258.94
431.402	226.94
431.624	219.94
431.846	249.94
432.068	239.94
432.29	230.94
432.512	262.94
432.734	255.94
432.956	231.94
433.178	254.94
433.4	250.94
433.622	240.94
433.844	241.94
434.066	247.94
434.287	222.94
434.509	255.94
434.731	248.94
434.953	252.94
435.175	256.94
435.397	278.94
435.618	273.94
435.84	304.94
436.062	319.94
436.284	357.94
436.505	271.94
436.727	269.94
436.949	267.94
437.17	252.94
437.392	223.94
437.614	277.94
437.835	295.94
438.057	321.94
438.278	367.94
438.5	358.94
438.721	373.94
438.943	353.94
439.165	293.94
439.386	272.94
439.608	300.94
439.829	273.94
440.05	305.94
440.272	306.94
440.493	313.94
440.715	271.94
440.936	250.94
441.158	251.94
441.379	272.94
441.6	265.94
441.822	276.94
442.043	322.94
442.264	333.94
442.486	346.94
442.707	315.94
442.928	288.94
443.149	294.94
443.371	332.94
443.592	328.94
443.813	335.94
444.034	355.94
444.255	305.94
444.476	279.94
444.698	272.94
444.919	274.94
445.14	383.94
445.361	297.94
445.582	314.94
445.803	336.94
446.024	371.94
446.245	355.94
446.466	317.94
446.687	281.94
446.908	251.94
447.129	247.94
447.35	253.94
447.571	236.94
447.792	252.94
448.013	248.94
448.234	270.94
448.455	291.94
448.675	324.94
448.896	365.94
449.117	303.94
449.338	311.94
449.559	348.94
449.779	374.94
450	312.94
450.221	272.94
450.442	259.94
450.662	231.94
450.883	268.94
451.104	260.94
451.324	255.94
451.545	247.94
451.766	224.94
451.986	231.94
452.207	217.94
452.428	238.94
452.648	261.94
452.869	235.94
453.089	229.94
453.31	236.94
453.53	238.94
453.751	240.94
453.971	241.94
454.192	258.94
454.412	234.94
454.633	233.94
454.853	253.94
455.073	224.94
455.294	233.94
455.514	273.94
455.734	251.94
455.955	225.94
456.175	227.94
456.395	219.94
456.616	212.94
456.836	236.94
457.056	217.94
457.276	225.94
457.497	220.94
457.717	220.94
457.937	231.94
458.157	233.94
458.377	228.94
458.598	224.94
458.818	275.94
459.038	319.94
459.258	308.94
459.478	268.94
459.698	265.94
459.918	250.94
460.138	224.94
460.358	241.94
460.578	252.94
460.798	255.94
461.018	248.94
461.238	248.94
461.458	221.94
461.678	240.94
461.898	237.94
462.118	227.94
462.338	242.94
462.558	256.94
462.777	257.94
462.997	257.94
463.217	260.94
463.437	286.94
463.657	255.94
463.876	246.94
464.096	257.94
464.316	264.94
464.536	264.94
464.755	264.94
464.975	258.94
465.195	303.94
465.414	347.94
465.634	294.94
465.854	264.94
466.073	268.94
466.293	262.94
466.512	232.94
466.732	233.94
466.951	234.94
467.171	235.94
467.391	250.94
467.61	250.94
467.829	245.94
468.049	270.94
468.268	247.94
468.488	231.94
468.707	235.94
468.927	232.94
469.146	222.94
469.365	221.94
469.585	232.94
469.804	243.94
470.023	239.94
470.243	243.94
470.462	240.94
470.681	262.94
470.901	266.94
471.12	252.94
471.339	252.94
471.558	232.94
471.777	254.94
471.997	236.94
472.216	236.94
472.435	293.94
472.654	262.94
472.873	233.94
473.092	251.94
473.311	245.94
473.53	252.94
473.749	242.94
473.968	256.94
474.187	303.94
474.406	324.94
474.625	274.94
474.844	240.94
475.063	241.94
475.282	240.94
475.501	222.94
475.72	251.94
475.939	221.94
476.158	253.94
476.377	232.94
476.596	237.94
476.814	251.94
477.033	242.94
477.252	257.94
477.471	256.94
477.69	238.94
477.908	258.94
478.127	259.94
478.346	275.94
478.564	289.94
478.783	254.94
479.002	274.94
479.22	277.94
479.439	270.94
479.658	276.94
479.876	297.94
480.095	280.94
480.313	305.94
480.532	288.94
480.751	290.94
480.969	278.94
481.188	350.94
481.406	368.94
481.624	328.94
481.843	276.94
482.061	277.94
482.28	307.94
482.498	283.94
482.717	270.94
482.935	270.94
483.153	285.94
483.372	272.94
483.59	270.94
483.808	274.94
484.027	280.94
484.245	286.94
484.463	288.94
484.681	277.94
484.9	278.94
485.118	296.94
485.336	287.94
485.554	278.94
485.772	271.94
485.99	274.94
486.209	284.94
486.427	282.94
486.645	278.94
486.863	302.94
487.081	297.94
487.299	292.94
487.517	280.94
487.735	275.94
487.953	290.94
488.171	310.94
488.389	308.94
488.607	295.94
488.825	300.94
489.043	291.94
489.261	290.94
489.479	298.94
489.696	297.94
489.914	293.94
490.132	292.94
490.35	330.94
490.568	311.94
490.786	314.94
491.003	323.94
491.221	326.94
491.439	337.94
491.657	319.94
491.874	344.94
492.092	339.94
492.31	339.94
492.527	340.94
492.745	344.94
492.963	345.94
493.18	349.94
493.398	355.94
493.615	352.94
493.833	368.94
494.05	347.94
494.268	357.94
494.485	352.94
494.703	362.94
494.92	364.94
495.138	358.94
495.355	364.94
495.573	361.94
495.79	370.94
496.008	334.94
496.225	333.94
496.442	346.94
496.66	362.94
496.877	337.94
497.094	352.94
497.312	330.94
497.529	336.94
497.746	345.94
497.963	363.94
498.181	365.94
498.398	356.94
498.615	367.94
498.832	370.94
499.049	381.94
499.267	392.94
499.484	392.94
499.701	399.94
499.918	425.94
500.135	426.94
500.352	444.94
500.569	454.94
500.786	456.94
501.003	445.94
501.22	456.94
501.437	430.94
501.654	427.94
501.871	416.94
502.088	408.94
502.305	384.94
502.522	382.94
