Data from 1966.PennyLincolnUp.Lamp.En5.5.200Scan.071719.P1._HRD10591_14-14-40-914.txt Node
Date: Thu Jul 18 14:14:40 EDT 2019
User: cochatt
Spectrometer: HR+D1059
Trigger mode: 1
Integration Time (sec): 1.000000E-1
Scans to average: 1
Electric dark correction enabled: true
Nonlinearity correction enabled: false
Boxcar width: 0
XAxis mode: Wavelengths
Number of Pixels in Spectrum: 2048
>>>>>Begin Spectral Data<<<<<
223.165	-8.69
223.4	-8.69
223.635	-8.69
223.869	-10.69
224.104	-4.69
224.338	-26.69
224.573	-10.69
224.808	-21.69
225.042	-17.69
225.277	-16.69
225.511	5.31
225.746	7.31
225.98	2.31
226.215	10.31
226.449	29.31
226.683	15.31
226.918	11.31
227.152	36.31
227.387	31.31
227.621	30.31
227.856	44.31
228.09	36.31
228.324	56.31
228.559	53.31
228.793	55.31
229.027	71.31
229.262	70.31
229.496	69.31
229.73	101.31
229.964	107.31
230.199	108.31
230.433	88.31
230.667	101.31
230.901	94.31
231.136	93.31
231.37	94.31
231.604	82.31
231.838	75.31
232.072	89.31
232.306	84.31
232.541	103.31
232.775	92.31
233.009	93.31
233.243	94.31
233.477	89.31
233.711	106.31
233.945	98.31
234.179	92.31
234.413	103.31
234.647	94.31
234.881	103.31
235.115	97.31
235.349	100.31
235.583	89.31
235.817	103.31
236.051	110.31
236.285	86.31
236.519	93.31
236.753	103.31
236.987	112.31
237.221	126.31
237.455	131.31
237.689	108.31
237.922	115.31
238.156	99.31
238.39	97.31
238.624	110.31
238.858	96.31
239.091	92.31
239.325	85.31
239.559	112.31
239.793	106.31
240.027	103.31
240.26	104.31
240.494	112.31
240.728	112.31
240.961	116.31
241.195	87.31
241.429	112.31
241.662	117.31
241.896	116.31
242.13	101.31
242.363	111.31
242.597	106.31
242.83	81.31
243.064	98.31
243.298	101.31
243.531	105.31
243.765	96.31
243.998	102.31
244.232	99.31
244.465	92.31
244.699	116.31
244.932	107.31
245.166	117.31
245.399	107.31
245.633	110.31
245.866	106.31
246.099	97.31
246.333	110.31
246.566	112.31
246.8	110.31
247.033	100.31
247.266	103.31
247.5	117.31
247.733	108.31
247.966	112.31
248.2	116.31
248.433	104.31
248.666	124.31
248.899	109.31
249.133	137.31
249.366	117.31
249.599	133.31
249.832	116.31
250.066	120.31
250.299	123.31
250.532	120.31
250.765	143.31
250.998	145.31
251.231	156.31
251.465	170.31
251.698	124.31
251.931	115.31
252.164	119.31
252.397	119.31
252.63	132.31
252.863	139.31
253.096	146.31
253.329	153.31
253.562	142.31
253.795	131.31
254.028	136.31
254.261	146.31
254.494	142.31
254.727	155.31
254.96	171.31
255.193	158.31
255.426	141.31
255.659	130.31
255.892	139.31
256.124	143.31
256.357	134.31
256.59	148.31
256.823	139.31
257.056	120.31
257.289	143.31
257.521	142.31
257.754	140.31
257.987	131.31
258.22	137.31
258.452	133.31
258.685	132.31
258.918	133.31
259.151	154.31
259.383	137.31
259.616	131.31
259.849	137.31
260.081	161.31
260.314	156.31
260.547	155.31
260.779	139.31
261.012	140.31
261.244	143.31
261.477	138.31
261.71	152.31
261.942	142.31
262.175	156.31
262.407	142.31
262.64	136.31
262.872	143.31
263.105	134.31
263.337	148.31
263.57	124.31
263.802	139.31
264.035	127.31
264.267	141.31
264.499	132.31
264.732	153.31
264.964	143.31
265.197	145.31
265.429	127.31
265.661	134.31
265.894	144.31
266.126	148.31
266.358	136.31
266.591	134.31
266.823	134.31
267.055	137.31
267.287	140.31
267.52	134.31
267.752	149.31
267.984	140.31
268.216	162.31
268.448	149.31
268.681	146.31
268.913	144.31
269.145	163.31
269.377	167.31
269.609	146.31
269.841	170.31
270.073	174.31
270.306	179.31
270.538	174.31
270.77	193.31
271.002	179.31
271.234	184.31
271.466	182.31
271.698	173.31
271.93	201.31
272.162	184.31
272.394	183.31
272.626	164.31
272.858	174.31
273.09	150.31
273.322	164.31
273.553	159.31
273.785	156.31
274.017	149.31
274.249	153.31
274.481	146.31
274.713	161.31
274.945	164.31
275.176	165.31
275.408	145.31
275.64	154.31
275.872	152.31
276.104	146.31
276.335	172.31
276.567	168.31
276.799	179.31
277.031	193.31
277.262	177.31
277.494	184.31
277.726	171.31
277.957	163.31
278.189	177.31
278.421	176.31
278.652	171.31
278.884	168.31
279.115	159.31
279.347	169.31
279.579	164.31
279.81	151.31
280.042	151.31
280.273	149.31
280.505	176.31
280.736	166.31
280.968	161.31
281.199	170.31
281.431	165.31
281.662	149.31
281.894	159.31
282.125	160.31
282.356	183.31
282.588	175.31
282.819	180.31
283.051	163.31
283.282	161.31
283.513	172.31
283.745	182.31
283.976	151.31
284.207	156.31
284.439	167.31
284.67	152.31
284.901	168.31
285.132	160.31
285.364	161.31
285.595	160.31
285.826	163.31
286.057	170.31
286.288	171.31
286.52	152.31
286.751	168.31
286.982	154.31
287.213	152.31
287.444	158.31
287.675	161.31
287.906	177.31
288.138	192.31
288.369	179.31
288.6	168.31
288.831	172.31
289.062	184.31
289.293	173.31
289.524	175.31
289.755	183.31
289.986	171.31
290.217	170.31
290.448	164.31
290.679	178.31
290.91	174.31
291.141	161.31
291.371	154.31
291.602	161.31
291.833	168.31
292.064	161.31
292.295	172.31
292.526	153.31
292.757	180.31
292.987	171.31
293.218	174.31
293.449	174.31
293.68	159.31
293.91	176.31
294.141	180.31
294.372	159.31
294.603	167.31
294.833	166.31
295.064	167.31
295.295	186.31
295.525	152.31
295.756	176.31
295.987	171.31
296.217	187.31
296.448	191.31
296.679	183.31
296.909	167.31
297.14	168.31
297.37	166.31
297.601	175.31
297.831	169.31
298.062	186.31
298.292	163.31
298.523	179.31
298.753	157.31
298.984	172.31
299.214	160.31
299.445	177.31
299.675	165.31
299.905	169.31
300.136	187.31
300.366	180.31
300.597	175.31
300.827	186.31
301.057	188.31
301.288	202.31
301.518	183.31
301.748	190.31
301.979	189.31
302.209	175.31
302.439	182.31
302.669	192.31
302.9	176.31
303.13	191.31
303.36	189.31
303.59	191.31
303.82	201.31
304.051	186.31
304.281	176.31
304.511	187.31
304.741	183.31
304.971	195.31
305.201	175.31
305.431	176.31
305.661	189.31
305.891	182.31
306.121	195.31
306.352	191.31
306.582	201.31
306.812	192.31
307.042	192.31
307.272	201.31
307.502	184.31
307.731	196.31
307.961	188.31
308.191	198.31
308.421	169.31
308.651	198.31
308.881	197.31
309.111	192.31
309.341	197.31
309.571	185.31
309.8	192.31
310.03	199.31
310.26	229.31
310.49	213.31
310.72	213.31
310.949	220.31
311.179	226.31
311.409	206.31
311.639	193.31
311.868	196.31
312.098	221.31
312.328	211.31
312.557	236.31
312.787	227.31
313.017	236.31
313.246	223.31
313.476	203.31
313.706	203.31
313.935	216.31
314.165	202.31
314.394	233.31
314.624	216.31
314.853	215.31
315.083	208.31
315.312	208.31
315.542	213.31
315.771	204.31
316.001	203.31
316.23	209.31
316.46	214.31
316.689	204.31
316.919	217.31
317.148	213.31
317.377	223.31
317.607	199.31
317.836	202.31
318.065	211.31
318.295	192.31
318.524	196.31
318.753	204.31
318.983	202.31
319.212	201.31
319.441	198.31
319.67	219.31
319.9	205.31
320.129	193.31
320.358	190.31
320.587	217.31
320.816	208.31
321.046	205.31
321.275	204.31
321.504	206.31
321.733	216.31
321.962	216.31
322.191	230.31
322.42	218.31
322.649	239.31
322.878	245.31
323.108	236.31
323.337	265.31
323.566	251.31
323.795	274.31
324.024	294.31
324.253	372.31
324.482	519.31
324.71	801.31
324.939	1030.31
325.168	827.31
325.397	433.31
325.626	292.31
325.855	267.31
326.084	260.31
326.313	249.31
326.542	268.31
326.77	284.31
326.999	368.31
327.228	487.31
327.457	691.31
327.686	765.31
327.914	500.31
328.143	366.31
328.372	317.31
328.6	309.31
328.829	298.31
329.058	298.31
329.287	293.31
329.515	294.31
329.744	268.31
329.972	284.31
330.201	297.31
330.43	299.31
330.658	330.31
330.887	331.31
331.115	330.31
331.344	282.31
331.572	253.31
331.801	257.31
332.03	267.31
332.258	265.31
332.486	241.31
332.715	240.31
332.943	249.31
333.172	237.31
333.4	245.31
333.629	249.31
333.857	276.31
334.085	279.31
334.314	275.31
334.542	304.31
334.771	311.31
334.999	261.31
335.227	258.31
335.455	247.31
335.684	237.31
335.912	238.31
336.14	238.31
336.369	236.31
336.597	234.31
336.825	243.31
337.053	227.31
337.281	225.31
337.51	216.31
337.738	237.31
337.966	245.31
338.194	241.31
338.422	235.31
338.65	228.31
338.878	224.31
339.106	216.31
339.334	230.31
339.562	224.31
339.79	227.31
340.018	227.31
340.246	217.31
340.474	227.31
340.702	229.31
340.93	222.31
341.158	220.31
341.386	212.31
341.614	220.31
341.842	219.31
342.07	240.31
342.298	219.31
342.526	207.31
342.754	218.31
342.981	200.31
343.209	223.31
343.437	229.31
343.665	217.31
343.893	232.31
344.12	244.31
344.348	234.31
344.576	229.31
344.804	231.31
345.031	232.31
345.259	232.31
345.487	237.31
345.714	227.31
345.942	223.31
346.17	214.31
346.397	216.31
346.625	218.31
346.853	224.31
347.08	222.31
347.308	248.31
347.535	214.31
347.763	235.31
347.99	216.31
348.218	217.31
348.445	235.31
348.673	225.31
348.9	219.31
349.128	235.31
349.355	212.31
349.583	196.31
349.81	212.31
350.037	201.31
350.265	232.31
350.492	210.31
350.72	219.31
350.947	220.31
351.174	224.31
351.402	232.31
351.629	247.31
351.856	224.31
352.083	229.31
352.311	245.31
352.538	239.31
352.765	215.31
352.992	232.31
353.22	215.31
353.447	219.31
353.674	208.31
353.901	206.31
354.128	201.31
354.355	221.31
354.583	203.31
354.81	208.31
355.037	215.31
355.264	194.31
355.491	195.31
355.718	207.31
355.945	196.31
356.172	197.31
356.399	201.31
356.626	195.31
356.853	213.31
357.08	191.31
357.307	210.31
357.534	206.31
357.761	214.31
357.988	206.31
358.215	204.31
358.441	213.31
358.668	221.31
358.895	184.31
359.122	205.31
359.349	202.31
359.576	216.31
359.802	247.31
360.029	230.31
360.256	248.31
360.483	228.31
360.709	220.31
360.936	230.31
361.163	205.31
361.39	225.31
361.616	230.31
361.843	238.31
362.07	212.31
362.296	216.31
362.523	218.31
362.749	225.31
362.976	211.31
363.203	230.31
363.429	212.31
363.656	213.31
363.882	212.31
364.109	217.31
364.335	214.31
364.562	214.31
364.788	206.31
365.015	209.31
365.241	213.31
365.468	222.31
365.694	215.31
365.92	202.31
366.147	199.31
366.373	227.31
366.599	219.31
366.826	213.31
367.052	210.31
367.278	210.31
367.505	211.31
367.731	203.31
367.957	219.31
368.184	208.31
368.41	205.31
368.636	210.31
368.862	203.31
369.089	236.31
369.315	204.31
369.541	200.31
369.767	208.31
369.993	201.31
370.219	201.31
370.445	209.31
370.672	204.31
370.898	208.31
371.124	201.31
371.35	209.31
371.576	208.31
371.802	195.31
372.028	201.31
372.254	207.31
372.48	190.31
372.706	215.31
372.932	198.31
373.158	191.31
373.384	214.31
373.61	209.31
373.835	208.31
374.061	209.31
374.287	218.31
374.513	197.31
374.739	201.31
374.965	229.31
375.191	220.31
375.416	219.31
375.642	201.31
375.868	225.31
376.094	213.31
376.319	204.31
376.545	197.31
376.771	193.31
376.997	213.31
377.222	215.31
377.448	202.31
377.674	189.31
377.899	195.31
378.125	211.31
378.35	198.31
378.576	196.31
378.802	197.31
379.027	220.31
379.253	213.31
379.478	214.31
379.704	211.31
379.929	197.31
380.155	195.31
380.38	217.31
380.606	192.31
380.831	194.31
381.057	219.31
381.282	202.31
381.507	197.31
381.733	214.31
381.958	219.31
382.184	203.31
382.409	205.31
382.634	217.31
382.86	231.31
383.085	195.31
383.31	197.31
383.535	209.31
383.761	231.31
383.986	198.31
384.211	203.31
384.436	212.31
384.662	216.31
384.887	228.31
385.112	208.31
385.337	220.31
385.562	221.31
385.787	217.31
386.013	222.31
386.238	233.31
386.463	226.31
386.688	220.31
386.913	199.31
387.138	215.31
387.363	230.31
387.588	232.31
387.813	227.31
388.038	217.31
388.263	221.31
388.488	217.31
388.713	214.31
388.938	210.31
389.163	219.31
389.387	218.31
389.612	223.31
389.837	218.31
390.062	213.31
390.287	216.31
390.512	221.31
390.736	218.31
390.961	208.31
391.186	224.31
391.411	226.31
391.636	211.31
391.86	233.31
392.085	211.31
392.31	229.31
392.534	220.31
392.759	220.31
392.984	210.31
393.208	227.31
393.433	224.31
393.658	232.31
393.882	219.31
394.107	203.31
394.331	206.31
394.556	228.31
394.78	214.31
395.005	237.31
395.229	215.31
395.454	229.31
395.678	221.31
395.903	267.31
396.127	250.31
396.352	258.31
396.576	236.31
396.801	215.31
397.025	235.31
397.249	220.31
397.474	223.31
397.698	221.31
397.922	251.31
398.147	245.31
398.371	247.31
398.595	233.31
398.82	232.31
399.044	263.31
399.268	267.31
399.492	244.31
399.717	279.31
399.941	283.31
400.165	279.31
400.389	293.31
400.613	288.31
400.837	246.31
401.062	251.31
401.286	248.31
401.51	249.31
401.734	269.31
401.958	259.31
402.182	258.31
402.406	265.31
402.63	259.31
402.854	248.31
403.078	271.31
403.302	275.31
403.526	268.31
403.75	264.31
403.974	242.31
404.198	264.31
404.422	270.31
404.645	265.31
404.869	266.31
405.093	283.31
405.317	288.31
405.541	283.31
405.765	294.31
405.988	283.31
406.212	287.31
406.436	293.31
406.66	308.31
406.883	283.31
407.107	281.31
407.331	312.31
407.555	341.31
407.778	325.31
408.002	309.31
408.226	296.31
408.449	282.31
408.673	277.31
408.896	263.31
409.12	304.31
409.344	295.31
409.567	267.31
409.791	269.31
410.014	251.31
410.238	265.31
410.461	252.31
410.685	274.31
410.908	276.31
411.132	295.31
411.355	296.31
411.578	266.31
411.802	265.31
412.025	272.31
412.249	244.31
412.472	270.31
412.695	283.31
412.919	276.31
413.142	255.31
413.365	269.31
413.589	253.31
413.812	260.31
414.035	247.31
414.258	248.31
414.482	237.31
414.705	244.31
414.928	233.31
415.151	240.31
415.374	280.31
415.597	240.31
415.821	242.31
416.044	233.31
416.267	271.31
416.49	244.31
416.713	256.31
416.936	249.31
417.159	239.31
417.382	236.31
417.605	243.31
417.828	262.31
418.051	271.31
418.274	259.31
418.497	250.31
418.72	249.31
418.943	255.31
419.166	258.31
419.389	274.31
419.611	270.31
419.834	248.31
420.057	248.31
420.28	280.31
420.503	267.31
420.726	272.31
420.948	272.31
421.171	297.31
421.394	284.31
421.617	263.31
421.839	249.31
422.062	263.31
422.285	252.31
422.507	282.31
422.73	328.31
422.953	300.31
423.175	279.31
423.398	259.31
423.621	274.31
423.843	287.31
424.066	279.31
424.288	268.31
424.511	272.31
424.733	289.31
424.956	330.31
425.178	311.31
425.401	319.31
425.623	336.31
425.846	266.31
426.068	280.31
426.291	264.31
426.513	276.31
426.735	271.31
426.958	294.31
427.18	340.31
427.402	381.31
427.625	419.31
427.847	378.31
428.069	331.31
428.292	296.31
428.514	277.31
428.736	265.31
428.958	266.31
429.181	258.31
429.403	262.31
429.625	260.31
429.847	263.31
430.069	298.31
430.292	267.31
430.514	266.31
430.736	260.31
430.958	265.31
431.18	244.31
431.402	232.31
431.624	234.31
431.846	236.31
432.068	242.31
432.29	233.31
432.512	249.31
432.734	259.31
432.956	259.31
433.178	262.31
433.4	233.31
433.622	239.31
433.844	236.31
434.066	245.31
434.287	242.31
434.509	247.31
434.731	257.31
434.953	259.31
435.175	251.31
435.397	261.31
435.618	286.31
435.84	289.31
436.062	314.31
436.284	352.31
436.505	294.31
436.727	267.31
436.949	275.31
437.17	261.31
437.392	246.31
437.614	262.31
437.835	277.31
438.057	313.31
438.278	356.31
438.5	365.31
438.721	381.31
438.943	382.31
439.165	307.31
439.386	263.31
439.608	266.31
439.829	284.31
440.05	278.31
440.272	311.31
440.493	288.31
440.715	275.31
440.936	259.31
441.158	248.31
441.379	287.31
441.6	268.31
441.822	277.31
442.043	291.31
442.264	333.31
442.486	349.31
442.707	295.31
442.928	271.31
443.149	272.31
443.371	298.31
443.592	344.31
443.813	334.31
444.034	365.31
444.255	331.31
444.476	291.31
444.698	258.31
444.919	288.31
445.14	384.31
445.361	323.31
445.582	297.31
445.803	352.31
446.024	374.31
446.245	395.31
446.466	319.31
446.687	281.31
446.908	287.31
447.129	262.31
447.35	237.31
447.571	265.31
447.792	257.31
448.013	263.31
448.234	271.31
448.455	292.31
448.675	335.31
448.896	381.31
449.117	319.31
449.338	304.31
449.559	334.31
449.779	394.31
450	323.31
450.221	261.31
450.442	257.31
450.662	262.31
450.883	263.31
451.104	267.31
451.324	284.31
451.545	264.31
451.766	244.31
451.986	230.31
452.207	232.31
452.428	220.31
452.648	254.31
452.869	227.31
453.089	240.31
453.31	244.31
453.53	232.31
453.751	227.31
453.971	248.31
454.192	236.31
454.412	230.31
454.633	229.31
454.853	222.31
455.073	253.31
455.294	243.31
455.514	280.31
455.734	273.31
455.955	246.31
456.175	221.31
456.395	215.31
456.616	232.31
456.836	239.31
457.056	207.31
457.276	215.31
457.497	211.31
457.717	213.31
457.937	229.31
458.157	219.31
458.377	219.31
458.598	222.31
458.818	283.31
459.038	325.31
459.258	324.31
459.478	273.31
459.698	234.31
459.918	235.31
460.138	244.31
460.358	245.31
460.578	240.31
460.798	239.31
461.018	235.31
461.238	244.31
461.458	233.31
461.678	232.31
461.898	244.31
462.118	244.31
462.338	238.31
462.558	247.31
462.777	261.31
462.997	275.31
463.217	256.31
463.437	259.31
463.657	264.31
463.876	244.31
464.096	267.31
464.316	267.31
464.536	281.31
464.755	259.31
464.975	262.31
465.195	295.31
465.414	338.31
465.634	287.31
465.854	264.31
466.073	230.31
466.293	232.31
466.512	236.31
466.732	251.31
466.951	227.31
467.171	241.31
467.391	237.31
467.61	260.31
467.829	239.31
468.049	265.31
468.268	246.31
468.488	250.31
468.707	242.31
468.927	230.31
469.146	220.31
469.365	230.31
469.585	245.31
469.804	265.31
470.023	240.31
470.243	252.31
470.462	233.31
470.681	260.31
470.901	256.31
471.12	265.31
471.339	254.31
471.558	227.31
471.777	251.31
471.997	241.31
472.216	247.31
472.435	286.31
472.654	263.31
472.873	238.31
473.092	257.31
473.311	224.31
473.53	218.31
473.749	261.31
473.968	275.31
474.187	310.31
474.406	338.31
474.625	264.31
474.844	247.31
475.063	237.31
475.282	247.31
475.501	230.31
475.72	245.31
475.939	257.31
476.158	260.31
476.377	265.31
476.596	235.31
476.814	254.31
477.033	247.31
477.252	252.31
477.471	282.31
477.69	258.31
477.908	259.31
478.127	267.31
478.346	241.31
478.564	260.31
478.783	266.31
479.002	265.31
479.22	285.31
479.439	267.31
479.658	286.31
479.876	287.31
480.095	297.31
480.313	294.31
480.532	287.31
480.751	296.31
480.969	300.31
481.188	347.31
481.406	378.31
481.624	317.31
481.843	287.31
482.061	275.31
482.28	277.31
482.498	271.31
482.717	269.31
482.935	272.31
483.153	274.31
483.372	263.31
483.59	252.31
483.808	291.31
484.027	295.31
484.245	265.31
484.463	275.31
484.681	283.31
484.9	277.31
485.118	280.31
485.336	280.31
485.554	281.31
485.772	289.31
485.99	296.31
486.209	283.31
486.427	285.31
486.645	292.31
486.863	300.31
487.081	294.31
487.299	292.31
487.517	308.31
487.735	294.31
487.953	287.31
488.171	286.31
488.389	277.31
488.607	284.31
488.825	305.31
489.043	286.31
489.261	302.31
489.479	289.31
489.696	297.31
489.914	307.31
490.132	299.31
490.35	308.31
490.568	317.31
490.786	319.31
491.003	325.31
491.221	324.31
491.439	340.31
491.657	349.31
491.874	349.31
492.092	329.31
492.31	350.31
492.527	352.31
492.745	361.31
492.963	343.31
493.18	349.31
493.398	351.31
493.615	345.31
493.833	367.31
494.05	345.31
494.268	337.31
494.485	320.31
494.703	331.31
494.92	331.31
495.138	365.31
495.355	354.31
495.573	359.31
495.79	340.31
496.008	366.31
496.225	338.31
496.442	346.31
496.66	343.31
496.877	355.31
497.094	336.31
497.312	336.31
497.529	337.31
497.746	339.31
497.963	364.31
498.181	359.31
498.398	374.31
498.615	374.31
498.832	377.31
499.049	380.31
499.267	384.31
499.484	378.31
499.701	399.31
499.918	418.31
500.135	426.31
500.352	441.31
500.569	435.31
500.786	477.31
501.003	458.31
501.22	439.31
501.437	427.31
501.654	429.31
501.871	424.31
502.088	411.31
502.305	388.31
502.522	371.31
