Data from 1966.PennyLincolnUp.Lamp.En5.5.200Scan.071719.P1.Scan2.head_HRD10591_14-16-28-030.txt Node
Date: Thu Jul 18 14:16:28 EDT 2019
User: cochatt
Spectrometer: HR+D1059
Trigger mode: 1
Integration Time (sec): 1.000000E-1
Scans to average: 1
Electric dark correction enabled: true
Nonlinearity correction enabled: false
Boxcar width: 0
XAxis mode: Wavelengths
Number of Pixels in Spectrum: 2048
>>>>>Begin Spectral Data<<<<<
223.165	-8.06
223.4	-8.06
223.635	-8.06
223.869	-14.06
224.104	-18.06
224.338	-15.06
224.573	-4.06
224.808	-3.06
225.042	2.94
225.277	-9.06
225.511	-17.06
225.746	4.94
225.98	1.94
226.215	12.94
226.449	16.94
226.683	6.94
226.918	21.94
227.152	19.94
227.387	38.94
227.621	56.94
227.856	29.94
228.09	37.94
228.324	57.94
228.559	65.94
228.793	51.94
229.027	87.94
229.262	84.94
229.496	106.94
229.73	118.94
229.964	135.94
230.199	119.94
230.433	119.94
230.667	110.94
230.901	91.94
231.136	99.94
231.37	88.94
231.604	113.94
231.838	112.94
232.072	108.94
232.306	103.94
232.541	107.94
232.775	105.94
233.009	109.94
233.243	116.94
233.477	110.94
233.711	104.94
233.945	108.94
234.179	112.94
234.413	109.94
234.647	100.94
234.881	106.94
235.115	129.94
235.349	102.94
235.583	117.94
235.817	108.94
236.051	109.94
236.285	112.94
236.519	118.94
236.753	109.94
236.987	144.94
237.221	165.94
237.455	191.94
237.689	144.94
237.922	148.94
238.156	131.94
238.39	129.94
238.624	124.94
238.858	117.94
239.091	121.94
239.325	123.94
239.559	126.94
239.793	117.94
240.027	123.94
240.26	129.94
240.494	141.94
240.728	141.94
240.961	133.94
241.195	125.94
241.429	137.94
241.662	114.94
241.896	131.94
242.13	118.94
242.363	124.94
242.597	115.94
242.83	139.94
243.064	136.94
243.298	141.94
243.531	140.94
243.765	132.94
243.998	141.94
244.232	125.94
244.465	144.94
244.699	141.94
244.932	126.94
245.166	144.94
245.399	141.94
245.633	133.94
245.866	143.94
246.099	145.94
246.333	142.94
246.566	132.94
246.8	149.94
247.033	143.94
247.266	157.94
247.5	161.94
247.733	157.94
247.966	165.94
248.2	174.94
248.433	144.94
248.666	161.94
248.899	164.94
249.133	161.94
249.366	189.94
249.599	165.94
249.832	167.94
250.066	161.94
250.299	178.94
250.532	185.94
250.765	158.94
250.998	190.94
251.231	185.94
251.465	198.94
251.698	188.94
251.931	182.94
252.164	178.94
252.397	175.94
252.63	188.94
252.863	188.94
253.096	194.94
253.329	187.94
253.562	197.94
253.795	196.94
254.028	185.94
254.261	189.94
254.494	189.94
254.727	214.94
254.96	226.94
255.193	215.94
255.426	201.94
255.659	189.94
255.892	195.94
256.124	198.94
256.357	198.94
256.59	195.94
256.823	189.94
257.056	199.94
257.289	193.94
257.521	205.94
257.754	189.94
257.987	186.94
258.22	197.94
258.452	191.94
258.685	193.94
258.918	198.94
259.151	198.94
259.383	196.94
259.616	204.94
259.849	189.94
260.081	202.94
260.314	216.94
260.547	244.94
260.779	225.94
261.012	208.94
261.244	184.94
261.477	203.94
261.71	200.94
261.942	208.94
262.175	212.94
262.407	203.94
262.64	185.94
262.872	203.94
263.105	171.94
263.337	194.94
263.57	192.94
263.802	186.94
264.035	196.94
264.267	190.94
264.499	196.94
264.732	186.94
264.964	189.94
265.197	208.94
265.429	206.94
265.661	219.94
265.894	177.94
266.126	213.94
266.358	207.94
266.591	204.94
266.823	209.94
267.055	198.94
267.287	201.94
267.52	203.94
267.752	217.94
267.984	185.94
268.216	206.94
268.448	216.94
268.681	215.94
268.913	216.94
269.145	229.94
269.377	210.94
269.609	217.94
269.841	223.94
270.073	244.94
270.306	227.94
270.538	253.94
270.77	257.94
271.002	255.94
271.234	231.94
271.466	263.94
271.698	268.94
271.93	281.94
272.162	269.94
272.394	257.94
272.626	257.94
272.858	234.94
273.09	239.94
273.322	232.94
273.553	235.94
273.785	246.94
274.017	246.94
274.249	252.94
274.481	244.94
274.713	233.94
274.945	253.94
275.176	242.94
275.408	238.94
275.64	237.94
275.872	241.94
276.104	252.94
276.335	233.94
276.567	236.94
276.799	246.94
277.031	279.94
277.262	278.94
277.494	291.94
277.726	263.94
277.957	242.94
278.189	250.94
278.421	248.94
278.652	244.94
278.884	239.94
279.115	236.94
279.347	243.94
279.579	269.94
279.81	247.94
280.042	239.94
280.273	261.94
280.505	261.94
280.736	256.94
280.968	242.94
281.199	232.94
281.431	250.94
281.662	257.94
281.894	249.94
282.125	255.94
282.356	249.94
282.588	285.94
282.819	251.94
283.051	228.94
283.282	241.94
283.513	227.94
283.745	241.94
283.976	259.94
284.207	261.94
284.439	266.94
284.67	257.94
284.901	240.94
285.132	246.94
285.364	265.94
285.595	255.94
285.826	248.94
286.057	262.94
286.288	236.94
286.52	261.94
286.751	250.94
286.982	247.94
287.213	241.94
287.444	235.94
287.675	261.94
287.906	247.94
288.138	268.94
288.369	267.94
288.6	273.94
288.831	287.94
289.062	257.94
289.293	270.94
289.524	251.94
289.755	264.94
289.986	276.94
290.217	263.94
290.448	264.94
290.679	276.94
290.91	270.94
291.141	279.94
291.371	267.94
291.602	273.94
291.833	254.94
292.064	273.94
292.295	266.94
292.526	282.94
292.757	256.94
292.987	262.94
293.218	247.94
293.449	288.94
293.68	258.94
293.91	270.94
294.141	259.94
294.372	262.94
294.603	231.94
294.833	278.94
295.064	259.94
295.295	284.94
295.525	270.94
295.756	286.94
295.987	281.94
296.217	283.94
296.448	308.94
296.679	281.94
296.909	281.94
297.14	278.94
297.37	288.94
297.601	285.94
297.831	272.94
298.062	269.94
298.292	287.94
298.523	294.94
298.753	284.94
298.984	289.94
299.214	280.94
299.445	290.94
299.675	280.94
299.905	282.94
300.136	284.94
300.366	288.94
300.597	290.94
300.827	291.94
301.057	282.94
301.288	278.94
301.518	300.94
301.748	291.94
301.979	309.94
302.209	315.94
302.439	308.94
302.669	295.94
302.9	301.94
303.13	309.94
303.36	309.94
303.59	297.94
303.82	305.94
304.051	290.94
304.281	292.94
304.511	301.94
304.741	297.94
304.971	296.94
305.201	296.94
305.431	298.94
305.661	283.94
305.891	309.94
306.121	290.94
306.352	305.94
306.582	302.94
306.812	324.94
307.042	299.94
307.272	293.94
307.502	277.94
307.731	311.94
307.961	320.94
308.191	306.94
308.421	305.94
308.651	309.94
308.881	316.94
309.111	328.94
309.341	291.94
309.571	331.94
309.8	320.94
310.03	301.94
310.26	319.94
310.49	332.94
310.72	335.94
310.949	341.94
311.179	345.94
311.409	321.94
311.639	328.94
311.868	306.94
312.098	346.94
312.328	338.94
312.557	354.94
312.787	338.94
313.017	339.94
313.246	331.94
313.476	347.94
313.706	346.94
313.935	333.94
314.165	341.94
314.394	355.94
314.624	344.94
314.853	341.94
315.083	342.94
315.312	349.94
315.542	347.94
315.771	342.94
316.001	357.94
316.23	355.94
316.46	345.94
316.689	343.94
316.919	353.94
317.148	345.94
317.377	352.94
317.607	319.94
317.836	350.94
318.065	378.94
318.295	382.94
318.524	362.94
318.753	351.94
318.983	354.94
319.212	355.94
319.441	339.94
319.67	357.94
319.9	346.94
320.129	359.94
320.358	319.94
320.587	365.94
320.816	371.94
321.046	348.94
321.275	369.94
321.504	369.94
321.733	349.94
321.962	363.94
322.191	358.94
322.42	356.94
322.649	366.94
322.878	380.94
323.108	389.94
323.337	385.94
323.566	390.94
323.795	418.94
324.024	475.94
324.253	525.94
324.482	709.94
324.71	1119.94
324.939	1655.94
325.168	1429.94
325.397	698.94
325.626	502.94
325.855	447.94
326.084	408.94
326.313	397.94
326.542	410.94
326.77	421.94
326.999	524.94
327.228	658.94
327.457	997.94
327.686	1269.94
327.914	835.94
328.143	529.94
328.372	479.94
328.6	455.94
328.829	446.94
329.058	449.94
329.287	467.94
329.515	429.94
329.744	426.94
329.972	425.94
330.201	415.94
330.43	445.94
330.658	464.94
330.887	469.94
331.115	475.94
331.344	428.94
331.572	426.94
331.801	426.94
332.03	415.94
332.258	405.94
332.486	404.94
332.715	395.94
332.943	391.94
333.172	413.94
333.4	419.94
333.629	419.94
333.857	427.94
334.085	411.94
334.314	420.94
334.542	441.94
334.771	445.94
334.999	418.94
335.227	420.94
335.455	418.94
335.684	421.94
335.912	435.94
336.14	417.94
336.369	414.94
336.597	435.94
336.825	402.94
337.053	415.94
337.281	410.94
337.51	404.94
337.738	406.94
337.966	392.94
338.194	420.94
338.422	402.94
338.65	408.94
338.878	405.94
339.106	403.94
339.334	410.94
339.562	401.94
339.79	393.94
340.018	408.94
340.246	397.94
340.474	389.94
340.702	399.94
340.93	396.94
341.158	407.94
341.386	398.94
341.614	422.94
341.842	386.94
342.07	389.94
342.298	390.94
342.526	375.94
342.754	387.94
342.981	381.94
343.209	377.94
343.437	396.94
343.665	401.94
343.893	410.94
344.12	423.94
344.348	414.94
344.576	391.94
344.804	405.94
345.031	400.94
345.259	419.94
345.487	386.94
345.714	410.94
345.942	407.94
346.17	398.94
346.397	391.94
346.625	374.94
346.853	392.94
347.08	389.94
347.308	384.94
347.535	391.94
347.763	387.94
347.99	396.94
348.218	394.94
348.445	391.94
348.673	409.94
348.9	407.94
349.128	378.94
349.355	388.94
349.583	385.94
349.81	369.94
350.037	375.94
350.265	375.94
350.492	402.94
350.72	392.94
350.947	379.94
351.174	386.94
351.402	407.94
351.629	371.94
351.856	393.94
352.083	388.94
352.311	409.94
352.538	392.94
352.765	392.94
352.992	385.94
353.22	378.94
353.447	392.94
353.674	375.94
353.901	377.94
354.128	364.94
354.355	381.94
354.583	377.94
354.81	374.94
355.037	364.94
355.264	374.94
355.491	351.94
355.718	365.94
355.945	360.94
356.172	362.94
356.399	385.94
356.626	377.94
356.853	383.94
357.08	381.94
357.307	375.94
357.534	369.94
357.761	403.94
357.988	380.94
358.215	386.94
358.441	389.94
358.668	398.94
358.895	387.94
359.122	385.94
359.349	409.94
359.576	383.94
359.802	394.94
360.029	403.94
360.256	428.94
360.483	409.94
360.709	395.94
360.936	395.94
361.163	394.94
361.39	389.94
361.616	405.94
361.843	399.94
362.07	376.94
362.296	422.94
362.523	405.94
362.749	384.94
362.976	373.94
363.203	398.94
363.429	379.94
363.656	375.94
363.882	396.94
364.109	391.94
364.335	368.94
364.562	376.94
364.788	404.94
365.015	404.94
365.241	378.94
365.468	376.94
365.694	392.94
365.92	393.94
366.147	388.94
366.373	416.94
366.599	383.94
366.826	373.94
367.052	389.94
367.278	397.94
367.505	372.94
367.731	371.94
367.957	372.94
368.184	374.94
368.41	381.94
368.636	388.94
368.862	396.94
369.089	376.94
369.315	383.94
369.541	421.94
369.767	412.94
369.993	391.94
370.219	373.94
370.445	377.94
370.672	396.94
370.898	409.94
371.124	404.94
371.35	387.94
371.576	400.94
371.802	393.94
372.028	391.94
372.254	421.94
372.48	386.94
372.706	404.94
372.932	401.94
373.158	408.94
373.384	383.94
373.61	393.94
373.835	403.94
374.061	407.94
374.287	403.94
374.513	406.94
374.739	394.94
374.965	435.94
375.191	411.94
375.416	426.94
375.642	394.94
375.868	413.94
376.094	389.94
376.319	385.94
376.545	405.94
376.771	413.94
376.997	411.94
377.222	402.94
377.448	396.94
377.674	417.94
377.899	381.94
378.125	385.94
378.35	389.94
378.576	374.94
378.802	385.94
379.027	415.94
379.253	380.94
379.478	407.94
379.704	400.94
379.929	417.94
380.155	389.94
380.38	399.94
380.606	405.94
380.831	409.94
381.057	419.94
381.282	408.94
381.507	406.94
381.733	421.94
381.958	415.94
382.184	422.94
382.409	409.94
382.634	420.94
382.86	412.94
383.085	422.94
383.31	443.94
383.535	443.94
383.761	434.94
383.986	416.94
384.211	449.94
384.436	437.94
384.662	443.94
384.887	447.94
385.112	460.94
385.337	455.94
385.562	446.94
385.787	449.94
386.013	476.94
386.238	475.94
386.463	473.94
386.688	441.94
386.913	457.94
387.138	445.94
387.363	480.94
387.588	432.94
387.813	445.94
388.038	470.94
388.263	471.94
388.488	469.94
388.713	457.94
388.938	480.94
389.163	461.94
389.387	448.94
389.612	464.94
389.837	440.94
390.062	441.94
390.287	437.94
390.512	442.94
390.736	469.94
390.961	457.94
391.186	457.94
391.411	461.94
391.636	462.94
391.86	457.94
392.085	450.94
392.31	461.94
392.534	473.94
392.759	497.94
392.984	494.94
393.208	597.94
393.433	757.94
393.658	804.94
393.882	561.94
394.107	475.94
394.331	462.94
394.556	480.94
394.78	490.94
395.005	473.94
395.229	463.94
395.454	476.94
395.678	492.94
395.903	494.94
396.127	502.94
396.352	514.94
396.576	528.94
396.801	603.94
397.025	665.94
397.249	617.94
397.474	509.94
397.698	504.94
397.922	522.94
398.147	502.94
398.371	514.94
398.595	513.94
398.82	519.94
399.044	522.94
399.268	545.94
399.492	583.94
399.717	602.94
399.941	618.94
400.165	640.94
400.389	644.94
400.613	594.94
400.837	555.94
401.062	522.94
401.286	536.94
401.51	530.94
401.734	515.94
401.958	525.94
402.182	512.94
402.406	538.94
402.63	530.94
402.854	519.94
403.078	534.94
403.302	516.94
403.526	531.94
403.75	551.94
403.974	538.94
404.198	540.94
404.422	550.94
404.645	537.94
404.869	549.94
405.093	544.94
405.317	589.94
405.541	603.94
405.765	593.94
405.988	569.94
406.212	569.94
406.436	579.94
406.66	586.94
406.883	558.94
407.107	591.94
407.331	645.94
407.555	703.94
407.778	706.94
408.002	659.94
408.226	603.94
408.449	617.94
408.673	602.94
408.896	601.94
409.12	642.94
409.344	616.94
409.567	563.94
409.791	570.94
410.014	537.94
410.238	522.94
410.461	541.94
410.685	535.94
410.908	542.94
411.132	565.94
411.355	603.94
411.578	576.94
411.802	544.94
412.025	531.94
412.249	554.94
412.472	572.94
412.695	595.94
412.919	557.94
413.142	543.94
413.365	525.94
413.589	540.94
413.812	523.94
414.035	535.94
414.258	529.94
414.482	515.94
414.705	517.94
414.928	527.94
415.151	498.94
415.374	509.94
415.597	512.94
415.821	515.94
416.044	520.94
416.267	494.94
416.49	520.94
416.713	503.94
416.936	514.94
417.159	487.94
417.382	507.94
417.605	513.94
417.828	532.94
418.051	525.94
418.274	543.94
418.497	523.94
418.72	520.94
418.943	510.94
419.166	530.94
419.389	570.94
419.611	558.94
419.834	539.94
420.057	521.94
420.28	523.94
420.503	519.94
420.726	534.94
420.948	537.94
421.171	568.94
421.394	596.94
421.617	554.94
421.839	526.94
422.062	536.94
422.285	534.94
422.507	606.94
422.73	698.94
422.953	701.94
423.175	583.94
423.398	550.94
423.621	540.94
423.843	546.94
424.066	561.94
424.288	556.94
424.511	553.94
424.733	618.94
424.956	705.94
425.178	683.94
425.401	662.94
425.623	682.94
425.846	602.94
426.068	571.94
426.291	540.94
426.513	544.94
426.735	546.94
426.958	589.94
427.18	679.94
427.402	777.94
427.625	865.94
427.847	725.94
428.069	627.94
428.292	588.94
428.514	562.94
428.736	507.94
428.958	537.94
429.181	525.94
429.403	490.94
429.625	525.94
429.847	543.94
430.069	599.94
430.292	612.94
430.514	532.94
430.736	518.94
430.958	526.94
431.18	495.94
431.402	491.94
431.624	471.94
431.846	507.94
432.068	514.94
432.29	505.94
432.512	513.94
432.734	512.94
432.956	513.94
433.178	498.94
433.4	519.94
433.622	505.94
433.844	505.94
434.066	490.94
434.287	501.94
434.509	513.94
434.731	515.94
434.953	512.94
435.175	539.94
435.397	573.94
435.618	561.94
435.84	578.94
436.062	666.94
436.284	761.94
436.505	637.94
436.727	562.94
436.949	535.94
437.17	519.94
437.392	521.94
437.614	524.94
437.835	549.94
438.057	655.94
438.278	716.94
438.5	718.94
438.721	813.94
438.943	763.94
439.165	630.94
439.386	566.94
439.608	565.94
439.829	566.94
440.05	589.94
440.272	609.94
440.493	574.94
440.715	532.94
440.936	527.94
441.158	508.94
441.379	532.94
441.6	538.94
441.822	550.94
442.043	590.94
442.264	654.94
442.486	722.94
442.707	607.94
442.928	567.94
443.149	554.94
443.371	577.94
443.592	621.94
443.813	712.94
444.034	778.94
444.255	651.94
444.476	594.94
444.698	579.94
444.919	579.94
445.14	649.94
445.361	626.94
445.582	583.94
445.803	686.94
446.024	730.94
446.245	736.94
446.466	673.94
446.687	578.94
446.908	551.94
447.129	511.94
447.35	515.94
447.571	515.94
447.792	488.94
448.013	497.94
448.234	527.94
448.455	571.94
448.675	672.94
448.896	777.94
449.117	645.94
449.338	630.94
449.559	735.94
449.779	829.94
450	653.94
450.221	562.94
450.442	523.94
450.662	502.94
450.883	497.94
451.104	513.94
451.324	485.94
451.545	474.94
451.766	474.94
451.986	460.94
452.207	459.94
452.428	457.94
452.648	465.94
452.869	471.94
453.089	446.94
453.31	470.94
453.53	470.94
453.751	461.94
453.971	457.94
454.192	467.94
454.412	470.94
454.633	457.94
454.853	425.94
455.073	438.94
455.294	480.94
455.514	531.94
455.734	524.94
455.955	453.94
456.175	453.94
456.395	436.94
456.616	434.94
456.836	446.94
457.056	443.94
457.276	445.94
457.497	437.94
457.717	448.94
457.937	440.94
458.157	448.94
458.377	458.94
458.598	469.94
458.818	501.94
459.038	586.94
459.258	618.94
459.478	527.94
459.698	494.94
459.918	501.94
460.138	503.94
460.358	516.94
460.578	506.94
460.798	532.94
461.018	532.94
461.238	522.94
461.458	513.94
461.678	514.94
461.898	517.94
462.118	551.94
462.338	541.94
462.558	548.94
462.777	548.94
462.997	569.94
463.217	602.94
463.437	597.94
463.657	559.94
463.876	567.94
464.096	552.94
464.316	553.94
464.536	565.94
464.755	572.94
464.975	567.94
465.195	567.94
465.414	615.94
465.634	571.94
465.854	553.94
466.073	503.94
466.293	508.94
466.512	505.94
466.732	485.94
466.951	483.94
467.171	492.94
467.391	493.94
467.61	504.94
467.829	518.94
468.049	507.94
468.268	506.94
468.488	485.94
468.707	505.94
468.927	477.94
469.146	476.94
469.365	464.94
469.585	476.94
469.804	471.94
470.023	489.94
470.243	487.94
470.462	521.94
470.681	472.94
470.901	499.94
471.12	497.94
471.339	497.94
471.558	484.94
471.777	484.94
471.997	469.94
472.216	483.94
472.435	503.94
472.654	505.94
472.873	482.94
473.092	495.94
473.311	490.94
473.53	486.94
473.749	505.94
473.968	527.94
474.187	599.94
474.406	616.94
474.625	521.94
474.844	510.94
475.063	486.94
475.282	492.94
475.501	500.94
475.72	507.94
475.939	491.94
476.158	499.94
476.377	508.94
476.596	493.94
476.814	533.94
477.033	518.94
477.252	548.94
477.471	555.94
477.69	534.94
477.908	535.94
478.127	547.94
478.346	570.94
478.564	564.94
478.783	586.94
479.002	562.94
479.22	565.94
479.439	583.94
479.658	595.94
479.876	600.94
480.095	610.94
480.313	602.94
480.532	627.94
480.751	630.94
480.969	634.94
481.188	646.94
481.406	654.94
481.624	618.94
481.843	618.94
482.061	575.94
482.28	575.94
482.498	594.94
482.717	600.94
482.935	584.94
483.153	609.94
483.372	577.94
483.59	599.94
483.808	565.94
484.027	578.94
484.245	588.94
484.463	573.94
484.681	578.94
484.9	608.94
485.118	605.94
485.336	609.94
485.554	601.94
485.772	621.94
485.99	610.94
486.209	615.94
486.427	616.94
486.645	623.94
486.863	619.94
487.081	640.94
487.299	636.94
487.517	627.94
487.735	630.94
487.953	604.94
488.171	607.94
488.389	616.94
488.607	612.94
488.825	635.94
489.043	601.94
489.261	636.94
489.479	606.94
489.696	641.94
489.914	637.94
490.132	625.94
490.35	665.94
490.568	657.94
490.786	649.94
491.003	660.94
491.221	691.94
491.439	693.94
491.657	691.94
491.874	689.94
492.092	682.94
492.31	694.94
492.527	698.94
492.745	711.94
492.963	716.94
493.18	718.94
493.398	700.94
493.615	707.94
493.833	701.94
494.05	722.94
494.268	709.94
494.485	701.94
494.703	702.94
494.92	733.94
495.138	709.94
495.355	711.94
495.573	724.94
495.79	723.94
496.008	714.94
496.225	742.94
496.442	729.94
496.66	759.94
496.877	715.94
497.094	736.94
497.312	748.94
497.529	762.94
497.746	771.94
497.963	797.94
498.181	787.94
498.398	809.94
498.615	848.94
498.832	869.94
499.049	868.94
499.267	897.94
499.484	927.94
499.701	962.94
499.918	969.94
500.135	1043.94
500.352	1084.94
500.569	1131.94
500.786	1101.94
501.003	1113.94
501.22	1052.94
501.437	997.94
501.654	981.94
501.871	946.94
