Data from 1966.PennyLincolnUp.Lamp.En5.5.200Scan.071719.P1._HRD10591_14-12-31-913.txt Node
Date: Thu Jul 18 14:12:31 EDT 2019
User: cochatt
Spectrometer: HR+D1059
Trigger mode: 1
Integration Time (sec): 1.000000E-1
Scans to average: 1
Electric dark correction enabled: true
Nonlinearity correction enabled: false
Boxcar width: 0
XAxis mode: Wavelengths
Number of Pixels in Spectrum: 2048
>>>>>Begin Spectral Data<<<<<
223.165	-11.62
223.4	-11.62
223.635	-11.62
223.869	-17.62
224.104	-5.62
224.338	-21.62
224.573	-10.62
224.808	-23.62
225.042	-14.62
225.277	-9.62
225.511	7.38
225.746	3.38
225.98	6.38
226.215	14.38
226.449	8.38
226.683	20.38
226.918	22.38
227.152	32.38
227.387	23.38
227.621	41.38
227.856	31.38
228.09	43.38
228.324	41.38
228.559	46.38
228.793	61.38
229.027	71.38
229.262	82.38
229.496	76.38
229.73	91.38
229.964	108.38
230.199	89.38
230.433	83.38
230.667	91.38
230.901	90.38
231.136	84.38
231.37	71.38
231.604	90.38
231.838	81.38
232.072	79.38
232.306	93.38
232.541	89.38
232.775	93.38
233.009	92.38
233.243	79.38
233.477	96.38
233.711	76.38
233.945	86.38
234.179	99.38
234.413	98.38
234.647	92.38
234.881	95.38
235.115	91.38
235.349	101.38
235.583	87.38
235.817	93.38
236.051	82.38
236.285	87.38
236.519	110.38
236.753	93.38
236.987	92.38
237.221	131.38
237.455	118.38
237.689	112.38
237.922	93.38
238.156	104.38
238.39	89.38
238.624	102.38
238.858	85.38
239.091	92.38
239.325	77.38
239.559	97.38
239.793	92.38
240.027	108.38
240.26	92.38
240.494	103.38
240.728	92.38
240.961	95.38
241.195	96.38
241.429	102.38
241.662	98.38
241.896	106.38
242.13	100.38
242.363	81.38
242.597	88.38
242.83	98.38
243.064	93.38
243.298	101.38
243.531	95.38
243.765	104.38
243.998	103.38
244.232	109.38
244.465	103.38
244.699	92.38
244.932	102.38
245.166	90.38
245.399	97.38
245.633	97.38
245.866	99.38
246.099	97.38
246.333	98.38
246.566	93.38
246.8	106.38
247.033	109.38
247.266	114.38
247.5	112.38
247.733	108.38
247.966	117.38
248.2	115.38
248.433	117.38
248.666	117.38
248.899	114.38
249.133	119.38
249.366	132.38
249.599	133.38
249.832	129.38
250.066	119.38
250.299	103.38
250.532	117.38
250.765	115.38
250.998	134.38
251.231	129.38
251.465	127.38
251.698	118.38
251.931	126.38
252.164	113.38
252.397	109.38
252.63	113.38
252.863	118.38
253.096	121.38
253.329	125.38
253.562	117.38
253.795	125.38
254.028	122.38
254.261	130.38
254.494	141.38
254.727	155.38
254.96	144.38
255.193	131.38
255.426	153.38
255.659	137.38
255.892	125.38
256.124	133.38
256.357	121.38
256.59	125.38
256.823	126.38
257.056	122.38
257.289	125.38
257.521	129.38
257.754	125.38
257.987	101.38
258.22	121.38
258.452	114.38
258.685	123.38
258.918	118.38
259.151	117.38
259.383	124.38
259.616	134.38
259.849	135.38
260.081	147.38
260.314	142.38
260.547	135.38
260.779	139.38
261.012	122.38
261.244	137.38
261.477	124.38
261.71	134.38
261.942	134.38
262.175	131.38
262.407	123.38
262.64	129.38
262.872	130.38
263.105	122.38
263.337	118.38
263.57	110.38
263.802	112.38
264.035	117.38
264.267	129.38
264.499	131.38
264.732	134.38
264.964	129.38
265.197	122.38
265.429	130.38
265.661	120.38
265.894	117.38
266.126	125.38
266.358	121.38
266.591	129.38
266.823	142.38
267.055	138.38
267.287	120.38
267.52	133.38
267.752	138.38
267.984	131.38
268.216	131.38
268.448	142.38
268.681	118.38
268.913	130.38
269.145	150.38
269.377	146.38
269.609	142.38
269.841	155.38
270.073	155.38
270.306	160.38
270.538	149.38
270.77	152.38
271.002	153.38
271.234	143.38
271.466	152.38
271.698	162.38
271.93	155.38
272.162	169.38
272.394	173.38
272.626	168.38
272.858	168.38
273.09	141.38
273.322	149.38
273.553	145.38
273.785	150.38
274.017	151.38
274.249	156.38
274.481	152.38
274.713	140.38
274.945	144.38
275.176	127.38
275.408	147.38
275.64	131.38
275.872	139.38
276.104	150.38
276.335	134.38
276.567	133.38
276.799	160.38
277.031	161.38
277.262	170.38
277.494	162.38
277.726	145.38
277.957	137.38
278.189	144.38
278.421	142.38
278.652	146.38
278.884	143.38
279.115	126.38
279.347	122.38
279.579	146.38
279.81	153.38
280.042	153.38
280.273	131.38
280.505	148.38
280.736	130.38
280.968	131.38
281.199	152.38
281.431	157.38
281.662	156.38
281.894	155.38
282.125	149.38
282.356	154.38
282.588	166.38
282.819	151.38
283.051	142.38
283.282	159.38
283.513	151.38
283.745	142.38
283.976	155.38
284.207	166.38
284.439	157.38
284.67	153.38
284.901	121.38
285.132	152.38
285.364	154.38
285.595	152.38
285.826	142.38
286.057	143.38
286.288	141.38
286.52	153.38
286.751	143.38
286.982	155.38
287.213	153.38
287.444	149.38
287.675	141.38
287.906	146.38
288.138	155.38
288.369	154.38
288.6	150.38
288.831	147.38
289.062	157.38
289.293	167.38
289.524	146.38
289.755	148.38
289.986	143.38
290.217	147.38
290.448	159.38
290.679	147.38
290.91	146.38
291.141	154.38
291.371	150.38
291.602	147.38
291.833	137.38
292.064	142.38
292.295	143.38
292.526	137.38
292.757	155.38
292.987	170.38
293.218	159.38
293.449	152.38
293.68	161.38
293.91	150.38
294.141	157.38
294.372	154.38
294.603	154.38
294.833	158.38
295.064	151.38
295.295	154.38
295.525	159.38
295.756	153.38
295.987	144.38
296.217	165.38
296.448	155.38
296.679	145.38
296.909	152.38
297.14	152.38
297.37	149.38
297.601	139.38
297.831	142.38
298.062	148.38
298.292	141.38
298.523	157.38
298.753	164.38
298.984	151.38
299.214	161.38
299.445	156.38
299.675	174.38
299.905	154.38
300.136	167.38
300.366	153.38
300.597	173.38
300.827	163.38
301.057	162.38
301.288	162.38
301.518	164.38
301.748	154.38
301.979	168.38
302.209	155.38
302.439	165.38
302.669	161.38
302.9	173.38
303.13	136.38
303.36	171.38
303.59	160.38
303.82	162.38
304.051	174.38
304.281	155.38
304.511	165.38
304.741	155.38
304.971	170.38
305.201	169.38
305.431	173.38
305.661	151.38
305.891	159.38
306.121	167.38
306.352	173.38
306.582	179.38
306.812	175.38
307.042	166.38
307.272	182.38
307.502	160.38
307.731	177.38
307.961	185.38
308.191	170.38
308.421	167.38
308.651	153.38
308.881	167.38
309.111	177.38
309.341	179.38
309.571	174.38
309.8	167.38
310.03	175.38
310.26	181.38
310.49	185.38
310.72	197.38
310.949	196.38
311.179	184.38
311.409	173.38
311.639	187.38
311.868	189.38
312.098	181.38
312.328	182.38
312.557	197.38
312.787	197.38
313.017	198.38
313.246	201.38
313.476	188.38
313.706	190.38
313.935	184.38
314.165	185.38
314.394	188.38
314.624	177.38
314.853	205.38
315.083	180.38
315.312	173.38
315.542	175.38
315.771	170.38
316.001	179.38
316.23	167.38
316.46	180.38
316.689	181.38
316.919	186.38
317.148	183.38
317.377	194.38
317.607	190.38
317.836	193.38
318.065	196.38
318.295	182.38
318.524	185.38
318.753	194.38
318.983	185.38
319.212	176.38
319.441	185.38
319.67	188.38
319.9	173.38
320.129	184.38
320.358	169.38
320.587	168.38
320.816	181.38
321.046	214.38
321.275	193.38
321.504	186.38
321.733	190.38
321.962	194.38
322.191	210.38
322.42	187.38
322.649	207.38
322.878	205.38
323.108	214.38
323.337	213.38
323.566	245.38
323.795	232.38
324.024	250.38
324.253	302.38
324.482	420.38
324.71	616.38
324.939	861.38
325.168	670.38
325.397	346.38
325.626	251.38
325.855	215.38
326.084	199.38
326.313	218.38
326.542	243.38
326.77	254.38
326.999	290.38
327.228	385.38
327.457	567.38
327.686	643.38
327.914	413.38
328.143	305.38
328.372	285.38
328.6	265.38
328.829	254.38
329.058	266.38
329.287	261.38
329.515	227.38
329.744	230.38
329.972	236.38
330.201	234.38
330.43	271.38
330.658	278.38
330.887	293.38
331.115	281.38
331.344	239.38
331.572	215.38
331.801	226.38
332.03	217.38
332.258	215.38
332.486	200.38
332.715	211.38
332.943	221.38
333.172	215.38
333.4	199.38
333.629	206.38
333.857	228.38
334.085	234.38
334.314	234.38
334.542	244.38
334.771	265.38
334.999	228.38
335.227	215.38
335.455	228.38
335.684	222.38
335.912	208.38
336.14	199.38
336.369	183.38
336.597	211.38
336.825	230.38
337.053	207.38
337.281	208.38
337.51	210.38
337.738	212.38
337.966	197.38
338.194	206.38
338.422	203.38
338.65	209.38
338.878	201.38
339.106	198.38
339.334	208.38
339.562	189.38
339.79	189.38
340.018	199.38
340.246	213.38
340.474	195.38
340.702	196.38
340.93	198.38
341.158	201.38
341.386	203.38
341.614	180.38
341.842	207.38
342.07	198.38
342.298	182.38
342.526	202.38
342.754	195.38
342.981	190.38
343.209	194.38
343.437	194.38
343.665	198.38
343.893	192.38
344.12	204.38
344.348	195.38
344.576	198.38
344.804	202.38
345.031	203.38
345.259	206.38
345.487	212.38
345.714	195.38
345.942	198.38
346.17	181.38
346.397	195.38
346.625	204.38
346.853	182.38
347.08	188.38
347.308	205.38
347.535	194.38
347.763	191.38
347.99	189.38
348.218	190.38
348.445	200.38
348.673	195.38
348.9	213.38
349.128	197.38
349.355	192.38
349.583	187.38
349.81	174.38
350.037	189.38
350.265	177.38
350.492	187.38
350.72	178.38
350.947	203.38
351.174	195.38
351.402	204.38
351.629	202.38
351.856	179.38
352.083	205.38
352.311	205.38
352.538	200.38
352.765	204.38
352.992	209.38
353.22	198.38
353.447	181.38
353.674	185.38
353.901	196.38
354.128	189.38
354.355	174.38
354.583	187.38
354.81	189.38
355.037	184.38
355.264	202.38
355.491	183.38
355.718	181.38
355.945	198.38
356.172	169.38
356.399	177.38
356.626	172.38
356.853	179.38
357.08	204.38
357.307	186.38
357.534	174.38
357.761	186.38
357.988	181.38
358.215	188.38
358.441	166.38
358.668	200.38
358.895	171.38
359.122	182.38
359.349	182.38
359.576	206.38
359.802	200.38
360.029	222.38
360.256	221.38
360.483	211.38
360.709	199.38
360.936	197.38
361.163	183.38
361.39	219.38
361.616	201.38
361.843	190.38
362.07	170.38
362.296	213.38
362.523	186.38
362.749	197.38
362.976	194.38
363.203	183.38
363.429	184.38
363.656	179.38
363.882	195.38
364.109	178.38
364.335	186.38
364.562	181.38
364.788	181.38
365.015	197.38
365.241	197.38
365.468	183.38
365.694	189.38
365.92	195.38
366.147	195.38
366.373	170.38
366.599	185.38
366.826	175.38
367.052	190.38
367.278	182.38
367.505	182.38
367.731	191.38
367.957	195.38
368.184	198.38
368.41	189.38
368.636	194.38
368.862	194.38
369.089	197.38
369.315	189.38
369.541	184.38
369.767	175.38
369.993	189.38
370.219	199.38
370.445	185.38
370.672	184.38
370.898	190.38
371.124	174.38
371.35	188.38
371.576	165.38
371.802	174.38
372.028	192.38
372.254	202.38
372.48	188.38
372.706	181.38
372.932	190.38
373.158	186.38
373.384	191.38
373.61	188.38
373.835	177.38
374.061	191.38
374.287	194.38
374.513	196.38
374.739	194.38
374.965	182.38
375.191	193.38
375.416	187.38
375.642	194.38
375.868	182.38
376.094	187.38
376.319	195.38
376.545	206.38
376.771	180.38
376.997	182.38
377.222	185.38
377.448	173.38
377.674	168.38
377.899	182.38
378.125	189.38
378.35	185.38
378.576	187.38
378.802	186.38
379.027	188.38
379.253	184.38
379.478	206.38
379.704	195.38
379.929	191.38
380.155	184.38
380.38	198.38
380.606	189.38
380.831	197.38
381.057	188.38
381.282	195.38
381.507	185.38
381.733	206.38
381.958	181.38
382.184	188.38
382.409	174.38
382.634	179.38
382.86	184.38
383.085	199.38
383.31	192.38
383.535	183.38
383.761	184.38
383.986	189.38
384.211	182.38
384.436	195.38
384.662	207.38
384.887	194.38
385.112	197.38
385.337	209.38
385.562	204.38
385.787	197.38
386.013	207.38
386.238	218.38
386.463	202.38
386.688	205.38
386.913	191.38
387.138	197.38
387.363	206.38
387.588	216.38
387.813	212.38
388.038	180.38
388.263	190.38
388.488	199.38
388.713	195.38
388.938	201.38
389.163	200.38
389.387	202.38
389.612	203.38
389.837	199.38
390.062	191.38
390.287	199.38
390.512	182.38
390.736	196.38
390.961	220.38
391.186	195.38
391.411	194.38
391.636	207.38
391.86	206.38
392.085	222.38
392.31	203.38
392.534	205.38
392.759	211.38
392.984	205.38
393.208	209.38
393.433	215.38
393.658	213.38
393.882	207.38
394.107	190.38
394.331	186.38
394.556	198.38
394.78	197.38
395.005	218.38
395.229	207.38
395.454	206.38
395.678	198.38
395.903	211.38
396.127	212.38
396.352	211.38
396.576	221.38
396.801	212.38
397.025	201.38
397.249	226.38
397.474	208.38
397.698	211.38
397.922	230.38
398.147	229.38
398.371	231.38
398.595	218.38
398.82	218.38
399.044	232.38
399.268	221.38
399.492	250.38
399.717	255.38
399.941	255.38
400.165	276.38
400.389	265.38
400.613	236.38
400.837	225.38
401.062	211.38
401.286	223.38
401.51	239.38
401.734	215.38
401.958	216.38
402.182	224.38
402.406	233.38
402.63	238.38
402.854	228.38
403.078	232.38
403.302	235.38
403.526	232.38
403.75	251.38
403.974	229.38
404.198	219.38
404.422	237.38
404.645	245.38
404.869	230.38
405.093	253.38
405.317	263.38
405.541	270.38
405.765	235.38
405.988	233.38
406.212	254.38
406.436	270.38
406.66	269.38
406.883	245.38
407.107	260.38
407.331	284.38
407.555	287.38
407.778	284.38
408.002	268.38
408.226	263.38
408.449	241.38
408.673	249.38
408.896	246.38
409.12	279.38
409.344	235.38
409.567	236.38
409.791	237.38
410.014	225.38
410.238	235.38
410.461	243.38
410.685	230.38
410.908	229.38
411.132	251.38
411.355	266.38
411.578	258.38
411.802	227.38
412.025	249.38
412.249	234.38
412.472	239.38
412.695	259.38
412.919	257.38
413.142	232.38
413.365	238.38
413.589	224.38
413.812	230.38
414.035	234.38
414.258	206.38
414.482	222.38
414.705	228.38
414.928	230.38
415.151	234.38
415.374	233.38
415.597	228.38
415.821	229.38
416.044	234.38
416.267	222.38
416.49	219.38
416.713	227.38
416.936	226.38
417.159	229.38
417.382	229.38
417.605	238.38
417.828	231.38
418.051	231.38
418.274	245.38
418.497	228.38
418.72	226.38
418.943	220.38
419.166	245.38
419.389	230.38
419.611	243.38
419.834	234.38
420.057	231.38
420.28	225.38
420.503	233.38
420.726	223.38
420.948	226.38
421.171	237.38
421.394	241.38
421.617	223.38
421.839	234.38
422.062	233.38
422.285	243.38
422.507	254.38
422.73	277.38
422.953	283.38
423.175	251.38
423.398	249.38
423.621	243.38
423.843	248.38
424.066	227.38
424.288	237.38
424.511	249.38
424.733	279.38
424.956	326.38
425.178	289.38
425.401	290.38
425.623	294.38
425.846	254.38
426.068	239.38
426.291	250.38
426.513	249.38
426.735	242.38
426.958	271.38
427.18	300.38
427.402	332.38
427.625	349.38
427.847	323.38
428.069	281.38
428.292	262.38
428.514	238.38
428.736	243.38
428.958	225.38
429.181	233.38
429.403	231.38
429.625	228.38
429.847	237.38
430.069	274.38
430.292	262.38
430.514	228.38
430.736	237.38
430.958	226.38
431.18	226.38
431.402	218.38
431.624	235.38
431.846	232.38
432.068	228.38
432.29	219.38
432.512	214.38
432.734	213.38
432.956	224.38
433.178	222.38
433.4	235.38
433.622	231.38
433.844	205.38
434.066	217.38
434.287	217.38
434.509	227.38
434.731	228.38
434.953	232.38
435.175	237.38
435.397	255.38
435.618	241.38
435.84	278.38
436.062	299.38
436.284	307.38
436.505	237.38
436.727	241.38
436.949	216.38
437.17	215.38
437.392	224.38
437.614	218.38
437.835	233.38
438.057	291.38
438.278	307.38
438.5	323.38
438.721	339.38
438.943	322.38
439.165	263.38
439.386	245.38
439.608	247.38
439.829	234.38
440.05	271.38
440.272	260.38
440.493	257.38
440.715	247.38
440.936	245.38
441.158	233.38
441.379	224.38
441.6	239.38
441.822	234.38
442.043	287.38
442.264	308.38
442.486	319.38
442.707	269.38
442.928	254.38
443.149	259.38
443.371	289.38
443.592	280.38
443.813	303.38
444.034	325.38
444.255	279.38
444.476	257.38
444.698	267.38
444.919	250.38
445.14	342.38
445.361	277.38
445.582	262.38
445.803	272.38
446.024	326.38
446.245	333.38
446.466	284.38
446.687	248.38
446.908	242.38
447.129	220.38
447.35	218.38
447.571	225.38
447.792	216.38
448.013	206.38
448.234	247.38
448.455	244.38
448.675	301.38
448.896	337.38
449.117	293.38
449.338	279.38
449.559	333.38
449.779	340.38
450	271.38
450.221	236.38
450.442	210.38
450.662	223.38
450.883	244.38
451.104	246.38
451.324	231.38
451.545	226.38
451.766	212.38
451.986	207.38
452.207	223.38
452.428	219.38
452.648	225.38
452.869	199.38
453.089	214.38
453.31	206.38
453.53	201.38
453.751	207.38
453.971	203.38
454.192	206.38
454.412	205.38
454.633	199.38
454.853	213.38
455.073	217.38
455.294	232.38
455.514	235.38
455.734	242.38
455.955	221.38
456.175	219.38
456.395	199.38
456.616	193.38
456.836	210.38
457.056	202.38
457.276	193.38
457.497	202.38
457.717	189.38
457.937	195.38
458.157	208.38
458.377	195.38
458.598	215.38
458.818	244.38
459.038	281.38
459.258	277.38
459.478	241.38
459.698	216.38
459.918	214.38
460.138	223.38
460.358	208.38
460.578	234.38
460.798	223.38
461.018	214.38
461.238	216.38
461.458	219.38
461.678	230.38
461.898	214.38
462.118	228.38
462.338	223.38
462.558	209.38
462.777	233.38
462.997	221.38
463.217	242.38
463.437	237.38
463.657	228.38
463.876	234.38
464.096	241.38
464.316	228.38
464.536	209.38
464.755	225.38
464.975	240.38
465.195	246.38
465.414	302.38
465.634	253.38
465.854	233.38
466.073	224.38
466.293	220.38
466.512	214.38
466.732	221.38
466.951	212.38
467.171	210.38
467.391	215.38
467.61	215.38
467.829	236.38
468.049	229.38
468.268	235.38
468.488	204.38
468.707	207.38
468.927	215.38
469.146	207.38
469.365	203.38
469.585	204.38
469.804	205.38
470.023	201.38
470.243	205.38
470.462	219.38
470.681	234.38
470.901	228.38
471.12	231.38
471.339	219.38
471.558	195.38
471.777	211.38
471.997	215.38
472.216	223.38
472.435	233.38
472.654	228.38
472.873	209.38
473.092	213.38
473.311	211.38
473.53	199.38
473.749	207.38
473.968	236.38
474.187	291.38
474.406	280.38
474.625	249.38
474.844	233.38
475.063	216.38
475.282	224.38
475.501	209.38
475.72	231.38
475.939	216.38
476.158	206.38
476.377	214.38
476.596	214.38
476.814	223.38
477.033	231.38
477.252	228.38
477.471	233.38
477.69	220.38
477.908	217.38
478.127	220.38
478.346	218.38
478.564	242.38
478.783	235.38
479.002	245.38
479.22	233.38
479.439	239.38
479.658	260.38
479.876	267.38
480.095	248.38
480.313	253.38
480.532	270.38
480.751	262.38
480.969	269.38
481.188	299.38
481.406	324.38
481.624	278.38
481.843	250.38
482.061	253.38
482.28	251.38
482.498	238.38
482.717	231.38
482.935	257.38
483.153	220.38
483.372	239.38
483.59	250.38
483.808	259.38
484.027	251.38
484.245	253.38
484.463	242.38
484.681	241.38
484.9	247.38
485.118	259.38
485.336	245.38
485.554	246.38
485.772	250.38
485.99	265.38
486.209	249.38
486.427	263.38
486.645	243.38
486.863	275.38
487.081	270.38
487.299	272.38
487.517	259.38
487.735	256.38
487.953	250.38
488.171	257.38
488.389	251.38
488.607	250.38
488.825	250.38
489.043	260.38
489.261	266.38
489.479	255.38
489.696	270.38
489.914	276.38
490.132	266.38
490.35	279.38
490.568	276.38
490.786	280.38
491.003	277.38
491.221	294.38
491.439	294.38
491.657	306.38
491.874	300.38
492.092	295.38
492.31	311.38
492.527	303.38
492.745	309.38
492.963	296.38
493.18	303.38
493.398	305.38
493.615	323.38
493.833	312.38
494.05	318.38
494.268	326.38
494.485	311.38
494.703	291.38
494.92	323.38
495.138	323.38
495.355	297.38
495.573	318.38
495.79	318.38
496.008	306.38
496.225	285.38
496.442	292.38
496.66	309.38
496.877	295.38
497.094	297.38
497.312	321.38
497.529	326.38
497.746	318.38
497.963	313.38
498.181	307.38
498.398	326.38
498.615	341.38
498.832	334.38
499.049	322.38
499.267	342.38
499.484	336.38
499.701	340.38
499.918	374.38
500.135	366.38
500.352	398.38
500.569	415.38
500.786	381.38
501.003	397.38
501.22	390.38
501.437	383.38
501.654	371.38
501.871	382.38
502.088	344.38
502.305	325.38
502.522	326.38
502.739	324.38
