Data from 1966.PennyLincolnUp.Lamp.En5.5.200Scan.071719.P1.Scan2.head_HRD10591_14-17-55-146.txt Node
Date: Thu Jul 18 14:17:55 EDT 2019
User: cochatt
Spectrometer: HR+D1059
Trigger mode: 1
Integration Time (sec): 1.000000E-1
Scans to average: 1
Electric dark correction enabled: true
Nonlinearity correction enabled: false
Boxcar width: 0
XAxis mode: Wavelengths
Number of Pixels in Spectrum: 2048
>>>>>Begin Spectral Data<<<<<
223.165	-3.88
223.4	-3.88
223.635	-3.88
223.869	-17.88
224.104	-28.88
224.338	-13.88
224.573	-28.88
224.808	-2.88
225.042	-7.88
225.277	-6.88
225.511	0.12
225.746	13.12
225.98	12.12
226.215	7.12
226.449	11.12
226.683	17.12
226.918	19.12
227.152	31.12
227.387	33.12
227.621	36.12
227.856	44.12
228.09	53.12
228.324	47.12
228.559	59.12
228.793	64.12
229.027	112.12
229.262	101.12
229.496	122.12
229.73	143.12
229.964	165.12
230.199	128.12
230.433	115.12
230.667	103.12
230.901	120.12
231.136	129.12
231.37	112.12
231.604	109.12
231.838	113.12
232.072	120.12
232.306	113.12
232.541	103.12
232.775	112.12
233.009	121.12
233.243	105.12
233.477	107.12
233.711	113.12
233.945	126.12
234.179	125.12
234.413	123.12
234.647	128.12
234.881	135.12
235.115	113.12
235.349	124.12
235.583	124.12
235.817	111.12
236.051	132.12
236.285	136.12
236.519	122.12
236.753	137.12
236.987	150.12
237.221	193.12
237.455	242.12
237.689	196.12
237.922	141.12
238.156	145.12
238.39	133.12
238.624	134.12
238.858	133.12
239.091	122.12
239.325	129.12
239.559	132.12
239.793	133.12
240.027	130.12
240.26	147.12
240.494	142.12
240.728	153.12
240.961	135.12
241.195	136.12
241.429	129.12
241.662	135.12
241.896	134.12
242.13	161.12
242.363	130.12
242.597	145.12
242.83	154.12
243.064	136.12
243.298	136.12
243.531	138.12
243.765	143.12
243.998	145.12
244.232	139.12
244.465	146.12
244.699	146.12
244.932	148.12
245.166	150.12
245.399	155.12
245.633	167.12
245.866	149.12
246.099	155.12
246.333	169.12
246.566	159.12
246.8	155.12
247.033	157.12
247.266	150.12
247.5	175.12
247.733	171.12
247.966	180.12
248.2	178.12
248.433	169.12
248.666	186.12
248.899	195.12
249.133	203.12
249.366	223.12
249.599	217.12
249.832	180.12
250.066	184.12
250.299	196.12
250.532	194.12
250.765	207.12
250.998	223.12
251.231	226.12
251.465	220.12
251.698	206.12
251.931	208.12
252.164	205.12
252.397	209.12
252.63	210.12
252.863	223.12
253.096	232.12
253.329	237.12
253.562	223.12
253.795	236.12
254.028	208.12
254.261	217.12
254.494	232.12
254.727	256.12
254.96	292.12
255.193	272.12
255.426	242.12
255.659	229.12
255.892	234.12
256.124	224.12
256.357	228.12
256.59	204.12
256.823	216.12
257.056	211.12
257.289	199.12
257.521	213.12
257.754	210.12
257.987	199.12
258.22	223.12
258.452	225.12
258.685	201.12
258.918	211.12
259.151	220.12
259.383	216.12
259.616	232.12
259.849	227.12
260.081	242.12
260.314	269.12
260.547	268.12
260.779	232.12
261.012	221.12
261.244	224.12
261.477	243.12
261.71	218.12
261.942	213.12
262.175	236.12
262.407	236.12
262.64	240.12
262.872	235.12
263.105	223.12
263.337	214.12
263.57	207.12
263.802	240.12
264.035	213.12
264.267	216.12
264.499	218.12
264.732	220.12
264.964	228.12
265.197	214.12
265.429	222.12
265.661	213.12
265.894	218.12
266.126	209.12
266.358	218.12
266.591	225.12
266.823	224.12
267.055	249.12
267.287	227.12
267.52	231.12
267.752	251.12
267.984	243.12
268.216	228.12
268.448	242.12
268.681	245.12
268.913	252.12
269.145	265.12
269.377	281.12
269.609	267.12
269.841	284.12
270.073	265.12
270.306	287.12
270.538	308.12
270.77	304.12
271.002	297.12
271.234	303.12
271.466	322.12
271.698	316.12
271.93	311.12
272.162	319.12
272.394	325.12
272.626	291.12
272.858	293.12
273.09	284.12
273.322	263.12
273.553	271.12
273.785	271.12
274.017	275.12
274.249	267.12
274.481	286.12
274.713	264.12
274.945	290.12
275.176	293.12
275.408	282.12
275.64	271.12
275.872	267.12
276.104	296.12
276.335	274.12
276.567	285.12
276.799	281.12
277.031	312.12
277.262	322.12
277.494	333.12
277.726	307.12
277.957	293.12
278.189	268.12
278.421	281.12
278.652	281.12
278.884	277.12
279.115	296.12
279.347	283.12
279.579	275.12
279.81	278.12
280.042	270.12
280.273	285.12
280.505	291.12
280.736	282.12
280.968	275.12
281.199	274.12
281.431	265.12
281.662	269.12
281.894	281.12
282.125	284.12
282.356	291.12
282.588	293.12
282.819	302.12
283.051	285.12
283.282	286.12
283.513	288.12
283.745	283.12
283.976	265.12
284.207	299.12
284.439	281.12
284.67	272.12
284.901	292.12
285.132	295.12
285.364	308.12
285.595	277.12
285.826	294.12
286.057	295.12
286.288	287.12
286.52	291.12
286.751	288.12
286.982	295.12
287.213	286.12
287.444	306.12
287.675	299.12
287.906	295.12
288.138	306.12
288.369	289.12
288.6	308.12
288.831	299.12
289.062	296.12
289.293	297.12
289.524	301.12
289.755	301.12
289.986	302.12
290.217	299.12
290.448	287.12
290.679	295.12
290.91	307.12
291.141	279.12
291.371	307.12
291.602	311.12
291.833	297.12
292.064	305.12
292.295	298.12
292.526	303.12
292.757	296.12
292.987	300.12
293.218	296.12
293.449	291.12
293.68	291.12
293.91	288.12
294.141	307.12
294.372	312.12
294.603	322.12
294.833	304.12
295.064	291.12
295.295	294.12
295.525	303.12
295.756	312.12
295.987	322.12
296.217	350.12
296.448	341.12
296.679	326.12
296.909	314.12
297.14	300.12
297.37	315.12
297.601	319.12
297.831	331.12
298.062	322.12
298.292	319.12
298.523	323.12
298.753	305.12
298.984	320.12
299.214	317.12
299.445	320.12
299.675	331.12
299.905	336.12
300.136	334.12
300.366	301.12
300.597	324.12
300.827	317.12
301.057	328.12
301.288	353.12
301.518	341.12
301.748	341.12
301.979	343.12
302.209	348.12
302.439	339.12
302.669	332.12
302.9	342.12
303.13	328.12
303.36	341.12
303.59	348.12
303.82	359.12
304.051	361.12
304.281	343.12
304.511	306.12
304.741	340.12
304.971	339.12
305.201	340.12
305.431	318.12
305.661	305.12
305.891	350.12
306.121	352.12
306.352	331.12
306.582	357.12
306.812	350.12
307.042	336.12
307.272	333.12
307.502	336.12
307.731	362.12
307.961	331.12
308.191	357.12
308.421	327.12
308.651	333.12
308.881	347.12
309.111	346.12
309.341	351.12
309.571	350.12
309.8	366.12
310.03	380.12
310.26	376.12
310.49	366.12
310.72	401.12
310.949	393.12
311.179	392.12
311.409	381.12
311.639	369.12
311.868	372.12
312.098	395.12
312.328	381.12
312.557	409.12
312.787	413.12
313.017	419.12
313.246	401.12
313.476	355.12
313.706	377.12
313.935	389.12
314.165	416.12
314.394	421.12
314.624	428.12
314.853	380.12
315.083	395.12
315.312	381.12
315.542	370.12
315.771	371.12
316.001	385.12
316.23	377.12
316.46	382.12
316.689	369.12
316.919	385.12
317.148	411.12
317.377	413.12
317.607	386.12
317.836	374.12
318.065	385.12
318.295	401.12
318.524	391.12
318.753	384.12
318.983	383.12
319.212	394.12
319.441	419.12
319.67	416.12
319.9	397.12
320.129	403.12
320.358	389.12
320.587	366.12
320.816	403.12
321.046	425.12
321.275	426.12
321.504	408.12
321.733	420.12
321.962	409.12
322.191	426.12
322.42	434.12
322.649	444.12
322.878	455.12
323.108	462.12
323.337	508.12
323.566	508.12
323.795	512.12
324.024	588.12
324.253	652.12
324.482	934.12
324.71	1432.12
324.939	2151.12
325.168	1897.12
325.397	930.12
325.626	661.12
325.855	547.12
326.084	507.12
326.313	496.12
326.542	487.12
326.77	559.12
326.999	626.12
327.228	859.12
327.457	1294.12
327.686	1609.12
327.914	1101.12
328.143	681.12
328.372	609.12
328.6	572.12
328.829	571.12
329.058	588.12
329.287	579.12
329.515	557.12
329.744	523.12
329.972	508.12
330.201	542.12
330.43	588.12
330.658	595.12
330.887	634.12
331.115	588.12
331.344	531.12
331.572	487.12
331.801	500.12
332.03	511.12
332.258	488.12
332.486	475.12
332.715	478.12
332.943	460.12
333.172	482.12
333.4	473.12
333.629	483.12
333.857	517.12
334.085	511.12
334.314	522.12
334.542	545.12
334.771	571.12
334.999	528.12
335.227	496.12
335.455	496.12
335.684	485.12
335.912	464.12
336.14	480.12
336.369	478.12
336.597	458.12
336.825	464.12
337.053	459.12
337.281	459.12
337.51	469.12
337.738	466.12
337.966	448.12
338.194	465.12
338.422	465.12
338.65	475.12
338.878	471.12
339.106	436.12
339.334	456.12
339.562	452.12
339.79	459.12
340.018	455.12
340.246	465.12
340.474	460.12
340.702	457.12
340.93	441.12
341.158	418.12
341.386	442.12
341.614	466.12
341.842	468.12
342.07	452.12
342.298	435.12
342.526	447.12
342.754	450.12
342.981	450.12
343.209	445.12
343.437	449.12
343.665	452.12
343.893	451.12
344.12	471.12
344.348	452.12
344.576	472.12
344.804	472.12
345.031	463.12
345.259	454.12
345.487	443.12
345.714	427.12
345.942	469.12
346.17	445.12
346.397	443.12
346.625	443.12
346.853	437.12
347.08	434.12
347.308	441.12
347.535	439.12
347.763	461.12
347.99	449.12
348.218	451.12
348.445	457.12
348.673	450.12
348.9	446.12
349.128	421.12
349.355	428.12
349.583	415.12
349.81	445.12
350.037	421.12
350.265	425.12
350.492	447.12
350.72	442.12
350.947	433.12
351.174	429.12
351.402	444.12
351.629	449.12
351.856	469.12
352.083	469.12
352.311	466.12
352.538	492.12
352.765	451.12
352.992	442.12
353.22	460.12
353.447	429.12
353.674	447.12
353.901	423.12
354.128	397.12
354.355	405.12
354.583	432.12
354.81	414.12
355.037	437.12
355.264	433.12
355.491	424.12
355.718	419.12
355.945	397.12
356.172	414.12
356.399	411.12
356.626	417.12
356.853	422.12
357.08	422.12
357.307	396.12
357.534	426.12
357.761	411.12
357.988	399.12
358.215	415.12
358.441	428.12
358.668	411.12
358.895	395.12
359.122	439.12
359.349	404.12
359.576	441.12
359.802	464.12
360.029	500.12
360.256	519.12
360.483	491.12
360.709	460.12
360.936	433.12
361.163	436.12
361.39	442.12
361.616	448.12
361.843	451.12
362.07	454.12
362.296	446.12
362.523	463.12
362.749	450.12
362.976	426.12
363.203	420.12
363.429	422.12
363.656	429.12
363.882	439.12
364.109	418.12
364.335	428.12
364.562	412.12
364.788	439.12
365.015	426.12
365.241	411.12
365.468	439.12
365.694	431.12
365.92	441.12
366.147	435.12
366.373	432.12
366.599	431.12
366.826	428.12
367.052	433.12
367.278	431.12
367.505	442.12
367.731	441.12
367.957	430.12
368.184	418.12
368.41	426.12
368.636	453.12
368.862	469.12
369.089	452.12
369.315	425.12
369.541	437.12
369.767	434.12
369.993	447.12
370.219	425.12
370.445	428.12
370.672	414.12
370.898	419.12
371.124	452.12
371.35	448.12
371.576	451.12
371.802	428.12
372.028	445.12
372.254	452.12
372.48	441.12
372.706	411.12
372.932	453.12
373.158	443.12
373.384	444.12
373.61	435.12
373.835	443.12
374.061	441.12
374.287	449.12
374.513	443.12
374.739	459.12
374.965	446.12
375.191	434.12
375.416	452.12
375.642	449.12
375.868	430.12
376.094	451.12
376.319	458.12
376.545	450.12
376.771	419.12
376.997	439.12
377.222	443.12
377.448	434.12
377.674	440.12
377.899	447.12
378.125	442.12
378.35	433.12
378.576	446.12
378.802	445.12
379.027	443.12
379.253	439.12
379.478	455.12
379.704	435.12
379.929	427.12
380.155	427.12
380.38	429.12
380.606	455.12
380.831	439.12
381.057	433.12
381.282	439.12
381.507	421.12
381.733	469.12
381.958	446.12
382.184	439.12
382.409	453.12
382.634	470.12
382.86	451.12
383.085	432.12
383.31	472.12
383.535	427.12
383.761	481.12
383.986	465.12
384.211	478.12
384.436	480.12
384.662	472.12
384.887	467.12
385.112	465.12
385.337	482.12
385.562	487.12
385.787	492.12
386.013	495.12
386.238	490.12
386.463	504.12
386.688	493.12
386.913	451.12
387.138	490.12
387.363	479.12
387.588	476.12
387.813	499.12
388.038	488.12
388.263	499.12
388.488	496.12
388.713	478.12
388.938	479.12
389.163	508.12
389.387	499.12
389.612	494.12
389.837	484.12
390.062	489.12
390.287	513.12
390.512	495.12
390.736	487.12
390.961	468.12
391.186	482.12
391.411	485.12
391.636	495.12
391.86	502.12
392.085	512.12
392.31	515.12
392.534	496.12
392.759	525.12
392.984	508.12
393.208	499.12
393.433	499.12
393.658	514.12
393.882	496.12
394.107	512.12
394.331	499.12
394.556	489.12
394.78	495.12
395.005	489.12
395.229	522.12
395.454	519.12
395.678	525.12
395.903	539.12
396.127	557.12
396.352	535.12
396.576	519.12
396.801	527.12
397.025	524.12
397.249	524.12
397.474	528.12
397.698	535.12
397.922	541.12
398.147	557.12
398.371	574.12
398.595	570.12
398.82	569.12
399.044	581.12
399.268	584.12
399.492	619.12
399.717	656.12
399.941	696.12
400.165	720.12
400.389	734.12
400.613	650.12
400.837	622.12
401.062	591.12
401.286	589.12
401.51	569.12
401.734	569.12
401.958	554.12
402.182	563.12
402.406	575.12
402.63	579.12
402.854	601.12
403.078	586.12
403.302	592.12
403.526	601.12
403.75	607.12
403.974	591.12
404.198	595.12
404.422	602.12
404.645	587.12
404.869	601.12
405.093	624.12
405.317	690.12
405.541	711.12
405.765	641.12
405.988	618.12
406.212	656.12
406.436	628.12
406.66	674.12
406.883	647.12
407.107	714.12
407.331	699.12
407.555	795.12
407.778	805.12
408.002	727.12
408.226	677.12
408.449	657.12
408.673	643.12
408.896	667.12
409.12	743.12
409.344	674.12
409.567	617.12
409.791	610.12
410.014	623.12
410.238	590.12
410.461	584.12
410.685	602.12
410.908	620.12
411.132	657.12
411.355	693.12
411.578	665.12
411.802	601.12
412.025	605.12
412.249	610.12
412.472	639.12
412.695	657.12
412.919	676.12
413.142	617.12
413.365	588.12
413.589	553.12
413.812	583.12
414.035	578.12
414.258	577.12
414.482	553.12
414.705	573.12
414.928	544.12
415.151	562.12
415.374	574.12
415.597	575.12
415.821	557.12
416.044	537.12
416.267	556.12
416.49	575.12
416.713	559.12
416.936	555.12
417.159	564.12
417.382	551.12
417.605	581.12
417.828	594.12
418.051	585.12
418.274	587.12
418.497	567.12
418.72	574.12
418.943	560.12
419.166	609.12
419.389	626.12
419.611	593.12
419.834	601.12
420.057	601.12
420.28	619.12
420.503	569.12
420.726	601.12
420.948	605.12
421.171	641.12
421.394	673.12
421.617	617.12
421.839	578.12
422.062	578.12
422.285	587.12
422.507	647.12
422.73	734.12
422.953	707.12
423.175	651.12
423.398	612.12
423.621	591.12
423.843	625.12
424.066	637.12
424.288	610.12
424.511	638.12
424.733	711.12
424.956	772.12
425.178	749.12
425.401	747.12
425.623	796.12
425.846	665.12
426.068	651.12
426.291	647.12
426.513	620.12
426.735	619.12
426.958	651.12
427.18	773.12
427.402	900.12
427.625	1003.12
427.847	833.12
428.069	766.12
428.292	673.12
428.514	632.12
428.736	605.12
428.958	614.12
429.181	591.12
429.403	576.12
429.625	593.12
429.847	643.12
430.069	718.12
430.292	701.12
430.514	597.12
430.736	591.12
430.958	576.12
431.18	555.12
431.402	545.12
431.624	546.12
431.846	543.12
432.068	556.12
432.29	540.12
432.512	561.12
432.734	571.12
432.956	571.12
433.178	551.12
433.4	591.12
433.622	572.12
433.844	563.12
434.066	558.12
434.287	543.12
434.509	546.12
434.731	575.12
434.953	585.12
435.175	599.12
435.397	604.12
435.618	608.12
435.84	679.12
436.062	777.12
436.284	852.12
436.505	690.12
436.727	631.12
436.949	589.12
437.17	561.12
437.392	578.12
437.614	607.12
437.835	632.12
438.057	722.12
438.278	850.12
438.5	827.12
438.721	933.12
438.943	887.12
439.165	692.12
439.386	632.12
439.608	637.12
439.829	618.12
440.05	670.12
440.272	709.12
440.493	677.12
440.715	604.12
440.936	591.12
441.158	603.12
441.379	593.12
441.6	611.12
441.822	635.12
442.043	685.12
442.264	762.12
442.486	811.12
442.707	690.12
442.928	640.12
443.149	666.12
443.371	684.12
443.592	707.12
443.813	832.12
444.034	891.12
444.255	756.12
444.476	673.12
444.698	643.12
444.919	631.12
445.14	762.12
445.361	722.12
445.582	675.12
445.803	722.12
446.024	862.12
446.245	845.12
446.466	806.12
446.687	673.12
446.908	650.12
447.129	619.12
447.35	585.12
447.571	585.12
447.792	569.12
448.013	581.12
448.234	592.12
448.455	668.12
448.675	760.12
448.896	936.12
449.117	749.12
449.338	733.12
449.559	847.12
449.779	968.12
450	743.12
450.221	625.12
450.442	571.12
450.662	571.12
450.883	572.12
451.104	590.12
451.324	576.12
451.545	559.12
451.766	536.12
451.986	523.12
452.207	510.12
452.428	514.12
452.648	508.12
452.869	499.12
453.089	523.12
453.31	538.12
453.53	553.12
453.751	519.12
453.971	508.12
454.192	529.12
454.412	500.12
454.633	520.12
454.853	488.12
455.073	515.12
455.294	549.12
455.514	616.12
455.734	597.12
455.955	515.12
456.175	498.12
456.395	495.12
456.616	507.12
456.836	492.12
457.056	484.12
457.276	475.12
457.497	497.12
457.717	498.12
457.937	503.12
458.157	509.12
458.377	497.12
458.598	538.12
458.818	592.12
459.038	690.12
459.258	687.12
459.478	597.12
459.698	555.12
459.918	544.12
460.138	542.12
460.358	570.12
460.578	557.12
460.798	551.12
461.018	564.12
461.238	573.12
461.458	564.12
461.678	579.12
461.898	588.12
462.118	579.12
462.338	591.12
462.558	611.12
462.777	609.12
462.997	615.12
463.217	644.12
463.437	643.12
463.657	604.12
463.876	601.12
464.096	610.12
464.316	615.12
464.536	612.12
464.755	607.12
464.975	593.12
465.195	635.12
465.414	711.12
465.634	639.12
465.854	608.12
466.073	595.12
466.293	553.12
466.512	548.12
466.732	558.12
466.951	537.12
467.171	543.12
467.391	556.12
467.61	551.12
467.829	559.12
468.049	539.12
468.268	524.12
468.488	539.12
468.707	528.12
468.927	533.12
469.146	524.12
469.365	521.12
469.585	514.12
469.804	533.12
470.023	531.12
470.243	555.12
470.462	544.12
470.681	586.12
470.901	564.12
471.12	556.12
471.339	550.12
471.558	540.12
471.777	545.12
471.997	529.12
472.216	559.12
472.435	596.12
472.654	586.12
472.873	543.12
473.092	552.12
473.311	519.12
473.53	541.12
473.749	556.12
473.968	599.12
474.187	683.12
474.406	699.12
474.625	597.12
474.844	560.12
475.063	537.12
475.282	547.12
475.501	548.12
475.72	551.12
475.939	558.12
476.158	560.12
476.377	568.12
476.596	557.12
476.814	585.12
477.033	572.12
477.252	553.12
477.471	580.12
477.69	580.12
477.908	601.12
478.127	573.12
478.346	590.12
478.564	620.12
478.783	612.12
479.002	627.12
479.22	618.12
479.439	634.12
479.658	651.12
479.876	651.12
480.095	654.12
480.313	701.12
480.532	686.12
480.751	683.12
480.969	692.12
481.188	731.12
481.406	743.12
481.624	696.12
481.843	685.12
482.061	653.12
482.28	642.12
482.498	641.12
482.717	647.12
482.935	653.12
483.153	629.12
483.372	637.12
483.59	626.12
483.808	641.12
484.027	651.12
484.245	665.12
484.463	640.12
484.681	637.12
484.9	668.12
485.118	651.12
485.336	636.12
485.554	660.12
485.772	668.12
485.99	655.12
486.209	682.12
486.427	672.12
486.645	664.12
486.863	685.12
487.081	668.12
487.299	699.12
487.517	667.12
487.735	701.12
487.953	691.12
488.171	682.12
488.389	694.12
488.607	726.12
488.825	674.12
489.043	687.12
489.261	697.12
489.479	697.12
489.696	684.12
489.914	694.12
490.132	722.12
490.35	722.12
490.568	719.12
490.786	735.12
491.003	751.12
491.221	788.12
491.439	745.12
491.657	766.12
491.874	781.12
492.092	759.12
492.31	783.12
492.527	792.12
492.745	792.12
492.963	812.12
493.18	803.12
493.398	807.12
493.615	791.12
493.833	779.12
494.05	808.12
494.268	815.12
494.485	808.12
494.703	769.12
494.92	810.12
495.138	829.12
495.355	813.12
495.573	821.12
495.79	841.12
496.008	803.12
496.225	815.12
496.442	840.12
496.66	797.12
496.877	832.12
497.094	823.12
497.312	818.12
497.529	830.12
497.746	832.12
497.963	865.12
498.181	869.12
498.398	889.12
498.615	899.12
498.832	932.12
499.049	920.12
499.267	952.12
499.484	971.12
499.701	1051.12
499.918	1097.12
500.135	1126.12
500.352	1177.12
500.569	1221.12
500.786	1195.12
501.003	1203.12
501.22	1160.12
501.437	1131.12
501.654	1059.12
