Data from 1966.PennyLincolnUp.Lamp.En5.5.200Scan.071719.P1.Scan2.head_HRD10591_14-18-07-163.txt Node
Date: Thu Jul 18 14:18:07 EDT 2019
User: cochatt
Spectrometer: HR+D1059
Trigger mode: 1
Integration Time (sec): 1.000000E-1
Scans to average: 1
Electric dark correction enabled: true
Nonlinearity correction enabled: false
Boxcar width: 0
XAxis mode: Wavelengths
Number of Pixels in Spectrum: 2048
>>>>>Begin Spectral Data<<<<<
223.165	8.75
223.4	8.75
223.635	8.75
223.869	-5.25
224.104	-19.25
224.338	-10.25
224.573	-17.25
224.808	-16.25
225.042	-8.25
225.277	-7.25
225.511	-14.25
225.746	3.75
225.98	3.75
226.215	0.75
226.449	15.75
226.683	10.75
226.918	28.75
227.152	25.75
227.387	48.75
227.621	29.75
227.856	29.75
228.09	45.75
228.324	47.75
228.559	49.75
228.793	66.75
229.027	90.75
229.262	110.75
229.496	134.75
229.73	112.75
229.964	146.75
230.199	137.75
230.433	119.75
230.667	116.75
230.901	112.75
231.136	98.75
231.37	93.75
231.604	111.75
231.838	123.75
232.072	110.75
232.306	109.75
232.541	87.75
232.775	119.75
233.009	100.75
233.243	104.75
233.477	114.75
233.711	116.75
233.945	101.75
234.179	115.75
234.413	122.75
234.647	120.75
234.881	115.75
235.115	129.75
235.349	132.75
235.583	131.75
235.817	125.75
236.051	133.75
236.285	127.75
236.519	115.75
236.753	129.75
236.987	143.75
237.221	185.75
237.455	235.75
237.689	175.75
237.922	128.75
238.156	129.75
238.39	130.75
238.624	126.75
238.858	126.75
239.091	130.75
239.325	134.75
239.559	127.75
239.793	131.75
240.027	128.75
240.26	144.75
240.494	160.75
240.728	145.75
240.961	152.75
241.195	130.75
241.429	134.75
241.662	127.75
241.896	125.75
242.13	126.75
242.363	143.75
242.597	130.75
242.83	125.75
243.064	142.75
243.298	134.75
243.531	127.75
243.765	139.75
243.998	142.75
244.232	151.75
244.465	147.75
244.699	154.75
244.932	155.75
245.166	152.75
245.399	144.75
245.633	156.75
245.866	155.75
246.099	133.75
246.333	147.75
246.566	142.75
246.8	140.75
247.033	153.75
247.266	170.75
247.5	160.75
247.733	183.75
247.966	188.75
248.2	170.75
248.433	168.75
248.666	181.75
248.899	182.75
249.133	197.75
249.366	214.75
249.599	192.75
249.832	181.75
250.066	180.75
250.299	203.75
250.532	192.75
250.765	217.75
250.998	235.75
251.231	223.75
251.465	203.75
251.698	203.75
251.931	196.75
252.164	199.75
252.397	207.75
252.63	187.75
252.863	204.75
253.096	216.75
253.329	236.75
253.562	230.75
253.795	225.75
254.028	211.75
254.261	204.75
254.494	210.75
254.727	254.75
254.96	266.75
255.193	266.75
255.426	234.75
255.659	219.75
255.892	243.75
256.124	247.75
256.357	239.75
256.59	236.75
256.823	213.75
257.056	208.75
257.289	214.75
257.521	233.75
257.754	197.75
257.987	206.75
258.22	209.75
258.452	211.75
258.685	198.75
258.918	204.75
259.151	202.75
259.383	191.75
259.616	218.75
259.849	212.75
260.081	244.75
260.314	269.75
260.547	255.75
260.779	230.75
261.012	229.75
261.244	213.75
261.477	215.75
261.71	223.75
261.942	231.75
262.175	230.75
262.407	247.75
262.64	211.75
262.872	206.75
263.105	220.75
263.337	218.75
263.57	218.75
263.802	223.75
264.035	214.75
264.267	204.75
264.499	205.75
264.732	196.75
264.964	203.75
265.197	223.75
265.429	223.75
265.661	207.75
265.894	219.75
266.126	219.75
266.358	218.75
266.591	209.75
266.823	209.75
267.055	229.75
267.287	239.75
267.52	219.75
267.752	220.75
267.984	228.75
268.216	222.75
268.448	237.75
268.681	243.75
268.913	240.75
269.145	255.75
269.377	280.75
269.609	269.75
269.841	257.75
270.073	269.75
270.306	267.75
270.538	319.75
270.77	313.75
271.002	293.75
271.234	274.75
271.466	310.75
271.698	300.75
271.93	317.75
272.162	320.75
272.394	335.75
272.626	304.75
272.858	282.75
273.09	252.75
273.322	252.75
273.553	270.75
273.785	253.75
274.017	267.75
274.249	262.75
274.481	265.75
274.713	249.75
274.945	269.75
275.176	271.75
275.408	288.75
275.64	275.75
275.872	244.75
276.104	276.75
276.335	257.75
276.567	278.75
276.799	272.75
277.031	306.75
277.262	300.75
277.494	313.75
277.726	294.75
277.957	273.75
278.189	284.75
278.421	286.75
278.652	267.75
278.884	264.75
279.115	275.75
279.347	253.75
279.579	274.75
279.81	262.75
280.042	269.75
280.273	265.75
280.505	259.75
280.736	247.75
280.968	281.75
281.199	265.75
281.431	266.75
281.662	286.75
281.894	280.75
282.125	278.75
282.356	268.75
282.588	296.75
282.819	307.75
283.051	273.75
283.282	278.75
283.513	263.75
283.745	272.75
283.976	295.75
284.207	283.75
284.439	270.75
284.67	284.75
284.901	272.75
285.132	263.75
285.364	269.75
285.595	290.75
285.826	270.75
286.057	276.75
286.288	280.75
286.52	292.75
286.751	276.75
286.982	294.75
287.213	271.75
287.444	262.75
287.675	291.75
287.906	309.75
288.138	300.75
288.369	288.75
288.6	294.75
288.831	288.75
289.062	296.75
289.293	272.75
289.524	315.75
289.755	301.75
289.986	285.75
290.217	287.75
290.448	272.75
290.679	274.75
290.91	281.75
291.141	297.75
291.371	287.75
291.602	298.75
291.833	293.75
292.064	286.75
292.295	308.75
292.526	286.75
292.757	288.75
292.987	308.75
293.218	303.75
293.449	274.75
293.68	280.75
293.91	285.75
294.141	294.75
294.372	294.75
294.603	289.75
294.833	283.75
295.064	294.75
295.295	296.75
295.525	293.75
295.756	293.75
295.987	318.75
296.217	311.75
296.448	325.75
296.679	306.75
296.909	296.75
297.14	310.75
297.37	295.75
297.601	306.75
297.831	311.75
298.062	304.75
298.292	306.75
298.523	289.75
298.753	317.75
298.984	299.75
299.214	310.75
299.445	310.75
299.675	287.75
299.905	314.75
300.136	322.75
300.366	310.75
300.597	320.75
300.827	329.75
301.057	322.75
301.288	334.75
301.518	310.75
301.748	315.75
301.979	320.75
302.209	325.75
302.439	327.75
302.669	341.75
302.9	323.75
303.13	322.75
303.36	332.75
303.59	342.75
303.82	341.75
304.051	327.75
304.281	328.75
304.511	341.75
304.741	341.75
304.971	328.75
305.201	326.75
305.431	330.75
305.661	337.75
305.891	323.75
306.121	324.75
306.352	332.75
306.582	345.75
306.812	336.75
307.042	334.75
307.272	334.75
307.502	323.75
307.731	323.75
307.961	340.75
308.191	339.75
308.421	327.75
308.651	343.75
308.881	333.75
309.111	332.75
309.341	347.75
309.571	361.75
309.8	364.75
310.03	359.75
310.26	364.75
310.49	349.75
310.72	380.75
310.949	391.75
311.179	382.75
311.409	360.75
311.639	378.75
311.868	384.75
312.098	365.75
312.328	374.75
312.557	375.75
312.787	388.75
313.017	395.75
313.246	396.75
313.476	382.75
313.706	380.75
313.935	371.75
314.165	393.75
314.394	390.75
314.624	379.75
314.853	394.75
315.083	388.75
315.312	388.75
315.542	386.75
315.771	366.75
316.001	378.75
316.23	367.75
316.46	374.75
316.689	386.75
316.919	380.75
317.148	390.75
317.377	387.75
317.607	377.75
317.836	376.75
318.065	375.75
318.295	399.75
318.524	375.75
318.753	379.75
318.983	389.75
319.212	383.75
319.441	388.75
319.67	390.75
319.9	381.75
320.129	386.75
320.358	372.75
320.587	385.75
320.816	403.75
321.046	401.75
321.275	400.75
321.504	404.75
321.733	390.75
321.962	398.75
322.191	409.75
322.42	400.75
322.649	435.75
322.878	437.75
323.108	456.75
323.337	459.75
323.566	503.75
323.795	516.75
324.024	552.75
324.253	662.75
324.482	920.75
324.71	1411.75
324.939	2135.75
325.168	1816.75
325.397	894.75
325.626	628.75
325.855	520.75
326.084	507.75
326.313	486.75
326.542	473.75
326.77	525.75
326.999	610.75
327.228	836.75
327.457	1252.75
327.686	1592.75
327.914	1038.75
328.143	666.75
328.372	617.75
328.6	564.75
328.829	528.75
329.058	573.75
329.287	553.75
329.515	518.75
329.744	513.75
329.972	498.75
330.201	517.75
330.43	560.75
330.658	596.75
330.887	598.75
331.115	589.75
331.344	515.75
331.572	487.75
331.801	475.75
332.03	494.75
332.258	454.75
332.486	455.75
332.715	454.75
332.943	456.75
333.172	452.75
333.4	467.75
333.629	492.75
333.857	477.75
334.085	485.75
334.314	512.75
334.542	541.75
334.771	552.75
334.999	501.75
335.227	482.75
335.455	444.75
335.684	442.75
335.912	465.75
336.14	432.75
336.369	444.75
336.597	462.75
336.825	463.75
337.053	452.75
337.281	435.75
337.51	428.75
337.738	445.75
337.966	464.75
338.194	428.75
338.422	444.75
338.65	438.75
338.878	446.75
339.106	455.75
339.334	440.75
339.562	446.75
339.79	454.75
340.018	427.75
340.246	444.75
340.474	442.75
340.702	443.75
340.93	439.75
341.158	445.75
341.386	416.75
341.614	442.75
341.842	437.75
342.07	448.75
342.298	446.75
342.526	441.75
342.754	411.75
342.981	430.75
343.209	421.75
343.437	434.75
343.665	436.75
343.893	452.75
344.12	452.75
344.348	446.75
344.576	463.75
344.804	469.75
345.031	456.75
345.259	447.75
345.487	457.75
345.714	456.75
345.942	445.75
346.17	431.75
346.397	438.75
346.625	431.75
346.853	436.75
347.08	418.75
347.308	430.75
347.535	445.75
347.763	438.75
347.99	433.75
348.218	428.75
348.445	438.75
348.673	451.75
348.9	426.75
349.128	431.75
349.355	396.75
349.583	402.75
349.81	414.75
350.037	405.75
350.265	396.75
350.492	406.75
350.72	436.75
350.947	420.75
351.174	432.75
351.402	428.75
351.629	438.75
351.856	432.75
352.083	432.75
352.311	431.75
352.538	439.75
352.765	438.75
352.992	447.75
353.22	431.75
353.447	412.75
353.674	414.75
353.901	413.75
354.128	414.75
354.355	403.75
354.583	414.75
354.81	425.75
355.037	416.75
355.264	400.75
355.491	410.75
355.718	407.75
355.945	384.75
356.172	411.75
356.399	388.75
356.626	407.75
356.853	410.75
357.08	394.75
357.307	409.75
357.534	380.75
357.761	388.75
357.988	414.75
358.215	412.75
358.441	398.75
358.668	393.75
358.895	420.75
359.122	418.75
359.349	415.75
359.576	422.75
359.802	452.75
360.029	471.75
360.256	487.75
360.483	464.75
360.709	452.75
360.936	431.75
361.163	428.75
361.39	437.75
361.616	438.75
361.843	426.75
362.07	415.75
362.296	420.75
362.523	449.75
362.749	438.75
362.976	435.75
363.203	416.75
363.429	402.75
363.656	404.75
363.882	428.75
364.109	419.75
364.335	410.75
364.562	429.75
364.788	393.75
365.015	407.75
365.241	418.75
365.468	434.75
365.694	443.75
365.92	424.75
366.147	440.75
366.373	419.75
366.599	398.75
366.826	415.75
367.052	408.75
367.278	424.75
367.505	424.75
367.731	421.75
367.957	421.75
368.184	422.75
368.41	422.75
368.636	436.75
368.862	451.75
369.089	411.75
369.315	441.75
369.541	423.75
369.767	423.75
369.993	403.75
370.219	429.75
370.445	436.75
370.672	411.75
370.898	426.75
371.124	414.75
371.35	415.75
371.576	421.75
371.802	428.75
372.028	414.75
372.254	432.75
372.48	444.75
372.706	427.75
372.932	423.75
373.158	427.75
373.384	436.75
373.61	411.75
373.835	419.75
374.061	418.75
374.287	438.75
374.513	412.75
374.739	442.75
374.965	429.75
375.191	430.75
375.416	438.75
375.642	435.75
375.868	431.75
376.094	429.75
376.319	411.75
376.545	420.75
376.771	414.75
376.997	392.75
377.222	441.75
377.448	425.75
377.674	427.75
377.899	407.75
378.125	426.75
378.35	424.75
378.576	434.75
378.802	435.75
379.027	413.75
379.253	406.75
379.478	420.75
379.704	416.75
379.929	414.75
380.155	415.75
380.38	429.75
380.606	448.75
380.831	415.75
381.057	427.75
381.282	415.75
381.507	431.75
381.733	443.75
381.958	431.75
382.184	442.75
382.409	448.75
382.634	454.75
382.86	438.75
383.085	428.75
383.31	430.75
383.535	456.75
383.761	458.75
383.986	446.75
384.211	451.75
384.436	451.75
384.662	452.75
384.887	467.75
385.112	450.75
385.337	474.75
385.562	464.75
385.787	454.75
386.013	467.75
386.238	460.75
386.463	475.75
386.688	478.75
386.913	475.75
387.138	463.75
387.363	476.75
387.588	471.75
387.813	456.75
388.038	446.75
388.263	489.75
388.488	458.75
388.713	458.75
388.938	467.75
389.163	477.75
389.387	498.75
389.612	479.75
389.837	492.75
390.062	486.75
390.287	475.75
390.512	486.75
390.736	471.75
390.961	468.75
391.186	484.75
391.411	487.75
391.636	492.75
391.86	482.75
392.085	454.75
392.31	493.75
392.534	503.75
392.759	509.75
392.984	487.75
393.208	484.75
393.433	489.75
393.658	473.75
393.882	469.75
394.107	496.75
394.331	476.75
394.556	478.75
394.78	464.75
395.005	474.75
395.229	474.75
395.454	491.75
395.678	478.75
395.903	512.75
396.127	521.75
396.352	504.75
396.576	476.75
396.801	484.75
397.025	527.75
397.249	496.75
397.474	514.75
397.698	510.75
397.922	520.75
398.147	564.75
398.371	542.75
398.595	522.75
398.82	542.75
399.044	535.75
399.268	583.75
399.492	618.75
399.717	629.75
399.941	636.75
400.165	699.75
400.389	681.75
400.613	650.75
400.837	589.75
401.062	567.75
401.286	576.75
401.51	546.75
401.734	558.75
401.958	543.75
402.182	550.75
402.406	566.75
402.63	572.75
402.854	596.75
403.078	561.75
403.302	551.75
403.526	579.75
403.75	576.75
403.974	576.75
404.198	582.75
404.422	584.75
404.645	598.75
404.869	586.75
405.093	617.75
405.317	659.75
405.541	688.75
405.765	629.75
405.988	614.75
406.212	616.75
406.436	628.75
406.66	660.75
406.883	639.75
407.107	629.75
407.331	677.75
407.555	773.75
407.778	754.75
408.002	674.75
408.226	644.75
408.449	649.75
408.673	634.75
408.896	648.75
409.12	683.75
409.344	656.75
409.567	596.75
409.791	596.75
410.014	571.75
410.238	566.75
410.461	587.75
410.685	597.75
410.908	614.75
411.132	627.75
411.355	676.75
411.578	616.75
411.802	578.75
412.025	583.75
412.249	589.75
412.472	606.75
412.695	662.75
412.919	645.75
413.142	580.75
413.365	564.75
413.589	580.75
413.812	537.75
414.035	554.75
414.258	552.75
414.482	555.75
414.705	557.75
414.928	537.75
415.151	550.75
415.374	556.75
415.597	531.75
415.821	542.75
416.044	529.75
416.267	539.75
416.49	553.75
416.713	553.75
416.936	538.75
417.159	552.75
417.382	540.75
417.605	554.75
417.828	553.75
418.051	552.75
418.274	566.75
418.497	559.75
418.72	530.75
418.943	547.75
419.166	555.75
419.389	588.75
419.611	595.75
419.834	581.75
420.057	595.75
420.28	578.75
420.503	569.75
420.726	575.75
420.948	588.75
421.171	611.75
421.394	657.75
421.617	591.75
421.839	568.75
422.062	568.75
422.285	574.75
422.507	646.75
422.73	708.75
422.953	699.75
423.175	611.75
423.398	591.75
423.621	578.75
423.843	614.75
424.066	598.75
424.288	597.75
424.511	630.75
424.733	701.75
424.956	797.75
425.178	724.75
425.401	740.75
425.623	735.75
425.846	650.75
426.068	618.75
426.291	606.75
426.513	596.75
426.735	606.75
426.958	644.75
427.18	766.75
427.402	883.75
427.625	984.75
427.847	840.75
428.069	743.75
428.292	637.75
428.514	630.75
428.736	578.75
428.958	572.75
429.181	547.75
429.403	566.75
429.625	578.75
429.847	598.75
430.069	694.75
430.292	664.75
430.514	572.75
430.736	602.75
430.958	558.75
431.18	523.75
431.402	535.75
431.624	523.75
431.846	544.75
432.068	535.75
432.29	532.75
432.512	543.75
432.734	543.75
432.956	535.75
433.178	536.75
433.4	543.75
433.622	561.75
433.844	564.75
434.066	557.75
434.287	541.75
434.509	546.75
434.731	540.75
434.953	565.75
435.175	570.75
435.397	590.75
435.618	594.75
435.84	639.75
436.062	767.75
436.284	830.75
436.505	672.75
436.727	608.75
436.949	571.75
437.17	567.75
437.392	555.75
437.614	586.75
437.835	589.75
438.057	709.75
438.278	849.75
438.5	818.75
438.721	898.75
438.943	875.75
439.165	679.75
439.386	650.75
439.608	630.75
439.829	607.75
440.05	615.75
440.272	668.75
440.493	648.75
440.715	595.75
440.936	582.75
441.158	586.75
441.379	578.75
441.6	589.75
441.822	617.75
442.043	661.75
442.264	746.75
442.486	766.75
442.707	650.75
442.928	613.75
443.149	627.75
443.371	648.75
443.592	683.75
443.813	782.75
444.034	857.75
444.255	708.75
444.476	657.75
444.698	621.75
444.919	609.75
445.14	755.75
445.361	680.75
445.582	636.75
445.803	706.75
446.024	810.75
446.245	858.75
446.466	758.75
446.687	650.75
446.908	607.75
447.129	580.75
447.35	576.75
447.571	566.75
447.792	564.75
448.013	552.75
448.234	574.75
448.455	614.75
448.675	767.75
448.896	899.75
449.117	754.75
449.338	688.75
449.559	798.75
449.779	926.75
450	725.75
450.221	603.75
450.442	573.75
450.662	569.75
450.883	557.75
451.104	567.75
451.324	558.75
451.545	535.75
451.766	521.75
451.986	502.75
452.207	489.75
452.428	481.75
452.648	502.75
452.869	500.75
453.089	510.75
453.31	537.75
453.53	519.75
453.751	499.75
453.971	491.75
454.192	522.75
454.412	519.75
454.633	481.75
454.853	501.75
455.073	474.75
455.294	534.75
455.514	612.75
455.734	575.75
455.955	490.75
456.175	471.75
456.395	484.75
456.616	473.75
456.836	481.75
457.056	459.75
457.276	466.75
457.497	468.75
457.717	482.75
457.937	464.75
458.157	483.75
458.377	488.75
458.598	504.75
458.818	558.75
459.038	651.75
459.258	687.75
459.478	567.75
459.698	534.75
459.918	546.75
460.138	542.75
460.358	534.75
460.578	538.75
460.798	546.75
461.018	555.75
461.238	551.75
461.458	540.75
461.678	536.75
461.898	568.75
462.118	545.75
462.338	554.75
462.558	576.75
462.777	607.75
462.997	615.75
463.217	615.75
463.437	612.75
463.657	609.75
463.876	570.75
464.096	607.75
464.316	594.75
464.536	603.75
464.755	603.75
464.975	583.75
465.195	629.75
465.414	702.75
465.634	605.75
465.854	580.75
466.073	553.75
466.293	534.75
466.512	536.75
466.732	531.75
466.951	525.75
467.171	518.75
467.391	522.75
467.61	515.75
467.829	544.75
468.049	507.75
468.268	526.75
468.488	537.75
468.707	493.75
468.927	487.75
469.146	500.75
469.365	523.75
469.585	506.75
469.804	532.75
470.023	529.75
470.243	522.75
470.462	541.75
470.681	533.75
470.901	545.75
471.12	536.75
471.339	524.75
471.558	551.75
471.777	538.75
471.997	513.75
472.216	532.75
472.435	566.75
472.654	525.75
472.873	539.75
473.092	526.75
473.311	558.75
473.53	522.75
473.749	529.75
473.968	589.75
474.187	696.75
474.406	716.75
474.625	614.75
474.844	548.75
475.063	517.75
475.282	540.75
475.501	534.75
475.72	538.75
475.939	563.75
476.158	534.75
476.377	538.75
476.596	545.75
476.814	553.75
477.033	545.75
477.252	576.75
477.471	566.75
477.69	585.75
477.908	591.75
478.127	593.75
478.346	572.75
478.564	609.75
478.783	571.75
479.002	591.75
479.22	617.75
479.439	605.75
479.658	625.75
479.876	639.75
480.095	645.75
480.313	661.75
480.532	655.75
480.751	644.75
480.969	662.75
481.188	706.75
481.406	735.75
481.624	668.75
481.843	662.75
482.061	634.75
482.28	608.75
482.498	630.75
482.717	631.75
482.935	640.75
483.153	645.75
483.372	607.75
483.59	622.75
483.808	622.75
484.027	624.75
484.245	611.75
484.463	618.75
484.681	628.75
484.9	648.75
485.118	631.75
485.336	634.75
485.554	645.75
485.772	650.75
485.99	649.75
486.209	644.75
486.427	647.75
486.645	672.75
486.863	665.75
487.081	694.75
487.299	663.75
487.517	666.75
487.735	671.75
487.953	662.75
488.171	667.75
488.389	667.75
488.607	671.75
488.825	670.75
489.043	666.75
489.261	659.75
489.479	684.75
489.696	680.75
489.914	667.75
490.132	694.75
490.35	704.75
490.568	700.75
490.786	702.75
491.003	717.75
491.221	746.75
491.439	739.75
491.657	751.75
491.874	771.75
492.092	754.75
492.31	746.75
492.527	754.75
492.745	772.75
492.963	775.75
493.18	775.75
493.398	791.75
493.615	802.75
493.833	790.75
494.05	785.75
494.268	783.75
494.485	764.75
494.703	787.75
494.92	779.75
495.138	785.75
495.355	802.75
495.573	772.75
495.79	830.75
496.008	820.75
496.225	793.75
496.442	782.75
496.66	798.75
496.877	797.75
497.094	810.75
497.312	807.75
497.529	803.75
497.746	830.75
497.963	828.75
498.181	882.75
498.398	877.75
498.615	896.75
498.832	864.75
499.049	898.75
499.267	943.75
499.484	1010.75
499.701	1003.75
499.918	1015.75
500.135	1096.75
500.352	1122.75
500.569	1168.75
500.786	1169.75
501.003	1111.75
501.22	1100.75
501.437	1061.75
501.654	1014.75
