Data from 1966.PennyLincolnUp.Lamp.En5.5.200Scan.071719.P1.Scan2.head_HRD10591_14-18-54-226.txt Node
Date: Thu Jul 18 14:18:54 EDT 2019
User: cochatt
Spectrometer: HR+D1059
Trigger mode: 1
Integration Time (sec): 1.000000E-1
Scans to average: 1
Electric dark correction enabled: true
Nonlinearity correction enabled: false
Boxcar width: 0
XAxis mode: Wavelengths
Number of Pixels in Spectrum: 2048
>>>>>Begin Spectral Data<<<<<
223.165	-26.31
223.4	-26.31
223.635	-26.31
223.869	-18.31
224.104	-17.31
224.338	-14.31
224.573	-11.31
224.808	-9.31
225.042	-12.31
225.277	-5.31
225.511	-0.31
225.746	3.69
225.98	9.69
226.215	14.69
226.449	17.69
226.683	23.69
226.918	21.69
227.152	23.69
227.387	34.69
227.621	37.69
227.856	47.69
228.09	52.69
228.324	51.69
228.559	62.69
228.793	66.69
229.027	85.69
229.262	92.69
229.496	113.69
229.73	133.69
229.964	158.69
230.199	132.69
230.433	121.69
230.667	129.69
230.901	111.69
231.136	113.69
231.37	120.69
231.604	115.69
231.838	108.69
232.072	113.69
232.306	139.69
232.541	125.69
232.775	115.69
233.009	126.69
233.243	126.69
233.477	115.69
233.711	115.69
233.945	113.69
234.179	109.69
234.413	121.69
234.647	107.69
234.881	118.69
235.115	121.69
235.349	127.69
235.583	120.69
235.817	125.69
236.051	111.69
236.285	128.69
236.519	145.69
236.753	138.69
236.987	137.69
237.221	190.69
237.455	243.69
237.689	190.69
237.922	153.69
238.156	129.69
238.39	132.69
238.624	120.69
238.858	116.69
239.091	108.69
239.325	117.69
239.559	135.69
239.793	122.69
240.027	131.69
240.26	133.69
240.494	149.69
240.728	149.69
240.961	130.69
241.195	140.69
241.429	141.69
241.662	142.69
241.896	132.69
242.13	133.69
242.363	131.69
242.597	135.69
242.83	129.69
243.064	146.69
243.298	147.69
243.531	147.69
243.765	148.69
243.998	154.69
244.232	153.69
244.465	145.69
244.699	151.69
244.932	140.69
245.166	133.69
245.399	138.69
245.633	157.69
245.866	143.69
246.099	144.69
246.333	141.69
246.566	164.69
246.8	154.69
247.033	164.69
247.266	151.69
247.5	181.69
247.733	182.69
247.966	179.69
248.2	172.69
248.433	185.69
248.666	169.69
248.899	183.69
249.133	195.69
249.366	211.69
249.599	194.69
249.832	182.69
250.066	185.69
250.299	184.69
250.532	189.69
250.765	211.69
250.998	223.69
251.231	239.69
251.465	237.69
251.698	207.69
251.931	210.69
252.164	199.69
252.397	196.69
252.63	211.69
252.863	212.69
253.096	212.69
253.329	245.69
253.562	234.69
253.795	212.69
254.028	222.69
254.261	207.69
254.494	229.69
254.727	246.69
254.96	259.69
255.193	271.69
255.426	267.69
255.659	225.69
255.892	225.69
256.124	244.69
256.357	251.69
256.59	259.69
256.823	223.69
257.056	205.69
257.289	218.69
257.521	208.69
257.754	226.69
257.987	213.69
258.22	212.69
258.452	203.69
258.685	204.69
258.918	197.69
259.151	219.69
259.383	234.69
259.616	230.69
259.849	222.69
260.081	259.69
260.314	257.69
260.547	269.69
260.779	266.69
261.012	250.69
261.244	233.69
261.477	247.69
261.71	234.69
261.942	245.69
262.175	241.69
262.407	226.69
262.64	218.69
262.872	218.69
263.105	219.69
263.337	220.69
263.57	209.69
263.802	219.69
264.035	231.69
264.267	200.69
264.499	221.69
264.732	226.69
264.964	229.69
265.197	200.69
265.429	210.69
265.661	217.69
265.894	210.69
266.126	221.69
266.358	206.69
266.591	220.69
266.823	229.69
267.055	237.69
267.287	233.69
267.52	229.69
267.752	233.69
267.984	237.69
268.216	242.69
268.448	232.69
268.681	244.69
268.913	283.69
269.145	266.69
269.377	275.69
269.609	265.69
269.841	281.69
270.073	287.69
270.306	295.69
270.538	332.69
270.77	327.69
271.002	308.69
271.234	311.69
271.466	311.69
271.698	321.69
271.93	302.69
272.162	333.69
272.394	336.69
272.626	297.69
272.858	308.69
273.09	275.69
273.322	281.69
273.553	277.69
273.785	267.69
274.017	264.69
274.249	277.69
274.481	272.69
274.713	285.69
274.945	260.69
275.176	270.69
275.408	284.69
275.64	290.69
275.872	278.69
276.104	279.69
276.335	278.69
276.567	260.69
276.799	288.69
277.031	314.69
277.262	317.69
277.494	345.69
277.726	284.69
277.957	299.69
278.189	283.69
278.421	281.69
278.652	276.69
278.884	285.69
279.115	282.69
279.347	286.69
279.579	278.69
279.81	282.69
280.042	266.69
280.273	279.69
280.505	281.69
280.736	283.69
280.968	293.69
281.199	286.69
281.431	288.69
281.662	257.69
281.894	279.69
282.125	274.69
282.356	310.69
282.588	328.69
282.819	306.69
283.051	289.69
283.282	291.69
283.513	312.69
283.745	293.69
283.976	291.69
284.207	285.69
284.439	283.69
284.67	284.69
284.901	289.69
285.132	287.69
285.364	286.69
285.595	300.69
285.826	291.69
286.057	289.69
286.288	294.69
286.52	302.69
286.751	279.69
286.982	280.69
287.213	285.69
287.444	294.69
287.675	302.69
287.906	298.69
288.138	303.69
288.369	319.69
288.6	329.69
288.831	305.69
289.062	325.69
289.293	312.69
289.524	289.69
289.755	288.69
289.986	313.69
290.217	301.69
290.448	304.69
290.679	307.69
290.91	309.69
291.141	312.69
291.371	306.69
291.602	309.69
291.833	289.69
292.064	300.69
292.295	315.69
292.526	314.69
292.757	306.69
292.987	292.69
293.218	273.69
293.449	311.69
293.68	324.69
293.91	302.69
294.141	307.69
294.372	296.69
294.603	315.69
294.833	316.69
295.064	311.69
295.295	289.69
295.525	297.69
295.756	291.69
295.987	322.69
296.217	338.69
296.448	344.69
296.679	336.69
296.909	308.69
297.14	305.69
297.37	328.69
297.601	315.69
297.831	333.69
298.062	309.69
298.292	330.69
298.523	322.69
298.753	324.69
298.984	310.69
299.214	323.69
299.445	317.69
299.675	323.69
299.905	319.69
300.136	318.69
300.366	311.69
300.597	323.69
300.827	342.69
301.057	321.69
301.288	329.69
301.518	346.69
301.748	341.69
301.979	362.69
302.209	331.69
302.439	345.69
302.669	339.69
302.9	343.69
303.13	338.69
303.36	338.69
303.59	326.69
303.82	350.69
304.051	345.69
304.281	347.69
304.511	335.69
304.741	354.69
304.971	358.69
305.201	347.69
305.431	319.69
305.661	335.69
305.891	335.69
306.121	343.69
306.352	357.69
306.582	363.69
306.812	327.69
307.042	358.69
307.272	338.69
307.502	341.69
307.731	341.69
307.961	337.69
308.191	359.69
308.421	342.69
308.651	361.69
308.881	333.69
309.111	357.69
309.341	349.69
309.571	361.69
309.8	367.69
310.03	390.69
310.26	382.69
310.49	374.69
310.72	372.69
310.949	403.69
311.179	411.69
311.409	394.69
311.639	381.69
311.868	389.69
312.098	374.69
312.328	417.69
312.557	424.69
312.787	422.69
313.017	411.69
313.246	402.69
313.476	420.69
313.706	381.69
313.935	394.69
314.165	409.69
314.394	406.69
314.624	395.69
314.853	386.69
315.083	400.69
315.312	396.69
315.542	361.69
315.771	384.69
316.001	377.69
316.23	388.69
316.46	401.69
316.689	373.69
316.919	382.69
317.148	407.69
317.377	411.69
317.607	385.69
317.836	379.69
318.065	382.69
318.295	389.69
318.524	407.69
318.753	411.69
318.983	379.69
319.212	395.69
319.441	398.69
319.67	409.69
319.9	381.69
320.129	380.69
320.358	399.69
320.587	405.69
320.816	407.69
321.046	410.69
321.275	418.69
321.504	402.69
321.733	418.69
321.962	426.69
322.191	420.69
322.42	438.69
322.649	463.69
322.878	460.69
323.108	499.69
323.337	492.69
323.566	486.69
323.795	534.69
324.024	572.69
324.253	699.69
324.482	982.69
324.71	1467.69
324.939	2309.69
325.168	2019.69
325.397	999.69
325.626	674.69
325.855	567.69
326.084	517.69
326.313	507.69
326.542	503.69
326.77	564.69
326.999	648.69
327.228	894.69
327.457	1393.69
327.686	1743.69
327.914	1108.69
328.143	726.69
328.372	645.69
328.6	615.69
328.829	579.69
329.058	575.69
329.287	612.69
329.515	576.69
329.744	518.69
329.972	523.69
330.201	540.69
330.43	578.69
330.658	605.69
330.887	629.69
331.115	636.69
331.344	563.69
331.572	501.69
331.801	524.69
332.03	530.69
332.258	467.69
332.486	482.69
332.715	473.69
332.943	472.69
333.172	469.69
333.4	459.69
333.629	505.69
333.857	527.69
334.085	515.69
334.314	537.69
334.542	569.69
334.771	597.69
334.999	565.69
335.227	507.69
335.455	506.69
335.684	481.69
335.912	473.69
336.14	477.69
336.369	467.69
336.597	492.69
336.825	493.69
337.053	469.69
337.281	458.69
337.51	451.69
337.738	462.69
337.966	447.69
338.194	497.69
338.422	479.69
338.65	452.69
338.878	434.69
339.106	457.69
339.334	451.69
339.562	477.69
339.79	460.69
340.018	458.69
340.246	438.69
340.474	448.69
340.702	451.69
340.93	447.69
341.158	458.69
341.386	459.69
341.614	439.69
341.842	441.69
342.07	443.69
342.298	444.69
342.526	451.69
342.754	446.69
342.981	435.69
343.209	456.69
343.437	433.69
343.665	438.69
343.893	455.69
344.12	485.69
344.348	473.69
344.576	472.69
344.804	469.69
345.031	453.69
345.259	478.69
345.487	478.69
345.714	453.69
345.942	441.69
346.17	451.69
346.397	448.69
346.625	448.69
346.853	440.69
347.08	455.69
347.308	438.69
347.535	453.69
347.763	457.69
347.99	429.69
348.218	439.69
348.445	469.69
348.673	473.69
348.9	458.69
349.128	437.69
349.355	427.69
349.583	422.69
349.81	434.69
350.037	425.69
350.265	422.69
350.492	420.69
350.72	422.69
350.947	441.69
351.174	449.69
351.402	442.69
351.629	450.69
351.856	457.69
352.083	453.69
352.311	428.69
352.538	467.69
352.765	463.69
352.992	443.69
353.22	439.69
353.447	423.69
353.674	449.69
353.901	417.69
354.128	409.69
354.355	413.69
354.583	408.69
354.81	412.69
355.037	427.69
355.264	416.69
355.491	407.69
355.718	406.69
355.945	430.69
356.172	422.69
356.399	416.69
356.626	411.69
356.853	419.69
357.08	415.69
357.307	421.69
357.534	417.69
357.761	425.69
357.988	410.69
358.215	419.69
358.441	413.69
358.668	426.69
358.895	434.69
359.122	430.69
359.349	459.69
359.576	456.69
359.802	485.69
360.029	493.69
360.256	495.69
360.483	499.69
360.709	457.69
360.936	437.69
361.163	441.69
361.39	453.69
361.616	432.69
361.843	438.69
362.07	474.69
362.296	460.69
362.523	442.69
362.749	446.69
362.976	437.69
363.203	450.69
363.429	429.69
363.656	433.69
363.882	425.69
364.109	428.69
364.335	436.69
364.562	413.69
364.788	419.69
365.015	463.69
365.241	430.69
365.468	449.69
365.694	430.69
365.92	453.69
366.147	430.69
366.373	450.69
366.599	432.69
366.826	427.69
367.052	413.69
367.278	437.69
367.505	428.69
367.731	445.69
367.957	442.69
368.184	424.69
368.41	452.69
368.636	456.69
368.862	459.69
369.089	428.69
369.315	444.69
369.541	433.69
369.767	449.69
369.993	441.69
370.219	423.69
370.445	433.69
370.672	423.69
370.898	450.69
371.124	441.69
371.35	414.69
371.576	446.69
371.802	422.69
372.028	435.69
372.254	421.69
372.48	439.69
372.706	454.69
372.932	455.69
373.158	442.69
373.384	453.69
373.61	426.69
373.835	442.69
374.061	449.69
374.287	446.69
374.513	441.69
374.739	445.69
374.965	454.69
375.191	460.69
375.416	438.69
375.642	443.69
375.868	438.69
376.094	446.69
376.319	450.69
376.545	432.69
376.771	426.69
376.997	435.69
377.222	428.69
377.448	426.69
377.674	411.69
377.899	438.69
378.125	422.69
378.35	424.69
378.576	453.69
378.802	443.69
379.027	443.69
379.253	443.69
379.478	436.69
379.704	445.69
379.929	443.69
380.155	445.69
380.38	450.69
380.606	449.69
380.831	443.69
381.057	441.69
381.282	450.69
381.507	449.69
381.733	459.69
381.958	449.69
382.184	444.69
382.409	455.69
382.634	472.69
382.86	441.69
383.085	449.69
383.31	454.69
383.535	465.69
383.761	459.69
383.986	479.69
384.211	466.69
384.436	464.69
384.662	473.69
384.887	487.69
385.112	469.69
385.337	494.69
385.562	483.69
385.787	470.69
386.013	486.69
386.238	469.69
386.463	489.69
386.688	519.69
386.913	488.69
387.138	486.69
387.363	487.69
387.588	483.69
387.813	474.69
388.038	501.69
388.263	467.69
388.488	509.69
388.713	472.69
388.938	499.69
389.163	485.69
389.387	497.69
389.612	474.69
389.837	495.69
390.062	471.69
390.287	497.69
390.512	477.69
390.736	468.69
390.961	482.69
391.186	489.69
391.411	496.69
391.636	481.69
391.86	490.69
392.085	508.69
392.31	504.69
392.534	508.69
392.759	507.69
392.984	481.69
393.208	502.69
393.433	526.69
393.658	506.69
393.882	506.69
394.107	513.69
394.331	507.69
394.556	519.69
394.78	516.69
395.005	512.69
395.229	494.69
395.454	501.69
395.678	515.69
395.903	515.69
396.127	570.69
396.352	545.69
396.576	529.69
396.801	541.69
397.025	526.69
397.249	541.69
397.474	527.69
397.698	519.69
397.922	545.69
398.147	548.69
398.371	553.69
398.595	533.69
398.82	553.69
399.044	590.69
399.268	594.69
399.492	629.69
399.717	669.69
399.941	703.69
400.165	725.69
400.389	717.69
400.613	646.69
400.837	606.69
401.062	593.69
401.286	570.69
401.51	583.69
401.734	604.69
401.958	583.69
402.182	569.69
402.406	573.69
402.63	583.69
402.854	568.69
403.078	572.69
403.302	607.69
403.526	608.69
403.75	595.69
403.974	585.69
404.198	582.69
404.422	610.69
404.645	582.69
404.869	601.69
405.093	628.69
405.317	692.69
405.541	732.69
405.765	653.69
405.988	638.69
406.212	655.69
406.436	645.69
406.66	676.69
406.883	627.69
407.107	661.69
407.331	709.69
407.555	806.69
407.778	823.69
408.002	722.69
408.226	660.69
408.449	667.69
408.673	666.69
408.896	682.69
409.12	722.69
409.344	725.69
409.567	645.69
409.791	589.69
410.014	627.69
410.238	591.69
410.461	585.69
410.685	628.69
410.908	616.69
411.132	633.69
411.355	699.69
411.578	667.69
411.802	622.69
412.025	589.69
412.249	588.69
412.472	629.69
412.695	667.69
412.919	667.69
413.142	609.69
413.365	606.69
413.589	574.69
413.812	554.69
414.035	565.69
414.258	556.69
414.482	559.69
414.705	565.69
414.928	520.69
415.151	541.69
415.374	562.69
415.597	553.69
415.821	540.69
416.044	561.69
416.267	575.69
416.49	568.69
416.713	552.69
416.936	574.69
417.159	563.69
417.382	579.69
417.605	577.69
417.828	575.69
418.051	617.69
418.274	587.69
418.497	573.69
418.72	574.69
418.943	556.69
419.166	566.69
419.389	617.69
419.611	608.69
419.834	602.69
420.057	612.69
420.28	615.69
420.503	595.69
420.726	581.69
420.948	603.69
421.171	638.69
421.394	663.69
421.617	618.69
421.839	612.69
422.062	578.69
422.285	605.69
422.507	669.69
422.73	757.69
422.953	726.69
423.175	657.69
423.398	615.69
423.621	629.69
423.843	626.69
424.066	648.69
424.288	635.69
424.511	649.69
424.733	718.69
424.956	817.69
425.178	781.69
425.401	749.69
425.623	807.69
425.846	671.69
426.068	635.69
426.291	610.69
426.513	634.69
426.735	639.69
426.958	693.69
427.18	772.69
427.402	934.69
427.625	1045.69
427.847	884.69
428.069	753.69
428.292	698.69
428.514	631.69
428.736	597.69
428.958	614.69
429.181	591.69
429.403	579.69
429.625	586.69
429.847	626.69
430.069	719.69
430.292	685.69
430.514	620.69
430.736	577.69
430.958	579.69
431.18	574.69
431.402	567.69
431.624	546.69
431.846	543.69
432.068	542.69
432.29	557.69
432.512	546.69
432.734	567.69
432.956	578.69
433.178	580.69
433.4	589.69
433.622	573.69
433.844	565.69
434.066	542.69
434.287	557.69
434.509	571.69
434.731	567.69
434.953	585.69
435.175	590.69
435.397	632.69
435.618	630.69
435.84	684.69
436.062	802.69
436.284	864.69
436.505	714.69
436.727	644.69
436.949	600.69
437.17	609.69
437.392	579.69
437.614	605.69
437.835	642.69
438.057	764.69
438.278	867.69
438.5	873.69
438.721	941.69
438.943	900.69
439.165	718.69
439.386	665.69
439.608	633.69
439.829	649.69
440.05	684.69
440.272	730.69
440.493	686.69
440.715	626.69
440.936	609.69
441.158	605.69
441.379	606.69
441.6	627.69
441.822	632.69
442.043	658.69
442.264	791.69
442.486	818.69
442.707	699.69
442.928	649.69
443.149	679.69
443.371	681.69
443.592	685.69
443.813	831.69
444.034	893.69
444.255	773.69
444.476	679.69
444.698	644.69
444.919	631.69
445.14	748.69
445.361	683.69
445.582	693.69
445.803	767.69
446.024	878.69
446.245	890.69
446.466	811.69
446.687	678.69
446.908	653.69
447.129	607.69
447.35	569.69
447.571	571.69
447.792	592.69
448.013	574.69
448.234	583.69
448.455	653.69
448.675	810.69
448.896	937.69
449.117	781.69
449.338	749.69
449.559	851.69
449.779	986.69
450	761.69
450.221	650.69
450.442	599.69
450.662	591.69
450.883	585.69
451.104	579.69
451.324	572.69
451.545	552.69
451.766	541.69
451.986	517.69
452.207	523.69
452.428	506.69
452.648	521.69
452.869	524.69
453.089	534.69
453.31	566.69
453.53	520.69
453.751	521.69
453.971	520.69
454.192	561.69
454.412	522.69
454.633	525.69
454.853	505.69
455.073	497.69
455.294	543.69
455.514	611.69
455.734	589.69
455.955	534.69
456.175	517.69
456.395	469.69
456.616	483.69
456.836	502.69
457.056	505.69
457.276	482.69
457.497	515.69
457.717	484.69
457.937	519.69
458.157	523.69
458.377	507.69
458.598	528.69
458.818	590.69
459.038	665.69
459.258	725.69
459.478	645.69
459.698	555.69
459.918	560.69
460.138	572.69
460.358	575.69
460.578	572.69
460.798	571.69
461.018	603.69
461.238	568.69
461.458	562.69
461.678	559.69
461.898	572.69
462.118	581.69
462.338	595.69
462.558	577.69
462.777	617.69
462.997	614.69
463.217	620.69
463.437	642.69
463.657	623.69
463.876	616.69
464.096	629.69
464.316	610.69
464.536	611.69
464.755	624.69
464.975	606.69
465.195	614.69
465.414	743.69
465.634	634.69
465.854	612.69
466.073	573.69
466.293	561.69
466.512	554.69
466.732	541.69
466.951	536.69
467.171	545.69
467.391	535.69
467.61	540.69
467.829	565.69
468.049	565.69
468.268	582.69
468.488	524.69
468.707	537.69
468.927	511.69
469.146	525.69
469.365	542.69
469.585	551.69
469.804	548.69
470.023	539.69
470.243	557.69
470.462	552.69
470.681	557.69
470.901	559.69
471.12	574.69
471.339	531.69
471.558	549.69
471.777	576.69
471.997	556.69
472.216	558.69
472.435	587.69
472.654	567.69
472.873	558.69
473.092	559.69
473.311	533.69
473.53	555.69
473.749	547.69
473.968	620.69
474.187	708.69
474.406	741.69
474.625	587.69
474.844	571.69
475.063	566.69
475.282	551.69
475.501	567.69
475.72	563.69
475.939	537.69
476.158	561.69
476.377	566.69
476.596	559.69
476.814	565.69
477.033	587.69
477.252	594.69
477.471	586.69
477.69	588.69
477.908	614.69
478.127	611.69
478.346	603.69
478.564	625.69
478.783	620.69
479.002	637.69
479.22	625.69
479.439	641.69
479.658	649.69
479.876	697.69
480.095	650.69
480.313	733.69
480.532	684.69
480.751	681.69
480.969	684.69
481.188	754.69
481.406	775.69
481.624	716.69
481.843	670.69
482.061	665.69
482.28	653.69
482.498	626.69
482.717	637.69
482.935	671.69
483.153	645.69
483.372	651.69
483.59	669.69
483.808	645.69
484.027	638.69
484.245	653.69
484.463	638.69
484.681	630.69
484.9	654.69
485.118	656.69
485.336	685.69
485.554	653.69
485.772	678.69
485.99	679.69
486.209	683.69
486.427	663.69
486.645	673.69
486.863	715.69
487.081	681.69
487.299	681.69
487.517	699.69
487.735	696.69
487.953	698.69
488.171	685.69
488.389	719.69
488.607	680.69
488.825	686.69
489.043	709.69
489.261	695.69
489.479	701.69
489.696	710.69
489.914	725.69
490.132	699.69
490.35	718.69
490.568	720.69
490.786	762.69
491.003	754.69
491.221	765.69
491.439	770.69
491.657	776.69
491.874	819.69
492.092	779.69
492.31	798.69
492.527	810.69
492.745	789.69
492.963	799.69
493.18	805.69
493.398	829.69
493.615	833.69
493.833	838.69
494.05	838.69
494.268	833.69
494.485	828.69
494.703	818.69
494.92	843.69
495.138	834.69
495.355	834.69
495.573	837.69
495.79	858.69
496.008	842.69
496.225	850.69
496.442	842.69
496.66	840.69
496.877	837.69
497.094	814.69
497.312	853.69
497.529	847.69
497.746	831.69
497.963	885.69
498.181	918.69
498.398	910.69
498.615	926.69
498.832	949.69
499.049	941.69
499.267	1009.69
499.484	1026.69
499.701	1060.69
499.918	1087.69
500.135	1132.69
500.352	1189.69
500.569	1206.69
500.786	1192.69
501.003	1181.69
501.22	1162.69
501.437	1103.69
501.654	1073.69
