Data from 1966.PennyLincolnUp.Lamp.En5.5.200Scan.071719.P1._HRD10591_14-14-19-914.txt Node
Date: Thu Jul 18 14:14:19 EDT 2019
User: cochatt
Spectrometer: HR+D1059
Trigger mode: 1
Integration Time (sec): 1.000000E-1
Scans to average: 1
Electric dark correction enabled: true
Nonlinearity correction enabled: false
Boxcar width: 0
XAxis mode: Wavelengths
Number of Pixels in Spectrum: 2048
>>>>>Begin Spectral Data<<<<<
223.165	-21.44
223.4	-21.44
223.635	-21.44
223.869	-17.44
224.104	-10.44
224.338	-3.44
224.573	-17.44
224.808	10.56
225.042	-9.44
225.277	-25.44
225.511	1.56
225.746	-1.44
225.98	1.56
226.215	6.56
226.449	18.56
226.683	19.56
226.918	20.56
227.152	27.56
227.387	47.56
227.621	41.56
227.856	42.56
228.09	39.56
228.324	36.56
228.559	54.56
228.793	65.56
229.027	90.56
229.262	94.56
229.496	70.56
229.73	107.56
229.964	121.56
230.199	97.56
230.433	81.56
230.667	79.56
230.901	87.56
231.136	100.56
231.37	96.56
231.604	96.56
231.838	93.56
232.072	91.56
232.306	84.56
232.541	104.56
232.775	97.56
233.009	87.56
233.243	98.56
233.477	97.56
233.711	106.56
233.945	110.56
234.179	95.56
234.413	82.56
234.647	85.56
234.881	104.56
235.115	100.56
235.349	102.56
235.583	102.56
235.817	98.56
236.051	115.56
236.285	88.56
236.519	100.56
236.753	90.56
236.987	112.56
237.221	110.56
237.455	132.56
237.689	126.56
237.922	111.56
238.156	105.56
238.39	96.56
238.624	103.56
238.858	102.56
239.091	106.56
239.325	104.56
239.559	100.56
239.793	118.56
240.027	102.56
240.26	124.56
240.494	120.56
240.728	101.56
240.961	105.56
241.195	100.56
241.429	101.56
241.662	99.56
241.896	89.56
242.13	97.56
242.363	98.56
242.597	102.56
242.83	110.56
243.064	114.56
243.298	124.56
243.531	102.56
243.765	106.56
243.998	93.56
244.232	93.56
244.465	97.56
244.699	116.56
244.932	88.56
245.166	100.56
245.399	96.56
245.633	120.56
245.866	92.56
246.099	113.56
246.333	102.56
246.566	97.56
246.8	117.56
247.033	111.56
247.266	108.56
247.5	108.56
247.733	120.56
247.966	128.56
248.2	126.56
248.433	121.56
248.666	116.56
248.899	136.56
249.133	134.56
249.366	147.56
249.599	140.56
249.832	127.56
250.066	130.56
250.299	122.56
250.532	118.56
250.765	136.56
250.998	159.56
251.231	145.56
251.465	126.56
251.698	138.56
251.931	132.56
252.164	122.56
252.397	119.56
252.63	116.56
252.863	132.56
253.096	146.56
253.329	142.56
253.562	144.56
253.795	136.56
254.028	135.56
254.261	145.56
254.494	144.56
254.727	158.56
254.96	173.56
255.193	165.56
255.426	151.56
255.659	136.56
255.892	144.56
256.124	154.56
256.357	141.56
256.59	148.56
256.823	137.56
257.056	146.56
257.289	133.56
257.521	128.56
257.754	142.56
257.987	121.56
258.22	132.56
258.452	129.56
258.685	136.56
258.918	121.56
259.151	145.56
259.383	140.56
259.616	130.56
259.849	137.56
260.081	137.56
260.314	151.56
260.547	182.56
260.779	159.56
261.012	145.56
261.244	145.56
261.477	144.56
261.71	148.56
261.942	139.56
262.175	152.56
262.407	152.56
262.64	141.56
262.872	130.56
263.105	144.56
263.337	125.56
263.57	124.56
263.802	144.56
264.035	151.56
264.267	128.56
264.499	138.56
264.732	134.56
264.964	142.56
265.197	136.56
265.429	136.56
265.661	158.56
265.894	144.56
266.126	136.56
266.358	147.56
266.591	131.56
266.823	145.56
267.055	157.56
267.287	140.56
267.52	145.56
267.752	142.56
267.984	141.56
268.216	142.56
268.448	141.56
268.681	141.56
268.913	161.56
269.145	187.56
269.377	185.56
269.609	198.56
269.841	169.56
270.073	167.56
270.306	190.56
270.538	200.56
270.77	186.56
271.002	178.56
271.234	180.56
271.466	186.56
271.698	190.56
271.93	181.56
272.162	172.56
272.394	195.56
272.626	183.56
272.858	189.56
273.09	172.56
273.322	164.56
273.553	156.56
273.785	151.56
274.017	152.56
274.249	159.56
274.481	173.56
274.713	147.56
274.945	163.56
275.176	169.56
275.408	154.56
275.64	159.56
275.872	149.56
276.104	145.56
276.335	169.56
276.567	164.56
276.799	177.56
277.031	187.56
277.262	185.56
277.494	190.56
277.726	172.56
277.957	166.56
278.189	174.56
278.421	168.56
278.652	160.56
278.884	154.56
279.115	158.56
279.347	158.56
279.579	160.56
279.81	159.56
280.042	162.56
280.273	172.56
280.505	159.56
280.736	177.56
280.968	165.56
281.199	149.56
281.431	149.56
281.662	160.56
281.894	169.56
282.125	164.56
282.356	180.56
282.588	174.56
282.819	175.56
283.051	168.56
283.282	165.56
283.513	172.56
283.745	154.56
283.976	156.56
284.207	158.56
284.439	172.56
284.67	176.56
284.901	150.56
285.132	172.56
285.364	158.56
285.595	166.56
285.826	170.56
286.057	170.56
286.288	168.56
286.52	157.56
286.751	162.56
286.982	170.56
287.213	170.56
287.444	175.56
287.675	172.56
287.906	170.56
288.138	182.56
288.369	174.56
288.6	188.56
288.831	194.56
289.062	170.56
289.293	170.56
289.524	154.56
289.755	164.56
289.986	151.56
290.217	178.56
290.448	160.56
290.679	158.56
290.91	162.56
291.141	172.56
291.371	172.56
291.602	153.56
291.833	173.56
292.064	170.56
292.295	172.56
292.526	172.56
292.757	178.56
292.987	168.56
293.218	167.56
293.449	181.56
293.68	176.56
293.91	177.56
294.141	164.56
294.372	165.56
294.603	158.56
294.833	174.56
295.064	173.56
295.295	170.56
295.525	180.56
295.756	188.56
295.987	194.56
296.217	202.56
296.448	201.56
296.679	187.56
296.909	187.56
297.14	165.56
297.37	177.56
297.601	186.56
297.831	173.56
298.062	170.56
298.292	165.56
298.523	175.56
298.753	171.56
298.984	188.56
299.214	160.56
299.445	187.56
299.675	175.56
299.905	182.56
300.136	174.56
300.366	172.56
300.597	189.56
300.827	186.56
301.057	176.56
301.288	193.56
301.518	196.56
301.748	174.56
301.979	184.56
302.209	197.56
302.439	192.56
302.669	186.56
302.9	180.56
303.13	186.56
303.36	200.56
303.59	197.56
303.82	175.56
304.051	196.56
304.281	191.56
304.511	197.56
304.741	188.56
304.971	186.56
305.201	193.56
305.431	185.56
305.661	191.56
305.891	200.56
306.121	183.56
306.352	179.56
306.582	190.56
306.812	192.56
307.042	187.56
307.272	188.56
307.502	193.56
307.731	205.56
307.961	191.56
308.191	203.56
308.421	173.56
308.651	196.56
308.881	196.56
309.111	187.56
309.341	189.56
309.571	194.56
309.8	206.56
310.03	208.56
310.26	214.56
310.49	216.56
310.72	212.56
310.949	222.56
311.179	232.56
311.409	202.56
311.639	210.56
311.868	207.56
312.098	214.56
312.328	221.56
312.557	229.56
312.787	238.56
313.017	228.56
313.246	222.56
313.476	199.56
313.706	206.56
313.935	220.56
314.165	193.56
314.394	215.56
314.624	218.56
314.853	228.56
315.083	213.56
315.312	210.56
315.542	211.56
315.771	198.56
316.001	215.56
316.23	215.56
316.46	195.56
316.689	209.56
316.919	205.56
317.148	217.56
317.377	226.56
317.607	216.56
317.836	210.56
318.065	209.56
318.295	214.56
318.524	192.56
318.753	196.56
318.983	217.56
319.212	221.56
319.441	212.56
319.67	205.56
319.9	206.56
320.129	211.56
320.358	204.56
320.587	203.56
320.816	206.56
321.046	211.56
321.275	225.56
321.504	209.56
321.733	213.56
321.962	228.56
322.191	232.56
322.42	220.56
322.649	231.56
322.878	245.56
323.108	257.56
323.337	263.56
323.566	271.56
323.795	281.56
324.024	300.56
324.253	388.56
324.482	539.56
324.71	792.56
324.939	1071.56
325.168	886.56
325.397	434.56
325.626	331.56
325.855	270.56
326.084	250.56
326.313	264.56
326.542	262.56
326.77	292.56
326.999	355.56
327.228	489.56
327.457	712.56
327.686	791.56
327.914	528.56
328.143	363.56
328.372	342.56
328.6	332.56
328.829	297.56
329.058	313.56
329.287	302.56
329.515	286.56
329.744	280.56
329.972	280.56
330.201	297.56
330.43	314.56
330.658	334.56
330.887	346.56
331.115	348.56
331.344	281.56
331.572	261.56
331.801	262.56
332.03	254.56
332.258	245.56
332.486	267.56
332.715	238.56
332.943	249.56
333.172	231.56
333.4	256.56
333.629	250.56
333.857	248.56
334.085	272.56
334.314	273.56
334.542	298.56
334.771	328.56
334.999	270.56
335.227	274.56
335.455	240.56
335.684	235.56
335.912	238.56
336.14	239.56
336.369	235.56
336.597	227.56
336.825	266.56
337.053	225.56
337.281	227.56
337.51	224.56
337.738	253.56
337.966	229.56
338.194	243.56
338.422	234.56
338.65	241.56
338.878	234.56
339.106	229.56
339.334	250.56
339.562	231.56
339.79	226.56
340.018	233.56
340.246	223.56
340.474	231.56
340.702	226.56
340.93	242.56
341.158	236.56
341.386	221.56
341.614	231.56
341.842	217.56
342.07	232.56
342.298	247.56
342.526	221.56
342.754	206.56
342.981	216.56
343.209	220.56
343.437	212.56
343.665	229.56
343.893	230.56
344.12	244.56
344.348	221.56
344.576	228.56
344.804	226.56
345.031	247.56
345.259	237.56
345.487	240.56
345.714	216.56
345.942	231.56
346.17	226.56
346.397	216.56
346.625	231.56
346.853	221.56
347.08	209.56
347.308	203.56
347.535	233.56
347.763	235.56
347.99	238.56
348.218	242.56
348.445	234.56
348.673	238.56
348.9	239.56
349.128	221.56
349.355	219.56
349.583	214.56
349.81	189.56
350.037	212.56
350.265	220.56
350.492	223.56
350.72	232.56
350.947	216.56
351.174	214.56
351.402	228.56
351.629	222.56
351.856	235.56
352.083	225.56
352.311	237.56
352.538	237.56
352.765	221.56
352.992	230.56
353.22	230.56
353.447	217.56
353.674	208.56
353.901	215.56
354.128	203.56
354.355	206.56
354.583	207.56
354.81	212.56
355.037	191.56
355.264	217.56
355.491	205.56
355.718	209.56
355.945	215.56
356.172	194.56
356.399	204.56
356.626	217.56
356.853	189.56
357.08	209.56
357.307	217.56
357.534	206.56
357.761	200.56
357.988	207.56
358.215	214.56
358.441	200.56
358.668	216.56
358.895	216.56
359.122	215.56
359.349	221.56
359.576	236.56
359.802	241.56
360.029	262.56
360.256	255.56
360.483	239.56
360.709	235.56
360.936	210.56
361.163	220.56
361.39	223.56
361.616	230.56
361.843	212.56
362.07	220.56
362.296	225.56
362.523	244.56
362.749	208.56
362.976	222.56
363.203	214.56
363.429	210.56
363.656	226.56
363.882	204.56
364.109	214.56
364.335	213.56
364.562	215.56
364.788	200.56
365.015	221.56
365.241	225.56
365.468	203.56
365.694	217.56
365.92	202.56
366.147	229.56
366.373	225.56
366.599	204.56
366.826	204.56
367.052	206.56
367.278	202.56
367.505	209.56
367.731	207.56
367.957	215.56
368.184	216.56
368.41	208.56
368.636	223.56
368.862	228.56
369.089	205.56
369.315	202.56
369.541	212.56
369.767	212.56
369.993	217.56
370.219	212.56
370.445	211.56
370.672	211.56
370.898	217.56
371.124	213.56
371.35	209.56
371.576	201.56
371.802	204.56
372.028	196.56
372.254	204.56
372.48	222.56
372.706	201.56
372.932	208.56
373.158	205.56
373.384	214.56
373.61	220.56
373.835	221.56
374.061	210.56
374.287	210.56
374.513	202.56
374.739	208.56
374.965	205.56
375.191	199.56
375.416	222.56
375.642	235.56
375.868	210.56
376.094	213.56
376.319	220.56
376.545	214.56
376.771	206.56
376.997	217.56
377.222	214.56
377.448	218.56
377.674	214.56
377.899	206.56
378.125	197.56
378.35	201.56
378.576	206.56
378.802	215.56
379.027	208.56
379.253	204.56
379.478	203.56
379.704	219.56
379.929	216.56
380.155	205.56
380.38	232.56
380.606	200.56
380.831	199.56
381.057	215.56
381.282	218.56
381.507	204.56
381.733	224.56
381.958	233.56
382.184	214.56
382.409	214.56
382.634	215.56
382.86	202.56
383.085	208.56
383.31	215.56
383.535	220.56
383.761	224.56
383.986	214.56
384.211	220.56
384.436	217.56
384.662	215.56
384.887	209.56
385.112	225.56
385.337	224.56
385.562	219.56
385.787	234.56
386.013	238.56
386.238	241.56
386.463	225.56
386.688	222.56
386.913	222.56
387.138	225.56
387.363	205.56
387.588	214.56
387.813	224.56
388.038	212.56
388.263	240.56
388.488	223.56
388.713	229.56
388.938	214.56
389.163	225.56
389.387	233.56
389.612	206.56
389.837	221.56
390.062	198.56
390.287	224.56
390.512	225.56
390.736	210.56
390.961	230.56
391.186	230.56
391.411	213.56
391.636	235.56
391.86	234.56
392.085	231.56
392.31	220.56
392.534	218.56
392.759	214.56
392.984	201.56
393.208	213.56
393.433	231.56
393.658	240.56
393.882	233.56
394.107	225.56
394.331	228.56
394.556	227.56
394.78	228.56
395.005	226.56
395.229	225.56
395.454	228.56
395.678	236.56
395.903	227.56
396.127	254.56
396.352	254.56
396.576	218.56
396.801	249.56
397.025	248.56
397.249	231.56
397.474	250.56
397.698	226.56
397.922	248.56
398.147	236.56
398.371	246.56
398.595	246.56
398.82	253.56
399.044	256.56
399.268	245.56
399.492	255.56
399.717	280.56
399.941	280.56
400.165	324.56
400.389	305.56
400.613	273.56
400.837	271.56
401.062	265.56
401.286	246.56
401.51	250.56
401.734	261.56
401.958	247.56
402.182	258.56
402.406	289.56
402.63	275.56
402.854	283.56
403.078	249.56
403.302	268.56
403.526	264.56
403.75	266.56
403.974	282.56
404.198	269.56
404.422	265.56
404.645	260.56
404.869	279.56
405.093	286.56
405.317	313.56
405.541	313.56
405.765	297.56
405.988	298.56
406.212	296.56
406.436	299.56
406.66	308.56
406.883	288.56
407.107	295.56
407.331	306.56
407.555	346.56
407.778	346.56
408.002	292.56
408.226	300.56
408.449	278.56
408.673	292.56
408.896	304.56
409.12	320.56
409.344	301.56
409.567	269.56
409.791	268.56
410.014	266.56
410.238	269.56
410.461	263.56
410.685	276.56
410.908	255.56
411.132	290.56
411.355	293.56
411.578	268.56
411.802	269.56
412.025	263.56
412.249	262.56
412.472	266.56
412.695	290.56
412.919	303.56
413.142	270.56
413.365	273.56
413.589	268.56
413.812	239.56
414.035	246.56
414.258	260.56
414.482	255.56
414.705	250.56
414.928	241.56
415.151	251.56
415.374	239.56
415.597	240.56
415.821	242.56
416.044	246.56
416.267	249.56
416.49	253.56
416.713	231.56
416.936	248.56
417.159	251.56
417.382	252.56
417.605	269.56
417.828	260.56
418.051	272.56
418.274	259.56
418.497	255.56
418.72	245.56
418.943	264.56
419.166	264.56
419.389	283.56
419.611	268.56
419.834	267.56
420.057	279.56
420.28	276.56
420.503	257.56
420.726	241.56
420.948	267.56
421.171	288.56
421.394	294.56
421.617	255.56
421.839	256.56
422.062	262.56
422.285	272.56
422.507	295.56
422.73	343.56
422.953	330.56
423.175	279.56
423.398	266.56
423.621	274.56
423.843	282.56
424.066	286.56
424.288	274.56
424.511	302.56
424.733	315.56
424.956	353.56
425.178	333.56
425.401	332.56
425.623	321.56
425.846	279.56
426.068	256.56
426.291	272.56
426.513	284.56
426.735	271.56
426.958	304.56
427.18	349.56
427.402	379.56
427.625	420.56
427.847	372.56
428.069	310.56
428.292	295.56
428.514	282.56
428.736	266.56
428.958	264.56
429.181	264.56
429.403	253.56
429.625	249.56
429.847	280.56
430.069	297.56
430.292	303.56
430.514	258.56
430.736	255.56
430.958	250.56
431.18	240.56
431.402	253.56
431.624	255.56
431.846	232.56
432.068	230.56
432.29	247.56
432.512	246.56
432.734	258.56
432.956	244.56
433.178	252.56
433.4	258.56
433.622	256.56
433.844	251.56
434.066	264.56
434.287	258.56
434.509	266.56
434.731	268.56
434.953	262.56
435.175	263.56
435.397	279.56
435.618	284.56
435.84	286.56
436.062	320.56
436.284	344.56
436.505	305.56
436.727	270.56
436.949	267.56
437.17	256.56
437.392	242.56
437.614	256.56
437.835	276.56
438.057	312.56
438.278	382.56
438.5	348.56
438.721	376.56
438.943	358.56
439.165	287.56
439.386	310.56
439.608	284.56
439.829	279.56
440.05	295.56
440.272	302.56
440.493	294.56
440.715	268.56
440.936	268.56
441.158	258.56
441.379	259.56
441.6	262.56
441.822	287.56
442.043	300.56
442.264	341.56
442.486	355.56
442.707	295.56
442.928	294.56
443.149	273.56
443.371	320.56
443.592	314.56
443.813	361.56
444.034	374.56
444.255	326.56
444.476	290.56
444.698	267.56
444.919	283.56
445.14	372.56
445.361	320.56
445.582	303.56
445.803	349.56
446.024	393.56
446.245	368.56
446.466	351.56
446.687	288.56
446.908	262.56
447.129	272.56
447.35	256.56
447.571	264.56
447.792	231.56
448.013	246.56
448.234	268.56
448.455	294.56
448.675	345.56
448.896	365.56
449.117	318.56
449.338	326.56
449.559	349.56
449.779	390.56
450	318.56
450.221	287.56
450.442	253.56
450.662	262.56
450.883	271.56
451.104	287.56
451.324	253.56
451.545	249.56
451.766	250.56
451.986	236.56
452.207	216.56
452.428	230.56
452.648	237.56
452.869	239.56
453.089	232.56
453.31	258.56
453.53	243.56
453.751	235.56
453.971	234.56
454.192	254.56
454.412	240.56
454.633	236.56
454.853	245.56
455.073	226.56
455.294	247.56
455.514	283.56
455.734	285.56
455.955	238.56
456.175	238.56
456.395	218.56
456.616	221.56
456.836	208.56
457.056	213.56
457.276	212.56
457.497	232.56
457.717	236.56
457.937	233.56
458.157	232.56
458.377	226.56
458.598	244.56
458.818	290.56
459.038	332.56
459.258	335.56
459.478	278.56
459.698	233.56
459.918	237.56
460.138	251.56
460.358	228.56
460.578	264.56
460.798	253.56
461.018	265.56
461.238	260.56
461.458	256.56
461.678	251.56
461.898	248.56
462.118	244.56
462.338	241.56
462.558	250.56
462.777	273.56
462.997	279.56
463.217	257.56
463.437	277.56
463.657	264.56
463.876	260.56
464.096	250.56
464.316	247.56
464.536	271.56
464.755	281.56
464.975	275.56
465.195	320.56
465.414	360.56
465.634	316.56
465.854	257.56
466.073	245.56
466.293	254.56
466.512	233.56
466.732	240.56
466.951	238.56
467.171	237.56
467.391	237.56
467.61	246.56
467.829	268.56
468.049	257.56
468.268	270.56
468.488	251.56
468.707	231.56
468.927	238.56
469.146	229.56
469.365	240.56
469.585	232.56
469.804	241.56
470.023	260.56
470.243	256.56
470.462	261.56
470.681	277.56
470.901	260.56
471.12	253.56
471.339	237.56
471.558	240.56
471.777	250.56
471.997	238.56
472.216	274.56
472.435	281.56
472.654	261.56
472.873	250.56
473.092	238.56
473.311	223.56
473.53	231.56
473.749	247.56
473.968	263.56
474.187	329.56
474.406	339.56
474.625	278.56
474.844	263.56
475.063	252.56
475.282	241.56
475.501	236.56
475.72	258.56
475.939	262.56
476.158	244.56
476.377	250.56
476.596	236.56
476.814	273.56
477.033	247.56
477.252	276.56
477.471	259.56
477.69	259.56
477.908	259.56
478.127	258.56
478.346	278.56
478.564	275.56
478.783	266.56
479.002	271.56
479.22	274.56
479.439	275.56
479.658	284.56
479.876	292.56
480.095	304.56
480.313	283.56
480.532	289.56
480.751	287.56
480.969	313.56
481.188	374.56
481.406	392.56
481.624	311.56
481.843	292.56
482.061	272.56
482.28	278.56
482.498	279.56
482.717	283.56
482.935	292.56
483.153	272.56
483.372	283.56
483.59	289.56
483.808	283.56
484.027	275.56
484.245	284.56
484.463	288.56
484.681	284.56
484.9	281.56
485.118	280.56
485.336	297.56
485.554	272.56
485.772	287.56
485.99	277.56
486.209	292.56
486.427	300.56
486.645	281.56
486.863	298.56
487.081	308.56
487.299	303.56
487.517	290.56
487.735	308.56
487.953	290.56
488.171	303.56
488.389	301.56
488.607	300.56
488.825	305.56
489.043	292.56
489.261	308.56
489.479	300.56
489.696	320.56
489.914	313.56
490.132	320.56
490.35	312.56
490.568	302.56
490.786	351.56
491.003	349.56
491.221	344.56
491.439	348.56
491.657	337.56
491.874	358.56
492.092	356.56
492.31	355.56
492.527	342.56
492.745	346.56
492.963	352.56
493.18	372.56
493.398	356.56
493.615	372.56
493.833	360.56
494.05	348.56
494.268	351.56
494.485	358.56
494.703	343.56
494.92	341.56
495.138	342.56
495.355	348.56
495.573	352.56
495.79	349.56
496.008	361.56
496.225	361.56
496.442	350.56
496.66	336.56
496.877	349.56
497.094	353.56
497.312	373.56
497.529	361.56
497.746	365.56
497.963	362.56
498.181	364.56
498.398	379.56
498.615	373.56
498.832	367.56
499.049	400.56
499.267	390.56
499.484	404.56
499.701	398.56
499.918	430.56
500.135	426.56
500.352	454.56
500.569	470.56
500.786	474.56
501.003	457.56
501.22	456.56
501.437	444.56
501.654	425.56
501.871	422.56
502.088	407.56
502.305	390.56
502.522	389.56
