Data from 1966.PennyLincolnUp.Lamp.En5.5.200Scan.071719.P1._HRD10591_14-15-16-936.txt Node
Date: Thu Jul 18 14:15:16 EDT 2019
User: cochatt
Spectrometer: HR+D1059
Trigger mode: 1
Integration Time (sec): 1.000000E-1
Scans to average: 1
Electric dark correction enabled: true
Nonlinearity correction enabled: false
Boxcar width: 0
XAxis mode: Wavelengths
Number of Pixels in Spectrum: 2048
>>>>>Begin Spectral Data<<<<<
223.165	-10.38
223.4	-10.38
223.635	-10.38
223.869	-14.38
224.104	-11.38
224.338	-27.38
224.573	-17.38
224.808	-9.38
225.042	-2.38
225.277	-16.38
225.511	-1.38
225.746	2.62
225.98	-0.38
226.215	15.62
226.449	17.62
226.683	8.62
226.918	41.62
227.152	24.62
227.387	32.62
227.621	33.62
227.856	51.62
228.09	48.62
228.324	62.62
228.559	64.62
228.793	65.62
229.027	79.62
229.262	82.62
229.496	86.62
229.73	93.62
229.964	94.62
230.199	107.62
230.433	96.62
230.667	95.62
230.901	97.62
231.136	73.62
231.37	100.62
231.604	106.62
231.838	95.62
232.072	100.62
232.306	101.62
232.541	99.62
232.775	101.62
233.009	100.62
233.243	93.62
233.477	109.62
233.711	90.62
233.945	106.62
234.179	102.62
234.413	86.62
234.647	95.62
234.881	87.62
235.115	85.62
235.349	81.62
235.583	90.62
235.817	106.62
236.051	108.62
236.285	93.62
236.519	92.62
236.753	110.62
236.987	112.62
237.221	121.62
237.455	167.62
237.689	127.62
237.922	105.62
238.156	100.62
238.39	87.62
238.624	93.62
238.858	99.62
239.091	105.62
239.325	101.62
239.559	108.62
239.793	89.62
240.027	109.62
240.26	104.62
240.494	119.62
240.728	123.62
240.961	120.62
241.195	100.62
241.429	90.62
241.662	95.62
241.896	105.62
242.13	120.62
242.363	111.62
242.597	102.62
242.83	94.62
243.064	120.62
243.298	106.62
243.531	111.62
243.765	91.62
243.998	105.62
244.232	103.62
244.465	111.62
244.699	94.62
244.932	106.62
245.166	97.62
245.399	102.62
245.633	106.62
245.866	111.62
246.099	103.62
246.333	109.62
246.566	104.62
246.8	96.62
247.033	116.62
247.266	113.62
247.5	115.62
247.733	119.62
247.966	108.62
248.2	127.62
248.433	109.62
248.666	115.62
248.899	123.62
249.133	133.62
249.366	153.62
249.599	142.62
249.832	133.62
250.066	128.62
250.299	134.62
250.532	121.62
250.765	147.62
250.998	153.62
251.231	135.62
251.465	136.62
251.698	133.62
251.931	132.62
252.164	135.62
252.397	129.62
252.63	127.62
252.863	141.62
253.096	141.62
253.329	156.62
253.562	145.62
253.795	147.62
254.028	131.62
254.261	141.62
254.494	151.62
254.727	147.62
254.96	189.62
255.193	174.62
255.426	151.62
255.659	145.62
255.892	149.62
256.124	161.62
256.357	136.62
256.59	140.62
256.823	143.62
257.056	142.62
257.289	132.62
257.521	133.62
257.754	130.62
257.987	132.62
258.22	127.62
258.452	143.62
258.685	132.62
258.918	134.62
259.151	155.62
259.383	151.62
259.616	134.62
259.849	142.62
260.081	142.62
260.314	184.62
260.547	173.62
260.779	158.62
261.012	149.62
261.244	148.62
261.477	158.62
261.71	141.62
261.942	137.62
262.175	141.62
262.407	138.62
262.64	143.62
262.872	143.62
263.105	134.62
263.337	132.62
263.57	141.62
263.802	141.62
264.035	130.62
264.267	136.62
264.499	125.62
264.732	136.62
264.964	143.62
265.197	126.62
265.429	138.62
265.661	143.62
265.894	152.62
266.126	139.62
266.358	129.62
266.591	139.62
266.823	146.62
267.055	154.62
267.287	137.62
267.52	146.62
267.752	145.62
267.984	151.62
268.216	144.62
268.448	155.62
268.681	151.62
268.913	148.62
269.145	164.62
269.377	160.62
269.609	179.62
269.841	176.62
270.073	179.62
270.306	173.62
270.538	186.62
270.77	191.62
271.002	186.62
271.234	153.62
271.466	196.62
271.698	187.62
271.93	179.62
272.162	188.62
272.394	192.62
272.626	181.62
272.858	161.62
273.09	170.62
273.322	155.62
273.553	167.62
273.785	175.62
274.017	173.62
274.249	164.62
274.481	154.62
274.713	169.62
274.945	165.62
275.176	157.62
275.408	174.62
275.64	166.62
275.872	173.62
276.104	162.62
276.335	157.62
276.567	188.62
276.799	189.62
277.031	195.62
277.262	193.62
277.494	189.62
277.726	199.62
277.957	167.62
278.189	159.62
278.421	171.62
278.652	149.62
278.884	162.62
279.115	158.62
279.347	167.62
279.579	157.62
279.81	172.62
280.042	169.62
280.273	165.62
280.505	179.62
280.736	169.62
280.968	170.62
281.199	155.62
281.431	179.62
281.662	159.62
281.894	170.62
282.125	174.62
282.356	169.62
282.588	193.62
282.819	176.62
283.051	174.62
283.282	166.62
283.513	164.62
283.745	181.62
283.976	172.62
284.207	182.62
284.439	176.62
284.67	170.62
284.901	174.62
285.132	168.62
285.364	171.62
285.595	155.62
285.826	163.62
286.057	176.62
286.288	184.62
286.52	183.62
286.751	171.62
286.982	179.62
287.213	166.62
287.444	168.62
287.675	179.62
287.906	170.62
288.138	177.62
288.369	179.62
288.6	179.62
288.831	183.62
289.062	184.62
289.293	196.62
289.524	160.62
289.755	169.62
289.986	166.62
290.217	178.62
290.448	173.62
290.679	173.62
290.91	173.62
291.141	181.62
291.371	187.62
291.602	180.62
291.833	181.62
292.064	173.62
292.295	169.62
292.526	159.62
292.757	174.62
292.987	179.62
293.218	179.62
293.449	179.62
293.68	176.62
293.91	172.62
294.141	186.62
294.372	188.62
294.603	185.62
294.833	185.62
295.064	156.62
295.295	179.62
295.525	157.62
295.756	196.62
295.987	184.62
296.217	174.62
296.448	197.62
296.679	195.62
296.909	169.62
297.14	169.62
297.37	173.62
297.601	171.62
297.831	179.62
298.062	180.62
298.292	170.62
298.523	176.62
298.753	180.62
298.984	172.62
299.214	195.62
299.445	197.62
299.675	193.62
299.905	188.62
300.136	184.62
300.366	191.62
300.597	182.62
300.827	178.62
301.057	199.62
301.288	193.62
301.518	201.62
301.748	188.62
301.979	189.62
302.209	186.62
302.439	186.62
302.669	195.62
302.9	186.62
303.13	192.62
303.36	179.62
303.59	185.62
303.82	182.62
304.051	200.62
304.281	217.62
304.511	191.62
304.741	191.62
304.971	184.62
305.201	181.62
305.431	195.62
305.661	175.62
305.891	187.62
306.121	192.62
306.352	183.62
306.582	200.62
306.812	201.62
307.042	205.62
307.272	188.62
307.502	192.62
307.731	190.62
307.961	186.62
308.191	196.62
308.421	177.62
308.651	208.62
308.881	206.62
309.111	199.62
309.341	197.62
309.571	214.62
309.8	216.62
310.03	216.62
310.26	230.62
310.49	212.62
310.72	200.62
310.949	215.62
311.179	235.62
311.409	222.62
311.639	210.62
311.868	209.62
312.098	213.62
312.328	224.62
312.557	237.62
312.787	237.62
313.017	221.62
313.246	215.62
313.476	203.62
313.706	209.62
313.935	221.62
314.165	220.62
314.394	226.62
314.624	233.62
314.853	221.62
315.083	223.62
315.312	207.62
315.542	207.62
315.771	215.62
316.001	206.62
316.23	223.62
316.46	210.62
316.689	202.62
316.919	215.62
317.148	216.62
317.377	230.62
317.607	214.62
317.836	203.62
318.065	221.62
318.295	223.62
318.524	214.62
318.753	219.62
318.983	197.62
319.212	209.62
319.441	224.62
319.67	226.62
319.9	229.62
320.129	216.62
320.358	218.62
320.587	213.62
320.816	213.62
321.046	214.62
321.275	233.62
321.504	222.62
321.733	228.62
321.962	239.62
322.191	238.62
322.42	238.62
322.649	256.62
322.878	254.62
323.108	236.62
323.337	263.62
323.566	259.62
323.795	289.62
324.024	313.62
324.253	377.62
324.482	525.62
324.71	788.62
324.939	1087.62
325.168	869.62
325.397	455.62
325.626	319.62
325.855	273.62
326.084	273.62
326.313	260.62
326.542	275.62
326.77	284.62
326.999	355.62
327.228	490.62
327.457	709.62
327.686	811.62
327.914	525.62
328.143	375.62
328.372	351.62
328.6	311.62
328.829	303.62
329.058	322.62
329.287	327.62
329.515	298.62
329.744	275.62
329.972	280.62
330.201	304.62
330.43	335.62
330.658	339.62
330.887	355.62
331.115	351.62
331.344	264.62
331.572	271.62
331.801	277.62
332.03	278.62
332.258	283.62
332.486	264.62
332.715	238.62
332.943	259.62
333.172	240.62
333.4	258.62
333.629	252.62
333.857	283.62
334.085	280.62
334.314	293.62
334.542	316.62
334.771	325.62
334.999	300.62
335.227	268.62
335.455	264.62
335.684	258.62
335.912	243.62
336.14	247.62
336.369	245.62
336.597	248.62
336.825	259.62
337.053	235.62
337.281	235.62
337.51	230.62
337.738	252.62
337.966	241.62
338.194	239.62
338.422	237.62
338.65	238.62
338.878	238.62
339.106	223.62
339.334	237.62
339.562	241.62
339.79	251.62
340.018	234.62
340.246	243.62
340.474	249.62
340.702	241.62
340.93	236.62
341.158	249.62
341.386	234.62
341.614	245.62
341.842	250.62
342.07	228.62
342.298	221.62
342.526	226.62
342.754	207.62
342.981	234.62
343.209	224.62
343.437	233.62
343.665	243.62
343.893	226.62
344.12	228.62
344.348	235.62
344.576	221.62
344.804	214.62
345.031	244.62
345.259	234.62
345.487	230.62
345.714	226.62
345.942	229.62
346.17	220.62
346.397	224.62
346.625	213.62
346.853	233.62
347.08	232.62
347.308	216.62
347.535	221.62
347.763	249.62
347.99	245.62
348.218	240.62
348.445	247.62
348.673	237.62
348.9	221.62
349.128	239.62
349.355	231.62
349.583	216.62
349.81	213.62
350.037	221.62
350.265	220.62
350.492	218.62
350.72	229.62
350.947	224.62
351.174	224.62
351.402	237.62
351.629	231.62
351.856	208.62
352.083	228.62
352.311	234.62
352.538	238.62
352.765	222.62
352.992	220.62
353.22	213.62
353.447	215.62
353.674	223.62
353.901	222.62
354.128	213.62
354.355	203.62
354.583	218.62
354.81	226.62
355.037	212.62
355.264	217.62
355.491	194.62
355.718	207.62
355.945	234.62
356.172	200.62
356.399	207.62
356.626	207.62
356.853	221.62
357.08	212.62
357.307	215.62
357.534	207.62
357.761	200.62
357.988	225.62
358.215	207.62
358.441	215.62
358.668	219.62
358.895	201.62
359.122	212.62
359.349	216.62
359.576	227.62
359.802	234.62
360.029	243.62
360.256	257.62
360.483	260.62
360.709	222.62
360.936	229.62
361.163	231.62
361.39	217.62
361.616	225.62
361.843	216.62
362.07	227.62
362.296	232.62
362.523	223.62
362.749	223.62
362.976	225.62
363.203	220.62
363.429	214.62
363.656	223.62
363.882	198.62
364.109	220.62
364.335	206.62
364.562	226.62
364.788	209.62
365.015	209.62
365.241	215.62
365.468	243.62
365.694	240.62
365.92	245.62
366.147	214.62
366.373	205.62
366.599	215.62
366.826	227.62
367.052	214.62
367.278	212.62
367.505	212.62
367.731	209.62
367.957	213.62
368.184	228.62
368.41	217.62
368.636	212.62
368.862	204.62
369.089	214.62
369.315	217.62
369.541	227.62
369.767	215.62
369.993	218.62
370.219	214.62
370.445	216.62
370.672	223.62
370.898	183.62
371.124	210.62
371.35	212.62
371.576	219.62
371.802	199.62
372.028	218.62
372.254	217.62
372.48	204.62
372.706	225.62
372.932	214.62
373.158	219.62
373.384	199.62
373.61	218.62
373.835	214.62
374.061	208.62
374.287	232.62
374.513	227.62
374.739	215.62
374.965	214.62
375.191	216.62
375.416	192.62
375.642	228.62
375.868	232.62
376.094	205.62
376.319	203.62
376.545	209.62
376.771	213.62
376.997	220.62
377.222	211.62
377.448	198.62
377.674	207.62
377.899	196.62
378.125	216.62
378.35	194.62
378.576	200.62
378.802	209.62
379.027	212.62
379.253	228.62
379.478	230.62
379.704	221.62
379.929	209.62
380.155	202.62
380.38	204.62
380.606	208.62
380.831	220.62
381.057	221.62
381.282	231.62
381.507	207.62
381.733	225.62
381.958	218.62
382.184	205.62
382.409	210.62
382.634	209.62
382.86	231.62
383.085	228.62
383.31	220.62
383.535	216.62
383.761	213.62
383.986	238.62
384.211	223.62
384.436	214.62
384.662	231.62
384.887	225.62
385.112	227.62
385.337	230.62
385.562	228.62
385.787	220.62
386.013	245.62
386.238	244.62
386.463	239.62
386.688	232.62
386.913	242.62
387.138	229.62
387.363	229.62
387.588	234.62
387.813	245.62
388.038	222.62
388.263	215.62
388.488	234.62
388.713	223.62
388.938	232.62
389.163	231.62
389.387	234.62
389.612	236.62
389.837	219.62
390.062	245.62
390.287	224.62
390.512	237.62
390.736	228.62
390.961	229.62
391.186	227.62
391.411	225.62
391.636	228.62
391.86	227.62
392.085	247.62
392.31	230.62
392.534	228.62
392.759	231.62
392.984	223.62
393.208	232.62
393.433	222.62
393.658	232.62
393.882	209.62
394.107	230.62
394.331	224.62
394.556	223.62
394.78	237.62
395.005	237.62
395.229	234.62
395.454	227.62
395.678	240.62
395.903	241.62
396.127	246.62
396.352	261.62
396.576	230.62
396.801	231.62
397.025	234.62
397.249	224.62
397.474	247.62
397.698	238.62
397.922	250.62
398.147	265.62
398.371	271.62
398.595	252.62
398.82	255.62
399.044	257.62
399.268	264.62
399.492	273.62
399.717	297.62
399.941	295.62
400.165	287.62
400.389	301.62
400.613	275.62
400.837	277.62
401.062	255.62
401.286	253.62
401.51	261.62
401.734	268.62
401.958	263.62
402.182	252.62
402.406	250.62
402.63	266.62
402.854	272.62
403.078	267.62
403.302	273.62
403.526	282.62
403.75	273.62
403.974	283.62
404.198	268.62
404.422	286.62
404.645	286.62
404.869	261.62
405.093	282.62
405.317	282.62
405.541	316.62
405.765	304.62
405.988	293.62
406.212	296.62
406.436	318.62
406.66	300.62
406.883	285.62
407.107	305.62
407.331	317.62
407.555	350.62
407.778	327.62
408.002	320.62
408.226	295.62
408.449	299.62
408.673	303.62
408.896	296.62
409.12	320.62
409.344	282.62
409.567	269.62
409.791	275.62
410.014	280.62
410.238	252.62
410.461	277.62
410.685	274.62
410.908	286.62
411.132	283.62
411.355	315.62
411.578	300.62
411.802	284.62
412.025	264.62
412.249	274.62
412.472	267.62
412.695	291.62
412.919	320.62
413.142	270.62
413.365	240.62
413.589	268.62
413.812	261.62
414.035	263.62
414.258	265.62
414.482	258.62
414.705	273.62
414.928	257.62
415.151	248.62
415.374	236.62
415.597	252.62
415.821	268.62
416.044	272.62
416.267	270.62
416.49	274.62
416.713	248.62
416.936	253.62
417.159	253.62
417.382	257.62
417.605	243.62
417.828	254.62
418.051	268.62
418.274	253.62
418.497	244.62
418.72	259.62
418.943	257.62
419.166	259.62
419.389	269.62
419.611	291.62
419.834	262.62
420.057	260.62
420.28	263.62
420.503	267.62
420.726	268.62
420.948	285.62
421.171	297.62
421.394	304.62
421.617	276.62
421.839	273.62
422.062	280.62
422.285	285.62
422.507	310.62
422.73	324.62
422.953	311.62
423.175	272.62
423.398	283.62
423.621	286.62
423.843	293.62
424.066	283.62
424.288	261.62
424.511	272.62
424.733	318.62
424.956	360.62
425.178	331.62
425.401	332.62
425.623	349.62
425.846	300.62
426.068	278.62
426.291	281.62
426.513	265.62
426.735	275.62
426.958	303.62
427.18	341.62
427.402	399.62
427.625	407.62
427.847	380.62
428.069	322.62
428.292	295.62
428.514	269.62
428.736	270.62
428.958	268.62
429.181	262.62
429.403	255.62
429.625	273.62
429.847	286.62
430.069	317.62
430.292	314.62
430.514	262.62
430.736	254.62
430.958	266.62
431.18	254.62
431.402	250.62
431.624	237.62
431.846	256.62
432.068	243.62
432.29	254.62
432.512	253.62
432.734	245.62
432.956	264.62
433.178	248.62
433.4	274.62
433.622	247.62
433.844	251.62
434.066	259.62
434.287	258.62
434.509	237.62
434.731	246.62
434.953	269.62
435.175	276.62
435.397	294.62
435.618	284.62
435.84	301.62
436.062	334.62
436.284	359.62
436.505	319.62
436.727	287.62
436.949	257.62
437.17	251.62
437.392	236.62
437.614	271.62
437.835	279.62
438.057	324.62
438.278	379.62
438.5	359.62
438.721	413.62
438.943	377.62
439.165	292.62
439.386	285.62
439.608	273.62
439.829	286.62
440.05	304.62
440.272	324.62
440.493	305.62
440.715	273.62
440.936	269.62
441.158	268.62
441.379	278.62
441.6	286.62
441.822	292.62
442.043	296.62
442.264	340.62
442.486	356.62
442.707	309.62
442.928	304.62
443.149	279.62
443.371	304.62
443.592	327.62
443.813	363.62
444.034	373.62
444.255	331.62
444.476	283.62
444.698	291.62
444.919	284.62
445.14	383.62
445.361	339.62
445.582	301.62
445.803	349.62
446.024	392.62
446.245	383.62
446.466	343.62
446.687	286.62
446.908	280.62
447.129	265.62
447.35	263.62
447.571	253.62
447.792	256.62
448.013	257.62
448.234	283.62
448.455	302.62
448.675	325.62
448.896	376.62
449.117	329.62
449.338	332.62
449.559	366.62
449.779	390.62
450	339.62
450.221	289.62
450.442	261.62
450.662	238.62
450.883	249.62
451.104	273.62
451.324	273.62
451.545	254.62
451.766	249.62
451.986	249.62
452.207	247.62
452.428	243.62
452.648	246.62
452.869	234.62
453.089	242.62
453.31	272.62
453.53	225.62
453.751	231.62
453.971	260.62
454.192	277.62
454.412	236.62
454.633	219.62
454.853	222.62
455.073	245.62
455.294	264.62
455.514	294.62
455.734	277.62
455.955	226.62
456.175	229.62
456.395	226.62
456.616	237.62
456.836	223.62
457.056	217.62
457.276	234.62
457.497	240.62
457.717	223.62
457.937	221.62
458.157	230.62
458.377	240.62
458.598	260.62
458.818	282.62
459.038	348.62
459.258	327.62
459.478	269.62
459.698	249.62
459.918	257.62
460.138	251.62
460.358	251.62
460.578	250.62
460.798	252.62
461.018	262.62
461.238	249.62
461.458	251.62
461.678	254.62
461.898	264.62
462.118	275.62
462.338	259.62
462.558	259.62
462.777	268.62
462.997	276.62
463.217	280.62
463.437	283.62
463.657	256.62
463.876	259.62
464.096	264.62
464.316	260.62
464.536	283.62
464.755	274.62
464.975	261.62
465.195	323.62
465.414	355.62
465.634	300.62
465.854	277.62
466.073	252.62
466.293	260.62
466.512	263.62
466.732	228.62
466.951	256.62
467.171	246.62
467.391	249.62
467.61	252.62
467.829	260.62
468.049	259.62
468.268	252.62
468.488	238.62
468.707	232.62
468.927	260.62
469.146	239.62
469.365	222.62
469.585	213.62
469.804	238.62
470.023	251.62
470.243	261.62
470.462	251.62
470.681	267.62
470.901	248.62
471.12	271.62
471.339	264.62
471.558	251.62
471.777	255.62
471.997	260.62
472.216	257.62
472.435	289.62
472.654	283.62
472.873	264.62
473.092	263.62
473.311	225.62
473.53	244.62
473.749	257.62
473.968	280.62
474.187	340.62
474.406	336.62
474.625	276.62
474.844	254.62
475.063	241.62
475.282	269.62
475.501	243.62
475.72	257.62
475.939	252.62
476.158	251.62
476.377	281.62
476.596	243.62
476.814	253.62
477.033	260.62
477.252	258.62
477.471	260.62
477.69	281.62
477.908	266.62
478.127	277.62
478.346	271.62
478.564	256.62
478.783	261.62
479.002	272.62
479.22	279.62
479.439	281.62
479.658	286.62
479.876	295.62
480.095	312.62
480.313	307.62
480.532	303.62
480.751	298.62
480.969	326.62
481.188	362.62
481.406	391.62
481.624	336.62
481.843	308.62
482.061	287.62
482.28	296.62
482.498	278.62
482.717	283.62
482.935	284.62
483.153	275.62
483.372	256.62
483.59	296.62
483.808	294.62
484.027	281.62
484.245	291.62
484.463	283.62
484.681	311.62
484.9	295.62
485.118	289.62
485.336	291.62
485.554	278.62
485.772	311.62
485.99	296.62
486.209	297.62
486.427	307.62
486.645	294.62
486.863	311.62
487.081	307.62
487.299	298.62
487.517	289.62
487.735	304.62
487.953	314.62
488.171	322.62
488.389	311.62
488.607	307.62
488.825	320.62
489.043	323.62
489.261	307.62
489.479	308.62
489.696	319.62
489.914	298.62
490.132	302.62
490.35	311.62
490.568	316.62
490.786	329.62
491.003	327.62
491.221	333.62
491.439	351.62
491.657	355.62
491.874	343.62
492.092	376.62
492.31	377.62
492.527	360.62
492.745	377.62
492.963	353.62
493.18	356.62
493.398	360.62
493.615	363.62
493.833	372.62
494.05	365.62
494.268	371.62
494.485	377.62
494.703	353.62
494.92	362.62
495.138	348.62
495.355	367.62
495.573	364.62
495.79	377.62
496.008	352.62
496.225	362.62
496.442	358.62
496.66	370.62
496.877	365.62
497.094	336.62
497.312	350.62
497.529	360.62
497.746	360.62
497.963	356.62
498.181	386.62
498.398	383.62
498.615	397.62
498.832	374.62
499.049	408.62
499.267	405.62
499.484	411.62
499.701	412.62
499.918	429.62
500.135	478.62
500.352	475.62
500.569	446.62
500.786	468.62
501.003	483.62
501.22	473.62
501.437	453.62
501.654	440.62
501.871	437.62
502.088	435.62
502.305	397.62
