Data from 1966.PennyLincolnUp.Lamp.En5.5.200Scan.071719.P1.Scan2.head_HRD10591_14-18-26-188.txt Node
Date: Thu Jul 18 14:18:26 EDT 2019
User: cochatt
Spectrometer: HR+D1059
Trigger mode: 1
Integration Time (sec): 1.000000E-1
Scans to average: 1
Electric dark correction enabled: true
Nonlinearity correction enabled: false
Boxcar width: 0
XAxis mode: Wavelengths
Number of Pixels in Spectrum: 2048
>>>>>Begin Spectral Data<<<<<
223.165	-19.75
223.4	-19.75
223.635	-19.75
223.869	-15.75
224.104	-16.75
224.338	-11.75
224.573	-26.75
224.808	-21.75
225.042	-9.75
225.277	-4.75
225.511	-5.75
225.746	-9.75
225.98	12.25
226.215	15.25
226.449	31.25
226.683	22.25
226.918	35.25
227.152	26.25
227.387	27.25
227.621	32.25
227.856	36.25
228.09	37.25
228.324	52.25
228.559	56.25
228.793	59.25
229.027	96.25
229.262	100.25
229.496	125.25
229.73	139.25
229.964	155.25
230.199	138.25
230.433	121.25
230.667	115.25
230.901	114.25
231.136	104.25
231.37	111.25
231.604	119.25
231.838	116.25
232.072	105.25
232.306	125.25
232.541	115.25
232.775	119.25
233.009	119.25
233.243	125.25
233.477	112.25
233.711	122.25
233.945	119.25
234.179	124.25
234.413	131.25
234.647	113.25
234.881	103.25
235.115	135.25
235.349	133.25
235.583	125.25
235.817	129.25
236.051	126.25
236.285	127.25
236.519	120.25
236.753	133.25
236.987	152.25
237.221	188.25
237.455	259.25
237.689	196.25
237.922	149.25
238.156	155.25
238.39	149.25
238.624	126.25
238.858	133.25
239.091	123.25
239.325	153.25
239.559	133.25
239.793	131.25
240.027	139.25
240.26	141.25
240.494	145.25
240.728	156.25
240.961	161.25
241.195	137.25
241.429	159.25
241.662	142.25
241.896	142.25
242.13	138.25
242.363	143.25
242.597	145.25
242.83	146.25
243.064	139.25
243.298	137.25
243.531	155.25
243.765	149.25
243.998	144.25
244.232	140.25
244.465	141.25
244.699	157.25
244.932	152.25
245.166	151.25
245.399	154.25
245.633	139.25
245.866	148.25
246.099	158.25
246.333	148.25
246.566	147.25
246.8	167.25
247.033	153.25
247.266	165.25
247.5	190.25
247.733	175.25
247.966	187.25
248.2	171.25
248.433	165.25
248.666	182.25
248.899	189.25
249.133	201.25
249.366	219.25
249.599	195.25
249.832	184.25
250.066	185.25
250.299	177.25
250.532	216.25
250.765	214.25
250.998	215.25
251.231	232.25
251.465	223.25
251.698	212.25
251.931	213.25
252.164	199.25
252.397	204.25
252.63	199.25
252.863	215.25
253.096	222.25
253.329	215.25
253.562	221.25
253.795	214.25
254.028	224.25
254.261	218.25
254.494	208.25
254.727	268.25
254.96	307.25
255.193	271.25
255.426	244.25
255.659	257.25
255.892	243.25
256.124	227.25
256.357	232.25
256.59	228.25
256.823	229.25
257.056	219.25
257.289	224.25
257.521	214.25
257.754	213.25
257.987	214.25
258.22	205.25
258.452	207.25
258.685	203.25
258.918	227.25
259.151	211.25
259.383	221.25
259.616	231.25
259.849	233.25
260.081	243.25
260.314	255.25
260.547	285.25
260.779	256.25
261.012	233.25
261.244	251.25
261.477	237.25
261.71	231.25
261.942	208.25
262.175	239.25
262.407	245.25
262.64	217.25
262.872	228.25
263.105	206.25
263.337	227.25
263.57	221.25
263.802	207.25
264.035	221.25
264.267	204.25
264.499	209.25
264.732	215.25
264.964	212.25
265.197	216.25
265.429	229.25
265.661	213.25
265.894	219.25
266.126	221.25
266.358	229.25
266.591	209.25
266.823	217.25
267.055	238.25
267.287	237.25
267.52	233.25
267.752	206.25
267.984	231.25
268.216	224.25
268.448	235.25
268.681	252.25
268.913	251.25
269.145	270.25
269.377	285.25
269.609	271.25
269.841	256.25
270.073	267.25
270.306	287.25
270.538	316.25
270.77	336.25
271.002	319.25
271.234	292.25
271.466	297.25
271.698	309.25
271.93	326.25
272.162	330.25
272.394	311.25
272.626	299.25
272.858	288.25
273.09	290.25
273.322	289.25
273.553	279.25
273.785	263.25
274.017	261.25
274.249	282.25
274.481	277.25
274.713	254.25
274.945	288.25
275.176	273.25
275.408	296.25
275.64	283.25
275.872	258.25
276.104	270.25
276.335	261.25
276.567	284.25
276.799	278.25
277.031	300.25
277.262	326.25
277.494	331.25
277.726	289.25
277.957	273.25
278.189	286.25
278.421	292.25
278.652	282.25
278.884	275.25
279.115	279.25
279.347	280.25
279.579	272.25
279.81	272.25
280.042	276.25
280.273	279.25
280.505	270.25
280.736	282.25
280.968	280.25
281.199	277.25
281.431	267.25
281.662	267.25
281.894	273.25
282.125	281.25
282.356	304.25
282.588	321.25
282.819	322.25
283.051	297.25
283.282	274.25
283.513	284.25
283.745	285.25
283.976	280.25
284.207	268.25
284.439	303.25
284.67	287.25
284.901	292.25
285.132	293.25
285.364	273.25
285.595	287.25
285.826	280.25
286.057	281.25
286.288	280.25
286.52	290.25
286.751	276.25
286.982	305.25
287.213	283.25
287.444	295.25
287.675	286.25
287.906	307.25
288.138	311.25
288.369	314.25
288.6	304.25
288.831	300.25
289.062	296.25
289.293	295.25
289.524	303.25
289.755	294.25
289.986	291.25
290.217	303.25
290.448	290.25
290.679	287.25
290.91	307.25
291.141	293.25
291.371	300.25
291.602	310.25
291.833	292.25
292.064	310.25
292.295	294.25
292.526	311.25
292.757	309.25
292.987	288.25
293.218	293.25
293.449	314.25
293.68	315.25
293.91	295.25
294.141	286.25
294.372	307.25
294.603	297.25
294.833	289.25
295.064	331.25
295.295	301.25
295.525	301.25
295.756	311.25
295.987	312.25
296.217	316.25
296.448	319.25
296.679	316.25
296.909	299.25
297.14	289.25
297.37	296.25
297.601	293.25
297.831	315.25
298.062	317.25
298.292	324.25
298.523	303.25
298.753	319.25
298.984	295.25
299.214	333.25
299.445	311.25
299.675	318.25
299.905	331.25
300.136	328.25
300.366	338.25
300.597	327.25
300.827	330.25
301.057	344.25
301.288	331.25
301.518	343.25
301.748	332.25
301.979	333.25
302.209	325.25
302.439	339.25
302.669	345.25
302.9	335.25
303.13	331.25
303.36	348.25
303.59	313.25
303.82	357.25
304.051	361.25
304.281	351.25
304.511	336.25
304.741	329.25
304.971	336.25
305.201	351.25
305.431	342.25
305.661	337.25
305.891	327.25
306.121	342.25
306.352	356.25
306.582	354.25
306.812	352.25
307.042	324.25
307.272	325.25
307.502	356.25
307.731	346.25
307.961	349.25
308.191	343.25
308.421	343.25
308.651	334.25
308.881	356.25
309.111	352.25
309.341	336.25
309.571	371.25
309.8	365.25
310.03	389.25
310.26	373.25
310.49	379.25
310.72	388.25
310.949	366.25
311.179	409.25
311.409	379.25
311.639	380.25
311.868	390.25
312.098	391.25
312.328	395.25
312.557	404.25
312.787	438.25
313.017	414.25
313.246	420.25
313.476	382.25
313.706	395.25
313.935	385.25
314.165	411.25
314.394	422.25
314.624	409.25
314.853	393.25
315.083	399.25
315.312	381.25
315.542	389.25
315.771	380.25
316.001	368.25
316.23	393.25
316.46	401.25
316.689	391.25
316.919	391.25
317.148	417.25
317.377	398.25
317.607	391.25
317.836	382.25
318.065	376.25
318.295	404.25
318.524	377.25
318.753	382.25
318.983	387.25
319.212	381.25
319.441	395.25
319.67	403.25
319.9	387.25
320.129	401.25
320.358	371.25
320.587	393.25
320.816	401.25
321.046	410.25
321.275	397.25
321.504	396.25
321.733	436.25
321.962	431.25
322.191	416.25
322.42	449.25
322.649	448.25
322.878	468.25
323.108	458.25
323.337	475.25
323.566	491.25
323.795	519.25
324.024	556.25
324.253	682.25
324.482	968.25
324.71	1517.25
324.939	2254.25
325.168	1957.25
325.397	953.25
325.626	632.25
325.855	554.25
326.084	512.25
326.313	485.25
326.542	512.25
326.77	536.25
326.999	631.25
327.228	855.25
327.457	1309.25
327.686	1701.25
327.914	1104.25
328.143	718.25
328.372	655.25
328.6	603.25
328.829	581.25
329.058	586.25
329.287	576.25
329.515	549.25
329.744	519.25
329.972	513.25
330.201	530.25
330.43	569.25
330.658	593.25
330.887	618.25
331.115	608.25
331.344	561.25
331.572	513.25
331.801	527.25
332.03	521.25
332.258	486.25
332.486	484.25
332.715	471.25
332.943	508.25
333.172	467.25
333.4	459.25
333.629	488.25
333.857	502.25
334.085	513.25
334.314	536.25
334.542	562.25
334.771	586.25
334.999	535.25
335.227	509.25
335.455	499.25
335.684	467.25
335.912	498.25
336.14	455.25
336.369	450.25
336.597	469.25
336.825	461.25
337.053	465.25
337.281	459.25
337.51	473.25
337.738	459.25
337.966	459.25
338.194	466.25
338.422	446.25
338.65	443.25
338.878	439.25
339.106	449.25
339.334	463.25
339.562	446.25
339.79	437.25
340.018	452.25
340.246	446.25
340.474	459.25
340.702	441.25
340.93	456.25
341.158	436.25
341.386	450.25
341.614	463.25
341.842	452.25
342.07	442.25
342.298	454.25
342.526	446.25
342.754	441.25
342.981	428.25
343.209	427.25
343.437	432.25
343.665	448.25
343.893	447.25
344.12	484.25
344.348	468.25
344.576	484.25
344.804	459.25
345.031	467.25
345.259	487.25
345.487	483.25
345.714	459.25
345.942	445.25
346.17	464.25
346.397	451.25
346.625	433.25
346.853	431.25
347.08	435.25
347.308	470.25
347.535	461.25
347.763	453.25
347.99	447.25
348.218	444.25
348.445	467.25
348.673	425.25
348.9	442.25
349.128	431.25
349.355	430.25
349.583	415.25
349.81	432.25
350.037	446.25
350.265	417.25
350.492	429.25
350.72	428.25
350.947	454.25
351.174	452.25
351.402	439.25
351.629	427.25
351.856	455.25
352.083	446.25
352.311	449.25
352.538	458.25
352.765	462.25
352.992	460.25
353.22	448.25
353.447	451.25
353.674	425.25
353.901	449.25
354.128	408.25
354.355	419.25
354.583	415.25
354.81	420.25
355.037	415.25
355.264	423.25
355.491	423.25
355.718	397.25
355.945	399.25
356.172	395.25
356.399	408.25
356.626	423.25
356.853	423.25
357.08	400.25
357.307	412.25
357.534	412.25
357.761	416.25
357.988	419.25
358.215	408.25
358.441	404.25
358.668	406.25
358.895	443.25
359.122	421.25
359.349	424.25
359.576	454.25
359.802	448.25
360.029	476.25
360.256	503.25
360.483	483.25
360.709	458.25
360.936	453.25
361.163	448.25
361.39	438.25
361.616	456.25
361.843	415.25
362.07	448.25
362.296	453.25
362.523	439.25
362.749	474.25
362.976	444.25
363.203	425.25
363.429	445.25
363.656	440.25
363.882	436.25
364.109	440.25
364.335	429.25
364.562	429.25
364.788	433.25
365.015	440.25
365.241	443.25
365.468	425.25
365.694	432.25
365.92	435.25
366.147	431.25
366.373	414.25
366.599	426.25
366.826	402.25
367.052	423.25
367.278	441.25
367.505	422.25
367.731	431.25
367.957	414.25
368.184	416.25
368.41	426.25
368.636	437.25
368.862	427.25
369.089	430.25
369.315	413.25
369.541	438.25
369.767	419.25
369.993	422.25
370.219	424.25
370.445	444.25
370.672	420.25
370.898	428.25
371.124	427.25
371.35	441.25
371.576	431.25
371.802	432.25
372.028	435.25
372.254	444.25
372.48	424.25
372.706	419.25
372.932	445.25
373.158	434.25
373.384	436.25
373.61	449.25
373.835	441.25
374.061	431.25
374.287	449.25
374.513	445.25
374.739	441.25
374.965	444.25
375.191	456.25
375.416	440.25
375.642	452.25
375.868	442.25
376.094	452.25
376.319	436.25
376.545	418.25
376.771	419.25
376.997	419.25
377.222	431.25
377.448	445.25
377.674	429.25
377.899	447.25
378.125	431.25
378.35	418.25
378.576	423.25
378.802	423.25
379.027	423.25
379.253	437.25
379.478	432.25
379.704	430.25
379.929	431.25
380.155	441.25
380.38	439.25
380.606	447.25
380.831	416.25
381.057	447.25
381.282	439.25
381.507	414.25
381.733	428.25
381.958	454.25
382.184	444.25
382.409	455.25
382.634	443.25
382.86	440.25
383.085	431.25
383.31	457.25
383.535	455.25
383.761	459.25
383.986	451.25
384.211	455.25
384.436	462.25
384.662	469.25
384.887	477.25
385.112	455.25
385.337	452.25
385.562	475.25
385.787	472.25
386.013	497.25
386.238	500.25
386.463	503.25
386.688	485.25
386.913	487.25
387.138	480.25
387.363	476.25
387.588	481.25
387.813	494.25
388.038	507.25
388.263	479.25
388.488	478.25
388.713	505.25
388.938	491.25
389.163	464.25
389.387	492.25
389.612	467.25
389.837	475.25
390.062	469.25
390.287	483.25
390.512	468.25
390.736	495.25
390.961	491.25
391.186	471.25
391.411	492.25
391.636	489.25
391.86	504.25
392.085	501.25
392.31	513.25
392.534	493.25
392.759	510.25
392.984	487.25
393.208	496.25
393.433	515.25
393.658	497.25
393.882	478.25
394.107	496.25
394.331	484.25
394.556	478.25
394.78	492.25
395.005	494.25
395.229	466.25
395.454	499.25
395.678	505.25
395.903	532.25
396.127	534.25
396.352	528.25
396.576	511.25
396.801	516.25
397.025	509.25
397.249	520.25
397.474	535.25
397.698	515.25
397.922	540.25
398.147	540.25
398.371	577.25
398.595	551.25
398.82	543.25
399.044	580.25
399.268	579.25
399.492	607.25
399.717	650.25
399.941	694.25
400.165	696.25
400.389	718.25
400.613	640.25
400.837	602.25
401.062	583.25
401.286	577.25
401.51	593.25
401.734	569.25
401.958	568.25
402.182	554.25
402.406	592.25
402.63	578.25
402.854	583.25
403.078	582.25
403.302	595.25
403.526	579.25
403.75	600.25
403.974	598.25
404.198	588.25
404.422	605.25
404.645	599.25
404.869	587.25
405.093	620.25
405.317	707.25
405.541	735.25
405.765	640.25
405.988	612.25
406.212	643.25
406.436	655.25
406.66	679.25
406.883	614.25
407.107	651.25
407.331	731.25
407.555	779.25
407.778	790.25
408.002	711.25
408.226	672.25
408.449	645.25
408.673	631.25
408.896	683.25
409.12	715.25
409.344	666.25
409.567	624.25
409.791	624.25
410.014	599.25
410.238	597.25
410.461	590.25
410.685	615.25
410.908	628.25
411.132	675.25
411.355	700.25
411.578	650.25
411.802	606.25
412.025	599.25
412.249	611.25
412.472	620.25
412.695	680.25
412.919	668.25
413.142	597.25
413.365	611.25
413.589	583.25
413.812	571.25
414.035	559.25
414.258	558.25
414.482	563.25
414.705	569.25
414.928	559.25
415.151	565.25
415.374	553.25
415.597	556.25
415.821	560.25
416.044	566.25
416.267	557.25
416.49	544.25
416.713	547.25
416.936	563.25
417.159	563.25
417.382	575.25
417.605	552.25
417.828	556.25
418.051	566.25
418.274	581.25
418.497	544.25
418.72	546.25
418.943	549.25
419.166	594.25
419.389	605.25
419.611	602.25
419.834	599.25
420.057	577.25
420.28	606.25
420.503	574.25
420.726	587.25
420.948	591.25
421.171	636.25
421.394	673.25
421.617	618.25
421.839	572.25
422.062	598.25
422.285	585.25
422.507	660.25
422.73	727.25
422.953	733.25
423.175	648.25
423.398	611.25
423.621	601.25
423.843	606.25
424.066	623.25
424.288	636.25
424.511	647.25
424.733	720.25
424.956	790.25
425.178	748.25
425.401	741.25
425.623	750.25
425.846	679.25
426.068	608.25
426.291	633.25
426.513	638.25
426.735	629.25
426.958	679.25
427.18	762.25
427.402	911.25
427.625	1025.25
427.847	871.25
428.069	744.25
428.292	694.25
428.514	608.25
428.736	594.25
428.958	599.25
429.181	559.25
429.403	569.25
429.625	581.25
429.847	616.25
430.069	698.25
430.292	699.25
430.514	603.25
430.736	603.25
430.958	607.25
431.18	567.25
431.402	580.25
431.624	550.25
431.846	543.25
432.068	544.25
432.29	539.25
432.512	551.25
432.734	581.25
432.956	575.25
433.178	589.25
433.4	568.25
433.622	544.25
433.844	563.25
434.066	550.25
434.287	573.25
434.509	567.25
434.731	560.25
434.953	586.25
435.175	601.25
435.397	617.25
435.618	642.25
435.84	682.25
436.062	764.25
436.284	857.25
436.505	717.25
436.727	631.25
436.949	612.25
437.17	581.25
437.392	570.25
437.614	592.25
437.835	635.25
438.057	723.25
438.278	855.25
438.5	824.25
438.721	928.25
438.943	907.25
439.165	703.25
439.386	641.25
439.608	607.25
439.829	618.25
440.05	647.25
440.272	708.25
440.493	666.25
440.715	639.25
440.936	631.25
441.158	596.25
441.379	581.25
441.6	583.25
441.822	618.25
442.043	669.25
442.264	759.25
442.486	815.25
442.707	688.25
442.928	620.25
443.149	638.25
443.371	653.25
443.592	719.25
443.813	838.25
444.034	903.25
444.255	739.25
444.476	657.25
444.698	639.25
444.919	645.25
445.14	764.25
445.361	721.25
445.582	660.25
445.803	742.25
446.024	854.25
446.245	879.25
446.466	791.25
446.687	683.25
446.908	637.25
447.129	617.25
447.35	590.25
447.571	589.25
447.792	588.25
448.013	603.25
448.234	595.25
448.455	644.25
448.675	772.25
448.896	920.25
449.117	778.25
449.338	721.25
449.559	843.25
449.779	980.25
450	756.25
450.221	639.25
450.442	587.25
450.662	544.25
450.883	571.25
451.104	562.25
451.324	554.25
451.545	535.25
451.766	504.25
451.986	513.25
452.207	511.25
452.428	515.25
452.648	547.25
452.869	521.25
453.089	520.25
453.31	524.25
453.53	522.25
453.751	532.25
453.971	492.25
454.192	538.25
454.412	518.25
454.633	499.25
454.853	522.25
455.073	513.25
455.294	553.25
455.514	615.25
455.734	597.25
455.955	542.25
456.175	523.25
456.395	486.25
456.616	496.25
456.836	488.25
457.056	475.25
457.276	486.25
457.497	510.25
457.717	475.25
457.937	501.25
458.157	474.25
458.377	521.25
458.598	529.25
458.818	599.25
459.038	678.25
459.258	679.25
459.478	604.25
459.698	581.25
459.918	552.25
460.138	543.25
460.358	545.25
460.578	561.25
460.798	567.25
461.018	569.25
461.238	568.25
461.458	536.25
461.678	533.25
461.898	558.25
462.118	575.25
462.338	565.25
462.558	594.25
462.777	590.25
462.997	586.25
463.217	616.25
463.437	631.25
463.657	629.25
463.876	597.25
464.096	594.25
464.316	614.25
464.536	619.25
464.755	623.25
464.975	597.25
465.195	645.25
465.414	702.25
465.634	638.25
465.854	576.25
466.073	565.25
466.293	540.25
466.512	527.25
466.732	537.25
466.951	535.25
467.171	537.25
467.391	548.25
467.61	558.25
467.829	573.25
468.049	551.25
468.268	541.25
468.488	529.25
468.707	512.25
468.927	509.25
469.146	528.25
469.365	526.25
469.585	528.25
469.804	534.25
470.023	541.25
470.243	532.25
470.462	543.25
470.681	564.25
470.901	559.25
471.12	534.25
471.339	529.25
471.558	526.25
471.777	555.25
471.997	523.25
472.216	525.25
472.435	581.25
472.654	557.25
472.873	549.25
473.092	535.25
473.311	519.25
473.53	540.25
473.749	554.25
473.968	600.25
474.187	686.25
474.406	712.25
474.625	595.25
474.844	548.25
475.063	543.25
475.282	557.25
475.501	569.25
475.72	557.25
475.939	571.25
476.158	569.25
476.377	564.25
476.596	561.25
476.814	581.25
477.033	573.25
477.252	570.25
477.471	567.25
477.69	571.25
477.908	611.25
478.127	625.25
478.346	605.25
478.564	593.25
478.783	597.25
479.002	623.25
479.22	631.25
479.439	647.25
479.658	628.25
479.876	644.25
480.095	649.25
480.313	681.25
480.532	697.25
480.751	653.25
480.969	678.25
481.188	727.25
481.406	791.25
481.624	696.25
481.843	675.25
482.061	635.25
482.28	627.25
482.498	658.25
482.717	617.25
482.935	640.25
483.153	652.25
483.372	635.25
483.59	608.25
483.808	631.25
484.027	663.25
484.245	639.25
484.463	630.25
484.681	633.25
484.9	677.25
485.118	640.25
485.336	642.25
485.554	630.25
485.772	661.25
485.99	635.25
486.209	650.25
486.427	683.25
486.645	679.25
486.863	688.25
487.081	705.25
487.299	676.25
487.517	697.25
487.735	676.25
487.953	676.25
488.171	696.25
488.389	686.25
488.607	695.25
488.825	695.25
489.043	706.25
489.261	696.25
489.479	715.25
489.696	707.25
489.914	718.25
490.132	710.25
490.35	729.25
490.568	728.25
490.786	733.25
491.003	718.25
491.221	727.25
491.439	751.25
491.657	795.25
491.874	810.25
492.092	798.25
492.31	770.25
492.527	785.25
492.745	800.25
492.963	842.25
493.18	816.25
493.398	790.25
493.615	815.25
493.833	811.25
494.05	807.25
494.268	809.25
494.485	824.25
494.703	798.25
494.92	794.25
495.138	825.25
495.355	797.25
495.573	826.25
495.79	828.25
496.008	828.25
496.225	825.25
496.442	803.25
496.66	800.25
496.877	806.25
497.094	814.25
497.312	816.25
497.529	831.25
497.746	859.25
497.963	838.25
498.181	872.25
498.398	887.25
498.615	907.25
498.832	953.25
499.049	948.25
499.267	1001.25
499.484	1013.25
499.701	1086.25
499.918	1081.25
500.135	1139.25
500.352	1163.25
500.569	1197.25
500.786	1199.25
501.003	1174.25
501.22	1137.25
501.437	1103.25
501.654	1086.25
