Data from 1966.PennyLincolnUp.Lamp.En5.5.200Scan.071719.P1.Scan2.head_HRD10591_14-19-26-268.txt Node
Date: Thu Jul 18 14:19:26 EDT 2019
User: cochatt
Spectrometer: HR+D1059
Trigger mode: 1
Integration Time (sec): 1.000000E-1
Scans to average: 1
Electric dark correction enabled: true
Nonlinearity correction enabled: false
Boxcar width: 0
XAxis mode: Wavelengths
Number of Pixels in Spectrum: 2048
>>>>>Begin Spectral Data<<<<<
223.165	-9.5
223.4	-9.5
223.635	-9.5
223.869	-16.5
224.104	-26.5
224.338	-32.5
224.573	-5.5
224.808	-12.5
225.042	-12.5
225.277	1.5
225.511	-4.5
225.746	0.5
225.98	20.5
226.215	14.5
226.449	22.5
226.683	7.5
226.918	27.5
227.152	25.5
227.387	26.5
227.621	35.5
227.856	40.5
228.09	50.5
228.324	49.5
228.559	70.5
228.793	59.5
229.027	94.5
229.262	101.5
229.496	102.5
229.73	134.5
229.964	157.5
230.199	141.5
230.433	124.5
230.667	108.5
230.901	109.5
231.136	120.5
231.37	122.5
231.604	111.5
231.838	110.5
232.072	94.5
232.306	102.5
232.541	118.5
232.775	118.5
233.009	125.5
233.243	124.5
233.477	127.5
233.711	121.5
233.945	126.5
234.179	105.5
234.413	123.5
234.647	101.5
234.881	110.5
235.115	103.5
235.349	117.5
235.583	127.5
235.817	122.5
236.051	108.5
236.285	114.5
236.519	122.5
236.753	126.5
236.987	150.5
237.221	206.5
237.455	269.5
237.689	182.5
237.922	160.5
238.156	133.5
238.39	141.5
238.624	115.5
238.858	128.5
239.091	116.5
239.325	121.5
239.559	139.5
239.793	126.5
240.027	138.5
240.26	149.5
240.494	161.5
240.728	168.5
240.961	155.5
241.195	153.5
241.429	141.5
241.662	130.5
241.896	132.5
242.13	130.5
242.363	138.5
242.597	125.5
242.83	144.5
243.064	137.5
243.298	135.5
243.531	140.5
243.765	149.5
243.998	147.5
244.232	140.5
244.465	147.5
244.699	148.5
244.932	151.5
245.166	135.5
245.399	155.5
245.633	150.5
245.866	127.5
246.099	158.5
246.333	147.5
246.566	147.5
246.8	160.5
247.033	154.5
247.266	154.5
247.5	174.5
247.733	172.5
247.966	189.5
248.2	179.5
248.433	161.5
248.666	164.5
248.899	196.5
249.133	207.5
249.366	193.5
249.599	201.5
249.832	172.5
250.066	190.5
250.299	179.5
250.532	190.5
250.765	205.5
250.998	230.5
251.231	236.5
251.465	206.5
251.698	215.5
251.931	221.5
252.164	206.5
252.397	197.5
252.63	207.5
252.863	196.5
253.096	236.5
253.329	234.5
253.562	221.5
253.795	216.5
254.028	226.5
254.261	228.5
254.494	252.5
254.727	254.5
254.96	287.5
255.193	277.5
255.426	258.5
255.659	230.5
255.892	241.5
256.124	257.5
256.357	217.5
256.59	225.5
256.823	232.5
257.056	212.5
257.289	223.5
257.521	224.5
257.754	210.5
257.987	209.5
258.22	228.5
258.452	206.5
258.685	210.5
258.918	217.5
259.151	212.5
259.383	224.5
259.616	228.5
259.849	231.5
260.081	234.5
260.314	241.5
260.547	268.5
260.779	253.5
261.012	233.5
261.244	222.5
261.477	229.5
261.71	230.5
261.942	233.5
262.175	234.5
262.407	235.5
262.64	230.5
262.872	235.5
263.105	218.5
263.337	210.5
263.57	218.5
263.802	211.5
264.035	214.5
264.267	228.5
264.499	217.5
264.732	221.5
264.964	217.5
265.197	235.5
265.429	215.5
265.661	233.5
265.894	205.5
266.126	235.5
266.358	212.5
266.591	228.5
266.823	239.5
267.055	224.5
267.287	222.5
267.52	231.5
267.752	218.5
267.984	238.5
268.216	242.5
268.448	231.5
268.681	242.5
268.913	271.5
269.145	278.5
269.377	282.5
269.609	271.5
269.841	259.5
270.073	267.5
270.306	297.5
270.538	328.5
270.77	322.5
271.002	305.5
271.234	292.5
271.466	305.5
271.698	301.5
271.93	317.5
272.162	318.5
272.394	312.5
272.626	301.5
272.858	284.5
273.09	275.5
273.322	273.5
273.553	269.5
273.785	263.5
274.017	289.5
274.249	273.5
274.481	282.5
274.713	279.5
274.945	279.5
275.176	281.5
275.408	278.5
275.64	292.5
275.872	244.5
276.104	281.5
276.335	262.5
276.567	274.5
276.799	270.5
277.031	309.5
277.262	305.5
277.494	319.5
277.726	307.5
277.957	292.5
278.189	284.5
278.421	276.5
278.652	302.5
278.884	282.5
279.115	286.5
279.347	268.5
279.579	262.5
279.81	266.5
280.042	268.5
280.273	276.5
280.505	273.5
280.736	254.5
280.968	281.5
281.199	278.5
281.431	284.5
281.662	265.5
281.894	266.5
282.125	279.5
282.356	285.5
282.588	323.5
282.819	299.5
283.051	290.5
283.282	279.5
283.513	290.5
283.745	298.5
283.976	281.5
284.207	309.5
284.439	286.5
284.67	307.5
284.901	296.5
285.132	281.5
285.364	283.5
285.595	275.5
285.826	289.5
286.057	287.5
286.288	289.5
286.52	301.5
286.751	310.5
286.982	285.5
287.213	289.5
287.444	293.5
287.675	284.5
287.906	314.5
288.138	309.5
288.369	296.5
288.6	295.5
288.831	308.5
289.062	281.5
289.293	320.5
289.524	292.5
289.755	313.5
289.986	300.5
290.217	305.5
290.448	296.5
290.679	322.5
290.91	296.5
291.141	282.5
291.371	296.5
291.602	298.5
291.833	297.5
292.064	297.5
292.295	289.5
292.526	306.5
292.757	283.5
292.987	299.5
293.218	302.5
293.449	312.5
293.68	319.5
293.91	292.5
294.141	308.5
294.372	298.5
294.603	328.5
294.833	309.5
295.064	286.5
295.295	328.5
295.525	301.5
295.756	314.5
295.987	324.5
296.217	329.5
296.448	343.5
296.679	323.5
296.909	286.5
297.14	306.5
297.37	309.5
297.601	326.5
297.831	313.5
298.062	324.5
298.292	308.5
298.523	335.5
298.753	316.5
298.984	301.5
299.214	316.5
299.445	316.5
299.675	327.5
299.905	323.5
300.136	319.5
300.366	331.5
300.597	334.5
300.827	314.5
301.057	320.5
301.288	338.5
301.518	334.5
301.748	339.5
301.979	345.5
302.209	334.5
302.439	338.5
302.669	339.5
302.9	344.5
303.13	348.5
303.36	331.5
303.59	334.5
303.82	351.5
304.051	354.5
304.281	331.5
304.511	344.5
304.741	331.5
304.971	330.5
305.201	336.5
305.431	330.5
305.661	333.5
305.891	342.5
306.121	329.5
306.352	327.5
306.582	344.5
306.812	358.5
307.042	331.5
307.272	348.5
307.502	351.5
307.731	358.5
307.961	354.5
308.191	331.5
308.421	359.5
308.651	335.5
308.881	345.5
309.111	335.5
309.341	360.5
309.571	360.5
309.8	362.5
310.03	383.5
310.26	366.5
310.49	372.5
310.72	375.5
310.949	391.5
311.179	414.5
311.409	382.5
311.639	377.5
311.868	404.5
312.098	391.5
312.328	393.5
312.557	413.5
312.787	424.5
313.017	430.5
313.246	409.5
313.476	383.5
313.706	383.5
313.935	398.5
314.165	393.5
314.394	409.5
314.624	425.5
314.853	372.5
315.083	386.5
315.312	386.5
315.542	380.5
315.771	369.5
316.001	402.5
316.23	380.5
316.46	404.5
316.689	386.5
316.919	390.5
317.148	386.5
317.377	403.5
317.607	401.5
317.836	395.5
318.065	411.5
318.295	388.5
318.524	397.5
318.753	379.5
318.983	399.5
319.212	392.5
319.441	408.5
319.67	390.5
319.9	395.5
320.129	411.5
320.358	378.5
320.587	391.5
320.816	419.5
321.046	411.5
321.275	438.5
321.504	415.5
321.733	407.5
321.962	426.5
322.191	419.5
322.42	429.5
322.649	444.5
322.878	440.5
323.108	470.5
323.337	501.5
323.566	487.5
323.795	540.5
324.024	571.5
324.253	661.5
324.482	936.5
324.71	1533.5
324.939	2285.5
325.168	1982.5
325.397	1003.5
325.626	620.5
325.855	540.5
326.084	521.5
326.313	513.5
326.542	495.5
326.77	567.5
326.999	642.5
327.228	903.5
327.457	1364.5
327.686	1689.5
327.914	1087.5
328.143	740.5
328.372	633.5
328.6	588.5
328.829	578.5
329.058	579.5
329.287	591.5
329.515	546.5
329.744	555.5
329.972	540.5
330.201	537.5
330.43	590.5
330.658	606.5
330.887	637.5
331.115	618.5
331.344	551.5
331.572	516.5
331.801	511.5
332.03	489.5
332.258	476.5
332.486	461.5
332.715	484.5
332.943	466.5
333.172	481.5
333.4	473.5
333.629	494.5
333.857	497.5
334.085	509.5
334.314	536.5
334.542	571.5
334.771	595.5
334.999	531.5
335.227	493.5
335.455	508.5
335.684	477.5
335.912	470.5
336.14	473.5
336.369	461.5
336.597	446.5
336.825	482.5
337.053	456.5
337.281	447.5
337.51	454.5
337.738	467.5
337.966	451.5
338.194	475.5
338.422	435.5
338.65	457.5
338.878	453.5
339.106	450.5
339.334	455.5
339.562	449.5
339.79	431.5
340.018	455.5
340.246	450.5
340.474	453.5
340.702	438.5
340.93	432.5
341.158	445.5
341.386	451.5
341.614	443.5
341.842	455.5
342.07	446.5
342.298	438.5
342.526	428.5
342.754	434.5
342.981	433.5
343.209	430.5
343.437	436.5
343.665	426.5
343.893	461.5
344.12	467.5
344.348	480.5
344.576	462.5
344.804	479.5
345.031	478.5
345.259	454.5
345.487	472.5
345.714	458.5
345.942	454.5
346.17	448.5
346.397	447.5
346.625	442.5
346.853	452.5
347.08	433.5
347.308	442.5
347.535	444.5
347.763	457.5
347.99	430.5
348.218	447.5
348.445	460.5
348.673	454.5
348.9	437.5
349.128	442.5
349.355	418.5
349.583	414.5
349.81	442.5
350.037	438.5
350.265	420.5
350.492	429.5
350.72	447.5
350.947	444.5
351.174	444.5
351.402	453.5
351.629	434.5
351.856	452.5
352.083	480.5
352.311	450.5
352.538	466.5
352.765	456.5
352.992	439.5
353.22	439.5
353.447	419.5
353.674	429.5
353.901	412.5
354.128	406.5
354.355	406.5
354.583	412.5
354.81	420.5
355.037	412.5
355.264	398.5
355.491	403.5
355.718	390.5
355.945	409.5
356.172	387.5
356.399	413.5
356.626	391.5
356.853	409.5
357.08	415.5
357.307	413.5
357.534	417.5
357.761	404.5
357.988	417.5
358.215	418.5
358.441	411.5
358.668	398.5
358.895	421.5
359.122	435.5
359.349	447.5
359.576	465.5
359.802	437.5
360.029	483.5
360.256	498.5
360.483	493.5
360.709	446.5
360.936	447.5
361.163	445.5
361.39	458.5
361.616	441.5
361.843	447.5
362.07	429.5
362.296	437.5
362.523	438.5
362.749	423.5
362.976	449.5
363.203	434.5
363.429	430.5
363.656	446.5
363.882	431.5
364.109	433.5
364.335	425.5
364.562	429.5
364.788	424.5
365.015	422.5
365.241	428.5
365.468	441.5
365.694	425.5
365.92	445.5
366.147	441.5
366.373	422.5
366.599	441.5
366.826	430.5
367.052	420.5
367.278	425.5
367.505	425.5
367.731	436.5
367.957	465.5
368.184	423.5
368.41	455.5
368.636	442.5
368.862	460.5
369.089	440.5
369.315	436.5
369.541	428.5
369.767	445.5
369.993	434.5
370.219	424.5
370.445	422.5
370.672	424.5
370.898	433.5
371.124	446.5
371.35	434.5
371.576	427.5
371.802	425.5
372.028	416.5
372.254	423.5
372.48	433.5
372.706	413.5
372.932	438.5
373.158	436.5
373.384	447.5
373.61	451.5
373.835	439.5
374.061	439.5
374.287	462.5
374.513	442.5
374.739	445.5
374.965	447.5
375.191	433.5
375.416	447.5
375.642	459.5
375.868	443.5
376.094	447.5
376.319	440.5
376.545	438.5
376.771	427.5
376.997	434.5
377.222	438.5
377.448	436.5
377.674	448.5
377.899	418.5
378.125	417.5
378.35	436.5
378.576	427.5
378.802	437.5
379.027	441.5
379.253	429.5
379.478	441.5
379.704	441.5
379.929	450.5
380.155	429.5
380.38	446.5
380.606	450.5
380.831	437.5
381.057	445.5
381.282	433.5
381.507	438.5
381.733	425.5
381.958	445.5
382.184	428.5
382.409	454.5
382.634	449.5
382.86	457.5
383.085	428.5
383.31	465.5
383.535	463.5
383.761	446.5
383.986	467.5
384.211	473.5
384.436	431.5
384.662	458.5
384.887	492.5
385.112	478.5
385.337	472.5
385.562	483.5
385.787	485.5
386.013	480.5
386.238	472.5
386.463	478.5
386.688	475.5
386.913	488.5
387.138	474.5
387.363	458.5
387.588	470.5
387.813	474.5
388.038	469.5
388.263	503.5
388.488	476.5
388.713	477.5
388.938	491.5
389.163	478.5
389.387	491.5
389.612	473.5
389.837	467.5
390.062	495.5
390.287	508.5
390.512	481.5
390.736	469.5
390.961	492.5
391.186	494.5
391.411	475.5
391.636	495.5
391.86	490.5
392.085	514.5
392.31	502.5
392.534	513.5
392.759	500.5
392.984	488.5
393.208	505.5
393.433	520.5
393.658	489.5
393.882	509.5
394.107	498.5
394.331	479.5
394.556	487.5
394.78	495.5
395.005	528.5
395.229	493.5
395.454	501.5
395.678	491.5
395.903	515.5
396.127	526.5
396.352	536.5
396.576	531.5
396.801	521.5
397.025	523.5
397.249	534.5
397.474	531.5
397.698	522.5
397.922	540.5
398.147	559.5
398.371	533.5
398.595	541.5
398.82	544.5
399.044	587.5
399.268	585.5
399.492	611.5
399.717	658.5
399.941	705.5
400.165	709.5
400.389	727.5
400.613	642.5
400.837	589.5
401.062	590.5
401.286	598.5
401.51	561.5
401.734	569.5
401.958	564.5
402.182	569.5
402.406	596.5
402.63	580.5
402.854	595.5
403.078	584.5
403.302	560.5
403.526	590.5
403.75	581.5
403.974	594.5
404.198	611.5
404.422	602.5
404.645	612.5
404.869	609.5
405.093	639.5
405.317	680.5
405.541	706.5
405.765	657.5
405.988	608.5
406.212	628.5
406.436	647.5
406.66	649.5
406.883	646.5
407.107	674.5
407.331	710.5
407.555	780.5
407.778	773.5
408.002	717.5
408.226	675.5
408.449	675.5
408.673	638.5
408.896	688.5
409.12	731.5
409.344	676.5
409.567	625.5
409.791	618.5
410.014	589.5
410.238	613.5
410.461	610.5
410.685	591.5
410.908	616.5
411.132	644.5
411.355	673.5
411.578	655.5
411.802	604.5
412.025	604.5
412.249	587.5
412.472	626.5
412.695	685.5
412.919	674.5
413.142	613.5
413.365	585.5
413.589	581.5
413.812	577.5
414.035	563.5
414.258	588.5
414.482	586.5
414.705	585.5
414.928	555.5
415.151	543.5
415.374	550.5
415.597	560.5
415.821	564.5
416.044	556.5
416.267	561.5
416.49	550.5
416.713	575.5
416.936	578.5
417.159	558.5
417.382	566.5
417.605	584.5
417.828	567.5
418.051	591.5
418.274	584.5
418.497	559.5
418.72	565.5
418.943	554.5
419.166	571.5
419.389	633.5
419.611	604.5
419.834	591.5
420.057	595.5
420.28	581.5
420.503	581.5
420.726	597.5
420.948	631.5
421.171	658.5
421.394	705.5
421.617	606.5
421.839	577.5
422.062	582.5
422.285	621.5
422.507	679.5
422.73	751.5
422.953	732.5
423.175	647.5
423.398	609.5
423.621	605.5
423.843	615.5
424.066	648.5
424.288	633.5
424.511	656.5
424.733	706.5
424.956	805.5
425.178	789.5
425.401	766.5
425.623	786.5
425.846	661.5
426.068	635.5
426.291	618.5
426.513	613.5
426.735	609.5
426.958	673.5
427.18	780.5
427.402	917.5
427.625	1016.5
427.847	862.5
428.069	773.5
428.292	678.5
428.514	643.5
428.736	614.5
428.958	579.5
429.181	584.5
429.403	583.5
429.625	591.5
429.847	641.5
430.069	711.5
430.292	683.5
430.514	602.5
430.736	594.5
430.958	571.5
431.18	582.5
431.402	557.5
431.624	561.5
431.846	562.5
432.068	551.5
432.29	579.5
432.512	532.5
432.734	563.5
432.956	565.5
433.178	573.5
433.4	568.5
433.622	579.5
433.844	554.5
434.066	558.5
434.287	566.5
434.509	567.5
434.731	589.5
434.953	567.5
435.175	576.5
435.397	641.5
435.618	646.5
435.84	686.5
436.062	780.5
436.284	874.5
436.505	697.5
436.727	657.5
436.949	603.5
437.17	585.5
437.392	589.5
437.614	597.5
437.835	625.5
438.057	730.5
438.278	844.5
438.5	843.5
438.721	927.5
438.943	885.5
439.165	702.5
439.386	639.5
439.608	636.5
439.829	652.5
440.05	663.5
440.272	711.5
440.493	681.5
440.715	625.5
440.936	601.5
441.158	573.5
441.379	577.5
441.6	598.5
441.822	603.5
442.043	678.5
442.264	766.5
442.486	819.5
442.707	729.5
442.928	658.5
443.149	640.5
443.371	680.5
443.592	742.5
443.813	849.5
444.034	897.5
444.255	698.5
444.476	660.5
444.698	662.5
444.919	641.5
445.14	749.5
445.361	692.5
445.582	685.5
445.803	738.5
446.024	876.5
446.245	870.5
446.466	797.5
446.687	669.5
446.908	637.5
447.129	581.5
447.35	582.5
447.571	596.5
447.792	585.5
448.013	592.5
448.234	598.5
448.455	650.5
448.675	791.5
448.896	934.5
449.117	781.5
449.338	736.5
449.559	841.5
449.779	961.5
450	753.5
450.221	606.5
450.442	595.5
450.662	561.5
450.883	574.5
451.104	591.5
451.324	579.5
451.545	572.5
451.766	552.5
451.986	524.5
452.207	507.5
452.428	545.5
452.648	511.5
452.869	529.5
453.089	518.5
453.31	548.5
453.53	528.5
453.751	532.5
453.971	521.5
454.192	547.5
454.412	556.5
454.633	512.5
454.853	527.5
455.073	500.5
455.294	544.5
455.514	612.5
455.734	611.5
455.955	534.5
456.175	517.5
456.395	494.5
456.616	501.5
456.836	486.5
457.056	490.5
457.276	483.5
457.497	483.5
457.717	485.5
457.937	505.5
458.157	477.5
458.377	511.5
458.598	538.5
458.818	574.5
459.038	683.5
459.258	713.5
459.478	611.5
459.698	556.5
459.918	548.5
460.138	567.5
460.358	579.5
460.578	554.5
460.798	574.5
461.018	562.5
461.238	557.5
461.458	582.5
461.678	572.5
461.898	558.5
462.118	565.5
462.338	573.5
462.558	575.5
462.777	614.5
462.997	629.5
463.217	609.5
463.437	609.5
463.657	600.5
463.876	606.5
464.096	621.5
464.316	609.5
464.536	584.5
464.755	611.5
464.975	617.5
465.195	657.5
465.414	717.5
465.634	616.5
465.854	597.5
466.073	581.5
466.293	558.5
466.512	569.5
466.732	545.5
466.951	554.5
467.171	527.5
467.391	541.5
467.61	564.5
467.829	548.5
468.049	545.5
468.268	533.5
468.488	541.5
468.707	528.5
468.927	523.5
469.146	521.5
469.365	526.5
469.585	528.5
469.804	552.5
470.023	567.5
470.243	549.5
470.462	549.5
470.681	547.5
470.901	565.5
471.12	535.5
471.339	568.5
471.558	556.5
471.777	547.5
471.997	533.5
472.216	540.5
472.435	583.5
472.654	582.5
472.873	541.5
473.092	552.5
473.311	543.5
473.53	548.5
473.749	565.5
473.968	585.5
474.187	710.5
474.406	729.5
474.625	599.5
474.844	572.5
475.063	553.5
475.282	559.5
475.501	538.5
475.72	539.5
475.939	551.5
476.158	573.5
476.377	579.5
476.596	563.5
476.814	575.5
477.033	579.5
477.252	583.5
477.471	582.5
477.69	588.5
477.908	602.5
478.127	598.5
478.346	614.5
478.564	616.5
478.783	603.5
479.002	619.5
479.22	639.5
479.439	639.5
479.658	650.5
479.876	650.5
480.095	644.5
480.313	685.5
480.532	695.5
480.751	662.5
480.969	697.5
481.188	757.5
481.406	823.5
481.624	715.5
481.843	673.5
482.061	674.5
482.28	651.5
482.498	641.5
482.717	645.5
482.935	660.5
483.153	642.5
483.372	650.5
483.59	641.5
483.808	640.5
484.027	631.5
484.245	649.5
484.463	623.5
484.681	662.5
484.9	641.5
485.118	673.5
485.336	668.5
485.554	666.5
485.772	666.5
485.99	657.5
486.209	679.5
486.427	655.5
486.645	691.5
486.863	691.5
487.081	712.5
487.299	679.5
487.517	691.5
487.735	669.5
487.953	670.5
488.171	684.5
488.389	702.5
488.607	711.5
488.825	699.5
489.043	689.5
489.261	718.5
489.479	689.5
489.696	697.5
489.914	707.5
490.132	710.5
490.35	722.5
490.568	717.5
490.786	716.5
491.003	745.5
491.221	741.5
491.439	788.5
491.657	783.5
491.874	803.5
492.092	774.5
492.31	798.5
492.527	797.5
492.745	805.5
492.963	805.5
493.18	818.5
493.398	821.5
493.615	838.5
493.833	827.5
494.05	796.5
494.268	839.5
494.485	812.5
494.703	791.5
494.92	802.5
495.138	814.5
495.355	818.5
495.573	807.5
495.79	841.5
496.008	806.5
496.225	809.5
496.442	803.5
496.66	821.5
496.877	813.5
497.094	863.5
497.312	835.5
497.529	868.5
497.746	828.5
497.963	864.5
498.181	906.5
498.398	923.5
498.615	906.5
498.832	913.5
499.049	936.5
499.267	973.5
499.484	959.5
499.701	1046.5
499.918	1063.5
500.135	1127.5
500.352	1173.5
500.569	1197.5
500.786	1187.5
501.003	1172.5
501.22	1128.5
501.437	1102.5
501.654	1025.5
501.871	1079.5
502.088	998.5
502.305	981.5
502.522	924.5
502.739	923.5
502.956	905.5
503.172	894.5
503.389	879.5
503.606	874.5
503.823	860.5
504.04	837.5
504.256	818.5
504.473	827.5
504.69	820.5
504.907	787.5
505.123	824.5
505.34	805.5
505.557	779.5
505.773	802.5
505.99	781.5
506.207	775.5
506.423	804.5
506.64	793.5
506.856	794.5
507.073	774.5
507.289	759.5
507.506	779.5
507.722	755.5
507.939	756.5
508.155	734.5
508.372	734.5
508.588	732.5
508.805	727.5
509.021	714.5
509.238	742.5
509.454	747.5
509.67	741.5
509.887	730.5
510.103	705.5
510.319	735.5
510.536	851.5
510.752	1299.5
510.968	1049.5
511.184	757.5
511.401	714.5
511.617	709.5
511.833	694.5
512.049	705.5
512.265	671.5
512.481	701.5
512.698	689.5
512.914	705.5
513.13	673.5
513.346	709.5
513.562	659.5
513.778	694.5
513.994	686.5
514.21	716.5
514.426	722.5
514.642	777.5
514.858	814.5
515.074	819.5
515.29	958.5
515.506	1303.5
515.721	1087.5
515.937	855.5
516.153	755.5
516.369	734.5
516.585	707.5
516.801	720.5
517.016	732.5
517.232	729.5
517.448	716.5
517.664	742.5
517.879	719.5
518.095	728.5
518.311	717.5
518.527	712.5
518.742	711.5
518.958	700.5
519.173	700.5
519.389	693.5
519.605	681.5
