Data from 1966.PennyLincolnUp.Lamp.En5.5.200Scan.071719.P1._HRD10591_14-14-34-915.txt Node
Date: Thu Jul 18 14:14:34 EDT 2019
User: cochatt
Spectrometer: HR+D1059
Trigger mode: 1
Integration Time (sec): 1.000000E-1
Scans to average: 1
Electric dark correction enabled: true
Nonlinearity correction enabled: false
Boxcar width: 0
XAxis mode: Wavelengths
Number of Pixels in Spectrum: 2048
>>>>>Begin Spectral Data<<<<<
223.165	-19.06
223.4	-19.06
223.635	-19.06
223.869	-5.06
224.104	-10.06
224.338	-10.06
224.573	-30.06
224.808	-16.06
225.042	-2.06
225.277	-11.06
225.511	-5.06
225.746	6.94
225.98	3.94
226.215	9.94
226.449	15.94
226.683	6.94
226.918	23.94
227.152	40.94
227.387	30.94
227.621	38.94
227.856	56.94
228.09	49.94
228.324	55.94
228.559	48.94
228.793	59.94
229.027	88.94
229.262	77.94
229.496	98.94
229.73	92.94
229.964	98.94
230.199	109.94
230.433	82.94
230.667	97.94
230.901	99.94
231.136	95.94
231.37	96.94
231.604	100.94
231.838	93.94
232.072	83.94
232.306	92.94
232.541	95.94
232.775	100.94
233.009	106.94
233.243	95.94
233.477	97.94
233.711	106.94
233.945	105.94
234.179	102.94
234.413	105.94
234.647	96.94
234.881	72.94
235.115	95.94
235.349	88.94
235.583	95.94
235.817	96.94
236.051	102.94
236.285	110.94
236.519	101.94
236.753	99.94
236.987	107.94
237.221	130.94
237.455	151.94
237.689	127.94
237.922	105.94
238.156	101.94
238.39	108.94
238.624	103.94
238.858	97.94
239.091	101.94
239.325	113.94
239.559	106.94
239.793	120.94
240.027	117.94
240.26	104.94
240.494	108.94
240.728	98.94
240.961	117.94
241.195	104.94
241.429	99.94
241.662	96.94
241.896	94.94
242.13	93.94
242.363	105.94
242.597	93.94
242.83	87.94
243.064	111.94
243.298	119.94
243.531	94.94
243.765	104.94
243.998	112.94
244.232	94.94
244.465	115.94
244.699	118.94
244.932	95.94
245.166	102.94
245.399	110.94
245.633	103.94
245.866	100.94
246.099	79.94
246.333	117.94
246.566	117.94
246.8	120.94
247.033	109.94
247.266	105.94
247.5	117.94
247.733	129.94
247.966	112.94
248.2	108.94
248.433	117.94
248.666	108.94
248.899	112.94
249.133	133.94
249.366	133.94
249.599	134.94
249.832	127.94
250.066	109.94
250.299	127.94
250.532	136.94
250.765	138.94
250.998	129.94
251.231	159.94
251.465	135.94
251.698	127.94
251.931	145.94
252.164	140.94
252.397	122.94
252.63	125.94
252.863	127.94
253.096	145.94
253.329	142.94
253.562	140.94
253.795	147.94
254.028	140.94
254.261	141.94
254.494	153.94
254.727	186.94
254.96	167.94
255.193	171.94
255.426	144.94
255.659	143.94
255.892	157.94
256.124	144.94
256.357	138.94
256.59	147.94
256.823	137.94
257.056	128.94
257.289	131.94
257.521	134.94
257.754	125.94
257.987	129.94
258.22	145.94
258.452	149.94
258.685	163.94
258.918	140.94
259.151	138.94
259.383	128.94
259.616	140.94
259.849	128.94
260.081	152.94
260.314	160.94
260.547	165.94
260.779	157.94
261.012	148.94
261.244	150.94
261.477	147.94
261.71	149.94
261.942	144.94
262.175	146.94
262.407	147.94
262.64	135.94
262.872	143.94
263.105	140.94
263.337	136.94
263.57	132.94
263.802	139.94
264.035	142.94
264.267	126.94
264.499	139.94
264.732	133.94
264.964	143.94
265.197	142.94
265.429	138.94
265.661	146.94
265.894	146.94
266.126	144.94
266.358	131.94
266.591	139.94
266.823	145.94
267.055	154.94
267.287	147.94
267.52	146.94
267.752	147.94
267.984	135.94
268.216	129.94
268.448	151.94
268.681	141.94
268.913	160.94
269.145	160.94
269.377	183.94
269.609	156.94
269.841	163.94
270.073	164.94
270.306	172.94
270.538	180.94
270.77	183.94
271.002	185.94
271.234	193.94
271.466	176.94
271.698	189.94
271.93	183.94
272.162	189.94
272.394	193.94
272.626	179.94
272.858	183.94
273.09	165.94
273.322	174.94
273.553	169.94
273.785	153.94
274.017	157.94
274.249	170.94
274.481	154.94
274.713	164.94
274.945	165.94
275.176	169.94
275.408	144.94
275.64	176.94
275.872	159.94
276.104	171.94
276.335	158.94
276.567	161.94
276.799	176.94
277.031	172.94
277.262	193.94
277.494	173.94
277.726	184.94
277.957	183.94
278.189	183.94
278.421	165.94
278.652	156.94
278.884	179.94
279.115	166.94
279.347	161.94
279.579	159.94
279.81	152.94
280.042	169.94
280.273	164.94
280.505	169.94
280.736	169.94
280.968	162.94
281.199	167.94
281.431	172.94
281.662	179.94
281.894	166.94
282.125	172.94
282.356	171.94
282.588	210.94
282.819	187.94
283.051	172.94
283.282	160.94
283.513	178.94
283.745	169.94
283.976	173.94
284.207	172.94
284.439	176.94
284.67	160.94
284.901	151.94
285.132	175.94
285.364	157.94
285.595	154.94
285.826	172.94
286.057	170.94
286.288	169.94
286.52	176.94
286.751	175.94
286.982	165.94
287.213	186.94
287.444	175.94
287.675	170.94
287.906	176.94
288.138	179.94
288.369	186.94
288.6	186.94
288.831	179.94
289.062	175.94
289.293	182.94
289.524	167.94
289.755	159.94
289.986	179.94
290.217	162.94
290.448	177.94
290.679	179.94
290.91	176.94
291.141	173.94
291.371	173.94
291.602	180.94
291.833	171.94
292.064	155.94
292.295	171.94
292.526	181.94
292.757	171.94
292.987	179.94
293.218	179.94
293.449	175.94
293.68	168.94
293.91	163.94
294.141	181.94
294.372	183.94
294.603	176.94
294.833	183.94
295.064	181.94
295.295	188.94
295.525	165.94
295.756	177.94
295.987	176.94
296.217	196.94
296.448	183.94
296.679	170.94
296.909	181.94
297.14	177.94
297.37	176.94
297.601	171.94
297.831	174.94
298.062	176.94
298.292	175.94
298.523	183.94
298.753	179.94
298.984	191.94
299.214	187.94
299.445	184.94
299.675	187.94
299.905	170.94
300.136	181.94
300.366	187.94
300.597	159.94
300.827	169.94
301.057	176.94
301.288	199.94
301.518	198.94
301.748	200.94
301.979	204.94
302.209	195.94
302.439	211.94
302.669	195.94
302.9	196.94
303.13	195.94
303.36	193.94
303.59	201.94
303.82	189.94
304.051	192.94
304.281	190.94
304.511	194.94
304.741	183.94
304.971	196.94
305.201	195.94
305.431	193.94
305.661	203.94
305.891	184.94
306.121	191.94
306.352	193.94
306.582	197.94
306.812	195.94
307.042	192.94
307.272	192.94
307.502	184.94
307.731	204.94
307.961	195.94
308.191	208.94
308.421	187.94
308.651	191.94
308.881	199.94
309.111	205.94
309.341	196.94
309.571	205.94
309.8	211.94
310.03	201.94
310.26	214.94
310.49	225.94
310.72	218.94
310.949	227.94
311.179	222.94
311.409	215.94
311.639	209.94
311.868	195.94
312.098	197.94
312.328	209.94
312.557	219.94
312.787	237.94
313.017	237.94
313.246	235.94
313.476	219.94
313.706	208.94
313.935	216.94
314.165	223.94
314.394	240.94
314.624	219.94
314.853	234.94
315.083	221.94
315.312	199.94
315.542	199.94
315.771	216.94
316.001	197.94
316.23	213.94
316.46	203.94
316.689	227.94
316.919	230.94
317.148	222.94
317.377	207.94
317.607	221.94
317.836	207.94
318.065	208.94
318.295	226.94
318.524	209.94
318.753	201.94
318.983	200.94
319.212	220.94
319.441	203.94
319.67	211.94
319.9	214.94
320.129	196.94
320.358	201.94
320.587	213.94
320.816	217.94
321.046	220.94
321.275	221.94
321.504	220.94
321.733	215.94
321.962	239.94
322.191	224.94
322.42	228.94
322.649	252.94
322.878	234.94
323.108	255.94
323.337	267.94
323.566	269.94
323.795	297.94
324.024	299.94
324.253	361.94
324.482	541.94
324.71	807.94
324.939	1058.94
325.168	840.94
325.397	437.94
325.626	317.94
325.855	279.94
326.084	270.94
326.313	284.94
326.542	289.94
326.77	302.94
326.999	360.94
327.228	481.94
327.457	687.94
327.686	795.94
327.914	539.94
328.143	381.94
328.372	321.94
328.6	311.94
328.829	311.94
329.058	306.94
329.287	313.94
329.515	288.94
329.744	288.94
329.972	285.94
330.201	306.94
330.43	322.94
330.658	345.94
330.887	329.94
331.115	345.94
331.344	298.94
331.572	264.94
331.801	270.94
332.03	277.94
332.258	261.94
332.486	238.94
332.715	247.94
332.943	239.94
333.172	256.94
333.4	261.94
333.629	259.94
333.857	270.94
334.085	283.94
334.314	293.94
334.542	325.94
334.771	335.94
334.999	295.94
335.227	279.94
335.455	253.94
335.684	256.94
335.912	240.94
336.14	238.94
336.369	238.94
336.597	236.94
336.825	269.94
337.053	233.94
337.281	227.94
337.51	227.94
337.738	233.94
337.966	238.94
338.194	248.94
338.422	217.94
338.65	232.94
338.878	227.94
339.106	215.94
339.334	230.94
339.562	246.94
339.79	227.94
340.018	231.94
340.246	243.94
340.474	251.94
340.702	236.94
340.93	233.94
341.158	229.94
341.386	259.94
341.614	243.94
341.842	232.94
342.07	225.94
342.298	227.94
342.526	233.94
342.754	215.94
342.981	227.94
343.209	204.94
343.437	245.94
343.665	220.94
343.893	217.94
344.12	239.94
344.348	222.94
344.576	243.94
344.804	240.94
345.031	223.94
345.259	238.94
345.487	251.94
345.714	240.94
345.942	235.94
346.17	230.94
346.397	221.94
346.625	210.94
346.853	230.94
347.08	235.94
347.308	213.94
347.535	227.94
347.763	253.94
347.99	218.94
348.218	246.94
348.445	248.94
348.673	217.94
348.9	219.94
349.128	238.94
349.355	223.94
349.583	230.94
349.81	212.94
350.037	220.94
350.265	216.94
350.492	229.94
350.72	223.94
350.947	231.94
351.174	237.94
351.402	243.94
351.629	234.94
351.856	236.94
352.083	231.94
352.311	219.94
352.538	239.94
352.765	254.94
352.992	231.94
353.22	224.94
353.447	205.94
353.674	221.94
353.901	221.94
354.128	212.94
354.355	226.94
354.583	219.94
354.81	220.94
355.037	212.94
355.264	217.94
355.491	216.94
355.718	196.94
355.945	200.94
356.172	204.94
356.399	216.94
356.626	208.94
356.853	214.94
357.08	205.94
357.307	222.94
357.534	215.94
357.761	197.94
357.988	200.94
358.215	212.94
358.441	208.94
358.668	214.94
358.895	210.94
359.122	208.94
359.349	209.94
359.576	219.94
359.802	244.94
360.029	257.94
360.256	251.94
360.483	241.94
360.709	217.94
360.936	240.94
361.163	227.94
361.39	222.94
361.616	222.94
361.843	230.94
362.07	215.94
362.296	213.94
362.523	225.94
362.749	231.94
362.976	215.94
363.203	220.94
363.429	207.94
363.656	199.94
363.882	184.94
364.109	222.94
364.335	199.94
364.562	223.94
364.788	209.94
365.015	219.94
365.241	228.94
365.468	232.94
365.694	222.94
365.92	224.94
366.147	213.94
366.373	206.94
366.599	215.94
366.826	212.94
367.052	204.94
367.278	209.94
367.505	211.94
367.731	217.94
367.957	227.94
368.184	221.94
368.41	200.94
368.636	223.94
368.862	236.94
369.089	225.94
369.315	228.94
369.541	207.94
369.767	205.94
369.993	220.94
370.219	202.94
370.445	214.94
370.672	225.94
370.898	202.94
371.124	212.94
371.35	184.94
371.576	213.94
371.802	219.94
372.028	211.94
372.254	215.94
372.48	224.94
372.706	204.94
372.932	198.94
373.158	228.94
373.384	221.94
373.61	196.94
373.835	210.94
374.061	198.94
374.287	215.94
374.513	201.94
374.739	211.94
374.965	217.94
375.191	207.94
375.416	209.94
375.642	204.94
375.868	193.94
376.094	201.94
376.319	200.94
376.545	204.94
376.771	210.94
376.997	203.94
377.222	222.94
377.448	208.94
377.674	210.94
377.899	199.94
378.125	186.94
378.35	203.94
378.576	223.94
378.802	208.94
379.027	196.94
379.253	221.94
379.478	212.94
379.704	206.94
379.929	208.94
380.155	223.94
380.38	209.94
380.606	206.94
380.831	202.94
381.057	216.94
381.282	213.94
381.507	225.94
381.733	201.94
381.958	220.94
382.184	219.94
382.409	225.94
382.634	218.94
382.86	216.94
383.085	215.94
383.31	227.94
383.535	229.94
383.761	220.94
383.986	212.94
384.211	219.94
384.436	247.94
384.662	220.94
384.887	215.94
385.112	216.94
385.337	238.94
385.562	227.94
385.787	228.94
386.013	230.94
386.238	235.94
386.463	216.94
386.688	229.94
386.913	211.94
387.138	215.94
387.363	205.94
387.588	223.94
387.813	217.94
388.038	212.94
388.263	220.94
388.488	217.94
388.713	224.94
388.938	219.94
389.163	226.94
389.387	211.94
389.612	212.94
389.837	222.94
390.062	222.94
390.287	226.94
390.512	201.94
390.736	209.94
390.961	230.94
391.186	215.94
391.411	219.94
391.636	228.94
391.86	223.94
392.085	249.94
392.31	227.94
392.534	241.94
392.759	233.94
392.984	221.94
393.208	249.94
393.433	226.94
393.658	238.94
393.882	229.94
394.107	237.94
394.331	204.94
394.556	222.94
394.78	232.94
395.005	237.94
395.229	244.94
395.454	233.94
395.678	229.94
395.903	234.94
396.127	244.94
396.352	220.94
396.576	232.94
396.801	237.94
397.025	235.94
397.249	224.94
397.474	239.94
397.698	236.94
397.922	249.94
398.147	235.94
398.371	256.94
398.595	239.94
398.82	269.94
399.044	259.94
399.268	253.94
399.492	292.94
399.717	299.94
399.941	291.94
400.165	314.94
400.389	321.94
400.613	285.94
400.837	266.94
401.062	267.94
401.286	278.94
401.51	253.94
401.734	243.94
401.958	260.94
402.182	256.94
402.406	268.94
402.63	260.94
402.854	273.94
403.078	262.94
403.302	274.94
403.526	285.94
403.75	259.94
403.974	259.94
404.198	272.94
404.422	258.94
404.645	281.94
404.869	260.94
405.093	286.94
405.317	294.94
405.541	319.94
405.765	279.94
405.988	288.94
406.212	295.94
406.436	321.94
406.66	306.94
406.883	281.94
407.107	299.94
407.331	329.94
407.555	350.94
407.778	357.94
408.002	323.94
408.226	295.94
408.449	287.94
408.673	279.94
408.896	278.94
409.12	316.94
409.344	300.94
409.567	279.94
409.791	243.94
410.014	244.94
410.238	258.94
410.461	259.94
410.685	270.94
410.908	291.94
411.132	287.94
411.355	299.94
411.578	286.94
411.802	278.94
412.025	268.94
412.249	263.94
412.472	267.94
412.695	311.94
412.919	286.94
413.142	271.94
413.365	274.94
413.589	280.94
413.812	247.94
414.035	269.94
414.258	264.94
414.482	262.94
414.705	249.94
414.928	260.94
415.151	267.94
415.374	233.94
415.597	239.94
415.821	264.94
416.044	259.94
416.267	259.94
416.49	249.94
416.713	238.94
416.936	259.94
417.159	247.94
417.382	248.94
417.605	240.94
417.828	243.94
418.051	270.94
418.274	274.94
418.497	251.94
418.72	228.94
418.943	261.94
419.166	277.94
419.389	250.94
419.611	271.94
419.834	279.94
420.057	277.94
420.28	273.94
420.503	284.94
420.726	268.94
420.948	278.94
421.171	281.94
421.394	315.94
421.617	290.94
421.839	272.94
422.062	273.94
422.285	281.94
422.507	293.94
422.73	334.94
422.953	302.94
423.175	294.94
423.398	283.94
423.621	273.94
423.843	280.94
424.066	282.94
424.288	282.94
424.511	280.94
424.733	299.94
424.956	336.94
425.178	311.94
425.401	341.94
425.623	331.94
425.846	301.94
426.068	273.94
426.291	275.94
426.513	292.94
426.735	273.94
426.958	302.94
427.18	332.94
427.402	373.94
427.625	415.94
427.847	405.94
428.069	321.94
428.292	291.94
428.514	281.94
428.736	276.94
428.958	274.94
429.181	268.94
429.403	246.94
429.625	261.94
429.847	269.94
430.069	305.94
430.292	309.94
430.514	262.94
430.736	262.94
430.958	273.94
431.18	232.94
431.402	255.94
431.624	254.94
431.846	260.94
432.068	245.94
432.29	254.94
432.512	248.94
432.734	257.94
432.956	240.94
433.178	245.94
433.4	271.94
433.622	268.94
433.844	263.94
434.066	283.94
434.287	247.94
434.509	263.94
434.731	250.94
434.953	253.94
435.175	241.94
435.397	289.94
435.618	278.94
435.84	298.94
436.062	340.94
436.284	357.94
436.505	282.94
436.727	280.94
436.949	267.94
437.17	263.94
437.392	256.94
437.614	261.94
437.835	288.94
438.057	336.94
438.278	377.94
438.5	375.94
438.721	380.94
438.943	367.94
439.165	288.94
439.386	281.94
439.608	309.94
439.829	306.94
440.05	307.94
440.272	319.94
440.493	308.94
440.715	274.94
440.936	263.94
441.158	268.94
441.379	259.94
441.6	276.94
441.822	282.94
442.043	302.94
442.264	340.94
442.486	355.94
442.707	295.94
442.928	294.94
443.149	293.94
443.371	303.94
443.592	301.94
443.813	361.94
444.034	400.94
444.255	333.94
444.476	288.94
444.698	268.94
444.919	288.94
445.14	391.94
445.361	327.94
445.582	304.94
445.803	330.94
446.024	385.94
446.245	391.94
446.466	332.94
446.687	289.94
446.908	281.94
447.129	265.94
447.35	263.94
447.571	259.94
447.792	267.94
448.013	272.94
448.234	263.94
448.455	284.94
448.675	329.94
448.896	378.94
449.117	317.94
449.338	311.94
449.559	369.94
449.779	405.94
450	300.94
450.221	273.94
450.442	268.94
450.662	255.94
450.883	253.94
451.104	299.94
451.324	268.94
451.545	255.94
451.766	256.94
451.986	243.94
452.207	231.94
452.428	239.94
452.648	232.94
452.869	247.94
453.089	266.94
453.31	255.94
453.53	244.94
453.751	218.94
453.971	245.94
454.192	250.94
454.412	250.94
454.633	257.94
454.853	237.94
455.073	234.94
455.294	257.94
455.514	281.94
455.734	263.94
455.955	247.94
456.175	247.94
456.395	247.94
456.616	251.94
456.836	245.94
457.056	223.94
457.276	231.94
457.497	230.94
457.717	228.94
457.937	226.94
458.157	239.94
458.377	221.94
458.598	247.94
458.818	298.94
459.038	335.94
459.258	325.94
459.478	262.94
459.698	240.94
459.918	254.94
460.138	257.94
460.358	244.94
460.578	238.94
460.798	261.94
461.018	251.94
461.238	262.94
461.458	259.94
461.678	247.94
461.898	253.94
462.118	246.94
462.338	254.94
462.558	263.94
462.777	248.94
462.997	265.94
463.217	277.94
463.437	267.94
463.657	280.94
463.876	260.94
464.096	267.94
464.316	293.94
464.536	269.94
464.755	276.94
464.975	282.94
465.195	309.94
465.414	371.94
465.634	320.94
465.854	271.94
466.073	260.94
466.293	247.94
466.512	234.94
466.732	253.94
466.951	245.94
467.171	241.94
467.391	247.94
467.61	245.94
467.829	262.94
468.049	250.94
468.268	241.94
468.488	233.94
468.707	261.94
468.927	226.94
469.146	229.94
469.365	230.94
469.585	247.94
469.804	235.94
470.023	232.94
470.243	261.94
470.462	264.94
470.681	277.94
470.901	271.94
471.12	253.94
471.339	236.94
471.558	245.94
471.777	239.94
471.997	251.94
472.216	268.94
472.435	315.94
472.654	283.94
472.873	244.94
473.092	259.94
473.311	253.94
473.53	236.94
473.749	222.94
473.968	270.94
474.187	332.94
474.406	335.94
474.625	286.94
474.844	232.94
475.063	244.94
475.282	253.94
475.501	248.94
475.72	268.94
475.939	249.94
476.158	259.94
476.377	263.94
476.596	257.94
476.814	252.94
477.033	267.94
477.252	249.94
477.471	243.94
477.69	236.94
477.908	269.94
478.127	259.94
478.346	251.94
478.564	269.94
478.783	272.94
479.002	272.94
479.22	262.94
479.439	300.94
479.658	298.94
479.876	297.94
480.095	290.94
480.313	311.94
480.532	294.94
480.751	287.94
480.969	305.94
481.188	355.94
481.406	412.94
481.624	338.94
481.843	291.94
482.061	305.94
482.28	304.94
482.498	287.94
482.717	286.94
482.935	284.94
483.153	277.94
483.372	286.94
483.59	272.94
483.808	276.94
484.027	298.94
484.245	287.94
484.463	292.94
484.681	292.94
484.9	288.94
485.118	286.94
485.336	281.94
485.554	277.94
485.772	278.94
485.99	279.94
486.209	294.94
486.427	313.94
486.645	307.94
486.863	304.94
487.081	310.94
487.299	309.94
487.517	286.94
487.735	300.94
487.953	312.94
488.171	292.94
488.389	319.94
488.607	291.94
488.825	320.94
489.043	297.94
489.261	317.94
489.479	309.94
489.696	313.94
489.914	316.94
490.132	315.94
490.35	322.94
490.568	311.94
490.786	317.94
491.003	340.94
491.221	356.94
491.439	350.94
491.657	357.94
491.874	375.94
492.092	349.94
492.31	377.94
492.527	371.94
492.745	367.94
492.963	341.94
493.18	359.94
493.398	376.94
493.615	352.94
493.833	356.94
494.05	355.94
494.268	373.94
494.485	351.94
494.703	360.94
494.92	357.94
495.138	362.94
495.355	354.94
495.573	365.94
495.79	360.94
496.008	351.94
496.225	336.94
496.442	356.94
496.66	349.94
496.877	341.94
497.094	352.94
497.312	359.94
497.529	366.94
497.746	354.94
497.963	379.94
498.181	372.94
498.398	366.94
498.615	375.94
498.832	367.94
499.049	392.94
499.267	371.94
499.484	413.94
499.701	422.94
499.918	434.94
500.135	433.94
500.352	452.94
500.569	466.94
500.786	462.94
501.003	461.94
501.22	447.94
501.437	428.94
501.654	438.94
501.871	435.94
502.088	389.94
502.305	389.94
502.522	390.94
