Data from 1966.PennyLincolnUp.Lamp.En5.5.200Scan.071719.P1._HRD10591_14-14-43-914.txt Node
Date: Thu Jul 18 14:14:43 EDT 2019
User: cochatt
Spectrometer: HR+D1059
Trigger mode: 1
Integration Time (sec): 1.000000E-1
Scans to average: 1
Electric dark correction enabled: true
Nonlinearity correction enabled: false
Boxcar width: 0
XAxis mode: Wavelengths
Number of Pixels in Spectrum: 2048
>>>>>Begin Spectral Data<<<<<
223.165	-8.06
223.4	-8.06
223.635	-8.06
223.869	-19.06
224.104	-12.06
224.338	-21.06
224.573	-15.06
224.808	-27.06
225.042	-2.06
225.277	6.94
225.511	-6.06
225.746	7.94
225.98	0.94
226.215	7.94
226.449	5.94
226.683	27.94
226.918	15.94
227.152	36.94
227.387	47.94
227.621	41.94
227.856	44.94
228.09	44.94
228.324	40.94
228.559	66.94
228.793	57.94
229.027	67.94
229.262	79.94
229.496	90.94
229.73	89.94
229.964	105.94
230.199	103.94
230.433	94.94
230.667	96.94
230.901	92.94
231.136	92.94
231.37	92.94
231.604	88.94
231.838	100.94
232.072	95.94
232.306	102.94
232.541	77.94
232.775	88.94
233.009	100.94
233.243	74.94
233.477	87.94
233.711	86.94
233.945	89.94
234.179	88.94
234.413	98.94
234.647	110.94
234.881	92.94
235.115	98.94
235.349	85.94
235.583	103.94
235.817	95.94
236.051	85.94
236.285	90.94
236.519	97.94
236.753	101.94
236.987	119.94
237.221	115.94
237.455	145.94
237.689	131.94
237.922	99.94
238.156	105.94
238.39	97.94
238.624	100.94
238.858	106.94
239.091	95.94
239.325	109.94
239.559	99.94
239.793	92.94
240.027	107.94
240.26	116.94
240.494	113.94
240.728	113.94
240.961	113.94
241.195	125.94
241.429	100.94
241.662	85.94
241.896	102.94
242.13	97.94
242.363	106.94
242.597	92.94
242.83	114.94
243.064	100.94
243.298	102.94
243.531	108.94
243.765	120.94
243.998	112.94
244.232	117.94
244.465	112.94
244.699	98.94
244.932	111.94
245.166	94.94
245.399	101.94
245.633	116.94
245.866	109.94
246.099	111.94
246.333	128.94
246.566	113.94
246.8	117.94
247.033	109.94
247.266	117.94
247.5	104.94
247.733	135.94
247.966	129.94
248.2	108.94
248.433	124.94
248.666	126.94
248.899	116.94
249.133	124.94
249.366	132.94
249.599	128.94
249.832	116.94
250.066	118.94
250.299	135.94
250.532	127.94
250.765	141.94
250.998	149.94
251.231	149.94
251.465	126.94
251.698	126.94
251.931	136.94
252.164	133.94
252.397	126.94
252.63	125.94
252.863	131.94
253.096	134.94
253.329	149.94
253.562	153.94
253.795	142.94
254.028	137.94
254.261	160.94
254.494	146.94
254.727	150.94
254.96	187.94
255.193	183.94
255.426	155.94
255.659	151.94
255.892	139.94
256.124	146.94
256.357	131.94
256.59	139.94
256.823	148.94
257.056	137.94
257.289	139.94
257.521	139.94
257.754	153.94
257.987	145.94
258.22	136.94
258.452	125.94
258.685	140.94
258.918	125.94
259.151	151.94
259.383	133.94
259.616	155.94
259.849	147.94
260.081	135.94
260.314	151.94
260.547	167.94
260.779	145.94
261.012	143.94
261.244	136.94
261.477	157.94
261.71	138.94
261.942	160.94
262.175	153.94
262.407	152.94
262.64	127.94
262.872	111.94
263.105	143.94
263.337	152.94
263.57	139.94
263.802	139.94
264.035	137.94
264.267	125.94
264.499	150.94
264.732	140.94
264.964	147.94
265.197	139.94
265.429	148.94
265.661	149.94
265.894	135.94
266.126	135.94
266.358	142.94
266.591	135.94
266.823	148.94
267.055	149.94
267.287	144.94
267.52	136.94
267.752	141.94
267.984	135.94
268.216	136.94
268.448	148.94
268.681	153.94
268.913	147.94
269.145	179.94
269.377	186.94
269.609	152.94
269.841	164.94
270.073	176.94
270.306	164.94
270.538	200.94
270.77	180.94
271.002	192.94
271.234	176.94
271.466	176.94
271.698	189.94
271.93	191.94
272.162	205.94
272.394	189.94
272.626	187.94
272.858	165.94
273.09	169.94
273.322	167.94
273.553	160.94
273.785	162.94
274.017	170.94
274.249	151.94
274.481	179.94
274.713	158.94
274.945	154.94
275.176	154.94
275.408	156.94
275.64	172.94
275.872	150.94
276.104	154.94
276.335	163.94
276.567	154.94
276.799	179.94
277.031	193.94
277.262	194.94
277.494	212.94
277.726	194.94
277.957	175.94
278.189	151.94
278.421	152.94
278.652	147.94
278.884	159.94
279.115	153.94
279.347	150.94
279.579	158.94
279.81	173.94
280.042	153.94
280.273	168.94
280.505	156.94
280.736	175.94
280.968	162.94
281.199	168.94
281.431	165.94
281.662	172.94
281.894	152.94
282.125	173.94
282.356	167.94
282.588	189.94
282.819	174.94
283.051	158.94
283.282	165.94
283.513	165.94
283.745	169.94
283.976	168.94
284.207	156.94
284.439	163.94
284.67	163.94
284.901	163.94
285.132	171.94
285.364	158.94
285.595	172.94
285.826	175.94
286.057	173.94
286.288	180.94
286.52	179.94
286.751	164.94
286.982	176.94
287.213	160.94
287.444	168.94
287.675	175.94
287.906	178.94
288.138	177.94
288.369	195.94
288.6	182.94
288.831	176.94
289.062	172.94
289.293	167.94
289.524	165.94
289.755	184.94
289.986	174.94
290.217	170.94
290.448	173.94
290.679	170.94
290.91	196.94
291.141	171.94
291.371	183.94
291.602	184.94
291.833	177.94
292.064	192.94
292.295	178.94
292.526	182.94
292.757	168.94
292.987	174.94
293.218	180.94
293.449	171.94
293.68	163.94
293.91	181.94
294.141	181.94
294.372	183.94
294.603	176.94
294.833	179.94
295.064	167.94
295.295	176.94
295.525	190.94
295.756	185.94
295.987	182.94
296.217	221.94
296.448	223.94
296.679	189.94
296.909	172.94
297.14	163.94
297.37	181.94
297.601	179.94
297.831	167.94
298.062	177.94
298.292	164.94
298.523	164.94
298.753	174.94
298.984	167.94
299.214	177.94
299.445	200.94
299.675	197.94
299.905	182.94
300.136	164.94
300.366	184.94
300.597	196.94
300.827	198.94
301.057	199.94
301.288	207.94
301.518	192.94
301.748	199.94
301.979	192.94
302.209	203.94
302.439	189.94
302.669	183.94
302.9	189.94
303.13	192.94
303.36	192.94
303.59	192.94
303.82	181.94
304.051	192.94
304.281	192.94
304.511	176.94
304.741	201.94
304.971	178.94
305.201	177.94
305.431	172.94
305.661	206.94
305.891	188.94
306.121	196.94
306.352	206.94
306.582	214.94
306.812	193.94
307.042	179.94
307.272	196.94
307.502	207.94
307.731	203.94
307.961	213.94
308.191	199.94
308.421	198.94
308.651	205.94
308.881	199.94
309.111	213.94
309.341	202.94
309.571	203.94
309.8	225.94
310.03	206.94
310.26	223.94
310.49	219.94
310.72	224.94
310.949	228.94
311.179	244.94
311.409	213.94
311.639	207.94
311.868	215.94
312.098	223.94
312.328	248.94
312.557	249.94
312.787	248.94
313.017	234.94
313.246	224.94
313.476	230.94
313.706	221.94
313.935	216.94
314.165	216.94
314.394	219.94
314.624	225.94
314.853	227.94
315.083	211.94
315.312	215.94
315.542	205.94
315.771	202.94
316.001	216.94
316.23	207.94
316.46	212.94
316.689	221.94
316.919	217.94
317.148	215.94
317.377	214.94
317.607	232.94
317.836	229.94
318.065	203.94
318.295	209.94
318.524	199.94
318.753	212.94
318.983	229.94
319.212	209.94
319.441	213.94
319.67	221.94
319.9	225.94
320.129	206.94
320.358	213.94
320.587	209.94
320.816	217.94
321.046	219.94
321.275	230.94
321.504	225.94
321.733	226.94
321.962	229.94
322.191	224.94
322.42	233.94
322.649	238.94
322.878	248.94
323.108	251.94
323.337	272.94
323.566	265.94
323.795	286.94
324.024	304.94
324.253	391.94
324.482	525.94
324.71	829.94
324.939	1087.94
325.168	877.94
325.397	461.94
325.626	343.94
325.855	294.94
326.084	266.94
326.313	261.94
326.542	273.94
326.77	290.94
326.999	360.94
327.228	494.94
327.457	706.94
327.686	833.94
327.914	529.94
328.143	354.94
328.372	339.94
328.6	318.94
328.829	299.94
329.058	310.94
329.287	319.94
329.515	304.94
329.744	296.94
329.972	278.94
330.201	319.94
330.43	351.94
330.658	343.94
330.887	361.94
331.115	361.94
331.344	297.94
331.572	271.94
331.801	261.94
332.03	271.94
332.258	271.94
332.486	260.94
332.715	255.94
332.943	236.94
333.172	237.94
333.4	264.94
333.629	247.94
333.857	261.94
334.085	271.94
334.314	296.94
334.542	336.94
334.771	322.94
334.999	288.94
335.227	251.94
335.455	263.94
335.684	251.94
335.912	247.94
336.14	232.94
336.369	251.94
336.597	254.94
336.825	252.94
337.053	259.94
337.281	245.94
337.51	248.94
337.738	259.94
337.966	231.94
338.194	247.94
338.422	247.94
338.65	245.94
338.878	248.94
339.106	236.94
339.334	225.94
339.562	231.94
339.79	226.94
340.018	220.94
340.246	243.94
340.474	247.94
340.702	233.94
340.93	237.94
341.158	230.94
341.386	220.94
341.614	238.94
341.842	232.94
342.07	228.94
342.298	233.94
342.526	228.94
342.754	212.94
342.981	230.94
343.209	225.94
343.437	242.94
343.665	231.94
343.893	246.94
344.12	246.94
344.348	236.94
344.576	226.94
344.804	235.94
345.031	245.94
345.259	264.94
345.487	251.94
345.714	237.94
345.942	221.94
346.17	236.94
346.397	222.94
346.625	234.94
346.853	221.94
347.08	238.94
347.308	225.94
347.535	240.94
347.763	253.94
347.99	227.94
348.218	238.94
348.445	223.94
348.673	233.94
348.9	232.94
349.128	227.94
349.355	229.94
349.583	220.94
349.81	202.94
350.037	221.94
350.265	213.94
350.492	215.94
350.72	227.94
350.947	231.94
351.174	246.94
351.402	235.94
351.629	235.94
351.856	257.94
352.083	239.94
352.311	240.94
352.538	237.94
352.765	248.94
352.992	237.94
353.22	224.94
353.447	238.94
353.674	197.94
353.901	210.94
354.128	200.94
354.355	223.94
354.583	211.94
354.81	216.94
355.037	220.94
355.264	228.94
355.491	208.94
355.718	220.94
355.945	213.94
356.172	208.94
356.399	218.94
356.626	217.94
356.853	216.94
357.08	210.94
357.307	198.94
357.534	201.94
357.761	229.94
357.988	238.94
358.215	217.94
358.441	197.94
358.668	217.94
358.895	206.94
359.122	215.94
359.349	208.94
359.576	223.94
359.802	241.94
360.029	257.94
360.256	254.94
360.483	264.94
360.709	225.94
360.936	234.94
361.163	219.94
361.39	231.94
361.616	233.94
361.843	244.94
362.07	240.94
362.296	232.94
362.523	233.94
362.749	215.94
362.976	225.94
363.203	207.94
363.429	212.94
363.656	232.94
363.882	216.94
364.109	220.94
364.335	205.94
364.562	229.94
364.788	223.94
365.015	217.94
365.241	215.94
365.468	213.94
365.694	217.94
365.92	208.94
366.147	214.94
366.373	208.94
366.599	224.94
366.826	206.94
367.052	218.94
367.278	228.94
367.505	219.94
367.731	232.94
367.957	200.94
368.184	217.94
368.41	206.94
368.636	210.94
368.862	216.94
369.089	222.94
369.315	221.94
369.541	209.94
369.767	214.94
369.993	213.94
370.219	232.94
370.445	216.94
370.672	208.94
370.898	214.94
371.124	215.94
371.35	206.94
371.576	205.94
371.802	210.94
372.028	202.94
372.254	204.94
372.48	213.94
372.706	198.94
372.932	214.94
373.158	221.94
373.384	219.94
373.61	212.94
373.835	214.94
374.061	218.94
374.287	229.94
374.513	219.94
374.739	215.94
374.965	231.94
375.191	219.94
375.416	214.94
375.642	207.94
375.868	203.94
376.094	215.94
376.319	206.94
376.545	193.94
376.771	206.94
376.997	210.94
377.222	199.94
377.448	206.94
377.674	228.94
377.899	221.94
378.125	215.94
378.35	217.94
378.576	212.94
378.802	220.94
379.027	215.94
379.253	219.94
379.478	191.94
379.704	201.94
379.929	208.94
380.155	205.94
380.38	221.94
380.606	199.94
380.831	222.94
381.057	206.94
381.282	224.94
381.507	221.94
381.733	216.94
381.958	208.94
382.184	214.94
382.409	215.94
382.634	208.94
382.86	224.94
383.085	203.94
383.31	216.94
383.535	243.94
383.761	235.94
383.986	228.94
384.211	228.94
384.436	232.94
384.662	235.94
384.887	229.94
385.112	225.94
385.337	229.94
385.562	230.94
385.787	241.94
386.013	249.94
386.238	232.94
386.463	222.94
386.688	221.94
386.913	203.94
387.138	216.94
387.363	205.94
387.588	221.94
387.813	219.94
388.038	232.94
388.263	223.94
388.488	223.94
388.713	200.94
388.938	257.94
389.163	247.94
389.387	219.94
389.612	237.94
389.837	228.94
390.062	226.94
390.287	235.94
390.512	218.94
390.736	220.94
390.961	245.94
391.186	237.94
391.411	221.94
391.636	232.94
391.86	217.94
392.085	240.94
392.31	236.94
392.534	234.94
392.759	231.94
392.984	232.94
393.208	245.94
393.433	238.94
393.658	255.94
393.882	243.94
394.107	233.94
394.331	228.94
394.556	222.94
394.78	226.94
395.005	228.94
395.229	235.94
395.454	229.94
395.678	230.94
395.903	248.94
396.127	240.94
396.352	261.94
396.576	223.94
396.801	240.94
397.025	237.94
397.249	240.94
397.474	237.94
397.698	242.94
397.922	249.94
398.147	241.94
398.371	278.94
398.595	252.94
398.82	248.94
399.044	250.94
399.268	279.94
399.492	295.94
399.717	288.94
399.941	303.94
400.165	312.94
400.389	325.94
400.613	281.94
400.837	273.94
401.062	258.94
401.286	275.94
401.51	252.94
401.734	265.94
401.958	257.94
402.182	245.94
402.406	279.94
402.63	264.94
402.854	263.94
403.078	278.94
403.302	254.94
403.526	273.94
403.75	256.94
403.974	279.94
404.198	282.94
404.422	269.94
404.645	285.94
404.869	280.94
405.093	279.94
405.317	309.94
405.541	307.94
405.765	297.94
405.988	268.94
406.212	290.94
406.436	308.94
406.66	318.94
406.883	285.94
407.107	296.94
407.331	299.94
407.555	313.94
407.778	342.94
408.002	302.94
408.226	295.94
408.449	279.94
408.673	275.94
408.896	272.94
409.12	333.94
409.344	297.94
409.567	287.94
409.791	274.94
410.014	256.94
410.238	259.94
410.461	273.94
410.685	259.94
410.908	299.94
411.132	291.94
411.355	319.94
411.578	279.94
411.802	270.94
412.025	271.94
412.249	263.94
412.472	297.94
412.695	316.94
412.919	304.94
413.142	283.94
413.365	267.94
413.589	255.94
413.812	272.94
414.035	251.94
414.258	257.94
414.482	260.94
414.705	251.94
414.928	253.94
415.151	252.94
415.374	253.94
415.597	261.94
415.821	264.94
416.044	252.94
416.267	247.94
416.49	264.94
416.713	264.94
416.936	268.94
417.159	245.94
417.382	252.94
417.605	261.94
417.828	273.94
418.051	281.94
418.274	253.94
418.497	237.94
418.72	268.94
418.943	250.94
419.166	276.94
419.389	260.94
419.611	279.94
419.834	256.94
420.057	268.94
420.28	273.94
420.503	276.94
420.726	273.94
420.948	269.94
421.171	294.94
421.394	296.94
421.617	276.94
421.839	256.94
422.062	259.94
422.285	279.94
422.507	311.94
422.73	323.94
422.953	330.94
423.175	266.94
423.398	276.94
423.621	271.94
423.843	289.94
424.066	282.94
424.288	283.94
424.511	281.94
424.733	304.94
424.956	357.94
425.178	334.94
425.401	349.94
425.623	361.94
425.846	295.94
426.068	270.94
426.291	287.94
426.513	276.94
426.735	284.94
426.958	307.94
427.18	336.94
427.402	393.94
427.625	429.94
427.847	390.94
428.069	328.94
428.292	299.94
428.514	292.94
428.736	263.94
428.958	255.94
429.181	270.94
429.403	260.94
429.625	272.94
429.847	272.94
430.069	304.94
430.292	301.94
430.514	265.94
430.736	248.94
430.958	256.94
431.18	263.94
431.402	245.94
431.624	255.94
431.846	258.94
432.068	255.94
432.29	249.94
432.512	256.94
432.734	251.94
432.956	257.94
433.178	279.94
433.4	278.94
433.622	236.94
433.844	258.94
434.066	250.94
434.287	256.94
434.509	260.94
434.731	254.94
434.953	259.94
435.175	266.94
435.397	303.94
435.618	302.94
435.84	281.94
436.062	358.94
436.284	360.94
436.505	302.94
436.727	291.94
436.949	277.94
437.17	273.94
437.392	283.94
437.614	268.94
437.835	291.94
438.057	336.94
438.278	375.94
438.5	361.94
438.721	391.94
438.943	385.94
439.165	298.94
439.386	270.94
439.608	280.94
439.829	296.94
440.05	292.94
440.272	321.94
440.493	295.94
440.715	287.94
440.936	277.94
441.158	264.94
441.379	255.94
441.6	291.94
441.822	281.94
442.043	304.94
442.264	364.94
442.486	360.94
442.707	308.94
442.928	288.94
443.149	289.94
443.371	318.94
443.592	334.94
443.813	374.94
444.034	371.94
444.255	331.94
444.476	297.94
444.698	292.94
444.919	272.94
445.14	358.94
445.361	326.94
445.582	290.94
445.803	355.94
446.024	391.94
446.245	393.94
446.466	346.94
446.687	304.94
446.908	278.94
447.129	292.94
447.35	284.94
447.571	277.94
447.792	266.94
448.013	275.94
448.234	275.94
448.455	279.94
448.675	361.94
448.896	405.94
449.117	336.94
449.338	323.94
449.559	379.94
449.779	409.94
450	329.94
450.221	275.94
450.442	259.94
450.662	271.94
450.883	271.94
451.104	279.94
451.324	267.94
451.545	233.94
451.766	234.94
451.986	237.94
452.207	269.94
452.428	248.94
452.648	235.94
452.869	232.94
453.089	267.94
453.31	246.94
453.53	244.94
453.751	249.94
453.971	239.94
454.192	245.94
454.412	242.94
454.633	223.94
454.853	240.94
455.073	248.94
455.294	251.94
455.514	302.94
455.734	280.94
455.955	230.94
456.175	223.94
456.395	222.94
456.616	217.94
456.836	228.94
457.056	226.94
457.276	219.94
457.497	216.94
457.717	212.94
457.937	234.94
458.157	235.94
458.377	253.94
458.598	237.94
458.818	284.94
459.038	341.94
459.258	328.94
459.478	279.94
459.698	245.94
459.918	248.94
460.138	240.94
460.358	243.94
460.578	265.94
460.798	245.94
461.018	263.94
461.238	266.94
461.458	260.94
461.678	246.94
461.898	252.94
462.118	255.94
462.338	251.94
462.558	272.94
462.777	261.94
462.997	273.94
463.217	301.94
463.437	259.94
463.657	286.94
463.876	265.94
464.096	273.94
464.316	281.94
464.536	274.94
464.755	254.94
464.975	272.94
465.195	321.94
465.414	352.94
465.634	317.94
465.854	277.94
466.073	280.94
466.293	246.94
466.512	246.94
466.732	235.94
466.951	248.94
467.171	242.94
467.391	251.94
467.61	247.94
467.829	263.94
468.049	259.94
468.268	272.94
468.488	252.94
468.707	248.94
468.927	248.94
469.146	229.94
469.365	220.94
469.585	235.94
469.804	259.94
470.023	256.94
470.243	257.94
470.462	266.94
470.681	255.94
470.901	261.94
471.12	266.94
471.339	241.94
471.558	255.94
471.777	249.94
471.997	248.94
472.216	259.94
472.435	296.94
472.654	297.94
472.873	259.94
473.092	263.94
473.311	232.94
473.53	258.94
473.749	249.94
473.968	259.94
474.187	330.94
474.406	335.94
474.625	265.94
474.844	257.94
475.063	239.94
475.282	236.94
475.501	227.94
475.72	275.94
475.939	241.94
476.158	264.94
476.377	243.94
476.596	257.94
476.814	245.94
477.033	270.94
477.252	264.94
477.471	257.94
477.69	262.94
477.908	241.94
478.127	265.94
478.346	265.94
478.564	273.94
478.783	286.94
479.002	297.94
479.22	293.94
479.439	273.94
479.658	299.94
479.876	293.94
480.095	297.94
480.313	301.94
480.532	303.94
480.751	307.94
480.969	308.94
481.188	371.94
481.406	411.94
481.624	322.94
481.843	282.94
482.061	294.94
482.28	292.94
482.498	296.94
482.717	291.94
482.935	272.94
483.153	295.94
483.372	291.94
483.59	298.94
483.808	285.94
484.027	286.94
484.245	265.94
484.463	283.94
484.681	283.94
484.9	286.94
485.118	289.94
485.336	296.94
485.554	288.94
485.772	293.94
485.99	288.94
486.209	302.94
486.427	299.94
486.645	299.94
486.863	303.94
487.081	317.94
487.299	305.94
487.517	320.94
487.735	306.94
487.953	294.94
488.171	307.94
488.389	300.94
488.607	313.94
488.825	298.94
489.043	303.94
489.261	321.94
489.479	328.94
489.696	307.94
489.914	323.94
490.132	330.94
490.35	319.94
490.568	309.94
490.786	324.94
491.003	310.94
491.221	328.94
491.439	337.94
491.657	350.94
491.874	365.94
492.092	349.94
492.31	367.94
492.527	371.94
492.745	349.94
492.963	349.94
493.18	346.94
493.398	362.94
493.615	361.94
493.833	386.94
494.05	379.94
494.268	366.94
494.485	364.94
494.703	352.94
494.92	344.94
495.138	361.94
495.355	343.94
495.573	352.94
495.79	367.94
496.008	385.94
496.225	357.94
496.442	356.94
496.66	332.94
496.877	363.94
497.094	386.94
497.312	345.94
497.529	369.94
497.746	391.94
497.963	373.94
498.181	377.94
498.398	384.94
498.615	380.94
498.832	395.94
499.049	393.94
499.267	393.94
499.484	399.94
499.701	425.94
499.918	427.94
500.135	424.94
500.352	471.94
500.569	470.94
500.786	483.94
501.003	481.94
501.22	467.94
501.437	436.94
501.654	415.94
501.871	430.94
502.088	394.94
502.305	410.94
502.522	375.94
