Data from 1966.PennyLincolnUp.Lamp.En5.5.200Scan.071719.P1.Scan2.head_HRD10591_14-18-39-205.txt Node
Date: Thu Jul 18 14:18:39 EDT 2019
User: cochatt
Spectrometer: HR+D1059
Trigger mode: 1
Integration Time (sec): 1.000000E-1
Scans to average: 1
Electric dark correction enabled: true
Nonlinearity correction enabled: false
Boxcar width: 0
XAxis mode: Wavelengths
Number of Pixels in Spectrum: 2048
>>>>>Begin Spectral Data<<<<<
223.165	1.38
223.4	1.38
223.635	1.38
223.869	-11.62
224.104	-12.62
224.338	-31.62
224.573	-6.62
224.808	-5.62
225.042	-4.62
225.277	-6.62
225.511	-17.62
225.746	3.38
225.98	12.38
226.215	15.38
226.449	6.38
226.683	15.38
226.918	22.38
227.152	20.38
227.387	47.38
227.621	38.38
227.856	40.38
228.09	42.38
228.324	52.38
228.559	69.38
228.793	70.38
229.027	106.38
229.262	102.38
229.496	114.38
229.73	146.38
229.964	172.38
230.199	138.38
230.433	130.38
230.667	126.38
230.901	116.38
231.136	93.38
231.37	119.38
231.604	126.38
231.838	119.38
232.072	107.38
232.306	120.38
232.541	118.38
232.775	114.38
233.009	115.38
233.243	131.38
233.477	115.38
233.711	104.38
233.945	122.38
234.179	126.38
234.413	116.38
234.647	122.38
234.881	121.38
235.115	104.38
235.349	128.38
235.583	127.38
235.817	133.38
236.051	128.38
236.285	142.38
236.519	118.38
236.753	136.38
236.987	149.38
237.221	208.38
237.455	251.38
237.689	190.38
237.922	145.38
238.156	138.38
238.39	129.38
238.624	144.38
238.858	132.38
239.091	124.38
239.325	118.38
239.559	121.38
239.793	130.38
240.027	127.38
240.26	151.38
240.494	152.38
240.728	160.38
240.961	154.38
241.195	143.38
241.429	148.38
241.662	148.38
241.896	129.38
242.13	118.38
242.363	134.38
242.597	133.38
242.83	151.38
243.064	141.38
243.298	154.38
243.531	131.38
243.765	133.38
243.998	136.38
244.232	159.38
244.465	174.38
244.699	142.38
244.932	148.38
245.166	145.38
245.399	139.38
245.633	146.38
245.866	158.38
246.099	159.38
246.333	157.38
246.566	153.38
246.8	146.38
247.033	166.38
247.266	166.38
247.5	172.38
247.733	185.38
247.966	169.38
248.2	180.38
248.433	171.38
248.666	171.38
248.899	177.38
249.133	216.38
249.366	220.38
249.599	199.38
249.832	179.38
250.066	183.38
250.299	183.38
250.532	204.38
250.765	205.38
250.998	235.38
251.231	253.38
251.465	212.38
251.698	223.38
251.931	206.38
252.164	199.38
252.397	218.38
252.63	199.38
252.863	221.38
253.096	202.38
253.329	236.38
253.562	234.38
253.795	237.38
254.028	226.38
254.261	223.38
254.494	246.38
254.727	264.38
254.96	283.38
255.193	267.38
255.426	260.38
255.659	250.38
255.892	252.38
256.124	242.38
256.357	250.38
256.59	241.38
256.823	229.38
257.056	213.38
257.289	231.38
257.521	226.38
257.754	235.38
257.987	215.38
258.22	218.38
258.452	215.38
258.685	223.38
258.918	215.38
259.151	224.38
259.383	238.38
259.616	230.38
259.849	232.38
260.081	246.38
260.314	265.38
260.547	272.38
260.779	249.38
261.012	228.38
261.244	237.38
261.477	257.38
261.71	219.38
261.942	237.38
262.175	256.38
262.407	227.38
262.64	210.38
262.872	213.38
263.105	221.38
263.337	216.38
263.57	229.38
263.802	224.38
264.035	231.38
264.267	228.38
264.499	214.38
264.732	213.38
264.964	223.38
265.197	222.38
265.429	223.38
265.661	207.38
265.894	219.38
266.126	221.38
266.358	226.38
266.591	225.38
266.823	224.38
267.055	238.38
267.287	230.38
267.52	241.38
267.752	250.38
267.984	243.38
268.216	244.38
268.448	247.38
268.681	248.38
268.913	247.38
269.145	278.38
269.377	284.38
269.609	282.38
269.841	266.38
270.073	281.38
270.306	299.38
270.538	329.38
270.77	341.38
271.002	312.38
271.234	325.38
271.466	324.38
271.698	338.38
271.93	324.38
272.162	322.38
272.394	327.38
272.626	309.38
272.858	306.38
273.09	276.38
273.322	294.38
273.553	279.38
273.785	267.38
274.017	282.38
274.249	263.38
274.481	267.38
274.713	280.38
274.945	270.38
275.176	262.38
275.408	281.38
275.64	268.38
275.872	273.38
276.104	276.38
276.335	271.38
276.567	253.38
276.799	308.38
277.031	306.38
277.262	350.38
277.494	342.38
277.726	311.38
277.957	303.38
278.189	271.38
278.421	306.38
278.652	290.38
278.884	285.38
279.115	268.38
279.347	285.38
279.579	279.38
279.81	286.38
280.042	276.38
280.273	270.38
280.505	283.38
280.736	284.38
280.968	293.38
281.199	270.38
281.431	284.38
281.662	276.38
281.894	283.38
282.125	268.38
282.356	283.38
282.588	325.38
282.819	336.38
283.051	298.38
283.282	292.38
283.513	299.38
283.745	300.38
283.976	290.38
284.207	306.38
284.439	294.38
284.67	299.38
284.901	300.38
285.132	287.38
285.364	275.38
285.595	300.38
285.826	290.38
286.057	291.38
286.288	299.38
286.52	310.38
286.751	294.38
286.982	287.38
287.213	286.38
287.444	286.38
287.675	314.38
287.906	305.38
288.138	308.38
288.369	315.38
288.6	313.38
288.831	310.38
289.062	318.38
289.293	304.38
289.524	295.38
289.755	305.38
289.986	295.38
290.217	299.38
290.448	309.38
290.679	308.38
290.91	301.38
291.141	312.38
291.371	307.38
291.602	296.38
291.833	297.38
292.064	300.38
292.295	309.38
292.526	303.38
292.757	308.38
292.987	295.38
293.218	304.38
293.449	289.38
293.68	322.38
293.91	303.38
294.141	286.38
294.372	316.38
294.603	306.38
294.833	310.38
295.064	312.38
295.295	308.38
295.525	287.38
295.756	306.38
295.987	322.38
296.217	336.38
296.448	346.38
296.679	334.38
296.909	288.38
297.14	315.38
297.37	312.38
297.601	324.38
297.831	322.38
298.062	308.38
298.292	336.38
298.523	322.38
298.753	311.38
298.984	333.38
299.214	350.38
299.445	316.38
299.675	331.38
299.905	334.38
300.136	329.38
300.366	333.38
300.597	303.38
300.827	329.38
301.057	318.38
301.288	336.38
301.518	343.38
301.748	350.38
301.979	328.38
302.209	348.38
302.439	350.38
302.669	340.38
302.9	332.38
303.13	339.38
303.36	345.38
303.59	319.38
303.82	352.38
304.051	370.38
304.281	360.38
304.511	347.38
304.741	351.38
304.971	359.38
305.201	354.38
305.431	349.38
305.661	334.38
305.891	344.38
306.121	338.38
306.352	357.38
306.582	341.38
306.812	336.38
307.042	350.38
307.272	349.38
307.502	334.38
307.731	352.38
307.961	346.38
308.191	346.38
308.421	348.38
308.651	355.38
308.881	362.38
309.111	358.38
309.341	360.38
309.571	367.38
309.8	365.38
310.03	392.38
310.26	396.38
310.49	374.38
310.72	382.38
310.949	405.38
311.179	396.38
311.409	408.38
311.639	388.38
311.868	417.38
312.098	386.38
312.328	391.38
312.557	411.38
312.787	437.38
313.017	437.38
313.246	404.38
313.476	392.38
313.706	392.38
313.935	412.38
314.165	424.38
314.394	411.38
314.624	398.38
314.853	397.38
315.083	403.38
315.312	404.38
315.542	393.38
315.771	376.38
316.001	390.38
316.23	377.38
316.46	396.38
316.689	393.38
316.919	400.38
317.148	396.38
317.377	403.38
317.607	398.38
317.836	400.38
318.065	392.38
318.295	389.38
318.524	404.38
318.753	382.38
318.983	403.38
319.212	386.38
319.441	403.38
319.67	414.38
319.9	402.38
320.129	393.38
320.358	402.38
320.587	413.38
320.816	420.38
321.046	392.38
321.275	427.38
321.504	398.38
321.733	422.38
321.962	410.38
322.191	434.38
322.42	452.38
322.649	455.38
322.878	456.38
323.108	473.38
323.337	483.38
323.566	510.38
323.795	542.38
324.024	580.38
324.253	708.38
324.482	976.38
324.71	1558.38
324.939	2360.38
325.168	2056.38
325.397	1017.38
325.626	656.38
325.855	549.38
326.084	534.38
326.313	531.38
326.542	532.38
326.77	563.38
326.999	668.38
327.228	900.38
327.457	1386.38
327.686	1763.38
327.914	1096.38
328.143	731.38
328.372	642.38
328.6	605.38
328.829	583.38
329.058	604.38
329.287	614.38
329.515	569.38
329.744	550.38
329.972	544.38
330.201	577.38
330.43	610.38
330.658	589.38
330.887	629.38
331.115	632.38
331.344	555.38
331.572	528.38
331.801	501.38
332.03	514.38
332.258	516.38
332.486	463.38
332.715	484.38
332.943	471.38
333.172	485.38
333.4	510.38
333.629	501.38
333.857	535.38
334.085	516.38
334.314	549.38
334.542	586.38
334.771	590.38
334.999	525.38
335.227	517.38
335.455	499.38
335.684	475.38
335.912	468.38
336.14	481.38
336.369	456.38
336.597	501.38
336.825	504.38
337.053	474.38
337.281	488.38
337.51	471.38
337.738	467.38
337.966	463.38
338.194	455.38
338.422	490.38
338.65	478.38
338.878	454.38
339.106	461.38
339.334	466.38
339.562	465.38
339.79	432.38
340.018	448.38
340.246	455.38
340.474	458.38
340.702	463.38
340.93	458.38
341.158	454.38
341.386	458.38
341.614	481.38
341.842	459.38
342.07	456.38
342.298	447.38
342.526	465.38
342.754	454.38
342.981	437.38
343.209	444.38
343.437	450.38
343.665	458.38
343.893	472.38
344.12	465.38
344.348	464.38
344.576	463.38
344.804	468.38
345.031	483.38
345.259	477.38
345.487	472.38
345.714	463.38
345.942	440.38
346.17	457.38
346.397	457.38
346.625	459.38
346.853	444.38
347.08	446.38
347.308	443.38
347.535	458.38
347.763	440.38
347.99	464.38
348.218	463.38
348.445	473.38
348.673	462.38
348.9	446.38
349.128	470.38
349.355	435.38
349.583	454.38
349.81	453.38
350.037	445.38
350.265	415.38
350.492	436.38
350.72	429.38
350.947	450.38
351.174	457.38
351.402	446.38
351.629	466.38
351.856	450.38
352.083	451.38
352.311	447.38
352.538	475.38
352.765	443.38
352.992	463.38
353.22	448.38
353.447	429.38
353.674	450.38
353.901	422.38
354.128	440.38
354.355	426.38
354.583	436.38
354.81	438.38
355.037	427.38
355.264	415.38
355.491	414.38
355.718	400.38
355.945	414.38
356.172	426.38
356.399	418.38
356.626	404.38
356.853	424.38
357.08	397.38
357.307	428.38
357.534	425.38
357.761	421.38
357.988	408.38
358.215	431.38
358.441	418.38
358.668	425.38
358.895	441.38
359.122	439.38
359.349	456.38
359.576	446.38
359.802	489.38
360.029	505.38
360.256	519.38
360.483	487.38
360.709	428.38
360.936	455.38
361.163	453.38
361.39	457.38
361.616	478.38
361.843	468.38
362.07	467.38
362.296	462.38
362.523	438.38
362.749	435.38
362.976	450.38
363.203	438.38
363.429	461.38
363.656	456.38
363.882	452.38
364.109	438.38
364.335	427.38
364.562	423.38
364.788	431.38
365.015	435.38
365.241	450.38
365.468	444.38
365.694	416.38
365.92	444.38
366.147	425.38
366.373	431.38
366.599	437.38
366.826	415.38
367.052	448.38
367.278	446.38
367.505	447.38
367.731	446.38
367.957	452.38
368.184	432.38
368.41	435.38
368.636	452.38
368.862	463.38
369.089	435.38
369.315	418.38
369.541	443.38
369.767	444.38
369.993	452.38
370.219	454.38
370.445	443.38
370.672	444.38
370.898	446.38
371.124	420.38
371.35	432.38
371.576	450.38
371.802	443.38
372.028	442.38
372.254	440.38
372.48	443.38
372.706	457.38
372.932	447.38
373.158	440.38
373.384	447.38
373.61	440.38
373.835	445.38
374.061	430.38
374.287	456.38
374.513	464.38
374.739	455.38
374.965	436.38
375.191	463.38
375.416	479.38
375.642	436.38
375.868	441.38
376.094	455.38
376.319	429.38
376.545	460.38
376.771	434.38
376.997	436.38
377.222	455.38
377.448	437.38
377.674	426.38
377.899	434.38
378.125	444.38
378.35	427.38
378.576	434.38
378.802	435.38
379.027	440.38
379.253	462.38
379.478	442.38
379.704	437.38
379.929	443.38
380.155	456.38
380.38	449.38
380.606	450.38
380.831	436.38
381.057	445.38
381.282	436.38
381.507	446.38
381.733	448.38
381.958	449.38
382.184	449.38
382.409	470.38
382.634	464.38
382.86	456.38
383.085	441.38
383.31	457.38
383.535	485.38
383.761	456.38
383.986	459.38
384.211	461.38
384.436	454.38
384.662	475.38
384.887	495.38
385.112	486.38
385.337	479.38
385.562	470.38
385.787	510.38
386.013	487.38
386.238	508.38
386.463	498.38
386.688	474.38
386.913	475.38
387.138	500.38
387.363	510.38
387.588	502.38
387.813	485.38
388.038	488.38
388.263	482.38
388.488	501.38
388.713	523.38
388.938	477.38
389.163	490.38
389.387	486.38
389.612	492.38
389.837	486.38
390.062	485.38
390.287	494.38
390.512	487.38
390.736	492.38
390.961	489.38
391.186	488.38
391.411	512.38
391.636	515.38
391.86	508.38
392.085	518.38
392.31	509.38
392.534	521.38
392.759	500.38
392.984	494.38
393.208	523.38
393.433	516.38
393.658	486.38
393.882	500.38
394.107	500.38
394.331	491.38
394.556	494.38
394.78	515.38
395.005	516.38
395.229	517.38
395.454	506.38
395.678	536.38
395.903	535.38
396.127	551.38
396.352	547.38
396.576	516.38
396.801	485.38
397.025	529.38
397.249	546.38
397.474	506.38
397.698	545.38
397.922	551.38
398.147	553.38
398.371	579.38
398.595	549.38
398.82	568.38
399.044	577.38
399.268	631.38
399.492	650.38
399.717	671.38
399.941	714.38
400.165	729.38
400.389	729.38
400.613	663.38
400.837	604.38
401.062	595.38
401.286	568.38
401.51	589.38
401.734	606.38
401.958	589.38
402.182	590.38
402.406	605.38
402.63	584.38
402.854	582.38
403.078	592.38
403.302	620.38
403.526	570.38
403.75	618.38
403.974	601.38
404.198	584.38
404.422	575.38
404.645	616.38
404.869	621.38
405.093	647.38
405.317	680.38
405.541	724.38
405.765	677.38
405.988	638.38
406.212	654.38
406.436	650.38
406.66	664.38
406.883	690.38
407.107	682.38
407.331	724.38
407.555	793.38
407.778	800.38
408.002	707.38
408.226	679.38
408.449	672.38
408.673	657.38
408.896	706.38
409.12	716.38
409.344	679.38
409.567	595.38
409.791	605.38
410.014	615.38
410.238	616.38
410.461	606.38
410.685	618.38
410.908	649.38
411.132	656.38
411.355	697.38
411.578	686.38
411.802	626.38
412.025	599.38
412.249	587.38
412.472	634.38
412.695	678.38
412.919	668.38
413.142	625.38
413.365	624.38
413.589	624.38
413.812	597.38
414.035	576.38
414.258	572.38
414.482	591.38
414.705	593.38
414.928	573.38
415.151	591.38
415.374	579.38
415.597	562.38
415.821	570.38
416.044	558.38
416.267	549.38
416.49	562.38
416.713	543.38
416.936	571.38
417.159	549.38
417.382	569.38
417.605	580.38
417.828	586.38
418.051	610.38
418.274	573.38
418.497	572.38
418.72	589.38
418.943	546.38
419.166	588.38
419.389	628.38
419.611	581.38
419.834	605.38
420.057	606.38
420.28	608.38
420.503	596.38
420.726	609.38
420.948	603.38
421.171	660.38
421.394	682.38
421.617	605.38
421.839	580.38
422.062	566.38
422.285	608.38
422.507	681.38
422.73	770.38
422.953	737.38
423.175	655.38
423.398	614.38
423.621	611.38
423.843	641.38
424.066	658.38
424.288	656.38
424.511	662.38
424.733	720.38
424.956	813.38
425.178	773.38
425.401	793.38
425.623	814.38
425.846	670.38
426.068	656.38
426.291	611.38
426.513	634.38
426.735	665.38
426.958	704.38
427.18	790.38
427.402	931.38
427.625	1030.38
427.847	900.38
428.069	763.38
428.292	717.38
428.514	654.38
428.736	585.38
428.958	631.38
429.181	603.38
429.403	592.38
429.625	609.38
429.847	619.38
430.069	705.38
430.292	710.38
430.514	633.38
430.736	604.38
430.958	589.38
431.18	556.38
431.402	576.38
431.624	553.38
431.846	574.38
432.068	578.38
432.29	569.38
432.512	564.38
432.734	593.38
432.956	569.38
433.178	580.38
433.4	582.38
433.622	576.38
433.844	556.38
434.066	572.38
434.287	569.38
434.509	576.38
434.731	577.38
434.953	605.38
435.175	604.38
435.397	618.38
435.618	654.38
435.84	682.38
436.062	797.38
436.284	872.38
436.505	712.38
436.727	644.38
436.949	616.38
437.17	594.38
437.392	582.38
437.614	595.38
437.835	637.38
438.057	738.38
438.278	856.38
438.5	846.38
438.721	954.38
438.943	916.38
439.165	718.38
439.386	671.38
439.608	649.38
439.829	656.38
440.05	700.38
440.272	734.38
440.493	665.38
440.715	648.38
440.936	623.38
441.158	598.38
441.379	607.38
441.6	633.38
441.822	636.38
442.043	683.38
442.264	789.38
442.486	822.38
442.707	714.38
442.928	651.38
443.149	647.38
443.371	683.38
443.592	725.38
443.813	840.38
444.034	928.38
444.255	764.38
444.476	671.38
444.698	685.38
444.919	639.38
445.14	770.38
445.361	692.38
445.582	699.38
445.803	771.38
446.024	877.38
446.245	887.38
446.466	804.38
446.687	668.38
446.908	638.38
447.129	602.38
447.35	593.38
447.571	570.38
447.792	584.38
448.013	587.38
448.234	618.38
448.455	662.38
448.675	829.38
448.896	940.38
449.117	762.38
449.338	726.38
449.559	893.38
449.779	988.38
450	792.38
450.221	648.38
450.442	608.38
450.662	583.38
450.883	591.38
451.104	597.38
451.324	586.38
451.545	548.38
451.766	542.38
451.986	520.38
452.207	523.38
452.428	535.38
452.648	511.38
452.869	501.38
453.089	527.38
453.31	562.38
453.53	538.38
453.751	527.38
453.971	537.38
454.192	556.38
454.412	520.38
454.633	535.38
454.853	545.38
455.073	505.38
455.294	559.38
455.514	642.38
455.734	646.38
455.955	535.38
456.175	504.38
456.395	500.38
456.616	515.38
456.836	486.38
457.056	507.38
457.276	506.38
457.497	513.38
457.717	499.38
457.937	537.38
458.157	521.38
458.377	528.38
458.598	549.38
458.818	608.38
459.038	682.38
459.258	692.38
459.478	604.38
459.698	578.38
459.918	563.38
460.138	541.38
460.358	596.38
460.578	564.38
460.798	571.38
461.018	584.38
461.238	589.38
461.458	577.38
461.678	598.38
461.898	571.38
462.118	592.38
462.338	574.38
462.558	603.38
462.777	598.38
462.997	632.38
463.217	624.38
463.437	652.38
463.657	594.38
463.876	632.38
464.096	634.38
464.316	614.38
464.536	634.38
464.755	595.38
464.975	628.38
465.195	655.38
465.414	740.38
465.634	647.38
465.854	618.38
466.073	600.38
466.293	594.38
466.512	556.38
466.732	574.38
466.951	556.38
467.171	554.38
467.391	533.38
467.61	547.38
467.829	585.38
468.049	558.38
468.268	550.38
468.488	550.38
468.707	523.38
468.927	527.38
469.146	552.38
469.365	526.38
469.585	524.38
469.804	533.38
470.023	520.38
470.243	555.38
470.462	567.38
470.681	574.38
470.901	557.38
471.12	564.38
471.339	552.38
471.558	551.38
471.777	550.38
471.997	553.38
472.216	566.38
472.435	608.38
472.654	570.38
472.873	575.38
473.092	549.38
473.311	563.38
473.53	575.38
473.749	545.38
473.968	617.38
474.187	716.38
474.406	747.38
474.625	618.38
474.844	579.38
475.063	551.38
475.282	558.38
475.501	558.38
475.72	561.38
475.939	567.38
476.158	574.38
476.377	574.38
476.596	545.38
476.814	591.38
477.033	589.38
477.252	614.38
477.471	582.38
477.69	604.38
477.908	600.38
478.127	599.38
478.346	613.38
478.564	629.38
478.783	636.38
479.002	630.38
479.22	634.38
479.439	637.38
479.658	670.38
479.876	677.38
480.095	675.38
480.313	723.38
480.532	712.38
480.751	686.38
480.969	710.38
481.188	756.38
481.406	785.38
481.624	715.38
481.843	690.38
482.061	686.38
482.28	671.38
482.498	664.38
482.717	636.38
482.935	646.38
483.153	662.38
483.372	650.38
483.59	646.38
483.808	648.38
484.027	644.38
484.245	684.38
484.463	653.38
484.681	683.38
484.9	639.38
485.118	648.38
485.336	657.38
485.554	676.38
485.772	652.38
485.99	660.38
486.209	654.38
486.427	646.38
486.645	683.38
486.863	714.38
487.081	724.38
487.299	702.38
487.517	707.38
487.735	701.38
487.953	722.38
488.171	723.38
488.389	694.38
488.607	710.38
488.825	712.38
489.043	705.38
489.261	727.38
489.479	698.38
489.696	727.38
489.914	723.38
490.132	715.38
490.35	754.38
490.568	730.38
490.786	770.38
491.003	744.38
491.221	778.38
491.439	797.38
491.657	784.38
491.874	798.38
492.092	807.38
492.31	815.38
492.527	823.38
492.745	819.38
492.963	806.38
493.18	822.38
493.398	823.38
493.615	839.38
493.833	847.38
494.05	838.38
494.268	821.38
494.485	824.38
494.703	804.38
494.92	824.38
495.138	845.38
495.355	831.38
495.573	844.38
495.79	858.38
496.008	848.38
496.225	860.38
496.442	847.38
496.66	852.38
496.877	824.38
497.094	835.38
497.312	849.38
497.529	870.38
497.746	869.38
497.963	886.38
498.181	894.38
498.398	906.38
498.615	943.38
498.832	951.38
499.049	982.38
499.267	1007.38
499.484	1025.38
499.701	1072.38
499.918	1119.38
500.135	1149.38
500.352	1194.38
500.569	1224.38
500.786	1236.38
501.003	1197.38
501.22	1180.38
501.437	1122.38
501.654	1101.38
