Data from 1966.PennyLincolnUp.Lamp.En5.5.200Scan.071719.P1.Scan2.head_HRD10591_14-17-59-151.txt Node
Date: Thu Jul 18 14:17:59 EDT 2019
User: cochatt
Spectrometer: HR+D1059
Trigger mode: 1
Integration Time (sec): 1.000000E-1
Scans to average: 1
Electric dark correction enabled: true
Nonlinearity correction enabled: false
Boxcar width: 0
XAxis mode: Wavelengths
Number of Pixels in Spectrum: 2048
>>>>>Begin Spectral Data<<<<<
223.165	-9.81
223.4	-9.81
223.635	-9.81
223.869	-14.81
224.104	-17.81
224.338	-8.81
224.573	-13.81
224.808	-11.81
225.042	1.19
225.277	-10.81
225.511	-11.81
225.746	5.19
225.98	-2.81
226.215	-5.81
226.449	22.19
226.683	25.19
226.918	24.19
227.152	30.19
227.387	40.19
227.621	40.19
227.856	60.19
228.09	31.19
228.324	51.19
228.559	59.19
228.793	48.19
229.027	86.19
229.262	104.19
229.496	108.19
229.73	132.19
229.964	146.19
230.199	122.19
230.433	127.19
230.667	115.19
230.901	121.19
231.136	111.19
231.37	116.19
231.604	109.19
231.838	100.19
232.072	115.19
232.306	114.19
232.541	96.19
232.775	99.19
233.009	117.19
233.243	113.19
233.477	139.19
233.711	117.19
233.945	125.19
234.179	113.19
234.413	119.19
234.647	115.19
234.881	119.19
235.115	122.19
235.349	123.19
235.583	119.19
235.817	121.19
236.051	124.19
236.285	131.19
236.519	119.19
236.753	131.19
236.987	132.19
237.221	195.19
237.455	236.19
237.689	170.19
237.922	132.19
238.156	144.19
238.39	130.19
238.624	127.19
238.858	129.19
239.091	131.19
239.325	124.19
239.559	124.19
239.793	117.19
240.027	125.19
240.26	135.19
240.494	161.19
240.728	154.19
240.961	156.19
241.195	133.19
241.429	140.19
241.662	156.19
241.896	134.19
242.13	129.19
242.363	127.19
242.597	139.19
242.83	129.19
243.064	125.19
243.298	140.19
243.531	143.19
243.765	136.19
243.998	135.19
244.232	135.19
244.465	123.19
244.699	128.19
244.932	131.19
245.166	156.19
245.399	138.19
245.633	134.19
245.866	136.19
246.099	136.19
246.333	140.19
246.566	156.19
246.8	143.19
247.033	158.19
247.266	161.19
247.5	145.19
247.733	160.19
247.966	171.19
248.2	171.19
248.433	172.19
248.666	168.19
248.899	192.19
249.133	190.19
249.366	191.19
249.599	200.19
249.832	176.19
250.066	171.19
250.299	181.19
250.532	182.19
250.765	199.19
250.998	205.19
251.231	224.19
251.465	228.19
251.698	218.19
251.931	203.19
252.164	204.19
252.397	204.19
252.63	203.19
252.863	196.19
253.096	224.19
253.329	238.19
253.562	229.19
253.795	200.19
254.028	228.19
254.261	219.19
254.494	218.19
254.727	277.19
254.96	285.19
255.193	269.19
255.426	253.19
255.659	239.19
255.892	218.19
256.124	235.19
256.357	246.19
256.59	238.19
256.823	215.19
257.056	213.19
257.289	208.19
257.521	210.19
257.754	213.19
257.987	201.19
258.22	211.19
258.452	213.19
258.685	216.19
258.918	196.19
259.151	213.19
259.383	215.19
259.616	217.19
259.849	216.19
260.081	238.19
260.314	253.19
260.547	243.19
260.779	242.19
261.012	228.19
261.244	224.19
261.477	219.19
261.71	235.19
261.942	239.19
262.175	245.19
262.407	237.19
262.64	213.19
262.872	214.19
263.105	215.19
263.337	208.19
263.57	198.19
263.802	200.19
264.035	209.19
264.267	206.19
264.499	221.19
264.732	213.19
264.964	211.19
265.197	204.19
265.429	217.19
265.661	219.19
265.894	199.19
266.126	224.19
266.358	220.19
266.591	215.19
266.823	230.19
267.055	223.19
267.287	217.19
267.52	232.19
267.752	215.19
267.984	217.19
268.216	229.19
268.448	233.19
268.681	213.19
268.913	235.19
269.145	249.19
269.377	275.19
269.609	274.19
269.841	267.19
270.073	264.19
270.306	265.19
270.538	308.19
270.77	308.19
271.002	282.19
271.234	279.19
271.466	300.19
271.698	309.19
271.93	315.19
272.162	316.19
272.394	307.19
272.626	294.19
272.858	303.19
273.09	281.19
273.322	262.19
273.553	250.19
273.785	271.19
274.017	268.19
274.249	263.19
274.481	255.19
274.713	267.19
274.945	272.19
275.176	259.19
275.408	259.19
275.64	269.19
275.872	273.19
276.104	279.19
276.335	278.19
276.567	263.19
276.799	279.19
277.031	307.19
277.262	320.19
277.494	308.19
277.726	314.19
277.957	285.19
278.189	300.19
278.421	265.19
278.652	245.19
278.884	274.19
279.115	273.19
279.347	257.19
279.579	274.19
279.81	265.19
280.042	264.19
280.273	263.19
280.505	267.19
280.736	252.19
280.968	259.19
281.199	284.19
281.431	274.19
281.662	263.19
281.894	264.19
282.125	271.19
282.356	297.19
282.588	312.19
282.819	307.19
283.051	276.19
283.282	271.19
283.513	271.19
283.745	287.19
283.976	289.19
284.207	295.19
284.439	302.19
284.67	283.19
284.901	263.19
285.132	292.19
285.364	275.19
285.595	278.19
285.826	270.19
286.057	277.19
286.288	299.19
286.52	289.19
286.751	275.19
286.982	303.19
287.213	283.19
287.444	296.19
287.675	299.19
287.906	300.19
288.138	295.19
288.369	298.19
288.6	295.19
288.831	311.19
289.062	317.19
289.293	296.19
289.524	291.19
289.755	299.19
289.986	287.19
290.217	283.19
290.448	285.19
290.679	294.19
290.91	292.19
291.141	285.19
291.371	299.19
291.602	279.19
291.833	285.19
292.064	281.19
292.295	283.19
292.526	284.19
292.757	279.19
292.987	300.19
293.218	285.19
293.449	281.19
293.68	304.19
293.91	292.19
294.141	305.19
294.372	279.19
294.603	297.19
294.833	293.19
295.064	288.19
295.295	278.19
295.525	297.19
295.756	315.19
295.987	311.19
296.217	326.19
296.448	326.19
296.679	313.19
296.909	295.19
297.14	322.19
297.37	308.19
297.601	303.19
297.831	301.19
298.062	307.19
298.292	311.19
298.523	313.19
298.753	316.19
298.984	304.19
299.214	283.19
299.445	311.19
299.675	319.19
299.905	309.19
300.136	302.19
300.366	311.19
300.597	317.19
300.827	324.19
301.057	328.19
301.288	325.19
301.518	334.19
301.748	322.19
301.979	328.19
302.209	357.19
302.439	332.19
302.669	334.19
302.9	328.19
303.13	325.19
303.36	328.19
303.59	324.19
303.82	339.19
304.051	327.19
304.281	346.19
304.511	334.19
304.741	321.19
304.971	332.19
305.201	319.19
305.431	329.19
305.661	346.19
305.891	328.19
306.121	323.19
306.352	334.19
306.582	329.19
306.812	344.19
307.042	332.19
307.272	335.19
307.502	348.19
307.731	322.19
307.961	328.19
308.191	328.19
308.421	320.19
308.651	332.19
308.881	332.19
309.111	349.19
309.341	338.19
309.571	340.19
309.8	379.19
310.03	374.19
310.26	369.19
310.49	355.19
310.72	376.19
310.949	405.19
311.179	391.19
311.409	379.19
311.639	375.19
311.868	365.19
312.098	368.19
312.328	384.19
312.557	387.19
312.787	387.19
313.017	395.19
313.246	379.19
313.476	374.19
313.706	375.19
313.935	387.19
314.165	370.19
314.394	405.19
314.624	389.19
314.853	391.19
315.083	380.19
315.312	382.19
315.542	365.19
315.771	347.19
316.001	356.19
316.23	353.19
316.46	385.19
316.689	377.19
316.919	392.19
317.148	362.19
317.377	393.19
317.607	379.19
317.836	402.19
318.065	367.19
318.295	380.19
318.524	383.19
318.753	375.19
318.983	379.19
319.212	364.19
319.441	361.19
319.67	386.19
319.9	383.19
320.129	401.19
320.358	390.19
320.587	394.19
320.816	381.19
321.046	403.19
321.275	390.19
321.504	393.19
321.733	398.19
321.962	402.19
322.191	425.19
322.42	444.19
322.649	439.19
322.878	445.19
323.108	452.19
323.337	470.19
323.566	482.19
323.795	514.19
324.024	569.19
324.253	661.19
324.482	905.19
324.71	1389.19
324.939	2118.19
325.168	1843.19
325.397	913.19
325.626	606.19
325.855	529.19
326.084	497.19
326.313	473.19
326.542	481.19
326.77	537.19
326.999	631.19
327.228	837.19
327.457	1286.19
327.686	1591.19
327.914	1064.19
328.143	675.19
328.372	595.19
328.6	586.19
328.829	539.19
329.058	548.19
329.287	569.19
329.515	552.19
329.744	506.19
329.972	509.19
330.201	522.19
330.43	545.19
330.658	579.19
330.887	608.19
331.115	581.19
331.344	515.19
331.572	501.19
331.801	498.19
332.03	483.19
332.258	471.19
332.486	470.19
332.715	466.19
332.943	457.19
333.172	469.19
333.4	472.19
333.629	451.19
333.857	475.19
334.085	486.19
334.314	493.19
334.542	543.19
334.771	555.19
334.999	518.19
335.227	484.19
335.455	479.19
335.684	491.19
335.912	465.19
336.14	441.19
336.369	438.19
336.597	473.19
336.825	462.19
337.053	447.19
337.281	455.19
337.51	444.19
337.738	465.19
337.966	449.19
338.194	452.19
338.422	444.19
338.65	455.19
338.878	459.19
339.106	432.19
339.334	427.19
339.562	451.19
339.79	447.19
340.018	440.19
340.246	437.19
340.474	466.19
340.702	459.19
340.93	437.19
341.158	439.19
341.386	450.19
341.614	455.19
341.842	441.19
342.07	443.19
342.298	431.19
342.526	431.19
342.754	425.19
342.981	424.19
343.209	414.19
343.437	426.19
343.665	431.19
343.893	449.19
344.12	476.19
344.348	450.19
344.576	458.19
344.804	460.19
345.031	457.19
345.259	459.19
345.487	440.19
345.714	451.19
345.942	455.19
346.17	423.19
346.397	466.19
346.625	444.19
346.853	425.19
347.08	422.19
347.308	438.19
347.535	424.19
347.763	446.19
347.99	453.19
348.218	445.19
348.445	451.19
348.673	454.19
348.9	440.19
349.128	408.19
349.355	436.19
349.583	422.19
349.81	429.19
350.037	418.19
350.265	412.19
350.492	422.19
350.72	418.19
350.947	423.19
351.174	426.19
351.402	445.19
351.629	443.19
351.856	449.19
352.083	455.19
352.311	444.19
352.538	453.19
352.765	441.19
352.992	443.19
353.22	426.19
353.447	420.19
353.674	419.19
353.901	416.19
354.128	407.19
354.355	413.19
354.583	419.19
354.81	396.19
355.037	410.19
355.264	421.19
355.491	394.19
355.718	412.19
355.945	410.19
356.172	398.19
356.399	411.19
356.626	404.19
356.853	397.19
357.08	415.19
357.307	407.19
357.534	397.19
357.761	410.19
357.988	421.19
358.215	400.19
358.441	391.19
358.668	411.19
358.895	428.19
359.122	415.19
359.349	432.19
359.576	432.19
359.802	462.19
360.029	488.19
360.256	491.19
360.483	441.19
360.709	401.19
360.936	416.19
361.163	411.19
361.39	409.19
361.616	444.19
361.843	419.19
362.07	421.19
362.296	442.19
362.523	429.19
362.749	399.19
362.976	422.19
363.203	428.19
363.429	411.19
363.656	424.19
363.882	396.19
364.109	395.19
364.335	413.19
364.562	401.19
364.788	414.19
365.015	413.19
365.241	406.19
365.468	406.19
365.694	428.19
365.92	453.19
366.147	420.19
366.373	413.19
366.599	423.19
366.826	425.19
367.052	411.19
367.278	413.19
367.505	408.19
367.731	427.19
367.957	413.19
368.184	410.19
368.41	429.19
368.636	425.19
368.862	424.19
369.089	438.19
369.315	419.19
369.541	435.19
369.767	415.19
369.993	417.19
370.219	423.19
370.445	425.19
370.672	442.19
370.898	415.19
371.124	423.19
371.35	420.19
371.576	421.19
371.802	419.19
372.028	428.19
372.254	417.19
372.48	412.19
372.706	425.19
372.932	445.19
373.158	434.19
373.384	430.19
373.61	415.19
373.835	419.19
374.061	426.19
374.287	443.19
374.513	429.19
374.739	425.19
374.965	430.19
375.191	433.19
375.416	429.19
375.642	445.19
375.868	435.19
376.094	432.19
376.319	417.19
376.545	428.19
376.771	427.19
376.997	426.19
377.222	439.19
377.448	415.19
377.674	418.19
377.899	411.19
378.125	419.19
378.35	420.19
378.576	412.19
378.802	448.19
379.027	445.19
379.253	452.19
379.478	421.19
379.704	436.19
379.929	428.19
380.155	417.19
380.38	419.19
380.606	407.19
380.831	420.19
381.057	432.19
381.282	421.19
381.507	437.19
381.733	447.19
381.958	434.19
382.184	447.19
382.409	446.19
382.634	447.19
382.86	416.19
383.085	445.19
383.31	428.19
383.535	467.19
383.761	460.19
383.986	456.19
384.211	468.19
384.436	451.19
384.662	471.19
384.887	459.19
385.112	468.19
385.337	467.19
385.562	474.19
385.787	460.19
386.013	462.19
386.238	497.19
386.463	481.19
386.688	471.19
386.913	472.19
387.138	472.19
387.363	473.19
387.588	487.19
387.813	467.19
388.038	484.19
388.263	472.19
388.488	472.19
388.713	470.19
388.938	477.19
389.163	471.19
389.387	480.19
389.612	439.19
389.837	463.19
390.062	466.19
390.287	485.19
390.512	478.19
390.736	477.19
390.961	486.19
391.186	473.19
391.411	485.19
391.636	485.19
391.86	488.19
392.085	502.19
392.31	492.19
392.534	517.19
392.759	505.19
392.984	481.19
393.208	479.19
393.433	479.19
393.658	506.19
393.882	495.19
394.107	469.19
394.331	487.19
394.556	476.19
394.78	488.19
395.005	479.19
395.229	474.19
395.454	492.19
395.678	516.19
395.903	491.19
396.127	519.19
396.352	503.19
396.576	481.19
396.801	488.19
397.025	497.19
397.249	490.19
397.474	504.19
397.698	528.19
397.922	542.19
398.147	543.19
398.371	537.19
398.595	535.19
398.82	519.19
399.044	555.19
399.268	592.19
399.492	610.19
399.717	630.19
399.941	668.19
400.165	693.19
400.389	687.19
400.613	631.19
400.837	597.19
401.062	589.19
401.286	562.19
401.51	553.19
401.734	555.19
401.958	554.19
402.182	556.19
402.406	558.19
402.63	591.19
402.854	575.19
403.078	563.19
403.302	558.19
403.526	586.19
403.75	581.19
403.974	565.19
404.198	573.19
404.422	618.19
404.645	574.19
404.869	587.19
405.093	620.19
405.317	656.19
405.541	721.19
405.765	657.19
405.988	612.19
406.212	601.19
406.436	643.19
406.66	648.19
406.883	620.19
407.107	657.19
407.331	667.19
407.555	777.19
407.778	763.19
408.002	691.19
408.226	643.19
408.449	646.19
408.673	617.19
408.896	646.19
409.12	703.19
409.344	667.19
409.567	604.19
409.791	588.19
410.014	593.19
410.238	599.19
410.461	564.19
410.685	608.19
410.908	607.19
411.132	619.19
411.355	657.19
411.578	639.19
411.802	577.19
412.025	600.19
412.249	566.19
412.472	602.19
412.695	672.19
412.919	639.19
413.142	587.19
413.365	603.19
413.589	573.19
413.812	557.19
414.035	551.19
414.258	535.19
414.482	541.19
414.705	566.19
414.928	541.19
415.151	544.19
415.374	573.19
415.597	569.19
415.821	545.19
416.044	550.19
416.267	535.19
416.49	546.19
416.713	536.19
416.936	551.19
417.159	541.19
417.382	541.19
417.605	543.19
417.828	572.19
418.051	575.19
418.274	574.19
418.497	552.19
418.72	549.19
418.943	557.19
419.166	581.19
419.389	592.19
419.611	584.19
419.834	599.19
420.057	583.19
420.28	570.19
420.503	574.19
420.726	570.19
420.948	586.19
421.171	621.19
421.394	653.19
421.617	590.19
421.839	583.19
422.062	573.19
422.285	577.19
422.507	651.19
422.73	749.19
422.953	699.19
423.175	611.19
423.398	587.19
423.621	592.19
423.843	630.19
424.066	629.19
424.288	592.19
424.511	631.19
424.733	669.19
424.956	779.19
425.178	720.19
425.401	733.19
425.623	767.19
425.846	655.19
426.068	590.19
426.291	602.19
426.513	621.19
426.735	624.19
426.958	650.19
427.18	719.19
427.402	857.19
427.625	928.19
427.847	837.19
428.069	740.19
428.292	675.19
428.514	579.19
428.736	585.19
428.958	565.19
429.181	581.19
429.403	600.19
429.625	573.19
429.847	590.19
430.069	651.19
430.292	670.19
430.514	565.19
430.736	552.19
430.958	559.19
431.18	555.19
431.402	557.19
431.624	525.19
431.846	543.19
432.068	517.19
432.29	528.19
432.512	540.19
432.734	553.19
432.956	546.19
433.178	549.19
433.4	553.19
433.622	550.19
433.844	535.19
434.066	552.19
434.287	540.19
434.509	578.19
434.731	571.19
434.953	567.19
435.175	588.19
435.397	595.19
435.618	607.19
435.84	656.19
436.062	755.19
436.284	815.19
436.505	686.19
436.727	586.19
436.949	581.19
437.17	567.19
437.392	571.19
437.614	606.19
437.835	615.19
438.057	700.19
438.278	812.19
438.5	796.19
438.721	884.19
438.943	851.19
439.165	682.19
439.386	590.19
439.608	609.19
439.829	588.19
440.05	621.19
440.272	704.19
440.493	655.19
440.715	621.19
440.936	580.19
441.158	559.19
441.379	575.19
441.6	609.19
441.822	597.19
442.043	635.19
442.264	739.19
442.486	801.19
442.707	681.19
442.928	624.19
443.149	622.19
443.371	657.19
443.592	704.19
443.813	793.19
444.034	855.19
444.255	695.19
444.476	642.19
444.698	641.19
444.919	608.19
445.14	713.19
445.361	663.19
445.582	671.19
445.803	718.19
446.024	846.19
446.245	842.19
446.466	781.19
446.687	657.19
446.908	613.19
447.129	585.19
447.35	589.19
447.571	573.19
447.792	560.19
448.013	555.19
448.234	574.19
448.455	652.19
448.675	750.19
448.896	881.19
449.117	751.19
449.338	716.19
449.559	825.19
449.779	924.19
450	761.19
450.221	614.19
450.442	589.19
450.662	545.19
450.883	551.19
451.104	570.19
451.324	547.19
451.545	532.19
451.766	500.19
451.986	504.19
452.207	512.19
452.428	517.19
452.648	516.19
452.869	520.19
453.089	507.19
453.31	521.19
453.53	507.19
453.751	517.19
453.971	519.19
454.192	534.19
454.412	501.19
454.633	511.19
454.853	523.19
455.073	491.19
455.294	537.19
455.514	614.19
455.734	565.19
455.955	507.19
456.175	478.19
456.395	462.19
456.616	484.19
456.836	502.19
457.056	467.19
457.276	474.19
457.497	476.19
457.717	484.19
457.937	496.19
458.157	479.19
458.377	508.19
458.598	535.19
458.818	567.19
459.038	627.19
459.258	686.19
459.478	586.19
459.698	548.19
459.918	535.19
460.138	548.19
460.358	529.19
460.578	544.19
460.798	557.19
461.018	579.19
461.238	555.19
461.458	556.19
461.678	529.19
461.898	563.19
462.118	535.19
462.338	552.19
462.558	569.19
462.777	586.19
462.997	613.19
463.217	617.19
463.437	616.19
463.657	590.19
463.876	589.19
464.096	597.19
464.316	578.19
464.536	603.19
464.755	593.19
464.975	613.19
465.195	625.19
465.414	671.19
465.634	638.19
465.854	583.19
466.073	565.19
466.293	538.19
466.512	519.19
466.732	504.19
466.951	505.19
467.171	504.19
467.391	525.19
467.61	530.19
467.829	539.19
468.049	518.19
468.268	526.19
468.488	518.19
468.707	491.19
468.927	496.19
469.146	506.19
469.365	517.19
469.585	521.19
469.804	518.19
470.023	538.19
470.243	535.19
470.462	545.19
470.681	560.19
470.901	546.19
471.12	529.19
471.339	536.19
471.558	543.19
471.777	553.19
471.997	507.19
472.216	522.19
472.435	573.19
472.654	560.19
472.873	525.19
473.092	518.19
473.311	514.19
473.53	528.19
473.749	529.19
473.968	585.19
474.187	698.19
474.406	726.19
474.625	587.19
474.844	551.19
475.063	526.19
475.282	536.19
475.501	552.19
475.72	545.19
475.939	548.19
476.158	549.19
476.377	559.19
476.596	553.19
476.814	575.19
477.033	569.19
477.252	572.19
477.471	555.19
477.69	579.19
477.908	571.19
478.127	588.19
478.346	573.19
478.564	603.19
478.783	598.19
479.002	600.19
479.22	617.19
479.439	609.19
479.658	648.19
479.876	632.19
480.095	645.19
480.313	682.19
480.532	668.19
480.751	644.19
480.969	644.19
481.188	705.19
481.406	732.19
481.624	697.19
481.843	657.19
482.061	629.19
482.28	618.19
482.498	654.19
482.717	640.19
482.935	643.19
483.153	619.19
483.372	645.19
483.59	635.19
483.808	648.19
484.027	655.19
484.245	648.19
484.463	628.19
484.681	639.19
484.9	652.19
485.118	618.19
485.336	633.19
485.554	633.19
485.772	639.19
485.99	630.19
486.209	637.19
486.427	641.19
486.645	646.19
486.863	665.19
487.081	643.19
487.299	688.19
487.517	667.19
487.735	641.19
487.953	655.19
488.171	688.19
488.389	665.19
488.607	685.19
488.825	682.19
489.043	679.19
489.261	673.19
489.479	692.19
489.696	685.19
489.914	697.19
490.132	681.19
490.35	705.19
490.568	678.19
490.786	701.19
491.003	703.19
491.221	752.19
491.439	729.19
491.657	750.19
491.874	761.19
492.092	737.19
492.31	788.19
492.527	792.19
492.745	773.19
492.963	796.19
493.18	777.19
493.398	785.19
493.615	796.19
493.833	799.19
494.05	781.19
494.268	780.19
494.485	790.19
494.703	770.19
494.92	789.19
495.138	811.19
495.355	804.19
495.573	779.19
495.79	785.19
496.008	792.19
496.225	788.19
496.442	833.19
496.66	815.19
496.877	786.19
497.094	815.19
497.312	819.19
497.529	804.19
497.746	808.19
497.963	845.19
498.181	884.19
498.398	863.19
498.615	880.19
498.832	887.19
499.049	933.19
499.267	949.19
499.484	975.19
499.701	1012.19
499.918	1075.19
500.135	1100.19
500.352	1140.19
500.569	1191.19
500.786	1150.19
501.003	1177.19
501.22	1119.19
501.437	1082.19
501.654	1075.19
