Data from 1966.PennyLincolnUp.Lamp.En5.5.200Scan.071719.P1.Scan2.head_HRD10591_14-19-01-235.txt Node
Date: Thu Jul 18 14:19:01 EDT 2019
User: cochatt
Spectrometer: HR+D1059
Trigger mode: 1
Integration Time (sec): 1.000000E-1
Scans to average: 1
Electric dark correction enabled: true
Nonlinearity correction enabled: false
Boxcar width: 0
XAxis mode: Wavelengths
Number of Pixels in Spectrum: 2048
>>>>>Begin Spectral Data<<<<<
223.165	-12.94
223.4	-12.94
223.635	-12.94
223.869	-17.94
224.104	-12.94
224.338	-11.94
224.573	-24.94
224.808	-2.94
225.042	-20.94
225.277	-8.94
225.511	-9.94
225.746	1.06
225.98	11.06
226.215	19.06
226.449	8.06
226.683	14.06
226.918	28.06
227.152	42.06
227.387	41.06
227.621	38.06
227.856	50.06
228.09	50.06
228.324	41.06
228.559	49.06
228.793	72.06
229.027	84.06
229.262	111.06
229.496	121.06
229.73	133.06
229.964	141.06
230.199	126.06
230.433	111.06
230.667	111.06
230.901	124.06
231.136	119.06
231.37	99.06
231.604	115.06
231.838	92.06
232.072	97.06
232.306	114.06
232.541	107.06
232.775	119.06
233.009	111.06
233.243	107.06
233.477	113.06
233.711	109.06
233.945	117.06
234.179	130.06
234.413	127.06
234.647	115.06
234.881	116.06
235.115	117.06
235.349	117.06
235.583	121.06
235.817	124.06
236.051	129.06
236.285	136.06
236.519	129.06
236.753	129.06
236.987	160.06
237.221	187.06
237.455	237.06
237.689	192.06
237.922	141.06
238.156	133.06
238.39	128.06
238.624	134.06
238.858	128.06
239.091	120.06
239.325	126.06
239.559	131.06
239.793	137.06
240.027	142.06
240.26	134.06
240.494	136.06
240.728	153.06
240.961	163.06
241.195	131.06
241.429	134.06
241.662	124.06
241.896	130.06
242.13	141.06
242.363	131.06
242.597	128.06
242.83	153.06
243.064	141.06
243.298	144.06
243.531	145.06
243.765	153.06
243.998	142.06
244.232	138.06
244.465	140.06
244.699	144.06
244.932	147.06
245.166	167.06
245.399	154.06
245.633	149.06
245.866	139.06
246.099	153.06
246.333	142.06
246.566	140.06
246.8	147.06
247.033	156.06
247.266	156.06
247.5	175.06
247.733	157.06
247.966	180.06
248.2	171.06
248.433	179.06
248.666	153.06
248.899	185.06
249.133	208.06
249.366	196.06
249.599	214.06
249.832	199.06
250.066	204.06
250.299	179.06
250.532	214.06
250.765	205.06
250.998	223.06
251.231	230.06
251.465	226.06
251.698	202.06
251.931	204.06
252.164	195.06
252.397	193.06
252.63	201.06
252.863	210.06
253.096	226.06
253.329	239.06
253.562	220.06
253.795	213.06
254.028	223.06
254.261	234.06
254.494	239.06
254.727	255.06
254.96	274.06
255.193	277.06
255.426	250.06
255.659	237.06
255.892	231.06
256.124	227.06
256.357	236.06
256.59	233.06
256.823	217.06
257.056	217.06
257.289	216.06
257.521	219.06
257.754	203.06
257.987	217.06
258.22	204.06
258.452	215.06
258.685	232.06
258.918	213.06
259.151	217.06
259.383	228.06
259.616	225.06
259.849	231.06
260.081	233.06
260.314	266.06
260.547	275.06
260.779	232.06
261.012	247.06
261.244	221.06
261.477	233.06
261.71	226.06
261.942	223.06
262.175	245.06
262.407	226.06
262.64	218.06
262.872	224.06
263.105	216.06
263.337	228.06
263.57	209.06
263.802	224.06
264.035	213.06
264.267	215.06
264.499	227.06
264.732	211.06
264.964	213.06
265.197	221.06
265.429	208.06
265.661	231.06
265.894	221.06
266.126	212.06
266.358	229.06
266.591	227.06
266.823	229.06
267.055	244.06
267.287	229.06
267.52	225.06
267.752	227.06
267.984	234.06
268.216	233.06
268.448	248.06
268.681	247.06
268.913	250.06
269.145	276.06
269.377	283.06
269.609	287.06
269.841	272.06
270.073	287.06
270.306	281.06
270.538	329.06
270.77	321.06
271.002	310.06
271.234	290.06
271.466	308.06
271.698	331.06
271.93	328.06
272.162	313.06
272.394	317.06
272.626	301.06
272.858	291.06
273.09	289.06
273.322	282.06
273.553	265.06
273.785	274.06
274.017	260.06
274.249	269.06
274.481	269.06
274.713	275.06
274.945	276.06
275.176	267.06
275.408	266.06
275.64	279.06
275.872	262.06
276.104	271.06
276.335	260.06
276.567	267.06
276.799	295.06
277.031	323.06
277.262	310.06
277.494	316.06
277.726	307.06
277.957	281.06
278.189	299.06
278.421	263.06
278.652	276.06
278.884	280.06
279.115	258.06
279.347	250.06
279.579	263.06
279.81	285.06
280.042	266.06
280.273	267.06
280.505	279.06
280.736	264.06
280.968	287.06
281.199	263.06
281.431	272.06
281.662	268.06
281.894	265.06
282.125	258.06
282.356	283.06
282.588	311.06
282.819	325.06
283.051	285.06
283.282	273.06
283.513	286.06
283.745	281.06
283.976	296.06
284.207	284.06
284.439	290.06
284.67	288.06
284.901	288.06
285.132	278.06
285.364	287.06
285.595	288.06
285.826	295.06
286.057	279.06
286.288	287.06
286.52	284.06
286.751	295.06
286.982	284.06
287.213	295.06
287.444	292.06
287.675	301.06
287.906	301.06
288.138	306.06
288.369	319.06
288.6	295.06
288.831	309.06
289.062	299.06
289.293	287.06
289.524	307.06
289.755	304.06
289.986	278.06
290.217	293.06
290.448	312.06
290.679	302.06
290.91	295.06
291.141	284.06
291.371	300.06
291.602	325.06
291.833	286.06
292.064	291.06
292.295	319.06
292.526	305.06
292.757	298.06
292.987	307.06
293.218	300.06
293.449	284.06
293.68	291.06
293.91	287.06
294.141	284.06
294.372	297.06
294.603	296.06
294.833	286.06
295.064	298.06
295.295	298.06
295.525	308.06
295.756	307.06
295.987	300.06
296.217	325.06
296.448	348.06
296.679	312.06
296.909	324.06
297.14	309.06
297.37	311.06
297.601	305.06
297.831	297.06
298.062	304.06
298.292	305.06
298.523	315.06
298.753	319.06
298.984	313.06
299.214	312.06
299.445	314.06
299.675	310.06
299.905	323.06
300.136	332.06
300.366	338.06
300.597	315.06
300.827	341.06
301.057	331.06
301.288	338.06
301.518	331.06
301.748	324.06
301.979	324.06
302.209	331.06
302.439	338.06
302.669	355.06
302.9	322.06
303.13	321.06
303.36	329.06
303.59	328.06
303.82	343.06
304.051	373.06
304.281	359.06
304.511	359.06
304.741	342.06
304.971	321.06
305.201	318.06
305.431	325.06
305.661	345.06
305.891	321.06
306.121	338.06
306.352	337.06
306.582	335.06
306.812	351.06
307.042	354.06
307.272	344.06
307.502	353.06
307.731	343.06
307.961	339.06
308.191	343.06
308.421	335.06
308.651	334.06
308.881	361.06
309.111	338.06
309.341	350.06
309.571	360.06
309.8	369.06
310.03	381.06
310.26	387.06
310.49	379.06
310.72	392.06
310.949	399.06
311.179	393.06
311.409	379.06
311.639	371.06
311.868	401.06
312.098	379.06
312.328	381.06
312.557	395.06
312.787	423.06
313.017	413.06
313.246	412.06
313.476	378.06
313.706	371.06
313.935	401.06
314.165	407.06
314.394	411.06
314.624	425.06
314.853	372.06
315.083	366.06
315.312	379.06
315.542	381.06
315.771	380.06
316.001	384.06
316.23	392.06
316.46	391.06
316.689	390.06
316.919	395.06
317.148	384.06
317.377	402.06
317.607	396.06
317.836	397.06
318.065	384.06
318.295	408.06
318.524	395.06
318.753	382.06
318.983	395.06
319.212	380.06
319.441	389.06
319.67	399.06
319.9	413.06
320.129	395.06
320.358	396.06
320.587	415.06
320.816	418.06
321.046	398.06
321.275	418.06
321.504	415.06
321.733	415.06
321.962	403.06
322.191	428.06
322.42	444.06
322.649	438.06
322.878	471.06
323.108	459.06
323.337	509.06
323.566	516.06
323.795	536.06
324.024	579.06
324.253	684.06
324.482	981.06
324.71	1543.06
324.939	2294.06
325.168	1996.06
325.397	976.06
325.626	637.06
325.855	570.06
326.084	525.06
326.313	496.06
326.542	509.06
326.77	543.06
326.999	641.06
327.228	917.06
327.457	1383.06
327.686	1742.06
327.914	1153.06
328.143	739.06
328.372	641.06
328.6	601.06
328.829	561.06
329.058	589.06
329.287	617.06
329.515	550.06
329.744	538.06
329.972	504.06
330.201	554.06
330.43	592.06
330.658	594.06
330.887	629.06
331.115	610.06
331.344	537.06
331.572	526.06
331.801	497.06
332.03	514.06
332.258	484.06
332.486	473.06
332.715	482.06
332.943	483.06
333.172	496.06
333.4	465.06
333.629	492.06
333.857	490.06
334.085	523.06
334.314	536.06
334.542	571.06
334.771	591.06
334.999	545.06
335.227	503.06
335.455	483.06
335.684	487.06
335.912	480.06
336.14	461.06
336.369	471.06
336.597	450.06
336.825	467.06
337.053	471.06
337.281	461.06
337.51	461.06
337.738	464.06
337.966	441.06
338.194	455.06
338.422	456.06
338.65	452.06
338.878	458.06
339.106	447.06
339.334	458.06
339.562	440.06
339.79	432.06
340.018	449.06
340.246	438.06
340.474	438.06
340.702	459.06
340.93	451.06
341.158	450.06
341.386	454.06
341.614	461.06
341.842	451.06
342.07	449.06
342.298	442.06
342.526	423.06
342.754	437.06
342.981	429.06
343.209	449.06
343.437	444.06
343.665	461.06
343.893	460.06
344.12	456.06
344.348	474.06
344.576	450.06
344.804	482.06
345.031	469.06
345.259	484.06
345.487	471.06
345.714	462.06
345.942	446.06
346.17	455.06
346.397	437.06
346.625	435.06
346.853	429.06
347.08	429.06
347.308	456.06
347.535	459.06
347.763	452.06
347.99	456.06
348.218	444.06
348.445	444.06
348.673	423.06
348.9	444.06
349.128	428.06
349.355	435.06
349.583	447.06
349.81	438.06
350.037	417.06
350.265	445.06
350.492	418.06
350.72	429.06
350.947	431.06
351.174	441.06
351.402	455.06
351.629	450.06
351.856	460.06
352.083	452.06
352.311	459.06
352.538	460.06
352.765	462.06
352.992	441.06
353.22	440.06
353.447	432.06
353.674	422.06
353.901	442.06
354.128	433.06
354.355	413.06
354.583	421.06
354.81	423.06
355.037	427.06
355.264	420.06
355.491	427.06
355.718	403.06
355.945	402.06
356.172	425.06
356.399	420.06
356.626	429.06
356.853	419.06
357.08	395.06
357.307	393.06
357.534	412.06
357.761	417.06
357.988	434.06
358.215	393.06
358.441	417.06
358.668	394.06
358.895	451.06
359.122	443.06
359.349	447.06
359.576	444.06
359.802	462.06
360.029	487.06
360.256	507.06
360.483	476.06
360.709	443.06
360.936	460.06
361.163	454.06
361.39	447.06
361.616	455.06
361.843	467.06
362.07	451.06
362.296	450.06
362.523	450.06
362.749	437.06
362.976	455.06
363.203	439.06
363.429	418.06
363.656	424.06
363.882	431.06
364.109	428.06
364.335	443.06
364.562	423.06
364.788	410.06
365.015	417.06
365.241	412.06
365.468	418.06
365.694	442.06
365.92	423.06
366.147	436.06
366.373	407.06
366.599	435.06
366.826	422.06
367.052	439.06
367.278	433.06
367.505	435.06
367.731	445.06
367.957	399.06
368.184	437.06
368.41	450.06
368.636	455.06
368.862	448.06
369.089	427.06
369.315	427.06
369.541	432.06
369.767	432.06
369.993	423.06
370.219	440.06
370.445	422.06
370.672	428.06
370.898	442.06
371.124	441.06
371.35	431.06
371.576	430.06
371.802	427.06
372.028	452.06
372.254	427.06
372.48	423.06
372.706	441.06
372.932	415.06
373.158	445.06
373.384	424.06
373.61	440.06
373.835	427.06
374.061	431.06
374.287	433.06
374.513	442.06
374.739	455.06
374.965	459.06
375.191	461.06
375.416	434.06
375.642	433.06
375.868	439.06
376.094	433.06
376.319	436.06
376.545	416.06
376.771	447.06
376.997	448.06
377.222	462.06
377.448	428.06
377.674	443.06
377.899	435.06
378.125	443.06
378.35	423.06
378.576	428.06
378.802	430.06
379.027	453.06
379.253	437.06
379.478	431.06
379.704	443.06
379.929	424.06
380.155	441.06
380.38	447.06
380.606	467.06
380.831	418.06
381.057	450.06
381.282	445.06
381.507	441.06
381.733	440.06
381.958	457.06
382.184	448.06
382.409	465.06
382.634	454.06
382.86	427.06
383.085	457.06
383.31	470.06
383.535	464.06
383.761	435.06
383.986	471.06
384.211	474.06
384.436	475.06
384.662	460.06
384.887	473.06
385.112	471.06
385.337	459.06
385.562	468.06
385.787	484.06
386.013	490.06
386.238	497.06
386.463	482.06
386.688	495.06
386.913	487.06
387.138	478.06
387.363	502.06
387.588	496.06
387.813	487.06
388.038	476.06
388.263	489.06
388.488	485.06
388.713	488.06
388.938	472.06
389.163	490.06
389.387	476.06
389.612	474.06
389.837	457.06
390.062	499.06
390.287	479.06
390.512	485.06
390.736	479.06
390.961	481.06
391.186	487.06
391.411	479.06
391.636	491.06
391.86	488.06
392.085	491.06
392.31	499.06
392.534	496.06
392.759	505.06
392.984	474.06
393.208	485.06
393.433	491.06
393.658	485.06
393.882	467.06
394.107	475.06
394.331	499.06
394.556	513.06
394.78	503.06
395.005	501.06
395.229	489.06
395.454	513.06
395.678	522.06
395.903	512.06
396.127	533.06
396.352	567.06
396.576	528.06
396.801	521.06
397.025	511.06
397.249	530.06
397.474	524.06
397.698	527.06
397.922	529.06
398.147	559.06
398.371	557.06
398.595	560.06
398.82	553.06
399.044	574.06
399.268	563.06
399.492	606.06
399.717	627.06
399.941	681.06
400.165	683.06
400.389	708.06
400.613	637.06
400.837	595.06
401.062	591.06
401.286	570.06
401.51	575.06
401.734	553.06
401.958	548.06
402.182	562.06
402.406	585.06
402.63	593.06
402.854	584.06
403.078	588.06
403.302	597.06
403.526	578.06
403.75	585.06
403.974	594.06
404.198	601.06
404.422	596.06
404.645	604.06
404.869	610.06
405.093	649.06
405.317	687.06
405.541	723.06
405.765	644.06
405.988	648.06
406.212	627.06
406.436	660.06
406.66	646.06
406.883	620.06
407.107	652.06
407.331	723.06
407.555	767.06
407.778	773.06
408.002	731.06
408.226	675.06
408.449	635.06
408.673	627.06
408.896	683.06
409.12	711.06
409.344	677.06
409.567	608.06
409.791	601.06
410.014	613.06
410.238	605.06
410.461	601.06
410.685	614.06
410.908	611.06
411.132	655.06
411.355	689.06
411.578	690.06
411.802	599.06
412.025	576.06
412.249	596.06
412.472	603.06
412.695	676.06
412.919	669.06
413.142	623.06
413.365	591.06
413.589	567.06
413.812	566.06
414.035	552.06
414.258	563.06
414.482	576.06
414.705	574.06
414.928	569.06
415.151	557.06
415.374	576.06
415.597	551.06
415.821	541.06
416.044	570.06
416.267	545.06
416.49	556.06
416.713	545.06
416.936	580.06
417.159	555.06
417.382	570.06
417.605	567.06
417.828	563.06
418.051	579.06
418.274	581.06
418.497	552.06
418.72	562.06
418.943	549.06
419.166	587.06
419.389	608.06
419.611	599.06
419.834	595.06
420.057	602.06
420.28	593.06
420.503	558.06
420.726	595.06
420.948	585.06
421.171	662.06
421.394	687.06
421.617	623.06
421.839	563.06
422.062	584.06
422.285	568.06
422.507	672.06
422.73	730.06
422.953	704.06
423.175	627.06
423.398	601.06
423.621	619.06
423.843	617.06
424.066	625.06
424.288	650.06
424.511	659.06
424.733	696.06
424.956	819.06
425.178	767.06
425.401	760.06
425.623	788.06
425.846	691.06
426.068	616.06
426.291	627.06
426.513	632.06
426.735	624.06
426.958	689.06
427.18	768.06
427.402	930.06
427.625	1007.06
427.847	855.06
428.069	771.06
428.292	671.06
428.514	641.06
428.736	611.06
428.958	583.06
429.181	573.06
429.403	585.06
429.625	594.06
429.847	641.06
430.069	710.06
430.292	705.06
430.514	589.06
430.736	579.06
430.958	575.06
431.18	565.06
431.402	559.06
431.624	549.06
431.846	539.06
432.068	569.06
432.29	576.06
432.512	538.06
432.734	575.06
432.956	567.06
433.178	579.06
433.4	575.06
433.622	565.06
433.844	560.06
434.066	562.06
434.287	552.06
434.509	577.06
434.731	569.06
434.953	570.06
435.175	596.06
435.397	626.06
435.618	615.06
435.84	677.06
436.062	797.06
436.284	867.06
436.505	693.06
436.727	634.06
436.949	596.06
437.17	588.06
437.392	573.06
437.614	586.06
437.835	634.06
438.057	737.06
438.278	860.06
438.5	840.06
438.721	964.06
438.943	899.06
439.165	719.06
439.386	637.06
439.608	659.06
439.829	668.06
440.05	678.06
440.272	704.06
440.493	687.06
440.715	629.06
440.936	601.06
441.158	604.06
441.379	616.06
441.6	588.06
441.822	636.06
442.043	673.06
442.264	774.06
442.486	815.06
442.707	701.06
442.928	668.06
443.149	651.06
443.371	666.06
443.592	737.06
443.813	822.06
444.034	913.06
444.255	732.06
444.476	654.06
444.698	655.06
444.919	624.06
445.14	727.06
445.361	689.06
445.582	690.06
445.803	744.06
446.024	872.06
446.245	905.06
446.466	785.06
446.687	677.06
446.908	636.06
447.129	581.06
447.35	591.06
447.571	571.06
447.792	566.06
448.013	596.06
448.234	601.06
448.455	653.06
448.675	777.06
448.896	882.06
449.117	769.06
449.338	743.06
449.559	850.06
449.779	992.06
450	801.06
450.221	648.06
450.442	603.06
450.662	567.06
450.883	580.06
451.104	592.06
451.324	586.06
451.545	563.06
451.766	556.06
451.986	518.06
452.207	519.06
452.428	503.06
452.648	506.06
452.869	525.06
453.089	521.06
453.31	554.06
453.53	531.06
453.751	492.06
453.971	509.06
454.192	527.06
454.412	524.06
454.633	513.06
454.853	517.06
455.073	511.06
455.294	541.06
455.514	639.06
455.734	599.06
455.955	509.06
456.175	511.06
456.395	500.06
456.616	485.06
456.836	480.06
457.056	501.06
457.276	464.06
457.497	499.06
457.717	502.06
457.937	505.06
458.157	527.06
458.377	516.06
458.598	529.06
458.818	603.06
459.038	689.06
459.258	714.06
459.478	619.06
459.698	572.06
459.918	559.06
460.138	535.06
460.358	564.06
460.578	580.06
460.798	538.06
461.018	543.06
461.238	569.06
461.458	559.06
461.678	566.06
461.898	566.06
462.118	578.06
462.338	582.06
462.558	570.06
462.777	609.06
462.997	623.06
463.217	620.06
463.437	617.06
463.657	608.06
463.876	609.06
464.096	603.06
464.316	595.06
464.536	612.06
464.755	597.06
464.975	609.06
465.195	628.06
465.414	706.06
465.634	656.06
465.854	575.06
466.073	571.06
466.293	552.06
466.512	538.06
466.732	550.06
466.951	529.06
467.171	542.06
467.391	541.06
467.61	537.06
467.829	556.06
468.049	547.06
468.268	549.06
468.488	537.06
468.707	519.06
468.927	515.06
469.146	526.06
469.365	528.06
469.585	484.06
469.804	541.06
470.023	551.06
470.243	537.06
470.462	538.06
470.681	553.06
470.901	555.06
471.12	547.06
471.339	561.06
471.558	551.06
471.777	551.06
471.997	548.06
472.216	544.06
472.435	604.06
472.654	597.06
472.873	576.06
473.092	549.06
473.311	555.06
473.53	553.06
473.749	529.06
473.968	600.06
474.187	691.06
474.406	723.06
474.625	600.06
474.844	553.06
475.063	550.06
475.282	546.06
475.501	560.06
475.72	555.06
475.939	551.06
476.158	576.06
476.377	565.06
476.596	555.06
476.814	552.06
477.033	570.06
477.252	565.06
477.471	589.06
477.69	589.06
477.908	594.06
478.127	622.06
478.346	610.06
478.564	607.06
478.783	591.06
479.002	605.06
479.22	603.06
479.439	628.06
479.658	641.06
479.876	638.06
480.095	661.06
480.313	697.06
480.532	706.06
480.751	665.06
480.969	675.06
481.188	752.06
481.406	801.06
481.624	718.06
481.843	694.06
482.061	651.06
482.28	638.06
482.498	638.06
482.717	629.06
482.935	646.06
483.153	628.06
483.372	627.06
483.59	618.06
483.808	643.06
484.027	659.06
484.245	638.06
484.463	655.06
484.681	643.06
484.9	669.06
485.118	657.06
485.336	659.06
485.554	680.06
485.772	657.06
485.99	653.06
486.209	641.06
486.427	681.06
486.645	688.06
486.863	700.06
487.081	679.06
487.299	683.06
487.517	681.06
487.735	673.06
487.953	677.06
488.171	679.06
488.389	684.06
488.607	688.06
488.825	707.06
489.043	686.06
489.261	695.06
489.479	704.06
489.696	692.06
489.914	708.06
490.132	738.06
490.35	720.06
490.568	733.06
490.786	745.06
491.003	758.06
491.221	765.06
491.439	775.06
491.657	758.06
491.874	777.06
492.092	780.06
492.31	795.06
492.527	794.06
492.745	844.06
492.963	797.06
493.18	817.06
493.398	840.06
493.615	839.06
493.833	822.06
494.05	829.06
494.268	799.06
494.485	818.06
494.703	807.06
494.92	825.06
495.138	825.06
495.355	804.06
495.573	818.06
495.79	821.06
496.008	847.06
496.225	805.06
496.442	833.06
496.66	826.06
496.877	855.06
497.094	819.06
497.312	838.06
497.529	850.06
497.746	849.06
497.963	855.06
498.181	903.06
498.398	896.06
498.615	916.06
498.832	925.06
499.049	955.06
499.267	952.06
499.484	988.06
499.701	1036.06
499.918	1063.06
500.135	1136.06
500.352	1172.06
500.569	1180.06
500.786	1179.06
501.003	1206.06
501.22	1127.06
501.437	1136.06
501.654	1064.06
