Data from 1966.PennyLincolnUp.Lamp.En5.5.200Scan.071719.P1.Scan2.head_HRD10591_14-18-18-177.txt Node
Date: Thu Jul 18 14:18:18 EDT 2019
User: cochatt
Spectrometer: HR+D1059
Trigger mode: 1
Integration Time (sec): 1.000000E-1
Scans to average: 1
Electric dark correction enabled: true
Nonlinearity correction enabled: false
Boxcar width: 0
XAxis mode: Wavelengths
Number of Pixels in Spectrum: 2048
>>>>>Begin Spectral Data<<<<<
223.165	-18.75
223.4	-18.75
223.635	-18.75
223.869	-8.75
224.104	-10.75
224.338	-14.75
224.573	-14.75
224.808	-21.75
225.042	-11.75
225.277	3.25
225.511	0.25
225.746	-0.75
225.98	9.25
226.215	23.25
226.449	13.25
226.683	14.25
226.918	13.25
227.152	25.25
227.387	28.25
227.621	34.25
227.856	32.25
228.09	39.25
228.324	55.25
228.559	41.25
228.793	58.25
229.027	92.25
229.262	119.25
229.496	125.25
229.73	131.25
229.964	151.25
230.199	139.25
230.433	96.25
230.667	115.25
230.901	122.25
231.136	108.25
231.37	124.25
231.604	114.25
231.838	92.25
232.072	117.25
232.306	90.25
232.541	120.25
232.775	114.25
233.009	110.25
233.243	109.25
233.477	115.25
233.711	129.25
233.945	118.25
234.179	115.25
234.413	122.25
234.647	113.25
234.881	125.25
235.115	112.25
235.349	125.25
235.583	117.25
235.817	118.25
236.051	125.25
236.285	127.25
236.519	131.25
236.753	141.25
236.987	138.25
237.221	167.25
237.455	232.25
237.689	183.25
237.922	154.25
238.156	138.25
238.39	126.25
238.624	132.25
238.858	121.25
239.091	123.25
239.325	114.25
239.559	125.25
239.793	117.25
240.027	131.25
240.26	147.25
240.494	174.25
240.728	157.25
240.961	139.25
241.195	157.25
241.429	144.25
241.662	137.25
241.896	125.25
242.13	154.25
242.363	133.25
242.597	130.25
242.83	148.25
243.064	141.25
243.298	133.25
243.531	142.25
243.765	134.25
243.998	143.25
244.232	135.25
244.465	149.25
244.699	144.25
244.932	148.25
245.166	141.25
245.399	147.25
245.633	148.25
245.866	143.25
246.099	141.25
246.333	139.25
246.566	162.25
246.8	135.25
247.033	164.25
247.266	146.25
247.5	170.25
247.733	162.25
247.966	169.25
248.2	168.25
248.433	167.25
248.666	192.25
248.899	169.25
249.133	195.25
249.366	223.25
249.599	204.25
249.832	175.25
250.066	198.25
250.299	205.25
250.532	198.25
250.765	206.25
250.998	216.25
251.231	234.25
251.465	224.25
251.698	206.25
251.931	200.25
252.164	210.25
252.397	220.25
252.63	215.25
252.863	197.25
253.096	222.25
253.329	229.25
253.562	230.25
253.795	224.25
254.028	223.25
254.261	238.25
254.494	218.25
254.727	265.25
254.96	270.25
255.193	277.25
255.426	252.25
255.659	239.25
255.892	245.25
256.124	246.25
256.357	236.25
256.59	245.25
256.823	220.25
257.056	217.25
257.289	219.25
257.521	230.25
257.754	211.25
257.987	217.25
258.22	222.25
258.452	206.25
258.685	201.25
258.918	213.25
259.151	214.25
259.383	228.25
259.616	216.25
259.849	221.25
260.081	244.25
260.314	269.25
260.547	238.25
260.779	241.25
261.012	233.25
261.244	204.25
261.477	230.25
261.71	225.25
261.942	222.25
262.175	232.25
262.407	226.25
262.64	214.25
262.872	209.25
263.105	214.25
263.337	229.25
263.57	218.25
263.802	219.25
264.035	224.25
264.267	208.25
264.499	209.25
264.732	224.25
264.964	200.25
265.197	223.25
265.429	202.25
265.661	229.25
265.894	214.25
266.126	228.25
266.358	219.25
266.591	220.25
266.823	220.25
267.055	231.25
267.287	227.25
267.52	227.25
267.752	224.25
267.984	227.25
268.216	236.25
268.448	233.25
268.681	227.25
268.913	236.25
269.145	246.25
269.377	275.25
269.609	278.25
269.841	284.25
270.073	276.25
270.306	311.25
270.538	327.25
270.77	318.25
271.002	312.25
271.234	283.25
271.466	307.25
271.698	312.25
271.93	323.25
272.162	301.25
272.394	317.25
272.626	320.25
272.858	291.25
273.09	283.25
273.322	270.25
273.553	269.25
273.785	265.25
274.017	279.25
274.249	283.25
274.481	274.25
274.713	276.25
274.945	261.25
275.176	264.25
275.408	255.25
275.64	268.25
275.872	249.25
276.104	257.25
276.335	259.25
276.567	275.25
276.799	299.25
277.031	311.25
277.262	320.25
277.494	327.25
277.726	315.25
277.957	290.25
278.189	291.25
278.421	293.25
278.652	294.25
278.884	272.25
279.115	284.25
279.347	271.25
279.579	268.25
279.81	262.25
280.042	272.25
280.273	262.25
280.505	243.25
280.736	275.25
280.968	299.25
281.199	261.25
281.431	269.25
281.662	265.25
281.894	281.25
282.125	273.25
282.356	307.25
282.588	308.25
282.819	313.25
283.051	296.25
283.282	275.25
283.513	275.25
283.745	286.25
283.976	286.25
284.207	306.25
284.439	306.25
284.67	303.25
284.901	281.25
285.132	279.25
285.364	267.25
285.595	276.25
285.826	261.25
286.057	283.25
286.288	302.25
286.52	282.25
286.751	282.25
286.982	302.25
287.213	305.25
287.444	279.25
287.675	277.25
287.906	298.25
288.138	298.25
288.369	309.25
288.6	316.25
288.831	317.25
289.062	285.25
289.293	296.25
289.524	297.25
289.755	308.25
289.986	300.25
290.217	300.25
290.448	303.25
290.679	286.25
290.91	292.25
291.141	299.25
291.371	307.25
291.602	292.25
291.833	277.25
292.064	289.25
292.295	300.25
292.526	293.25
292.757	310.25
292.987	305.25
293.218	286.25
293.449	293.25
293.68	291.25
293.91	295.25
294.141	281.25
294.372	283.25
294.603	296.25
294.833	301.25
295.064	301.25
295.295	293.25
295.525	310.25
295.756	313.25
295.987	316.25
296.217	327.25
296.448	346.25
296.679	322.25
296.909	302.25
297.14	295.25
297.37	297.25
297.601	325.25
297.831	296.25
298.062	319.25
298.292	313.25
298.523	308.25
298.753	310.25
298.984	304.25
299.214	307.25
299.445	325.25
299.675	313.25
299.905	330.25
300.136	337.25
300.366	323.25
300.597	311.25
300.827	321.25
301.057	333.25
301.288	333.25
301.518	334.25
301.748	361.25
301.979	356.25
302.209	323.25
302.439	330.25
302.669	325.25
302.9	334.25
303.13	326.25
303.36	329.25
303.59	339.25
303.82	354.25
304.051	342.25
304.281	338.25
304.511	331.25
304.741	329.25
304.971	340.25
305.201	339.25
305.431	330.25
305.661	338.25
305.891	327.25
306.121	345.25
306.352	324.25
306.582	336.25
306.812	339.25
307.042	333.25
307.272	335.25
307.502	328.25
307.731	330.25
307.961	348.25
308.191	335.25
308.421	335.25
308.651	347.25
308.881	349.25
309.111	345.25
309.341	357.25
309.571	361.25
309.8	382.25
310.03	351.25
310.26	378.25
310.49	373.25
310.72	383.25
310.949	413.25
311.179	409.25
311.409	394.25
311.639	375.25
311.868	401.25
312.098	384.25
312.328	398.25
312.557	402.25
312.787	419.25
313.017	414.25
313.246	405.25
313.476	359.25
313.706	396.25
313.935	407.25
314.165	371.25
314.394	385.25
314.624	398.25
314.853	387.25
315.083	385.25
315.312	393.25
315.542	375.25
315.771	381.25
316.001	404.25
316.23	381.25
316.46	391.25
316.689	390.25
316.919	391.25
317.148	391.25
317.377	403.25
317.607	377.25
317.836	403.25
318.065	395.25
318.295	407.25
318.524	385.25
318.753	399.25
318.983	380.25
319.212	396.25
319.441	404.25
319.67	400.25
319.9	386.25
320.129	381.25
320.358	401.25
320.587	413.25
320.816	398.25
321.046	414.25
321.275	392.25
321.504	405.25
321.733	399.25
321.962	433.25
322.191	422.25
322.42	424.25
322.649	433.25
322.878	453.25
323.108	461.25
323.337	500.25
323.566	484.25
323.795	527.25
324.024	578.25
324.253	671.25
324.482	971.25
324.71	1515.25
324.939	2250.25
325.168	1942.25
325.397	975.25
325.626	653.25
325.855	561.25
326.084	498.25
326.313	517.25
326.542	528.25
326.77	547.25
326.999	648.25
327.228	874.25
327.457	1357.25
327.686	1693.25
327.914	1101.25
328.143	711.25
328.372	606.25
328.6	590.25
328.829	562.25
329.058	567.25
329.287	609.25
329.515	589.25
329.744	519.25
329.972	488.25
330.201	553.25
330.43	585.25
330.658	607.25
330.887	633.25
331.115	596.25
331.344	525.25
331.572	484.25
331.801	499.25
332.03	498.25
332.258	481.25
332.486	491.25
332.715	486.25
332.943	467.25
333.172	449.25
333.4	473.25
333.629	468.25
333.857	514.25
334.085	527.25
334.314	545.25
334.542	570.25
334.771	585.25
334.999	538.25
335.227	517.25
335.455	476.25
335.684	471.25
335.912	473.25
336.14	474.25
336.369	462.25
336.597	444.25
336.825	465.25
337.053	485.25
337.281	462.25
337.51	458.25
337.738	459.25
337.966	455.25
338.194	446.25
338.422	440.25
338.65	464.25
338.878	459.25
339.106	446.25
339.334	449.25
339.562	460.25
339.79	451.25
340.018	435.25
340.246	449.25
340.474	453.25
340.702	454.25
340.93	454.25
341.158	451.25
341.386	461.25
341.614	428.25
341.842	452.25
342.07	433.25
342.298	438.25
342.526	442.25
342.754	417.25
342.981	429.25
343.209	421.25
343.437	455.25
343.665	461.25
343.893	450.25
344.12	476.25
344.348	462.25
344.576	445.25
344.804	473.25
345.031	476.25
345.259	475.25
345.487	467.25
345.714	454.25
345.942	445.25
346.17	430.25
346.397	447.25
346.625	410.25
346.853	435.25
347.08	435.25
347.308	431.25
347.535	451.25
347.763	441.25
347.99	436.25
348.218	441.25
348.445	439.25
348.673	462.25
348.9	443.25
349.128	423.25
349.355	392.25
349.583	424.25
349.81	434.25
350.037	421.25
350.265	425.25
350.492	435.25
350.72	399.25
350.947	435.25
351.174	439.25
351.402	455.25
351.629	446.25
351.856	451.25
352.083	464.25
352.311	451.25
352.538	433.25
352.765	464.25
352.992	445.25
353.22	462.25
353.447	419.25
353.674	436.25
353.901	439.25
354.128	425.25
354.355	421.25
354.583	423.25
354.81	419.25
355.037	415.25
355.264	404.25
355.491	413.25
355.718	419.25
355.945	410.25
356.172	404.25
356.399	400.25
356.626	418.25
356.853	413.25
357.08	407.25
357.307	407.25
357.534	376.25
357.761	420.25
357.988	417.25
358.215	422.25
358.441	430.25
358.668	431.25
358.895	418.25
359.122	437.25
359.349	446.25
359.576	443.25
359.802	479.25
360.029	473.25
360.256	498.25
360.483	493.25
360.709	453.25
360.936	438.25
361.163	449.25
361.39	453.25
361.616	444.25
361.843	428.25
362.07	448.25
362.296	451.25
362.523	457.25
362.749	458.25
362.976	448.25
363.203	441.25
363.429	440.25
363.656	459.25
363.882	427.25
364.109	445.25
364.335	430.25
364.562	414.25
364.788	449.25
365.015	425.25
365.241	428.25
365.468	440.25
365.694	455.25
365.92	433.25
366.147	440.25
366.373	434.25
366.599	409.25
366.826	445.25
367.052	424.25
367.278	421.25
367.505	425.25
367.731	445.25
367.957	439.25
368.184	450.25
368.41	441.25
368.636	457.25
368.862	462.25
369.089	418.25
369.315	435.25
369.541	437.25
369.767	419.25
369.993	435.25
370.219	429.25
370.445	415.25
370.672	435.25
370.898	438.25
371.124	426.25
371.35	433.25
371.576	429.25
371.802	418.25
372.028	437.25
372.254	441.25
372.48	430.25
372.706	426.25
372.932	446.25
373.158	430.25
373.384	445.25
373.61	420.25
373.835	435.25
374.061	456.25
374.287	430.25
374.513	430.25
374.739	467.25
374.965	451.25
375.191	445.25
375.416	438.25
375.642	456.25
375.868	425.25
376.094	450.25
376.319	439.25
376.545	449.25
376.771	438.25
376.997	447.25
377.222	440.25
377.448	446.25
377.674	437.25
377.899	429.25
378.125	449.25
378.35	426.25
378.576	440.25
378.802	448.25
379.027	425.25
379.253	433.25
379.478	441.25
379.704	435.25
379.929	435.25
380.155	420.25
380.38	421.25
380.606	435.25
380.831	444.25
381.057	445.25
381.282	443.25
381.507	423.25
381.733	435.25
381.958	437.25
382.184	452.25
382.409	463.25
382.634	462.25
382.86	435.25
383.085	456.25
383.31	428.25
383.535	468.25
383.761	443.25
383.986	461.25
384.211	473.25
384.436	481.25
384.662	460.25
384.887	474.25
385.112	470.25
385.337	470.25
385.562	463.25
385.787	491.25
386.013	485.25
386.238	472.25
386.463	487.25
386.688	471.25
386.913	474.25
387.138	468.25
387.363	474.25
387.588	462.25
387.813	506.25
388.038	471.25
388.263	503.25
388.488	447.25
388.713	479.25
388.938	487.25
389.163	512.25
389.387	490.25
389.612	482.25
389.837	502.25
390.062	485.25
390.287	494.25
390.512	482.25
390.736	488.25
390.961	461.25
391.186	476.25
391.411	490.25
391.636	487.25
391.86	516.25
392.085	513.25
392.31	497.25
392.534	504.25
392.759	517.25
392.984	480.25
393.208	484.25
393.433	505.25
393.658	517.25
393.882	479.25
394.107	487.25
394.331	506.25
394.556	513.25
394.78	512.25
395.005	503.25
395.229	511.25
395.454	514.25
395.678	487.25
395.903	545.25
396.127	548.25
396.352	550.25
396.576	526.25
396.801	507.25
397.025	508.25
397.249	514.25
397.474	547.25
397.698	523.25
397.922	533.25
398.147	545.25
398.371	555.25
398.595	549.25
398.82	555.25
399.044	583.25
399.268	574.25
399.492	618.25
399.717	669.25
399.941	696.25
400.165	721.25
400.389	700.25
400.613	650.25
400.837	596.25
401.062	585.25
401.286	590.25
401.51	563.25
401.734	565.25
401.958	558.25
402.182	607.25
402.406	583.25
402.63	586.25
402.854	598.25
403.078	572.25
403.302	596.25
403.526	606.25
403.75	597.25
403.974	588.25
404.198	573.25
404.422	598.25
404.645	593.25
404.869	618.25
405.093	659.25
405.317	655.25
405.541	707.25
405.765	662.25
405.988	627.25
406.212	622.25
406.436	638.25
406.66	643.25
406.883	618.25
407.107	657.25
407.331	713.25
407.555	774.25
407.778	785.25
408.002	696.25
408.226	647.25
408.449	645.25
408.673	661.25
408.896	683.25
409.12	723.25
409.344	676.25
409.567	623.25
409.791	602.25
410.014	617.25
410.238	611.25
410.461	616.25
410.685	602.25
410.908	615.25
411.132	636.25
411.355	678.25
411.578	648.25
411.802	607.25
412.025	589.25
412.249	605.25
412.472	635.25
412.695	665.25
412.919	645.25
413.142	604.25
413.365	589.25
413.589	577.25
413.812	565.25
414.035	572.25
414.258	556.25
414.482	554.25
414.705	575.25
414.928	562.25
415.151	574.25
415.374	563.25
415.597	550.25
415.821	565.25
416.044	567.25
416.267	564.25
416.49	556.25
416.713	555.25
416.936	555.25
417.159	561.25
417.382	557.25
417.605	578.25
417.828	561.25
418.051	598.25
418.274	588.25
418.497	571.25
418.72	555.25
418.943	584.25
419.166	597.25
419.389	612.25
419.611	603.25
419.834	597.25
420.057	613.25
420.28	589.25
420.503	575.25
420.726	590.25
420.948	574.25
421.171	629.25
421.394	693.25
421.617	610.25
421.839	602.25
422.062	580.25
422.285	605.25
422.507	669.25
422.73	722.25
422.953	711.25
423.175	634.25
423.398	627.25
423.621	603.25
423.843	621.25
424.066	625.25
424.288	643.25
424.511	638.25
424.733	703.25
424.956	785.25
425.178	755.25
425.401	759.25
425.623	807.25
425.846	670.25
426.068	645.25
426.291	621.25
426.513	628.25
426.735	637.25
426.958	681.25
427.18	781.25
427.402	920.25
427.625	1006.25
427.847	852.25
428.069	747.25
428.292	691.25
428.514	629.25
428.736	591.25
428.958	597.25
429.181	569.25
429.403	592.25
429.625	555.25
429.847	632.25
430.069	719.25
430.292	695.25
430.514	610.25
430.736	588.25
430.958	587.25
431.18	558.25
431.402	553.25
431.624	535.25
431.846	545.25
432.068	549.25
432.29	567.25
432.512	540.25
432.734	582.25
432.956	560.25
433.178	565.25
433.4	573.25
433.622	535.25
433.844	570.25
434.066	556.25
434.287	555.25
434.509	567.25
434.731	561.25
434.953	559.25
435.175	583.25
435.397	627.25
435.618	626.25
435.84	703.25
436.062	779.25
436.284	840.25
436.505	709.25
436.727	625.25
436.949	600.25
437.17	599.25
437.392	592.25
437.614	585.25
437.835	636.25
438.057	739.25
438.278	866.25
438.5	848.25
438.721	952.25
438.943	894.25
439.165	706.25
439.386	617.25
439.608	647.25
439.829	613.25
440.05	674.25
440.272	715.25
440.493	659.25
440.715	645.25
440.936	610.25
441.158	591.25
441.379	582.25
441.6	628.25
441.822	633.25
442.043	678.25
442.264	761.25
442.486	795.25
442.707	708.25
442.928	637.25
443.149	650.25
443.371	686.25
443.592	723.25
443.813	837.25
444.034	905.25
444.255	775.25
444.476	671.25
444.698	645.25
444.919	647.25
445.14	748.25
445.361	694.25
445.582	671.25
445.803	714.25
446.024	871.25
446.245	843.25
446.466	756.25
446.687	681.25
446.908	604.25
447.129	597.25
447.35	586.25
447.571	578.25
447.792	569.25
448.013	570.25
448.234	595.25
448.455	673.25
448.675	787.25
448.896	943.25
449.117	759.25
449.338	737.25
449.559	835.25
449.779	988.25
450	741.25
450.221	631.25
450.442	578.25
450.662	582.25
450.883	570.25
451.104	565.25
451.324	571.25
451.545	549.25
451.766	537.25
451.986	512.25
452.207	518.25
452.428	515.25
452.648	518.25
452.869	509.25
453.089	518.25
453.31	548.25
453.53	502.25
453.751	534.25
453.971	518.25
454.192	538.25
454.412	533.25
454.633	511.25
454.853	503.25
455.073	523.25
455.294	522.25
455.514	627.25
455.734	589.25
455.955	526.25
456.175	501.25
456.395	479.25
456.616	472.25
456.836	493.25
457.056	479.25
457.276	482.25
457.497	482.25
457.717	486.25
457.937	512.25
458.157	528.25
458.377	504.25
458.598	523.25
458.818	577.25
459.038	667.25
459.258	731.25
459.478	612.25
459.698	554.25
459.918	549.25
460.138	539.25
460.358	549.25
460.578	582.25
460.798	580.25
461.018	569.25
461.238	570.25
461.458	568.25
461.678	559.25
461.898	563.25
462.118	573.25
462.338	581.25
462.558	578.25
462.777	611.25
462.997	616.25
463.217	605.25
463.437	632.25
463.657	629.25
463.876	609.25
464.096	619.25
464.316	599.25
464.536	626.25
464.755	618.25
464.975	607.25
465.195	645.25
465.414	710.25
465.634	659.25
465.854	598.25
466.073	562.25
466.293	551.25
466.512	533.25
466.732	539.25
466.951	547.25
467.171	542.25
467.391	538.25
467.61	560.25
467.829	550.25
468.049	556.25
468.268	545.25
468.488	540.25
468.707	519.25
468.927	515.25
469.146	515.25
469.365	498.25
469.585	515.25
469.804	534.25
470.023	551.25
470.243	542.25
470.462	537.25
470.681	572.25
470.901	569.25
471.12	542.25
471.339	554.25
471.558	548.25
471.777	553.25
471.997	557.25
472.216	535.25
472.435	559.25
472.654	546.25
472.873	548.25
473.092	557.25
473.311	552.25
473.53	551.25
473.749	531.25
473.968	601.25
474.187	692.25
474.406	746.25
474.625	596.25
474.844	571.25
475.063	559.25
475.282	537.25
475.501	550.25
475.72	545.25
475.939	569.25
476.158	559.25
476.377	580.25
476.596	556.25
476.814	564.25
477.033	601.25
477.252	579.25
477.471	563.25
477.69	589.25
477.908	609.25
478.127	616.25
478.346	620.25
478.564	609.25
478.783	623.25
479.002	621.25
479.22	619.25
479.439	644.25
479.658	677.25
479.876	651.25
480.095	647.25
480.313	705.25
480.532	694.25
480.751	683.25
480.969	684.25
481.188	731.25
481.406	759.25
481.624	675.25
481.843	677.25
482.061	624.25
482.28	635.25
482.498	646.25
482.717	632.25
482.935	628.25
483.153	649.25
483.372	617.25
483.59	641.25
483.808	650.25
484.027	648.25
484.245	634.25
484.463	658.25
484.681	667.25
484.9	666.25
485.118	656.25
485.336	653.25
485.554	641.25
485.772	669.25
485.99	670.25
486.209	668.25
486.427	649.25
486.645	670.25
486.863	698.25
487.081	671.25
487.299	715.25
487.517	699.25
487.735	681.25
487.953	685.25
488.171	715.25
488.389	693.25
488.607	661.25
488.825	687.25
489.043	690.25
489.261	693.25
489.479	693.25
489.696	698.25
489.914	713.25
490.132	715.25
490.35	705.25
490.568	710.25
490.786	758.25
491.003	742.25
491.221	736.25
491.439	776.25
491.657	792.25
491.874	788.25
492.092	774.25
492.31	782.25
492.527	774.25
492.745	798.25
492.963	825.25
493.18	815.25
493.398	831.25
493.615	827.25
493.833	835.25
494.05	806.25
494.268	812.25
494.485	817.25
494.703	801.25
494.92	832.25
495.138	805.25
495.355	780.25
495.573	822.25
495.79	808.25
496.008	787.25
496.225	830.25
496.442	825.25
496.66	842.25
496.877	850.25
497.094	835.25
497.312	825.25
497.529	875.25
497.746	856.25
497.963	855.25
498.181	864.25
498.398	929.25
498.615	910.25
498.832	928.25
499.049	953.25
499.267	966.25
499.484	977.25
499.701	1053.25
499.918	1108.25
500.135	1123.25
500.352	1173.25
500.569	1208.25
500.786	1168.25
501.003	1220.25
501.22	1135.25
501.437	1092.25
501.654	1066.25
