Data from 1966.PennyLincolnUp.Lamp.En5.5.200Scan.071719.P1.Scan2.head_HRD10591_14-19-44-291.txt Node
Date: Thu Jul 18 14:19:44 EDT 2019
User: cochatt
Spectrometer: HR+D1059
Trigger mode: 1
Integration Time (sec): 1.000000E-1
Scans to average: 1
Electric dark correction enabled: true
Nonlinearity correction enabled: false
Boxcar width: 0
XAxis mode: Wavelengths
Number of Pixels in Spectrum: 2048
>>>>>Begin Spectral Data<<<<<
223.165	5.56
223.4	5.56
223.635	5.56
223.869	-18.44
224.104	-22.44
224.338	-11.44
224.573	-12.44
224.808	-23.44
225.042	-7.44
225.277	-17.44
225.511	-6.44
225.746	11.56
225.98	3.56
226.215	2.56
226.449	12.56
226.683	25.56
226.918	24.56
227.152	33.56
227.387	42.56
227.621	30.56
227.856	40.56
228.09	43.56
228.324	50.56
228.559	56.56
228.793	55.56
229.027	101.56
229.262	109.56
229.496	127.56
229.73	154.56
229.964	164.56
230.199	125.56
230.433	119.56
230.667	110.56
230.901	117.56
231.136	112.56
231.37	118.56
231.604	105.56
231.838	110.56
232.072	104.56
232.306	119.56
232.541	120.56
232.775	111.56
233.009	118.56
233.243	109.56
233.477	107.56
233.711	120.56
233.945	108.56
234.179	126.56
234.413	120.56
234.647	130.56
234.881	138.56
235.115	129.56
235.349	132.56
235.583	130.56
235.817	113.56
236.051	128.56
236.285	136.56
236.519	141.56
236.753	140.56
236.987	160.56
237.221	198.56
237.455	245.56
237.689	216.56
237.922	138.56
238.156	140.56
238.39	139.56
238.624	132.56
238.858	125.56
239.091	120.56
239.325	138.56
239.559	129.56
239.793	140.56
240.027	144.56
240.26	158.56
240.494	150.56
240.728	159.56
240.961	149.56
241.195	158.56
241.429	135.56
241.662	146.56
241.896	142.56
242.13	130.56
242.363	127.56
242.597	141.56
242.83	156.56
243.064	135.56
243.298	142.56
243.531	143.56
243.765	150.56
243.998	140.56
244.232	154.56
244.465	156.56
244.699	160.56
244.932	177.56
245.166	152.56
245.399	153.56
245.633	158.56
245.866	152.56
246.099	159.56
246.333	154.56
246.566	166.56
246.8	170.56
247.033	168.56
247.266	173.56
247.5	165.56
247.733	186.56
247.966	170.56
248.2	186.56
248.433	175.56
248.666	190.56
248.899	204.56
249.133	195.56
249.366	206.56
249.599	217.56
249.832	186.56
250.066	189.56
250.299	184.56
250.532	196.56
250.765	216.56
250.998	224.56
251.231	231.56
251.465	225.56
251.698	206.56
251.931	192.56
252.164	203.56
252.397	187.56
252.63	223.56
252.863	215.56
253.096	241.56
253.329	251.56
253.562	244.56
253.795	232.56
254.028	214.56
254.261	224.56
254.494	240.56
254.727	274.56
254.96	288.56
255.193	294.56
255.426	259.56
255.659	264.56
255.892	242.56
256.124	235.56
256.357	245.56
256.59	254.56
256.823	221.56
257.056	213.56
257.289	228.56
257.521	239.56
257.754	230.56
257.987	202.56
258.22	204.56
258.452	219.56
258.685	232.56
258.918	239.56
259.151	186.56
259.383	220.56
259.616	222.56
259.849	229.56
260.081	256.56
260.314	276.56
260.547	268.56
260.779	262.56
261.012	247.56
261.244	232.56
261.477	241.56
261.71	214.56
261.942	249.56
262.175	251.56
262.407	248.56
262.64	238.56
262.872	232.56
263.105	227.56
263.337	200.56
263.57	217.56
263.802	225.56
264.035	209.56
264.267	216.56
264.499	232.56
264.732	229.56
264.964	222.56
265.197	220.56
265.429	225.56
265.661	219.56
265.894	226.56
266.126	234.56
266.358	237.56
266.591	235.56
266.823	242.56
267.055	226.56
267.287	248.56
267.52	246.56
267.752	233.56
267.984	223.56
268.216	245.56
268.448	252.56
268.681	231.56
268.913	258.56
269.145	276.56
269.377	312.56
269.609	302.56
269.841	279.56
270.073	296.56
270.306	308.56
270.538	337.56
270.77	338.56
271.002	304.56
271.234	316.56
271.466	308.56
271.698	332.56
271.93	333.56
272.162	344.56
272.394	338.56
272.626	312.56
272.858	312.56
273.09	288.56
273.322	283.56
273.553	277.56
273.785	275.56
274.017	277.56
274.249	265.56
274.481	282.56
274.713	290.56
274.945	272.56
275.176	278.56
275.408	270.56
275.64	277.56
275.872	278.56
276.104	286.56
276.335	297.56
276.567	298.56
276.799	296.56
277.031	330.56
277.262	333.56
277.494	336.56
277.726	331.56
277.957	319.56
278.189	302.56
278.421	310.56
278.652	293.56
278.884	260.56
279.115	280.56
279.347	281.56
279.579	287.56
279.81	299.56
280.042	276.56
280.273	283.56
280.505	289.56
280.736	278.56
280.968	288.56
281.199	285.56
281.431	300.56
281.662	282.56
281.894	280.56
282.125	288.56
282.356	296.56
282.588	328.56
282.819	316.56
283.051	307.56
283.282	274.56
283.513	294.56
283.745	289.56
283.976	295.56
284.207	289.56
284.439	283.56
284.67	288.56
284.901	287.56
285.132	320.56
285.364	278.56
285.595	297.56
285.826	285.56
286.057	310.56
286.288	287.56
286.52	296.56
286.751	293.56
286.982	318.56
287.213	308.56
287.444	287.56
287.675	315.56
287.906	315.56
288.138	320.56
288.369	318.56
288.6	323.56
288.831	320.56
289.062	316.56
289.293	295.56
289.524	310.56
289.755	288.56
289.986	295.56
290.217	300.56
290.448	312.56
290.679	312.56
290.91	305.56
291.141	308.56
291.371	309.56
291.602	299.56
291.833	308.56
292.064	295.56
292.295	299.56
292.526	306.56
292.757	313.56
292.987	305.56
293.218	315.56
293.449	306.56
293.68	326.56
293.91	324.56
294.141	308.56
294.372	304.56
294.603	306.56
294.833	308.56
295.064	312.56
295.295	313.56
295.525	300.56
295.756	344.56
295.987	334.56
296.217	346.56
296.448	377.56
296.679	328.56
296.909	304.56
297.14	318.56
297.37	320.56
297.601	329.56
297.831	326.56
298.062	316.56
298.292	328.56
298.523	333.56
298.753	331.56
298.984	331.56
299.214	327.56
299.445	313.56
299.675	320.56
299.905	333.56
300.136	333.56
300.366	331.56
300.597	315.56
300.827	333.56
301.057	340.56
301.288	341.56
301.518	327.56
301.748	345.56
301.979	357.56
302.209	334.56
302.439	347.56
302.669	337.56
302.9	358.56
303.13	347.56
303.36	359.56
303.59	357.56
303.82	357.56
304.051	334.56
304.281	342.56
304.511	335.56
304.741	349.56
304.971	346.56
305.201	376.56
305.431	344.56
305.661	337.56
305.891	351.56
306.121	350.56
306.352	347.56
306.582	364.56
306.812	341.56
307.042	362.56
307.272	362.56
307.502	357.56
307.731	362.56
307.961	354.56
308.191	377.56
308.421	341.56
308.651	357.56
308.881	343.56
309.111	368.56
309.341	390.56
309.571	375.56
309.8	384.56
310.03	396.56
310.26	401.56
310.49	381.56
310.72	407.56
310.949	413.56
311.179	414.56
311.409	388.56
311.639	394.56
311.868	408.56
312.098	397.56
312.328	404.56
312.557	422.56
312.787	443.56
313.017	410.56
313.246	424.56
313.476	418.56
313.706	434.56
313.935	396.56
314.165	422.56
314.394	418.56
314.624	416.56
314.853	416.56
315.083	411.56
315.312	397.56
315.542	388.56
315.771	388.56
316.001	401.56
316.23	408.56
316.46	399.56
316.689	406.56
316.919	391.56
317.148	408.56
317.377	420.56
317.607	426.56
317.836	405.56
318.065	416.56
318.295	393.56
318.524	395.56
318.753	402.56
318.983	392.56
319.212	393.56
319.441	405.56
319.67	416.56
319.9	400.56
320.129	401.56
320.358	420.56
320.587	395.56
320.816	438.56
321.046	417.56
321.275	413.56
321.504	422.56
321.733	418.56
321.962	441.56
322.191	440.56
322.42	459.56
322.649	476.56
322.878	466.56
323.108	481.56
323.337	514.56
323.566	506.56
323.795	548.56
324.024	570.56
324.253	709.56
324.482	1004.56
324.71	1550.56
324.939	2272.56
325.168	1965.56
325.397	1004.56
325.626	662.56
325.855	586.56
326.084	540.56
326.313	538.56
326.542	542.56
326.77	598.56
326.999	656.56
327.228	920.56
327.457	1389.56
327.686	1756.56
327.914	1142.56
328.143	751.56
328.372	673.56
328.6	622.56
328.829	603.56
329.058	614.56
329.287	619.56
329.515	592.56
329.744	546.56
329.972	541.56
330.201	570.56
330.43	620.56
330.658	641.56
330.887	653.56
331.115	633.56
331.344	585.56
331.572	536.56
331.801	519.56
332.03	521.56
332.258	477.56
332.486	497.56
332.715	481.56
332.943	476.56
333.172	501.56
333.4	494.56
333.629	491.56
333.857	517.56
334.085	516.56
334.314	545.56
334.542	581.56
334.771	610.56
334.999	538.56
335.227	545.56
335.455	514.56
335.684	497.56
335.912	496.56
336.14	470.56
336.369	477.56
336.597	493.56
336.825	506.56
337.053	498.56
337.281	469.56
337.51	495.56
337.738	482.56
337.966	475.56
338.194	489.56
338.422	481.56
338.65	475.56
338.878	483.56
339.106	453.56
339.334	455.56
339.562	462.56
339.79	474.56
340.018	472.56
340.246	468.56
340.474	479.56
340.702	495.56
340.93	479.56
341.158	466.56
341.386	486.56
341.614	473.56
341.842	477.56
342.07	447.56
342.298	458.56
342.526	450.56
342.754	456.56
342.981	441.56
343.209	443.56
343.437	451.56
343.665	469.56
343.893	469.56
344.12	492.56
344.348	508.56
344.576	475.56
344.804	478.56
345.031	500.56
345.259	503.56
345.487	487.56
345.714	478.56
345.942	476.56
346.17	446.56
346.397	438.56
346.625	464.56
346.853	448.56
347.08	465.56
347.308	478.56
347.535	484.56
347.763	465.56
347.99	465.56
348.218	490.56
348.445	456.56
348.673	478.56
348.9	462.56
349.128	440.56
349.355	458.56
349.583	438.56
349.81	446.56
350.037	435.56
350.265	419.56
350.492	450.56
350.72	442.56
350.947	456.56
351.174	452.56
351.402	482.56
351.629	465.56
351.856	480.56
352.083	470.56
352.311	466.56
352.538	474.56
352.765	481.56
352.992	490.56
353.22	463.56
353.447	469.56
353.674	448.56
353.901	434.56
354.128	424.56
354.355	432.56
354.583	451.56
354.81	429.56
355.037	432.56
355.264	450.56
355.491	419.56
355.718	410.56
355.945	414.56
356.172	416.56
356.399	417.56
356.626	442.56
356.853	401.56
357.08	420.56
357.307	431.56
357.534	442.56
357.761	449.56
357.988	439.56
358.215	409.56
358.441	444.56
358.668	418.56
358.895	430.56
359.122	445.56
359.349	442.56
359.576	454.56
359.802	477.56
360.029	526.56
360.256	502.56
360.483	489.56
360.709	462.56
360.936	467.56
361.163	453.56
361.39	457.56
361.616	474.56
361.843	455.56
362.07	457.56
362.296	481.56
362.523	469.56
362.749	437.56
362.976	448.56
363.203	436.56
363.429	448.56
363.656	447.56
363.882	448.56
364.109	440.56
364.335	451.56
364.562	465.56
364.788	455.56
365.015	453.56
365.241	454.56
365.468	450.56
365.694	450.56
365.92	477.56
366.147	422.56
366.373	445.56
366.599	454.56
366.826	440.56
367.052	433.56
367.278	439.56
367.505	452.56
367.731	439.56
367.957	435.56
368.184	453.56
368.41	456.56
368.636	466.56
368.862	466.56
369.089	447.56
369.315	453.56
369.541	456.56
369.767	454.56
369.993	471.56
370.219	448.56
370.445	436.56
370.672	430.56
370.898	441.56
371.124	455.56
371.35	444.56
371.576	455.56
371.802	442.56
372.028	452.56
372.254	455.56
372.48	459.56
372.706	480.56
372.932	460.56
373.158	446.56
373.384	453.56
373.61	471.56
373.835	464.56
374.061	445.56
374.287	472.56
374.513	466.56
374.739	477.56
374.965	459.56
375.191	458.56
375.416	460.56
375.642	466.56
375.868	458.56
376.094	465.56
376.319	435.56
376.545	428.56
376.771	444.56
376.997	447.56
377.222	438.56
377.448	452.56
377.674	456.56
377.899	455.56
378.125	472.56
378.35	444.56
378.576	432.56
378.802	450.56
379.027	450.56
379.253	455.56
379.478	450.56
379.704	438.56
379.929	459.56
380.155	459.56
380.38	447.56
380.606	436.56
380.831	448.56
381.057	471.56
381.282	456.56
381.507	462.56
381.733	454.56
381.958	463.56
382.184	458.56
382.409	469.56
382.634	460.56
382.86	458.56
383.085	433.56
383.31	461.56
383.535	461.56
383.761	478.56
383.986	461.56
384.211	469.56
384.436	489.56
384.662	476.56
384.887	502.56
385.112	486.56
385.337	508.56
385.562	504.56
385.787	513.56
386.013	524.56
386.238	500.56
386.463	532.56
386.688	524.56
386.913	508.56
387.138	484.56
387.363	491.56
387.588	509.56
387.813	506.56
388.038	497.56
388.263	493.56
388.488	502.56
388.713	510.56
388.938	507.56
389.163	512.56
389.387	513.56
389.612	486.56
389.837	514.56
390.062	487.56
390.287	503.56
390.512	504.56
390.736	505.56
390.961	492.56
391.186	524.56
391.411	524.56
391.636	525.56
391.86	518.56
392.085	536.56
392.31	528.56
392.534	502.56
392.759	522.56
392.984	505.56
393.208	514.56
393.433	507.56
393.658	531.56
393.882	492.56
394.107	505.56
394.331	527.56
394.556	523.56
394.78	510.56
395.005	535.56
395.229	542.56
395.454	537.56
395.678	529.56
395.903	555.56
396.127	530.56
396.352	573.56
396.576	516.56
396.801	544.56
397.025	551.56
397.249	516.56
397.474	519.56
397.698	524.56
397.922	569.56
398.147	582.56
398.371	574.56
398.595	558.56
398.82	566.56
399.044	602.56
399.268	621.56
399.492	650.56
399.717	694.56
399.941	709.56
400.165	728.56
400.389	711.56
400.613	658.56
400.837	637.56
401.062	615.56
401.286	607.56
401.51	588.56
401.734	598.56
401.958	593.56
402.182	586.56
402.406	606.56
402.63	600.56
402.854	605.56
403.078	605.56
403.302	621.56
403.526	592.56
403.75	614.56
403.974	602.56
404.198	600.56
404.422	599.56
404.645	632.56
404.869	633.56
405.093	668.56
405.317	733.56
405.541	756.56
405.765	678.56
405.988	640.56
406.212	638.56
406.436	672.56
406.66	673.56
406.883	650.56
407.107	706.56
407.331	736.56
407.555	810.56
407.778	815.56
408.002	758.56
408.226	704.56
408.449	688.56
408.673	669.56
408.896	704.56
409.12	742.56
409.344	705.56
409.567	650.56
409.791	648.56
410.014	634.56
410.238	636.56
410.461	615.56
410.685	641.56
410.908	672.56
411.132	676.56
411.355	710.56
411.578	680.56
411.802	634.56
412.025	624.56
412.249	616.56
412.472	644.56
412.695	702.56
412.919	715.56
413.142	637.56
413.365	608.56
413.589	588.56
413.812	604.56
414.035	582.56
414.258	578.56
414.482	555.56
414.705	592.56
414.928	610.56
415.151	592.56
415.374	584.56
415.597	581.56
415.821	595.56
416.044	586.56
416.267	608.56
416.49	584.56
416.713	552.56
416.936	579.56
417.159	578.56
417.382	590.56
417.605	576.56
417.828	582.56
418.051	608.56
418.274	624.56
418.497	583.56
418.72	589.56
418.943	584.56
419.166	613.56
419.389	630.56
419.611	648.56
419.834	619.56
420.057	623.56
420.28	623.56
420.503	626.56
420.726	603.56
420.948	640.56
421.171	659.56
421.394	706.56
421.617	648.56
421.839	598.56
422.062	610.56
422.285	636.56
422.507	687.56
422.73	784.56
422.953	744.56
423.175	655.56
423.398	622.56
423.621	635.56
423.843	650.56
424.066	664.56
424.288	648.56
424.511	692.56
424.733	749.56
424.956	848.56
425.178	807.56
425.401	811.56
425.623	815.56
425.846	708.56
426.068	675.56
426.291	640.56
426.513	644.56
426.735	647.56
426.958	699.56
427.18	828.56
427.402	943.56
427.625	1049.56
427.847	923.56
428.069	804.56
428.292	716.56
428.514	649.56
428.736	636.56
428.958	617.56
429.181	601.56
429.403	606.56
429.625	605.56
429.847	652.56
430.069	735.56
430.292	725.56
430.514	618.56
430.736	607.56
430.958	622.56
431.18	574.56
431.402	559.56
431.624	574.56
431.846	548.56
432.068	580.56
432.29	561.56
432.512	590.56
432.734	584.56
432.956	599.56
433.178	603.56
433.4	600.56
433.622	580.56
433.844	568.56
434.066	589.56
434.287	547.56
434.509	597.56
434.731	590.56
434.953	594.56
435.175	619.56
435.397	648.56
435.618	648.56
435.84	722.56
436.062	828.56
436.284	894.56
436.505	745.56
436.727	690.56
436.949	630.56
437.17	617.56
437.392	588.56
437.614	614.56
437.835	652.56
438.057	785.56
438.278	905.56
438.5	854.56
438.721	952.56
438.943	904.56
439.165	724.56
439.386	659.56
439.608	668.56
439.829	664.56
440.05	676.56
440.272	740.56
440.493	705.56
440.715	644.56
440.936	608.56
441.158	611.56
441.379	599.56
441.6	629.56
441.822	644.56
442.043	704.56
442.264	788.56
442.486	845.56
442.707	729.56
442.928	692.56
443.149	677.56
443.371	703.56
443.592	750.56
443.813	847.56
444.034	915.56
444.255	778.56
444.476	717.56
444.698	698.56
444.919	670.56
445.14	784.56
445.361	704.56
445.582	714.56
445.803	757.56
446.024	897.56
446.245	912.56
446.466	857.56
446.687	704.56
446.908	662.56
447.129	633.56
447.35	619.56
447.571	609.56
447.792	568.56
448.013	618.56
448.234	604.56
448.455	663.56
448.675	826.56
448.896	956.56
449.117	798.56
449.338	749.56
449.559	880.56
449.779	996.56
450	786.56
450.221	659.56
450.442	617.56
450.662	604.56
450.883	593.56
451.104	591.56
451.324	581.56
451.545	575.56
451.766	555.56
451.986	545.56
452.207	534.56
452.428	546.56
452.648	537.56
452.869	542.56
453.089	564.56
453.31	560.56
453.53	540.56
453.751	545.56
453.971	522.56
454.192	562.56
454.412	550.56
454.633	552.56
454.853	540.56
455.073	524.56
455.294	567.56
455.514	628.56
455.734	628.56
455.955	542.56
456.175	530.56
456.395	524.56
456.616	495.56
456.836	517.56
457.056	497.56
457.276	495.56
457.497	501.56
457.717	516.56
457.937	530.56
458.157	522.56
458.377	513.56
458.598	538.56
458.818	589.56
459.038	702.56
459.258	713.56
459.478	612.56
459.698	597.56
459.918	559.56
460.138	564.56
460.358	570.56
460.578	579.56
460.798	579.56
461.018	582.56
461.238	579.56
461.458	578.56
461.678	578.56
461.898	575.56
462.118	600.56
462.338	592.56
462.558	625.56
462.777	632.56
462.997	644.56
463.217	646.56
463.437	655.56
463.657	635.56
463.876	622.56
464.096	642.56
464.316	627.56
464.536	637.56
464.755	623.56
464.975	616.56
465.195	669.56
465.414	747.56
465.634	660.56
465.854	621.56
466.073	588.56
466.293	557.56
466.512	564.56
466.732	550.56
466.951	564.56
467.171	557.56
467.391	568.56
467.61	575.56
467.829	564.56
468.049	574.56
468.268	571.56
468.488	553.56
468.707	550.56
468.927	524.56
469.146	552.56
469.365	535.56
469.585	540.56
469.804	534.56
470.023	557.56
470.243	575.56
470.462	581.56
470.681	585.56
470.901	559.56
471.12	562.56
471.339	569.56
471.558	574.56
471.777	582.56
471.997	545.56
472.216	580.56
472.435	607.56
472.654	587.56
472.873	569.56
473.092	583.56
473.311	578.56
473.53	557.56
473.749	570.56
473.968	620.56
474.187	722.56
474.406	744.56
474.625	611.56
474.844	572.56
475.063	559.56
475.282	559.56
475.501	597.56
475.72	554.56
475.939	579.56
476.158	590.56
476.377	575.56
476.596	584.56
476.814	578.56
477.033	597.56
477.252	607.56
477.471	582.56
477.69	612.56
477.908	626.56
478.127	621.56
478.346	619.56
478.564	622.56
478.783	630.56
479.002	657.56
479.22	649.56
479.439	657.56
479.658	686.56
479.876	672.56
480.095	677.56
480.313	728.56
480.532	692.56
480.751	709.56
480.969	717.56
481.188	773.56
481.406	794.56
481.624	740.56
481.843	706.56
482.061	691.56
482.28	654.56
482.498	682.56
482.717	670.56
482.935	685.56
483.153	650.56
483.372	665.56
483.59	668.56
483.808	664.56
484.027	649.56
484.245	657.56
484.463	682.56
484.681	696.56
484.9	667.56
485.118	694.56
485.336	676.56
485.554	681.56
485.772	684.56
485.99	672.56
486.209	707.56
486.427	730.56
486.645	703.56
486.863	742.56
487.081	726.56
487.299	731.56
487.517	721.56
487.735	684.56
487.953	706.56
488.171	734.56
488.389	702.56
488.607	709.56
488.825	711.56
489.043	723.56
489.261	739.56
489.479	751.56
489.696	737.56
489.914	731.56
490.132	745.56
490.35	741.56
490.568	734.56
490.786	746.56
491.003	785.56
491.221	808.56
491.439	801.56
491.657	814.56
491.874	807.56
492.092	830.56
492.31	833.56
492.527	818.56
492.745	846.56
492.963	837.56
493.18	851.56
493.398	848.56
493.615	837.56
493.833	850.56
494.05	859.56
494.268	834.56
494.485	878.56
494.703	871.56
494.92	851.56
495.138	860.56
495.355	849.56
495.573	839.56
495.79	850.56
496.008	860.56
496.225	870.56
496.442	843.56
496.66	873.56
496.877	880.56
497.094	870.56
497.312	849.56
497.529	884.56
497.746	895.56
497.963	898.56
498.181	916.56
498.398	954.56
498.615	943.56
498.832	995.56
499.049	973.56
499.267	1050.56
499.484	1070.56
499.701	1066.56
499.918	1095.56
500.135	1172.56
500.352	1212.56
500.569	1257.56
500.786	1222.56
501.003	1257.56
501.22	1184.56
501.437	1150.56
501.654	1100.56
