Data from 1966.PennyLincolnUp.Lamp.En5.5.200Scan.071719.P1._HRD10591_14-14-31-914.txt Node
Date: Thu Jul 18 14:14:31 EDT 2019
User: cochatt
Spectrometer: HR+D1059
Trigger mode: 1
Integration Time (sec): 1.000000E-1
Scans to average: 1
Electric dark correction enabled: true
Nonlinearity correction enabled: false
Boxcar width: 0
XAxis mode: Wavelengths
Number of Pixels in Spectrum: 2048
>>>>>Begin Spectral Data<<<<<
223.165	-16.62
223.4	-16.62
223.635	-16.62
223.869	-14.62
224.104	-21.62
224.338	-11.62
224.573	-14.62
224.808	-14.62
225.042	-5.62
225.277	1.38
225.511	-3.62
225.746	5.38
225.98	-10.62
226.215	18.38
226.449	20.38
226.683	18.38
226.918	25.38
227.152	24.38
227.387	28.38
227.621	35.38
227.856	49.38
228.09	45.38
228.324	32.38
228.559	52.38
228.793	64.38
229.027	87.38
229.262	76.38
229.496	74.38
229.73	96.38
229.964	106.38
230.199	93.38
230.433	76.38
230.667	81.38
230.901	99.38
231.136	111.38
231.37	89.38
231.604	88.38
231.838	72.38
232.072	83.38
232.306	76.38
232.541	85.38
232.775	71.38
233.009	83.38
233.243	88.38
233.477	97.38
233.711	98.38
233.945	95.38
234.179	91.38
234.413	101.38
234.647	104.38
234.881	104.38
235.115	87.38
235.349	96.38
235.583	108.38
235.817	103.38
236.051	112.38
236.285	86.38
236.519	88.38
236.753	92.38
236.987	99.38
237.221	132.38
237.455	149.38
237.689	124.38
237.922	91.38
238.156	87.38
238.39	96.38
238.624	91.38
238.858	94.38
239.091	93.38
239.325	101.38
239.559	107.38
239.793	104.38
240.027	99.38
240.26	105.38
240.494	108.38
240.728	121.38
240.961	95.38
241.195	95.38
241.429	97.38
241.662	89.38
241.896	99.38
242.13	101.38
242.363	107.38
242.597	104.38
242.83	109.38
243.064	109.38
243.298	106.38
243.531	102.38
243.765	101.38
243.998	96.38
244.232	113.38
244.465	91.38
244.699	99.38
244.932	99.38
245.166	111.38
245.399	100.38
245.633	103.38
245.866	92.38
246.099	110.38
246.333	119.38
246.566	90.38
246.8	120.38
247.033	114.38
247.266	105.38
247.5	100.38
247.733	107.38
247.966	98.38
248.2	111.38
248.433	108.38
248.666	125.38
248.899	113.38
249.133	128.38
249.366	120.38
249.599	124.38
249.832	122.38
250.066	117.38
250.299	124.38
250.532	129.38
250.765	135.38
250.998	142.38
251.231	125.38
251.465	141.38
251.698	139.38
251.931	132.38
252.164	119.38
252.397	139.38
252.63	122.38
252.863	128.38
253.096	144.38
253.329	142.38
253.562	141.38
253.795	147.38
254.028	133.38
254.261	141.38
254.494	146.38
254.727	165.38
254.96	175.38
255.193	160.38
255.426	151.38
255.659	130.38
255.892	157.38
256.124	141.38
256.357	146.38
256.59	140.38
256.823	123.38
257.056	130.38
257.289	133.38
257.521	136.38
257.754	128.38
257.987	117.38
258.22	149.38
258.452	132.38
258.685	130.38
258.918	139.38
259.151	130.38
259.383	132.38
259.616	129.38
259.849	142.38
260.081	145.38
260.314	144.38
260.547	159.38
260.779	145.38
261.012	139.38
261.244	164.38
261.477	143.38
261.71	147.38
261.942	137.38
262.175	154.38
262.407	135.38
262.64	156.38
262.872	117.38
263.105	129.38
263.337	131.38
263.57	137.38
263.802	140.38
264.035	138.38
264.267	138.38
264.499	134.38
264.732	131.38
264.964	135.38
265.197	146.38
265.429	124.38
265.661	128.38
265.894	121.38
266.126	138.38
266.358	135.38
266.591	138.38
266.823	133.38
267.055	139.38
267.287	147.38
267.52	142.38
267.752	134.38
267.984	148.38
268.216	128.38
268.448	136.38
268.681	134.38
268.913	156.38
269.145	153.38
269.377	155.38
269.609	162.38
269.841	148.38
270.073	177.38
270.306	176.38
270.538	189.38
270.77	199.38
271.002	187.38
271.234	178.38
271.466	193.38
271.698	183.38
271.93	182.38
272.162	195.38
272.394	173.38
272.626	165.38
272.858	179.38
273.09	169.38
273.322	155.38
273.553	161.38
273.785	162.38
274.017	146.38
274.249	156.38
274.481	141.38
274.713	155.38
274.945	153.38
275.176	152.38
275.408	154.38
275.64	156.38
275.872	146.38
276.104	152.38
276.335	165.38
276.567	161.38
276.799	179.38
277.031	191.38
277.262	200.38
277.494	187.38
277.726	172.38
277.957	152.38
278.189	159.38
278.421	171.38
278.652	146.38
278.884	163.38
279.115	167.38
279.347	172.38
279.579	157.38
279.81	168.38
280.042	149.38
280.273	160.38
280.505	157.38
280.736	159.38
280.968	149.38
281.199	161.38
281.431	139.38
281.662	165.38
281.894	172.38
282.125	151.38
282.356	174.38
282.588	189.38
282.819	182.38
283.051	167.38
283.282	160.38
283.513	168.38
283.745	178.38
283.976	179.38
284.207	162.38
284.439	161.38
284.67	175.38
284.901	177.38
285.132	172.38
285.364	175.38
285.595	183.38
285.826	161.38
286.057	167.38
286.288	163.38
286.52	172.38
286.751	171.38
286.982	166.38
287.213	158.38
287.444	153.38
287.675	162.38
287.906	181.38
288.138	167.38
288.369	172.38
288.6	180.38
288.831	189.38
289.062	170.38
289.293	163.38
289.524	156.38
289.755	179.38
289.986	153.38
290.217	149.38
290.448	162.38
290.679	171.38
290.91	176.38
291.141	174.38
291.371	177.38
291.602	160.38
291.833	167.38
292.064	181.38
292.295	167.38
292.526	165.38
292.757	187.38
292.987	157.38
293.218	167.38
293.449	163.38
293.68	179.38
293.91	177.38
294.141	168.38
294.372	154.38
294.603	159.38
294.833	175.38
295.064	164.38
295.295	153.38
295.525	171.38
295.756	179.38
295.987	181.38
296.217	188.38
296.448	170.38
296.679	191.38
296.909	178.38
297.14	187.38
297.37	180.38
297.601	177.38
297.831	179.38
298.062	180.38
298.292	183.38
298.523	187.38
298.753	177.38
298.984	176.38
299.214	156.38
299.445	183.38
299.675	187.38
299.905	193.38
300.136	172.38
300.366	171.38
300.597	175.38
300.827	185.38
301.057	206.38
301.288	196.38
301.518	209.38
301.748	183.38
301.979	180.38
302.209	188.38
302.439	190.38
302.669	191.38
302.9	189.38
303.13	182.38
303.36	204.38
303.59	190.38
303.82	182.38
304.051	176.38
304.281	188.38
304.511	192.38
304.741	185.38
304.971	182.38
305.201	182.38
305.431	186.38
305.661	191.38
305.891	199.38
306.121	187.38
306.352	182.38
306.582	197.38
306.812	187.38
307.042	190.38
307.272	189.38
307.502	191.38
307.731	184.38
307.961	187.38
308.191	188.38
308.421	188.38
308.651	197.38
308.881	185.38
309.111	195.38
309.341	192.38
309.571	193.38
309.8	192.38
310.03	212.38
310.26	210.38
310.49	216.38
310.72	219.38
310.949	229.38
311.179	244.38
311.409	209.38
311.639	209.38
311.868	216.38
312.098	211.38
312.328	207.38
312.557	222.38
312.787	226.38
313.017	228.38
313.246	215.38
313.476	212.38
313.706	204.38
313.935	224.38
314.165	219.38
314.394	227.38
314.624	227.38
314.853	208.38
315.083	212.38
315.312	194.38
315.542	197.38
315.771	205.38
316.001	209.38
316.23	204.38
316.46	203.38
316.689	209.38
316.919	218.38
317.148	213.38
317.377	233.38
317.607	213.38
317.836	204.38
318.065	216.38
318.295	201.38
318.524	213.38
318.753	204.38
318.983	187.38
319.212	211.38
319.441	198.38
319.67	200.38
319.9	194.38
320.129	219.38
320.358	200.38
320.587	210.38
320.816	200.38
321.046	204.38
321.275	215.38
321.504	214.38
321.733	235.38
321.962	211.38
322.191	219.38
322.42	231.38
322.649	248.38
322.878	232.38
323.108	263.38
323.337	236.38
323.566	264.38
323.795	288.38
324.024	328.38
324.253	361.38
324.482	531.38
324.71	801.38
324.939	1076.38
325.168	868.38
325.397	447.38
325.626	300.38
325.855	271.38
326.084	263.38
326.313	275.38
326.542	242.38
326.77	281.38
326.999	354.38
327.228	474.38
327.457	686.38
327.686	797.38
327.914	519.38
328.143	369.38
328.372	351.38
328.6	305.38
328.829	308.38
329.058	307.38
329.287	326.38
329.515	280.38
329.744	267.38
329.972	275.38
330.201	300.38
330.43	316.38
330.658	327.38
330.887	343.38
331.115	311.38
331.344	272.38
331.572	264.38
331.801	270.38
332.03	269.38
332.258	265.38
332.486	237.38
332.715	248.38
332.943	232.38
333.172	262.38
333.4	233.38
333.629	246.38
333.857	269.38
334.085	276.38
334.314	287.38
334.542	309.38
334.771	324.38
334.999	295.38
335.227	249.38
335.455	233.38
335.684	242.38
335.912	240.38
336.14	235.38
336.369	239.38
336.597	252.38
336.825	247.38
337.053	235.38
337.281	233.38
337.51	232.38
337.738	239.38
337.966	234.38
338.194	239.38
338.422	239.38
338.65	229.38
338.878	232.38
339.106	237.38
339.334	229.38
339.562	240.38
339.79	241.38
340.018	231.38
340.246	220.38
340.474	212.38
340.702	220.38
340.93	236.38
341.158	231.38
341.386	224.38
341.614	222.38
341.842	235.38
342.07	221.38
342.298	217.38
342.526	228.38
342.754	228.38
342.981	221.38
343.209	223.38
343.437	225.38
343.665	221.38
343.893	245.38
344.12	239.38
344.348	238.38
344.576	240.38
344.804	233.38
345.031	234.38
345.259	250.38
345.487	234.38
345.714	227.38
345.942	228.38
346.17	215.38
346.397	208.38
346.625	229.38
346.853	219.38
347.08	228.38
347.308	231.38
347.535	232.38
347.763	227.38
347.99	241.38
348.218	227.38
348.445	257.38
348.673	244.38
348.9	222.38
349.128	227.38
349.355	206.38
349.583	211.38
349.81	221.38
350.037	204.38
350.265	219.38
350.492	226.38
350.72	218.38
350.947	210.38
351.174	226.38
351.402	235.38
351.629	224.38
351.856	234.38
352.083	230.38
352.311	231.38
352.538	225.38
352.765	232.38
352.992	231.38
353.22	221.38
353.447	224.38
353.674	241.38
353.901	210.38
354.128	214.38
354.355	197.38
354.583	204.38
354.81	211.38
355.037	212.38
355.264	210.38
355.491	199.38
355.718	202.38
355.945	223.38
356.172	209.38
356.399	196.38
356.626	209.38
356.853	212.38
357.08	201.38
357.307	201.38
357.534	201.38
357.761	207.38
357.988	213.38
358.215	198.38
358.441	210.38
358.668	221.38
358.895	209.38
359.122	205.38
359.349	216.38
359.576	228.38
359.802	227.38
360.029	259.38
360.256	266.38
360.483	243.38
360.709	222.38
360.936	226.38
361.163	215.38
361.39	213.38
361.616	217.38
361.843	223.38
362.07	210.38
362.296	212.38
362.523	211.38
362.749	216.38
362.976	217.38
363.203	223.38
363.429	217.38
363.656	213.38
363.882	217.38
364.109	198.38
364.335	200.38
364.562	218.38
364.788	205.38
365.015	226.38
365.241	203.38
365.468	232.38
365.694	210.38
365.92	204.38
366.147	200.38
366.373	200.38
366.599	194.38
366.826	222.38
367.052	209.38
367.278	207.38
367.505	213.38
367.731	212.38
367.957	205.38
368.184	209.38
368.41	205.38
368.636	215.38
368.862	222.38
369.089	223.38
369.315	211.38
369.541	211.38
369.767	215.38
369.993	213.38
370.219	204.38
370.445	203.38
370.672	213.38
370.898	204.38
371.124	207.38
371.35	226.38
371.576	217.38
371.802	242.38
372.028	218.38
372.254	211.38
372.48	213.38
372.706	193.38
372.932	192.38
373.158	213.38
373.384	212.38
373.61	210.38
373.835	217.38
374.061	203.38
374.287	223.38
374.513	210.38
374.739	213.38
374.965	199.38
375.191	212.38
375.416	217.38
375.642	208.38
375.868	225.38
376.094	212.38
376.319	191.38
376.545	207.38
376.771	204.38
376.997	193.38
377.222	205.38
377.448	218.38
377.674	202.38
377.899	205.38
378.125	201.38
378.35	181.38
378.576	205.38
378.802	214.38
379.027	202.38
379.253	199.38
379.478	205.38
379.704	213.38
379.929	205.38
380.155	210.38
380.38	213.38
380.606	202.38
380.831	230.38
381.057	215.38
381.282	222.38
381.507	203.38
381.733	212.38
381.958	203.38
382.184	223.38
382.409	224.38
382.634	213.38
382.86	204.38
383.085	220.38
383.31	216.38
383.535	205.38
383.761	214.38
383.986	215.38
384.211	225.38
384.436	207.38
384.662	213.38
384.887	227.38
385.112	217.38
385.337	214.38
385.562	211.38
385.787	229.38
386.013	211.38
386.238	244.38
386.463	217.38
386.688	201.38
386.913	214.38
387.138	211.38
387.363	201.38
387.588	232.38
387.813	222.38
388.038	209.38
388.263	224.38
388.488	217.38
388.713	216.38
388.938	224.38
389.163	234.38
389.387	233.38
389.612	241.38
389.837	229.38
390.062	234.38
390.287	219.38
390.512	224.38
390.736	225.38
390.961	213.38
391.186	214.38
391.411	207.38
391.636	245.38
391.86	224.38
392.085	249.38
392.31	222.38
392.534	224.38
392.759	233.38
392.984	224.38
393.208	233.38
393.433	231.38
393.658	226.38
393.882	221.38
394.107	215.38
394.331	219.38
394.556	234.38
394.78	210.38
395.005	207.38
395.229	213.38
395.454	234.38
395.678	242.38
395.903	244.38
396.127	229.38
396.352	233.38
396.576	226.38
396.801	243.38
397.025	234.38
397.249	225.38
397.474	230.38
397.698	234.38
397.922	257.38
398.147	257.38
398.371	245.38
398.595	257.38
398.82	248.38
399.044	253.38
399.268	256.38
399.492	286.38
399.717	268.38
399.941	301.38
400.165	318.38
400.389	299.38
400.613	290.38
400.837	269.38
401.062	263.38
401.286	268.38
401.51	243.38
401.734	253.38
401.958	268.38
402.182	251.38
402.406	267.38
402.63	275.38
402.854	271.38
403.078	267.38
403.302	270.38
403.526	269.38
403.75	277.38
403.974	263.38
404.198	267.38
404.422	273.38
404.645	270.38
404.869	279.38
405.093	321.38
405.317	311.38
405.541	328.38
405.765	299.38
405.988	299.38
406.212	279.38
406.436	310.38
406.66	311.38
406.883	289.38
407.107	296.38
407.331	324.38
407.555	327.38
407.778	330.38
408.002	334.38
408.226	297.38
408.449	289.38
408.673	289.38
408.896	309.38
409.12	308.38
409.344	289.38
409.567	272.38
409.791	265.38
410.014	264.38
410.238	259.38
410.461	261.38
410.685	274.38
410.908	280.38
411.132	287.38
411.355	292.38
411.578	288.38
411.802	262.38
412.025	271.38
412.249	277.38
412.472	264.38
412.695	298.38
412.919	279.38
413.142	269.38
413.365	248.38
413.589	252.38
413.812	255.38
414.035	257.38
414.258	266.38
414.482	255.38
414.705	257.38
414.928	235.38
415.151	245.38
415.374	236.38
415.597	243.38
415.821	237.38
416.044	249.38
416.267	249.38
416.49	271.38
416.713	245.38
416.936	251.38
417.159	249.38
417.382	252.38
417.605	245.38
417.828	279.38
418.051	266.38
418.274	261.38
418.497	249.38
418.72	257.38
418.943	244.38
419.166	262.38
419.389	258.38
419.611	268.38
419.834	260.38
420.057	268.38
420.28	269.38
420.503	250.38
420.726	262.38
420.948	279.38
421.171	283.38
421.394	290.38
421.617	282.38
421.839	270.38
422.062	266.38
422.285	281.38
422.507	313.38
422.73	329.38
422.953	314.38
423.175	290.38
423.398	271.38
423.621	280.38
423.843	284.38
424.066	271.38
424.288	287.38
424.511	276.38
424.733	301.38
424.956	339.38
425.178	319.38
425.401	319.38
425.623	353.38
425.846	298.38
426.068	283.38
426.291	276.38
426.513	283.38
426.735	269.38
426.958	296.38
427.18	327.38
427.402	409.38
427.625	425.38
427.847	380.38
428.069	325.38
428.292	294.38
428.514	287.38
428.736	278.38
428.958	264.38
429.181	268.38
429.403	257.38
429.625	265.38
429.847	272.38
430.069	320.38
430.292	309.38
430.514	276.38
430.736	259.38
430.958	246.38
431.18	235.38
431.402	251.38
431.624	254.38
431.846	240.38
432.068	245.38
432.29	239.38
432.512	256.38
432.734	267.38
432.956	233.38
433.178	245.38
433.4	274.38
433.622	255.38
433.844	259.38
434.066	259.38
434.287	253.38
434.509	259.38
434.731	242.38
434.953	250.38
435.175	252.38
435.397	283.38
435.618	292.38
435.84	278.38
436.062	333.38
436.284	372.38
436.505	305.38
436.727	283.38
436.949	262.38
437.17	249.38
437.392	261.38
437.614	260.38
437.835	275.38
438.057	332.38
438.278	372.38
438.5	349.38
438.721	385.38
438.943	375.38
439.165	292.38
439.386	284.38
439.608	274.38
439.829	273.38
440.05	312.38
440.272	325.38
440.493	295.38
440.715	262.38
440.936	275.38
441.158	264.38
441.379	241.38
441.6	262.38
441.822	278.38
442.043	284.38
442.264	309.38
442.486	339.38
442.707	295.38
442.928	290.38
443.149	288.38
443.371	320.38
443.592	311.38
443.813	369.38
444.034	381.38
444.255	311.38
444.476	301.38
444.698	281.38
444.919	285.38
445.14	355.38
445.361	337.38
445.582	309.38
445.803	339.38
446.024	377.38
446.245	384.38
446.466	344.38
446.687	289.38
446.908	282.38
447.129	281.38
447.35	273.38
447.571	258.38
447.792	249.38
448.013	269.38
448.234	274.38
448.455	291.38
448.675	352.38
448.896	376.38
449.117	318.38
449.338	310.38
449.559	356.38
449.779	395.38
450	313.38
450.221	274.38
450.442	236.38
450.662	263.38
450.883	269.38
451.104	267.38
451.324	263.38
451.545	250.38
451.766	243.38
451.986	231.38
452.207	227.38
452.428	241.38
452.648	248.38
452.869	249.38
453.089	248.38
453.31	255.38
453.53	251.38
453.751	257.38
453.971	267.38
454.192	254.38
454.412	243.38
454.633	228.38
454.853	242.38
455.073	242.38
455.294	241.38
455.514	286.38
455.734	258.38
455.955	233.38
456.175	212.38
456.395	212.38
456.616	228.38
456.836	243.38
457.056	210.38
457.276	201.38
457.497	224.38
457.717	226.38
457.937	246.38
458.157	223.38
458.377	247.38
458.598	243.38
458.818	291.38
459.038	343.38
459.258	315.38
459.478	267.38
459.698	258.38
459.918	244.38
460.138	237.38
460.358	245.38
460.578	265.38
460.798	249.38
461.018	246.38
461.238	268.38
461.458	235.38
461.678	237.38
461.898	254.38
462.118	249.38
462.338	250.38
462.558	249.38
462.777	265.38
462.997	265.38
463.217	267.38
463.437	258.38
463.657	266.38
463.876	257.38
464.096	280.38
464.316	255.38
464.536	269.38
464.755	289.38
464.975	284.38
465.195	306.38
465.414	343.38
465.634	299.38
465.854	261.38
466.073	247.38
466.293	239.38
466.512	230.38
466.732	255.38
466.951	229.38
467.171	255.38
467.391	227.38
467.61	245.38
467.829	261.38
468.049	256.38
468.268	253.38
468.488	251.38
468.707	237.38
468.927	226.38
469.146	246.38
469.365	242.38
469.585	239.38
469.804	249.38
470.023	255.38
470.243	242.38
470.462	262.38
470.681	283.38
470.901	257.38
471.12	249.38
471.339	243.38
471.558	256.38
471.777	265.38
471.997	248.38
472.216	252.38
472.435	299.38
472.654	257.38
472.873	251.38
473.092	232.38
473.311	241.38
473.53	246.38
473.749	261.38
473.968	269.38
474.187	320.38
474.406	323.38
474.625	259.38
474.844	234.38
475.063	251.38
475.282	256.38
475.501	247.38
475.72	254.38
475.939	238.38
476.158	256.38
476.377	239.38
476.596	242.38
476.814	261.38
477.033	247.38
477.252	259.38
477.471	261.38
477.69	263.38
477.908	258.38
478.127	264.38
478.346	261.38
478.564	263.38
478.783	280.38
479.002	268.38
479.22	287.38
479.439	267.38
479.658	303.38
479.876	299.38
480.095	300.38
480.313	309.38
480.532	297.38
480.751	301.38
480.969	307.38
481.188	355.38
481.406	389.38
481.624	326.38
481.843	291.38
482.061	282.38
482.28	265.38
482.498	265.38
482.717	284.38
482.935	281.38
483.153	256.38
483.372	260.38
483.59	261.38
483.808	275.38
484.027	274.38
484.245	284.38
484.463	310.38
484.681	287.38
484.9	278.38
485.118	289.38
485.336	285.38
485.554	316.38
485.772	289.38
485.99	310.38
486.209	288.38
486.427	282.38
486.645	303.38
486.863	313.38
487.081	310.38
487.299	308.38
487.517	281.38
487.735	309.38
487.953	287.38
488.171	291.38
488.389	288.38
488.607	313.38
488.825	294.38
489.043	282.38
489.261	293.38
489.479	297.38
489.696	312.38
489.914	305.38
490.132	308.38
490.35	328.38
490.568	328.38
490.786	319.38
491.003	326.38
491.221	341.38
491.439	332.38
491.657	356.38
491.874	353.38
492.092	356.38
492.31	376.38
492.527	339.38
492.745	362.38
492.963	373.38
493.18	347.38
493.398	373.38
493.615	337.38
493.833	369.38
494.05	364.38
494.268	369.38
494.485	350.38
494.703	351.38
494.92	331.38
495.138	357.38
495.355	350.38
495.573	353.38
495.79	342.38
496.008	379.38
496.225	347.38
496.442	337.38
496.66	354.38
496.877	331.38
497.094	345.38
497.312	346.38
497.529	364.38
497.746	377.38
497.963	373.38
498.181	360.38
498.398	366.38
498.615	379.38
498.832	381.38
499.049	373.38
499.267	391.38
499.484	420.38
499.701	412.38
499.918	446.38
500.135	438.38
500.352	460.38
500.569	481.38
500.786	472.38
501.003	452.38
501.22	460.38
501.437	433.38
501.654	443.38
501.871	421.38
502.088	423.38
502.305	404.38
502.522	388.38
