Data from 1966.PennyLincolnUp.Lamp.En5.5.200Scan.071719.P1._HRD10591_14-12-37-914.txt Node
Date: Thu Jul 18 14:12:37 EDT 2019
User: cochatt
Spectrometer: HR+D1059
Trigger mode: 1
Integration Time (sec): 1.000000E-1
Scans to average: 1
Electric dark correction enabled: true
Nonlinearity correction enabled: false
Boxcar width: 0
XAxis mode: Wavelengths
Number of Pixels in Spectrum: 2048
>>>>>Begin Spectral Data<<<<<
223.165	-9.56
223.4	-9.56
223.635	-9.56
223.869	-21.56
224.104	-17.56
224.338	-13.56
224.573	-6.56
224.808	-15.56
225.042	-12.56
225.277	-16.56
225.511	8.44
225.746	3.44
225.98	9.44
226.215	20.44
226.449	17.44
226.683	19.44
226.918	23.44
227.152	11.44
227.387	38.44
227.621	24.44
227.856	28.44
228.09	37.44
228.324	35.44
228.559	48.44
228.793	74.44
229.027	73.44
229.262	75.44
229.496	91.44
229.73	103.44
229.964	98.44
230.199	109.44
230.433	96.44
230.667	82.44
230.901	94.44
231.136	104.44
231.37	88.44
231.604	91.44
231.838	93.44
232.072	77.44
232.306	92.44
232.541	96.44
232.775	96.44
233.009	87.44
233.243	92.44
233.477	91.44
233.711	104.44
233.945	97.44
234.179	97.44
234.413	88.44
234.647	107.44
234.881	94.44
235.115	84.44
235.349	94.44
235.583	87.44
235.817	85.44
236.051	86.44
236.285	102.44
236.519	90.44
236.753	109.44
236.987	105.44
237.221	107.44
237.455	139.44
237.689	122.44
237.922	111.44
238.156	86.44
238.39	90.44
238.624	84.44
238.858	87.44
239.091	99.44
239.325	90.44
239.559	109.44
239.793	97.44
240.027	93.44
240.26	102.44
240.494	119.44
240.728	96.44
240.961	106.44
241.195	100.44
241.429	106.44
241.662	88.44
241.896	94.44
242.13	104.44
242.363	112.44
242.597	102.44
242.83	88.44
243.064	82.44
243.298	99.44
243.531	109.44
243.765	100.44
243.998	102.44
244.232	96.44
244.465	101.44
244.699	93.44
244.932	100.44
245.166	104.44
245.399	102.44
245.633	106.44
245.866	102.44
246.099	100.44
246.333	84.44
246.566	109.44
246.8	105.44
247.033	101.44
247.266	106.44
247.5	116.44
247.733	120.44
247.966	102.44
248.2	117.44
248.433	107.44
248.666	118.44
248.899	122.44
249.133	138.44
249.366	132.44
249.599	140.44
249.832	128.44
250.066	118.44
250.299	126.44
250.532	126.44
250.765	132.44
250.998	133.44
251.231	136.44
251.465	132.44
251.698	125.44
251.931	138.44
252.164	126.44
252.397	125.44
252.63	120.44
252.863	118.44
253.096	129.44
253.329	134.44
253.562	125.44
253.795	122.44
254.028	119.44
254.261	124.44
254.494	130.44
254.727	154.44
254.96	162.44
255.193	173.44
255.426	140.44
255.659	136.44
255.892	140.44
256.124	142.44
256.357	124.44
256.59	140.44
256.823	125.44
257.056	123.44
257.289	135.44
257.521	121.44
257.754	126.44
257.987	128.44
258.22	133.44
258.452	123.44
258.685	145.44
258.918	134.44
259.151	119.44
259.383	132.44
259.616	134.44
259.849	132.44
260.081	142.44
260.314	129.44
260.547	152.44
260.779	143.44
261.012	148.44
261.244	149.44
261.477	155.44
261.71	131.44
261.942	140.44
262.175	127.44
262.407	136.44
262.64	131.44
262.872	127.44
263.105	134.44
263.337	128.44
263.57	123.44
263.802	146.44
264.035	130.44
264.267	110.44
264.499	136.44
264.732	132.44
264.964	127.44
265.197	146.44
265.429	125.44
265.661	121.44
265.894	140.44
266.126	144.44
266.358	135.44
266.591	122.44
266.823	126.44
267.055	149.44
267.287	140.44
267.52	139.44
267.752	134.44
267.984	123.44
268.216	126.44
268.448	138.44
268.681	153.44
268.913	138.44
269.145	152.44
269.377	165.44
269.609	145.44
269.841	185.44
270.073	167.44
270.306	189.44
270.538	188.44
270.77	173.44
271.002	154.44
271.234	170.44
271.466	179.44
271.698	183.44
271.93	182.44
272.162	191.44
272.394	169.44
272.626	174.44
272.858	171.44
273.09	158.44
273.322	153.44
273.553	134.44
273.785	139.44
274.017	135.44
274.249	170.44
274.481	148.44
274.713	143.44
274.945	156.44
275.176	149.44
275.408	150.44
275.64	157.44
275.872	157.44
276.104	158.44
276.335	127.44
276.567	156.44
276.799	172.44
277.031	166.44
277.262	190.44
277.494	173.44
277.726	167.44
277.957	165.44
278.189	165.44
278.421	152.44
278.652	151.44
278.884	151.44
279.115	149.44
279.347	153.44
279.579	154.44
279.81	145.44
280.042	149.44
280.273	146.44
280.505	158.44
280.736	153.44
280.968	155.44
281.199	158.44
281.431	150.44
281.662	153.44
281.894	152.44
282.125	159.44
282.356	166.44
282.588	171.44
282.819	158.44
283.051	167.44
283.282	164.44
283.513	143.44
283.745	161.44
283.976	182.44
284.207	158.44
284.439	159.44
284.67	163.44
284.901	157.44
285.132	172.44
285.364	164.44
285.595	171.44
285.826	172.44
286.057	155.44
286.288	164.44
286.52	168.44
286.751	160.44
286.982	160.44
287.213	149.44
287.444	162.44
287.675	167.44
287.906	169.44
288.138	180.44
288.369	171.44
288.6	183.44
288.831	162.44
289.062	159.44
289.293	153.44
289.524	159.44
289.755	166.44
289.986	157.44
290.217	152.44
290.448	158.44
290.679	162.44
290.91	165.44
291.141	159.44
291.371	170.44
291.602	164.44
291.833	154.44
292.064	152.44
292.295	161.44
292.526	176.44
292.757	175.44
292.987	164.44
293.218	163.44
293.449	151.44
293.68	163.44
293.91	167.44
294.141	170.44
294.372	180.44
294.603	174.44
294.833	159.44
295.064	167.44
295.295	158.44
295.525	149.44
295.756	166.44
295.987	161.44
296.217	188.44
296.448	176.44
296.679	170.44
296.909	173.44
297.14	175.44
297.37	166.44
297.601	168.44
297.831	189.44
298.062	162.44
298.292	186.44
298.523	170.44
298.753	155.44
298.984	172.44
299.214	165.44
299.445	163.44
299.675	176.44
299.905	159.44
300.136	175.44
300.366	174.44
300.597	173.44
300.827	182.44
301.057	182.44
301.288	176.44
301.518	167.44
301.748	186.44
301.979	171.44
302.209	168.44
302.439	174.44
302.669	159.44
302.9	170.44
303.13	176.44
303.36	204.44
303.59	202.44
303.82	191.44
304.051	182.44
304.281	184.44
304.511	175.44
304.741	189.44
304.971	174.44
305.201	182.44
305.431	175.44
305.661	172.44
305.891	174.44
306.121	178.44
306.352	186.44
306.582	192.44
306.812	176.44
307.042	178.44
307.272	189.44
307.502	166.44
307.731	182.44
307.961	166.44
308.191	171.44
308.421	168.44
308.651	174.44
308.881	176.44
309.111	180.44
309.341	174.44
309.571	174.44
309.8	195.44
310.03	186.44
310.26	193.44
310.49	194.44
310.72	201.44
310.949	211.44
311.179	216.44
311.409	188.44
311.639	198.44
311.868	194.44
312.098	215.44
312.328	211.44
312.557	212.44
312.787	213.44
313.017	214.44
313.246	213.44
313.476	192.44
313.706	197.44
313.935	200.44
314.165	209.44
314.394	208.44
314.624	202.44
314.853	208.44
315.083	209.44
315.312	178.44
315.542	193.44
315.771	190.44
316.001	190.44
316.23	205.44
316.46	202.44
316.689	187.44
316.919	194.44
317.148	205.44
317.377	208.44
317.607	211.44
317.836	201.44
318.065	205.44
318.295	202.44
318.524	198.44
318.753	203.44
318.983	193.44
319.212	185.44
319.441	194.44
319.67	206.44
319.9	196.44
320.129	192.44
320.358	196.44
320.587	208.44
320.816	213.44
321.046	205.44
321.275	204.44
321.504	197.44
321.733	191.44
321.962	232.44
322.191	212.44
322.42	215.44
322.649	229.44
322.878	232.44
323.108	230.44
323.337	232.44
323.566	256.44
323.795	276.44
324.024	284.44
324.253	335.44
324.482	456.44
324.71	698.44
324.939	933.44
325.168	790.44
325.397	411.44
325.626	280.44
325.855	247.44
326.084	240.44
326.313	221.44
326.542	246.44
326.77	260.44
326.999	325.44
327.228	401.44
327.457	619.44
327.686	718.44
327.914	454.44
328.143	336.44
328.372	287.44
328.6	276.44
328.829	263.44
329.058	281.44
329.287	274.44
329.515	255.44
329.744	250.44
329.972	265.44
330.201	275.44
330.43	286.44
330.658	291.44
330.887	323.44
331.115	302.44
331.344	262.44
331.572	259.44
331.801	243.44
332.03	261.44
332.258	236.44
332.486	225.44
332.715	231.44
332.943	220.44
333.172	236.44
333.4	244.44
333.629	236.44
333.857	243.44
334.085	269.44
334.314	257.44
334.542	288.44
334.771	293.44
334.999	244.44
335.227	244.44
335.455	239.44
335.684	232.44
335.912	214.44
336.14	232.44
336.369	228.44
336.597	245.44
336.825	235.44
337.053	231.44
337.281	221.44
337.51	213.44
337.738	225.44
337.966	209.44
338.194	230.44
338.422	212.44
338.65	239.44
338.878	215.44
339.106	217.44
339.334	215.44
339.562	211.44
339.79	211.44
340.018	216.44
340.246	231.44
340.474	235.44
340.702	242.44
340.93	210.44
341.158	242.44
341.386	212.44
341.614	214.44
341.842	210.44
342.07	206.44
342.298	226.44
342.526	189.44
342.754	212.44
342.981	216.44
343.209	203.44
343.437	210.44
343.665	216.44
343.893	218.44
344.12	222.44
344.348	221.44
344.576	218.44
344.804	236.44
345.031	238.44
345.259	229.44
345.487	221.44
345.714	227.44
345.942	204.44
346.17	200.44
346.397	210.44
346.625	218.44
346.853	223.44
347.08	209.44
347.308	221.44
347.535	210.44
347.763	214.44
347.99	200.44
348.218	212.44
348.445	214.44
348.673	211.44
348.9	199.44
349.128	208.44
349.355	216.44
349.583	203.44
349.81	208.44
350.037	205.44
350.265	213.44
350.492	215.44
350.72	223.44
350.947	207.44
351.174	194.44
351.402	215.44
351.629	220.44
351.856	215.44
352.083	215.44
352.311	231.44
352.538	204.44
352.765	204.44
352.992	220.44
353.22	215.44
353.447	207.44
353.674	215.44
353.901	201.44
354.128	206.44
354.355	198.44
354.583	207.44
354.81	204.44
355.037	209.44
355.264	178.44
355.491	189.44
355.718	193.44
355.945	188.44
356.172	210.44
356.399	197.44
356.626	190.44
356.853	198.44
357.08	191.44
357.307	184.44
357.534	219.44
357.761	198.44
357.988	210.44
358.215	194.44
358.441	208.44
358.668	193.44
358.895	204.44
359.122	199.44
359.349	197.44
359.576	204.44
359.802	223.44
360.029	226.44
360.256	240.44
360.483	227.44
360.709	208.44
360.936	216.44
361.163	189.44
361.39	213.44
361.616	206.44
361.843	208.44
362.07	200.44
362.296	200.44
362.523	210.44
362.749	211.44
362.976	188.44
363.203	205.44
363.429	196.44
363.656	207.44
363.882	195.44
364.109	209.44
364.335	201.44
364.562	200.44
364.788	196.44
365.015	206.44
365.241	199.44
365.468	192.44
365.694	196.44
365.92	200.44
366.147	216.44
366.373	191.44
366.599	191.44
366.826	197.44
367.052	198.44
367.278	206.44
367.505	202.44
367.731	197.44
367.957	196.44
368.184	198.44
368.41	193.44
368.636	222.44
368.862	213.44
369.089	212.44
369.315	205.44
369.541	194.44
369.767	209.44
369.993	195.44
370.219	196.44
370.445	204.44
370.672	214.44
370.898	204.44
371.124	195.44
371.35	194.44
371.576	213.44
371.802	194.44
372.028	197.44
372.254	214.44
372.48	208.44
372.706	204.44
372.932	204.44
373.158	199.44
373.384	210.44
373.61	204.44
373.835	214.44
374.061	198.44
374.287	207.44
374.513	209.44
374.739	213.44
374.965	201.44
375.191	192.44
375.416	210.44
375.642	212.44
375.868	203.44
376.094	208.44
376.319	194.44
376.545	191.44
376.771	203.44
376.997	194.44
377.222	199.44
377.448	194.44
377.674	200.44
377.899	206.44
378.125	206.44
378.35	203.44
378.576	208.44
378.802	191.44
379.027	203.44
379.253	212.44
379.478	195.44
379.704	200.44
379.929	184.44
380.155	202.44
380.38	205.44
380.606	214.44
380.831	199.44
381.057	201.44
381.282	194.44
381.507	207.44
381.733	201.44
381.958	195.44
382.184	214.44
382.409	195.44
382.634	198.44
382.86	192.44
383.085	208.44
383.31	217.44
383.535	213.44
383.761	213.44
383.986	214.44
384.211	207.44
384.436	207.44
384.662	219.44
384.887	189.44
385.112	212.44
385.337	221.44
385.562	214.44
385.787	212.44
386.013	243.44
386.238	228.44
386.463	230.44
386.688	222.44
386.913	220.44
387.138	219.44
387.363	227.44
387.588	205.44
387.813	203.44
388.038	208.44
388.263	214.44
388.488	202.44
388.713	219.44
388.938	220.44
389.163	204.44
389.387	221.44
389.612	226.44
389.837	211.44
390.062	222.44
390.287	221.44
390.512	221.44
390.736	218.44
390.961	208.44
391.186	199.44
391.411	214.44
391.636	217.44
391.86	219.44
392.085	246.44
392.31	222.44
392.534	237.44
392.759	221.44
392.984	203.44
393.208	217.44
393.433	224.44
393.658	232.44
393.882	226.44
394.107	210.44
394.331	226.44
394.556	221.44
394.78	215.44
395.005	211.44
395.229	209.44
395.454	205.44
395.678	220.44
395.903	232.44
396.127	239.44
396.352	227.44
396.576	224.44
396.801	227.44
397.025	239.44
397.249	236.44
397.474	227.44
397.698	215.44
397.922	239.44
398.147	218.44
398.371	232.44
398.595	227.44
398.82	237.44
399.044	260.44
399.268	258.44
399.492	269.44
399.717	266.44
399.941	276.44
400.165	293.44
400.389	293.44
400.613	272.44
400.837	242.44
401.062	249.44
401.286	252.44
401.51	247.44
401.734	242.44
401.958	229.44
402.182	247.44
402.406	258.44
402.63	248.44
402.854	254.44
403.078	245.44
403.302	260.44
403.526	262.44
403.75	260.44
403.974	258.44
404.198	238.44
404.422	236.44
404.645	245.44
404.869	246.44
405.093	285.44
405.317	286.44
405.541	306.44
405.765	267.44
405.988	273.44
406.212	278.44
406.436	295.44
406.66	297.44
406.883	275.44
407.107	286.44
407.331	314.44
407.555	342.44
407.778	320.44
408.002	310.44
408.226	276.44
408.449	280.44
408.673	277.44
408.896	295.44
409.12	297.44
409.344	283.44
409.567	258.44
409.791	261.44
410.014	262.44
410.238	247.44
410.461	249.44
410.685	256.44
410.908	251.44
411.132	287.44
411.355	288.44
411.578	291.44
411.802	248.44
412.025	255.44
412.249	251.44
412.472	264.44
412.695	278.44
412.919	297.44
413.142	274.44
413.365	246.44
413.589	258.44
413.812	254.44
414.035	228.44
414.258	254.44
414.482	239.44
414.705	259.44
414.928	254.44
415.151	247.44
415.374	255.44
415.597	241.44
415.821	255.44
416.044	249.44
416.267	262.44
416.49	244.44
416.713	246.44
416.936	233.44
417.159	248.44
417.382	235.44
417.605	245.44
417.828	260.44
418.051	251.44
418.274	235.44
418.497	249.44
418.72	249.44
418.943	238.44
419.166	242.44
419.389	260.44
419.611	277.44
419.834	242.44
420.057	266.44
420.28	269.44
420.503	273.44
420.726	266.44
420.948	255.44
421.171	275.44
421.394	287.44
421.617	251.44
421.839	248.44
422.062	266.44
422.285	264.44
422.507	297.44
422.73	325.44
422.953	288.44
423.175	262.44
423.398	260.44
423.621	262.44
423.843	278.44
424.066	273.44
424.288	264.44
424.511	266.44
424.733	290.44
424.956	331.44
425.178	320.44
425.401	307.44
425.623	328.44
425.846	280.44
426.068	267.44
426.291	268.44
426.513	269.44
426.735	292.44
426.958	276.44
427.18	329.44
427.402	374.44
427.625	410.44
427.847	360.44
428.069	318.44
428.292	304.44
428.514	262.44
428.736	256.44
428.958	270.44
429.181	247.44
429.403	242.44
429.625	240.44
429.847	255.44
430.069	293.44
430.292	288.44
430.514	238.44
430.736	248.44
430.958	247.44
431.18	239.44
431.402	244.44
431.624	236.44
431.846	251.44
432.068	238.44
432.29	254.44
432.512	232.44
432.734	246.44
432.956	236.44
433.178	242.44
433.4	239.44
433.622	270.44
433.844	230.44
434.066	242.44
434.287	242.44
434.509	238.44
434.731	250.44
434.953	257.44
435.175	248.44
435.397	280.44
435.618	264.44
435.84	293.44
436.062	332.44
436.284	338.44
436.505	313.44
436.727	275.44
436.949	266.44
437.17	236.44
437.392	240.44
437.614	252.44
437.835	272.44
438.057	319.44
438.278	349.44
438.5	339.44
438.721	386.44
438.943	348.44
439.165	277.44
439.386	268.44
439.608	293.44
439.829	279.44
440.05	302.44
440.272	299.44
440.493	276.44
440.715	274.44
440.936	272.44
441.158	258.44
441.379	234.44
441.6	231.44
441.822	271.44
442.043	294.44
442.264	330.44
442.486	352.44
442.707	303.44
442.928	270.44
443.149	303.44
443.371	269.44
443.592	296.44
443.813	342.44
444.034	354.44
444.255	322.44
444.476	275.44
444.698	266.44
444.919	282.44
445.14	345.44
445.361	327.44
445.582	276.44
445.803	317.44
446.024	358.44
446.245	376.44
446.466	317.44
446.687	282.44
446.908	280.44
447.129	246.44
447.35	243.44
447.571	231.44
447.792	254.44
448.013	248.44
448.234	249.44
448.455	276.44
448.675	335.44
448.896	366.44
449.117	312.44
449.338	288.44
449.559	345.44
449.779	392.44
450	312.44
450.221	270.44
450.442	243.44
450.662	246.44
450.883	250.44
451.104	261.44
451.324	245.44
451.545	258.44
451.766	246.44
451.986	236.44
452.207	226.44
452.428	230.44
452.648	235.44
452.869	232.44
453.089	240.44
453.31	240.44
453.53	247.44
453.751	222.44
453.971	227.44
454.192	230.44
454.412	225.44
454.633	221.44
454.853	208.44
455.073	231.44
455.294	221.44
455.514	260.44
455.734	256.44
455.955	222.44
456.175	222.44
456.395	212.44
456.616	214.44
456.836	213.44
457.056	221.44
457.276	194.44
457.497	210.44
457.717	208.44
457.937	217.44
458.157	202.44
458.377	214.44
458.598	236.44
458.818	268.44
459.038	312.44
459.258	306.44
459.478	265.44
459.698	227.44
459.918	237.44
460.138	232.44
460.358	247.44
460.578	246.44
460.798	248.44
461.018	243.44
461.238	243.44
461.458	244.44
461.678	229.44
461.898	240.44
462.118	243.44
462.338	250.44
462.558	242.44
462.777	238.44
462.997	252.44
463.217	264.44
463.437	251.44
463.657	259.44
463.876	257.44
464.096	249.44
464.316	236.44
464.536	262.44
464.755	258.44
464.975	260.44
465.195	265.44
465.414	331.44
465.634	272.44
465.854	252.44
466.073	255.44
466.293	220.44
466.512	241.44
466.732	205.44
466.951	222.44
467.171	244.44
467.391	219.44
467.61	230.44
467.829	231.44
468.049	229.44
468.268	230.44
468.488	231.44
468.707	246.44
468.927	217.44
469.146	231.44
469.365	233.44
469.585	231.44
469.804	225.44
470.023	238.44
470.243	240.44
470.462	246.44
470.681	246.44
470.901	254.44
471.12	245.44
471.339	243.44
471.558	235.44
471.777	224.44
471.997	238.44
472.216	235.44
472.435	260.44
472.654	248.44
472.873	229.44
473.092	221.44
473.311	227.44
473.53	238.44
473.749	251.44
473.968	250.44
474.187	314.44
474.406	310.44
474.625	252.44
474.844	249.44
475.063	237.44
475.282	231.44
475.501	234.44
475.72	238.44
475.939	215.44
476.158	235.44
476.377	230.44
476.596	247.44
476.814	254.44
477.033	252.44
477.252	272.44
477.471	243.44
477.69	237.44
477.908	272.44
478.127	237.44
478.346	242.44
478.564	249.44
478.783	240.44
479.002	256.44
479.22	254.44
479.439	283.44
479.658	277.44
479.876	278.44
480.095	273.44
480.313	295.44
480.532	272.44
480.751	289.44
480.969	304.44
481.188	326.44
481.406	349.44
481.624	307.44
481.843	294.44
482.061	281.44
482.28	288.44
482.498	271.44
482.717	269.44
482.935	278.44
483.153	264.44
483.372	258.44
483.59	269.44
483.808	277.44
484.027	276.44
484.245	248.44
484.463	262.44
484.681	270.44
484.9	253.44
485.118	291.44
485.336	276.44
485.554	278.44
485.772	281.44
485.99	291.44
486.209	286.44
486.427	284.44
486.645	297.44
486.863	295.44
487.081	301.44
487.299	286.44
487.517	276.44
487.735	290.44
487.953	291.44
488.171	291.44
488.389	308.44
488.607	286.44
488.825	295.44
489.043	305.44
489.261	294.44
489.479	287.44
489.696	286.44
489.914	288.44
490.132	291.44
490.35	312.44
490.568	306.44
490.786	334.44
491.003	315.44
491.221	321.44
491.439	337.44
491.657	333.44
491.874	322.44
492.092	347.44
492.31	338.44
492.527	332.44
492.745	328.44
492.963	340.44
493.18	342.44
493.398	339.44
493.615	338.44
493.833	327.44
494.05	350.44
494.268	356.44
494.485	326.44
494.703	323.44
494.92	347.44
495.138	332.44
495.355	329.44
495.573	327.44
495.79	313.44
496.008	333.44
496.225	329.44
496.442	332.44
496.66	342.44
496.877	334.44
497.094	331.44
497.312	339.44
497.529	337.44
497.746	335.44
497.963	357.44
498.181	354.44
498.398	361.44
498.615	361.44
498.832	367.44
499.049	351.44
499.267	365.44
499.484	386.44
499.701	394.44
499.918	410.44
500.135	422.44
500.352	425.44
500.569	447.44
500.786	421.44
501.003	458.44
501.22	464.44
501.437	422.44
501.654	411.44
501.871	402.44
502.088	405.44
502.305	367.44
502.522	366.44
