Data from 1966.PennyLincolnUp.Lamp.En5.5.200Scan.071719.P1.Scan2.head_HRD10591_14-18-55-228.txt Node
Date: Thu Jul 18 14:18:55 EDT 2019
User: cochatt
Spectrometer: HR+D1059
Trigger mode: 1
Integration Time (sec): 1.000000E-1
Scans to average: 1
Electric dark correction enabled: true
Nonlinearity correction enabled: false
Boxcar width: 0
XAxis mode: Wavelengths
Number of Pixels in Spectrum: 2048
>>>>>Begin Spectral Data<<<<<
223.165	-13.44
223.4	-13.44
223.635	-13.44
223.869	-20.44
224.104	-17.44
224.338	-15.44
224.573	-8.44
224.808	-7.44
225.042	-21.44
225.277	-4.44
225.511	6.56
225.746	-1.44
225.98	1.56
226.215	11.56
226.449	22.56
226.683	16.56
226.918	18.56
227.152	32.56
227.387	36.56
227.621	43.56
227.856	56.56
228.09	40.56
228.324	49.56
228.559	52.56
228.793	68.56
229.027	97.56
229.262	123.56
229.496	120.56
229.73	135.56
229.964	180.56
230.199	131.56
230.433	118.56
230.667	109.56
230.901	107.56
231.136	101.56
231.37	111.56
231.604	108.56
231.838	107.56
232.072	105.56
232.306	124.56
232.541	117.56
232.775	116.56
233.009	127.56
233.243	133.56
233.477	116.56
233.711	121.56
233.945	113.56
234.179	130.56
234.413	122.56
234.647	125.56
234.881	124.56
235.115	128.56
235.349	117.56
235.583	122.56
235.817	127.56
236.051	127.56
236.285	130.56
236.519	115.56
236.753	118.56
236.987	156.56
237.221	178.56
237.455	242.56
237.689	201.56
237.922	156.56
238.156	134.56
238.39	140.56
238.624	128.56
238.858	144.56
239.091	121.56
239.325	130.56
239.559	118.56
239.793	125.56
240.027	134.56
240.26	146.56
240.494	152.56
240.728	150.56
240.961	159.56
241.195	166.56
241.429	154.56
241.662	141.56
241.896	142.56
242.13	134.56
242.363	141.56
242.597	134.56
242.83	153.56
243.064	147.56
243.298	138.56
243.531	143.56
243.765	132.56
243.998	150.56
244.232	141.56
244.465	153.56
244.699	152.56
244.932	122.56
245.166	152.56
245.399	145.56
245.633	154.56
245.866	154.56
246.099	154.56
246.333	164.56
246.566	157.56
246.8	161.56
247.033	167.56
247.266	152.56
247.5	162.56
247.733	184.56
247.966	178.56
248.2	164.56
248.433	177.56
248.666	196.56
248.899	180.56
249.133	198.56
249.366	225.56
249.599	218.56
249.832	172.56
250.066	181.56
250.299	169.56
250.532	207.56
250.765	214.56
250.998	229.56
251.231	239.56
251.465	221.56
251.698	206.56
251.931	217.56
252.164	185.56
252.397	201.56
252.63	217.56
252.863	205.56
253.096	217.56
253.329	248.56
253.562	227.56
253.795	225.56
254.028	228.56
254.261	220.56
254.494	226.56
254.727	256.56
254.96	287.56
255.193	295.56
255.426	254.56
255.659	234.56
255.892	230.56
256.124	240.56
256.357	258.56
256.59	226.56
256.823	220.56
257.056	232.56
257.289	218.56
257.521	215.56
257.754	219.56
257.987	218.56
258.22	216.56
258.452	215.56
258.685	208.56
258.918	196.56
259.151	235.56
259.383	237.56
259.616	242.56
259.849	241.56
260.081	241.56
260.314	245.56
260.547	262.56
260.779	237.56
261.012	236.56
261.244	228.56
261.477	244.56
261.71	246.56
261.942	226.56
262.175	229.56
262.407	242.56
262.64	222.56
262.872	221.56
263.105	220.56
263.337	230.56
263.57	204.56
263.802	223.56
264.035	225.56
264.267	211.56
264.499	222.56
264.732	218.56
264.964	213.56
265.197	218.56
265.429	223.56
265.661	218.56
265.894	235.56
266.126	229.56
266.358	231.56
266.591	222.56
266.823	219.56
267.055	230.56
267.287	237.56
267.52	240.56
267.752	226.56
267.984	239.56
268.216	260.56
268.448	251.56
268.681	236.56
268.913	244.56
269.145	265.56
269.377	279.56
269.609	291.56
269.841	268.56
270.073	261.56
270.306	279.56
270.538	328.56
270.77	316.56
271.002	300.56
271.234	310.56
271.466	301.56
271.698	318.56
271.93	328.56
272.162	320.56
272.394	326.56
272.626	321.56
272.858	297.56
273.09	302.56
273.322	272.56
273.553	286.56
273.785	281.56
274.017	262.56
274.249	268.56
274.481	271.56
274.713	279.56
274.945	283.56
275.176	288.56
275.408	269.56
275.64	261.56
275.872	275.56
276.104	287.56
276.335	290.56
276.567	286.56
276.799	304.56
277.031	310.56
277.262	334.56
277.494	335.56
277.726	322.56
277.957	295.56
278.189	297.56
278.421	287.56
278.652	279.56
278.884	291.56
279.115	294.56
279.347	282.56
279.579	283.56
279.81	252.56
280.042	280.56
280.273	290.56
280.505	284.56
280.736	265.56
280.968	280.56
281.199	280.56
281.431	281.56
281.662	275.56
281.894	272.56
282.125	275.56
282.356	285.56
282.588	320.56
282.819	328.56
283.051	296.56
283.282	281.56
283.513	288.56
283.745	300.56
283.976	293.56
284.207	289.56
284.439	294.56
284.67	283.56
284.901	308.56
285.132	297.56
285.364	273.56
285.595	310.56
285.826	268.56
286.057	284.56
286.288	273.56
286.52	279.56
286.751	272.56
286.982	286.56
287.213	309.56
287.444	314.56
287.675	304.56
287.906	305.56
288.138	329.56
288.369	319.56
288.6	332.56
288.831	302.56
289.062	301.56
289.293	306.56
289.524	303.56
289.755	309.56
289.986	297.56
290.217	305.56
290.448	310.56
290.679	314.56
290.91	292.56
291.141	300.56
291.371	294.56
291.602	317.56
291.833	301.56
292.064	300.56
292.295	310.56
292.526	314.56
292.757	309.56
292.987	313.56
293.218	309.56
293.449	302.56
293.68	309.56
293.91	315.56
294.141	281.56
294.372	294.56
294.603	284.56
294.833	301.56
295.064	298.56
295.295	316.56
295.525	314.56
295.756	304.56
295.987	323.56
296.217	337.56
296.448	346.56
296.679	322.56
296.909	308.56
297.14	314.56
297.37	306.56
297.601	322.56
297.831	298.56
298.062	325.56
298.292	304.56
298.523	333.56
298.753	321.56
298.984	310.56
299.214	334.56
299.445	311.56
299.675	319.56
299.905	332.56
300.136	323.56
300.366	337.56
300.597	305.56
300.827	340.56
301.057	341.56
301.288	345.56
301.518	325.56
301.748	342.56
301.979	330.56
302.209	331.56
302.439	334.56
302.669	346.56
302.9	340.56
303.13	339.56
303.36	329.56
303.59	351.56
303.82	351.56
304.051	337.56
304.281	339.56
304.511	344.56
304.741	339.56
304.971	338.56
305.201	349.56
305.431	344.56
305.661	359.56
305.891	355.56
306.121	350.56
306.352	354.56
306.582	337.56
306.812	329.56
307.042	357.56
307.272	336.56
307.502	345.56
307.731	350.56
307.961	332.56
308.191	346.56
308.421	338.56
308.651	330.56
308.881	328.56
309.111	360.56
309.341	365.56
309.571	360.56
309.8	381.56
310.03	379.56
310.26	391.56
310.49	380.56
310.72	393.56
310.949	399.56
311.179	414.56
311.409	397.56
311.639	395.56
311.868	383.56
312.098	385.56
312.328	392.56
312.557	416.56
312.787	413.56
313.017	422.56
313.246	416.56
313.476	385.56
313.706	379.56
313.935	396.56
314.165	417.56
314.394	420.56
314.624	409.56
314.853	390.56
315.083	413.56
315.312	394.56
315.542	390.56
315.771	387.56
316.001	401.56
316.23	392.56
316.46	393.56
316.689	404.56
316.919	399.56
317.148	396.56
317.377	402.56
317.607	395.56
317.836	403.56
318.065	407.56
318.295	384.56
318.524	392.56
318.753	394.56
318.983	394.56
319.212	397.56
319.441	431.56
319.67	394.56
319.9	387.56
320.129	401.56
320.358	398.56
320.587	401.56
320.816	413.56
321.046	394.56
321.275	412.56
321.504	413.56
321.733	425.56
321.962	432.56
322.191	452.56
322.42	449.56
322.649	464.56
322.878	459.56
323.108	485.56
323.337	489.56
323.566	523.56
323.795	526.56
324.024	597.56
324.253	670.56
324.482	966.56
324.71	1524.56
324.939	2292.56
325.168	1950.56
325.397	965.56
325.626	664.56
325.855	550.56
326.084	540.56
326.313	521.56
326.542	503.56
326.77	561.56
326.999	645.56
327.228	874.56
327.457	1334.56
327.686	1735.56
327.914	1103.56
328.143	702.56
328.372	642.56
328.6	610.56
328.829	586.56
329.058	581.56
329.287	615.56
329.515	566.56
329.744	524.56
329.972	502.56
330.201	542.56
330.43	607.56
330.658	608.56
330.887	631.56
331.115	612.56
331.344	542.56
331.572	491.56
331.801	510.56
332.03	497.56
332.258	492.56
332.486	461.56
332.715	473.56
332.943	474.56
333.172	495.56
333.4	513.56
333.629	495.56
333.857	495.56
334.085	527.56
334.314	554.56
334.542	564.56
334.771	601.56
334.999	526.56
335.227	489.56
335.455	486.56
335.684	490.56
335.912	460.56
336.14	472.56
336.369	476.56
336.597	460.56
336.825	493.56
337.053	485.56
337.281	471.56
337.51	462.56
337.738	473.56
337.966	485.56
338.194	480.56
338.422	465.56
338.65	476.56
338.878	452.56
339.106	462.56
339.334	472.56
339.562	469.56
339.79	459.56
340.018	474.56
340.246	452.56
340.474	470.56
340.702	454.56
340.93	455.56
341.158	458.56
341.386	475.56
341.614	465.56
341.842	450.56
342.07	443.56
342.298	437.56
342.526	461.56
342.754	440.56
342.981	442.56
343.209	457.56
343.437	443.56
343.665	454.56
343.893	473.56
344.12	472.56
344.348	477.56
344.576	470.56
344.804	476.56
345.031	476.56
345.259	467.56
345.487	461.56
345.714	481.56
345.942	443.56
346.17	459.56
346.397	429.56
346.625	442.56
346.853	445.56
347.08	457.56
347.308	473.56
347.535	448.56
347.763	474.56
347.99	457.56
348.218	450.56
348.445	454.56
348.673	465.56
348.9	461.56
349.128	463.56
349.355	444.56
349.583	436.56
349.81	436.56
350.037	423.56
350.265	434.56
350.492	423.56
350.72	443.56
350.947	457.56
351.174	438.56
351.402	442.56
351.629	479.56
351.856	449.56
352.083	466.56
352.311	475.56
352.538	467.56
352.765	463.56
352.992	443.56
353.22	438.56
353.447	431.56
353.674	438.56
353.901	425.56
354.128	440.56
354.355	418.56
354.583	430.56
354.81	414.56
355.037	428.56
355.264	440.56
355.491	416.56
355.718	406.56
355.945	421.56
356.172	440.56
356.399	410.56
356.626	422.56
356.853	409.56
357.08	420.56
357.307	417.56
357.534	403.56
357.761	432.56
357.988	438.56
358.215	430.56
358.441	421.56
358.668	436.56
358.895	438.56
359.122	448.56
359.349	440.56
359.576	429.56
359.802	461.56
360.029	490.56
360.256	503.56
360.483	506.56
360.709	462.56
360.936	468.56
361.163	452.56
361.39	463.56
361.616	450.56
361.843	450.56
362.07	432.56
362.296	431.56
362.523	443.56
362.749	442.56
362.976	465.56
363.203	428.56
363.429	426.56
363.656	463.56
363.882	433.56
364.109	453.56
364.335	429.56
364.562	431.56
364.788	424.56
365.015	418.56
365.241	442.56
365.468	438.56
365.694	455.56
365.92	447.56
366.147	436.56
366.373	427.56
366.599	431.56
366.826	417.56
367.052	453.56
367.278	435.56
367.505	440.56
367.731	429.56
367.957	441.56
368.184	456.56
368.41	449.56
368.636	444.56
368.862	434.56
369.089	437.56
369.315	440.56
369.541	443.56
369.767	436.56
369.993	420.56
370.219	426.56
370.445	441.56
370.672	436.56
370.898	446.56
371.124	463.56
371.35	426.56
371.576	441.56
371.802	453.56
372.028	434.56
372.254	435.56
372.48	433.56
372.706	436.56
372.932	446.56
373.158	448.56
373.384	446.56
373.61	448.56
373.835	436.56
374.061	445.56
374.287	438.56
374.513	450.56
374.739	443.56
374.965	462.56
375.191	443.56
375.416	445.56
375.642	467.56
375.868	437.56
376.094	439.56
376.319	449.56
376.545	434.56
376.771	422.56
376.997	430.56
377.222	422.56
377.448	454.56
377.674	441.56
377.899	430.56
378.125	449.56
378.35	442.56
378.576	431.56
378.802	433.56
379.027	424.56
379.253	448.56
379.478	442.56
379.704	442.56
379.929	430.56
380.155	450.56
380.38	452.56
380.606	425.56
380.831	439.56
381.057	446.56
381.282	433.56
381.507	442.56
381.733	441.56
381.958	431.56
382.184	446.56
382.409	448.56
382.634	454.56
382.86	446.56
383.085	483.56
383.31	444.56
383.535	453.56
383.761	461.56
383.986	485.56
384.211	480.56
384.436	475.56
384.662	468.56
384.887	475.56
385.112	491.56
385.337	481.56
385.562	478.56
385.787	478.56
386.013	506.56
386.238	497.56
386.463	458.56
386.688	486.56
386.913	479.56
387.138	489.56
387.363	518.56
387.588	477.56
387.813	483.56
388.038	481.56
388.263	496.56
388.488	495.56
388.713	500.56
388.938	519.56
389.163	502.56
389.387	526.56
389.612	480.56
389.837	476.56
390.062	491.56
390.287	498.56
390.512	481.56
390.736	469.56
390.961	497.56
391.186	495.56
391.411	513.56
391.636	526.56
391.86	487.56
392.085	505.56
392.31	529.56
392.534	509.56
392.759	480.56
392.984	482.56
393.208	510.56
393.433	491.56
393.658	505.56
393.882	509.56
394.107	485.56
394.331	497.56
394.556	491.56
394.78	514.56
395.005	504.56
395.229	504.56
395.454	512.56
395.678	535.56
395.903	523.56
396.127	552.56
396.352	545.56
396.576	522.56
396.801	521.56
397.025	505.56
397.249	546.56
397.474	522.56
397.698	536.56
397.922	553.56
398.147	581.56
398.371	561.56
398.595	561.56
398.82	559.56
399.044	571.56
399.268	600.56
399.492	630.56
399.717	672.56
399.941	704.56
400.165	717.56
400.389	686.56
400.613	641.56
400.837	630.56
401.062	609.56
401.286	582.56
401.51	584.56
401.734	583.56
401.958	587.56
402.182	570.56
402.406	584.56
402.63	598.56
402.854	597.56
403.078	599.56
403.302	586.56
403.526	576.56
403.75	600.56
403.974	590.56
404.198	596.56
404.422	598.56
404.645	600.56
404.869	620.56
405.093	655.56
405.317	701.56
405.541	743.56
405.765	649.56
405.988	642.56
406.212	644.56
406.436	644.56
406.66	679.56
406.883	648.56
407.107	679.56
407.331	712.56
407.555	807.56
407.778	792.56
408.002	726.56
408.226	672.56
408.449	661.56
408.673	652.56
408.896	701.56
409.12	734.56
409.344	718.56
409.567	625.56
409.791	605.56
410.014	620.56
410.238	590.56
410.461	598.56
410.685	600.56
410.908	619.56
411.132	648.56
411.355	702.56
411.578	670.56
411.802	607.56
412.025	612.56
412.249	605.56
412.472	636.56
412.695	674.56
412.919	668.56
413.142	613.56
413.365	609.56
413.589	585.56
413.812	581.56
414.035	559.56
414.258	561.56
414.482	566.56
414.705	564.56
414.928	567.56
415.151	549.56
415.374	560.56
415.597	566.56
415.821	586.56
416.044	577.56
416.267	586.56
416.49	558.56
416.713	569.56
416.936	582.56
417.159	546.56
417.382	578.56
417.605	579.56
417.828	578.56
418.051	578.56
418.274	577.56
418.497	570.56
418.72	555.56
418.943	573.56
419.166	570.56
419.389	588.56
419.611	592.56
419.834	598.56
420.057	610.56
420.28	602.56
420.503	610.56
420.726	595.56
420.948	608.56
421.171	638.56
421.394	672.56
421.617	618.56
421.839	604.56
422.062	587.56
422.285	612.56
422.507	681.56
422.73	756.56
422.953	741.56
423.175	640.56
423.398	632.56
423.621	632.56
423.843	639.56
424.066	642.56
424.288	609.56
424.511	654.56
424.733	717.56
424.956	788.56
425.178	778.56
425.401	756.56
425.623	802.56
425.846	694.56
426.068	628.56
426.291	640.56
426.513	623.56
426.735	652.56
426.958	696.56
427.18	800.56
427.402	955.56
427.625	1024.56
427.847	919.56
428.069	767.56
428.292	688.56
428.514	624.56
428.736	625.56
428.958	615.56
429.181	593.56
429.403	608.56
429.625	614.56
429.847	626.56
430.069	717.56
430.292	708.56
430.514	606.56
430.736	588.56
430.958	572.56
431.18	565.56
431.402	563.56
431.624	552.56
431.846	565.56
432.068	552.56
432.29	584.56
432.512	576.56
432.734	577.56
432.956	582.56
433.178	580.56
433.4	582.56
433.622	554.56
433.844	550.56
434.066	530.56
434.287	557.56
434.509	564.56
434.731	557.56
434.953	588.56
435.175	601.56
435.397	623.56
435.618	667.56
435.84	688.56
436.062	781.56
436.284	857.56
436.505	696.56
436.727	642.56
436.949	607.56
437.17	599.56
437.392	604.56
437.614	618.56
437.835	624.56
438.057	729.56
438.278	853.56
438.5	820.56
438.721	947.56
438.943	923.56
439.165	687.56
439.386	660.56
439.608	668.56
439.829	637.56
440.05	648.56
440.272	736.56
440.493	661.56
440.715	625.56
440.936	595.56
441.158	597.56
441.379	600.56
441.6	626.56
441.822	624.56
442.043	658.56
442.264	766.56
442.486	824.56
442.707	687.56
442.928	669.56
443.149	640.56
443.371	695.56
443.592	724.56
443.813	831.56
444.034	912.56
444.255	735.56
444.476	668.56
444.698	662.56
444.919	633.56
445.14	745.56
445.361	684.56
445.582	668.56
445.803	752.56
446.024	867.56
446.245	885.56
446.466	780.56
446.687	680.56
446.908	637.56
447.129	608.56
447.35	603.56
447.571	590.56
447.792	570.56
448.013	596.56
448.234	624.56
448.455	658.56
448.675	805.56
448.896	918.56
449.117	789.56
449.338	715.56
449.559	856.56
449.779	977.56
450	785.56
450.221	658.56
450.442	590.56
450.662	568.56
450.883	570.56
451.104	568.56
451.324	577.56
451.545	592.56
451.766	558.56
451.986	537.56
452.207	551.56
452.428	526.56
452.648	517.56
452.869	551.56
453.089	560.56
453.31	538.56
453.53	557.56
453.751	520.56
453.971	528.56
454.192	526.56
454.412	537.56
454.633	501.56
454.853	487.56
455.073	506.56
455.294	568.56
455.514	620.56
455.734	613.56
455.955	520.56
456.175	502.56
456.395	521.56
456.616	480.56
456.836	501.56
457.056	487.56
457.276	486.56
457.497	514.56
457.717	492.56
457.937	508.56
458.157	518.56
458.377	531.56
458.598	549.56
458.818	615.56
459.038	694.56
459.258	689.56
459.478	621.56
459.698	568.56
459.918	564.56
460.138	561.56
460.358	558.56
460.578	547.56
460.798	569.56
461.018	574.56
461.238	581.56
461.458	593.56
461.678	596.56
461.898	583.56
462.118	586.56
462.338	591.56
462.558	593.56
462.777	601.56
462.997	617.56
463.217	630.56
463.437	642.56
463.657	611.56
463.876	634.56
464.096	630.56
464.316	616.56
464.536	617.56
464.755	626.56
464.975	610.56
465.195	621.56
465.414	727.56
465.634	680.56
465.854	591.56
466.073	576.56
466.293	560.56
466.512	538.56
466.732	549.56
466.951	551.56
467.171	530.56
467.391	564.56
467.61	526.56
467.829	550.56
468.049	550.56
468.268	554.56
468.488	545.56
468.707	533.56
468.927	531.56
469.146	543.56
469.365	525.56
469.585	517.56
469.804	546.56
470.023	543.56
470.243	557.56
470.462	552.56
470.681	558.56
470.901	561.56
471.12	575.56
471.339	540.56
471.558	552.56
471.777	546.56
471.997	550.56
472.216	545.56
472.435	593.56
472.654	569.56
472.873	552.56
473.092	542.56
473.311	547.56
473.53	538.56
473.749	560.56
473.968	594.56
474.187	713.56
474.406	748.56
474.625	617.56
474.844	536.56
475.063	568.56
475.282	564.56
475.501	541.56
475.72	548.56
475.939	562.56
476.158	540.56
476.377	551.56
476.596	553.56
476.814	589.56
477.033	590.56
477.252	593.56
477.471	568.56
477.69	583.56
477.908	611.56
478.127	593.56
478.346	602.56
478.564	612.56
478.783	622.56
479.002	623.56
479.22	606.56
479.439	654.56
479.658	672.56
479.876	670.56
480.095	656.56
480.313	690.56
480.532	665.56
480.751	665.56
480.969	702.56
481.188	784.56
481.406	785.56
481.624	718.56
481.843	696.56
482.061	680.56
482.28	666.56
482.498	671.56
482.717	655.56
482.935	648.56
483.153	635.56
483.372	638.56
483.59	658.56
483.808	640.56
484.027	639.56
484.245	641.56
484.463	659.56
484.681	675.56
484.9	676.56
485.118	682.56
485.336	673.56
485.554	669.56
485.772	678.56
485.99	684.56
486.209	654.56
486.427	684.56
486.645	692.56
486.863	692.56
487.081	706.56
487.299	711.56
487.517	679.56
487.735	700.56
487.953	688.56
488.171	681.56
488.389	688.56
488.607	717.56
488.825	662.56
489.043	702.56
489.261	698.56
489.479	681.56
489.696	707.56
489.914	712.56
490.132	709.56
490.35	722.56
490.568	718.56
490.786	749.56
491.003	780.56
491.221	772.56
491.439	776.56
491.657	811.56
491.874	772.56
492.092	784.56
492.31	813.56
492.527	796.56
492.745	810.56
492.963	816.56
493.18	801.56
493.398	821.56
493.615	834.56
493.833	811.56
494.05	826.56
494.268	808.56
494.485	837.56
494.703	841.56
494.92	840.56
495.138	816.56
495.355	820.56
495.573	838.56
495.79	832.56
496.008	802.56
496.225	840.56
496.442	807.56
496.66	843.56
496.877	828.56
497.094	840.56
497.312	852.56
497.529	848.56
497.746	871.56
497.963	867.56
498.181	904.56
498.398	914.56
498.615	953.56
498.832	968.56
499.049	958.56
499.267	979.56
499.484	1022.56
499.701	1071.56
499.918	1084.56
500.135	1153.56
500.352	1192.56
500.569	1193.56
500.786	1219.56
501.003	1217.56
501.22	1160.56
501.437	1094.56
501.654	1088.56
