Data from 1966.PennyLincolnUp.Lamp.En5.5.200Scan.071719.P1.Scan2.head_HRD10591_14-18-01-155.txt Node
Date: Thu Jul 18 14:18:01 EDT 2019
User: cochatt
Spectrometer: HR+D1059
Trigger mode: 1
Integration Time (sec): 1.000000E-1
Scans to average: 1
Electric dark correction enabled: true
Nonlinearity correction enabled: false
Boxcar width: 0
XAxis mode: Wavelengths
Number of Pixels in Spectrum: 2048
>>>>>Begin Spectral Data<<<<<
223.165	-32.44
223.4	-32.44
223.635	-32.44
223.869	-17.44
224.104	-0.44
224.338	-18.44
224.573	-23.44
224.808	-24.44
225.042	-12.44
225.277	-6.44
225.511	3.56
225.746	4.56
225.98	5.56
226.215	20.56
226.449	22.56
226.683	28.56
226.918	21.56
227.152	28.56
227.387	23.56
227.621	42.56
227.856	36.56
228.09	23.56
228.324	46.56
228.559	51.56
228.793	61.56
229.027	98.56
229.262	113.56
229.496	113.56
229.73	140.56
229.964	148.56
230.199	128.56
230.433	120.56
230.667	107.56
230.901	104.56
231.136	115.56
231.37	106.56
231.604	100.56
231.838	99.56
232.072	114.56
232.306	111.56
232.541	113.56
232.775	89.56
233.009	127.56
233.243	113.56
233.477	109.56
233.711	109.56
233.945	117.56
234.179	125.56
234.413	117.56
234.647	107.56
234.881	113.56
235.115	114.56
235.349	125.56
235.583	116.56
235.817	122.56
236.051	130.56
236.285	122.56
236.519	128.56
236.753	131.56
236.987	132.56
237.221	181.56
237.455	231.56
237.689	175.56
237.922	130.56
238.156	123.56
238.39	136.56
238.624	122.56
238.858	135.56
239.091	131.56
239.325	118.56
239.559	119.56
239.793	141.56
240.027	129.56
240.26	140.56
240.494	143.56
240.728	139.56
240.961	162.56
241.195	147.56
241.429	142.56
241.662	138.56
241.896	115.56
242.13	130.56
242.363	139.56
242.597	132.56
242.83	137.56
243.064	129.56
243.298	147.56
243.531	135.56
243.765	146.56
243.998	149.56
244.232	136.56
244.465	152.56
244.699	137.56
244.932	132.56
245.166	126.56
245.399	142.56
245.633	138.56
245.866	149.56
246.099	135.56
246.333	143.56
246.566	153.56
246.8	164.56
247.033	161.56
247.266	133.56
247.5	150.56
247.733	164.56
247.966	177.56
248.2	163.56
248.433	162.56
248.666	171.56
248.899	187.56
249.133	185.56
249.366	193.56
249.599	185.56
249.832	180.56
250.066	181.56
250.299	173.56
250.532	182.56
250.765	185.56
250.998	211.56
251.231	226.56
251.465	212.56
251.698	185.56
251.931	190.56
252.164	183.56
252.397	201.56
252.63	182.56
252.863	188.56
253.096	196.56
253.329	232.56
253.562	219.56
253.795	215.56
254.028	215.56
254.261	216.56
254.494	227.56
254.727	264.56
254.96	279.56
255.193	259.56
255.426	248.56
255.659	227.56
255.892	219.56
256.124	225.56
256.357	219.56
256.59	229.56
256.823	224.56
257.056	230.56
257.289	212.56
257.521	211.56
257.754	198.56
257.987	193.56
258.22	220.56
258.452	204.56
258.685	186.56
258.918	213.56
259.151	216.56
259.383	207.56
259.616	208.56
259.849	227.56
260.081	214.56
260.314	251.56
260.547	236.56
260.779	213.56
261.012	229.56
261.244	220.56
261.477	227.56
261.71	220.56
261.942	224.56
262.175	213.56
262.407	231.56
262.64	187.56
262.872	211.56
263.105	212.56
263.337	203.56
263.57	192.56
263.802	191.56
264.035	207.56
264.267	218.56
264.499	210.56
264.732	216.56
264.964	204.56
265.197	199.56
265.429	210.56
265.661	204.56
265.894	209.56
266.126	209.56
266.358	216.56
266.591	196.56
266.823	195.56
267.055	224.56
267.287	227.56
267.52	223.56
267.752	206.56
267.984	221.56
268.216	231.56
268.448	208.56
268.681	231.56
268.913	241.56
269.145	248.56
269.377	261.56
269.609	274.56
269.841	266.56
270.073	256.56
270.306	277.56
270.538	269.56
270.77	307.56
271.002	296.56
271.234	272.56
271.466	294.56
271.698	301.56
271.93	295.56
272.162	299.56
272.394	310.56
272.626	289.56
272.858	298.56
273.09	285.56
273.322	252.56
273.553	271.56
273.785	272.56
274.017	247.56
274.249	250.56
274.481	250.56
274.713	250.56
274.945	262.56
275.176	245.56
275.408	257.56
275.64	258.56
275.872	263.56
276.104	247.56
276.335	268.56
276.567	259.56
276.799	267.56
277.031	301.56
277.262	297.56
277.494	298.56
277.726	305.56
277.957	289.56
278.189	259.56
278.421	267.56
278.652	275.56
278.884	272.56
279.115	257.56
279.347	248.56
279.579	253.56
279.81	255.56
280.042	264.56
280.273	264.56
280.505	263.56
280.736	257.56
280.968	253.56
281.199	264.56
281.431	272.56
281.662	262.56
281.894	265.56
282.125	282.56
282.356	283.56
282.588	267.56
282.819	293.56
283.051	280.56
283.282	262.56
283.513	259.56
283.745	282.56
283.976	267.56
284.207	263.56
284.439	264.56
284.67	283.56
284.901	287.56
285.132	284.56
285.364	279.56
285.595	286.56
285.826	279.56
286.057	269.56
286.288	274.56
286.52	268.56
286.751	280.56
286.982	287.56
287.213	285.56
287.444	251.56
287.675	291.56
287.906	276.56
288.138	298.56
288.369	289.56
288.6	294.56
288.831	299.56
289.062	276.56
289.293	284.56
289.524	309.56
289.755	305.56
289.986	284.56
290.217	279.56
290.448	283.56
290.679	277.56
290.91	284.56
291.141	281.56
291.371	275.56
291.602	272.56
291.833	291.56
292.064	280.56
292.295	279.56
292.526	279.56
292.757	281.56
292.987	273.56
293.218	272.56
293.449	269.56
293.68	299.56
293.91	305.56
294.141	279.56
294.372	291.56
294.603	296.56
294.833	284.56
295.064	280.56
295.295	276.56
295.525	282.56
295.756	289.56
295.987	294.56
296.217	299.56
296.448	317.56
296.679	297.56
296.909	290.56
297.14	292.56
297.37	292.56
297.601	300.56
297.831	300.56
298.062	290.56
298.292	282.56
298.523	300.56
298.753	305.56
298.984	315.56
299.214	308.56
299.445	298.56
299.675	307.56
299.905	309.56
300.136	306.56
300.366	313.56
300.597	313.56
300.827	315.56
301.057	321.56
301.288	321.56
301.518	323.56
301.748	314.56
301.979	314.56
302.209	327.56
302.439	333.56
302.669	306.56
302.9	315.56
303.13	323.56
303.36	324.56
303.59	307.56
303.82	318.56
304.051	332.56
304.281	332.56
304.511	317.56
304.741	317.56
304.971	319.56
305.201	345.56
305.431	336.56
305.661	323.56
305.891	326.56
306.121	329.56
306.352	320.56
306.582	340.56
306.812	322.56
307.042	308.56
307.272	328.56
307.502	326.56
307.731	316.56
307.961	320.56
308.191	326.56
308.421	312.56
308.651	331.56
308.881	323.56
309.111	343.56
309.341	345.56
309.571	346.56
309.8	353.56
310.03	359.56
310.26	382.56
310.49	341.56
310.72	369.56
310.949	350.56
311.179	368.56
311.409	367.56
311.639	377.56
311.868	379.56
312.098	374.56
312.328	363.56
312.557	407.56
312.787	398.56
313.017	378.56
313.246	386.56
313.476	369.56
313.706	367.56
313.935	385.56
314.165	375.56
314.394	388.56
314.624	399.56
314.853	397.56
315.083	376.56
315.312	363.56
315.542	373.56
315.771	376.56
316.001	363.56
316.23	371.56
316.46	357.56
316.689	364.56
316.919	368.56
317.148	398.56
317.377	384.56
317.607	392.56
317.836	375.56
318.065	378.56
318.295	377.56
318.524	363.56
318.753	371.56
318.983	358.56
319.212	374.56
319.441	369.56
319.67	394.56
319.9	382.56
320.129	361.56
320.358	376.56
320.587	358.56
320.816	393.56
321.046	391.56
321.275	410.56
321.504	374.56
321.733	389.56
321.962	403.56
322.191	405.56
322.42	407.56
322.649	449.56
322.878	433.56
323.108	457.56
323.337	459.56
323.566	478.56
323.795	519.56
324.024	535.56
324.253	646.56
324.482	902.56
324.71	1378.56
324.939	2102.56
325.168	1841.56
325.397	910.56
325.626	609.56
325.855	522.56
326.084	482.56
326.313	476.56
326.542	459.56
326.77	537.56
326.999	616.56
327.228	806.56
327.457	1284.56
327.686	1570.56
327.914	1041.56
328.143	677.56
328.372	577.56
328.6	559.56
328.829	529.56
329.058	538.56
329.287	559.56
329.515	520.56
329.744	486.56
329.972	489.56
330.201	510.56
330.43	545.56
330.658	571.56
330.887	580.56
331.115	571.56
331.344	504.56
331.572	486.56
331.801	495.56
332.03	463.56
332.258	468.56
332.486	448.56
332.715	448.56
332.943	447.56
333.172	477.56
333.4	464.56
333.629	461.56
333.857	482.56
334.085	485.56
334.314	485.56
334.542	542.56
334.771	566.56
334.999	503.56
335.227	482.56
335.455	459.56
335.684	455.56
335.912	451.56
336.14	445.56
336.369	443.56
336.597	463.56
336.825	461.56
337.053	445.56
337.281	452.56
337.51	429.56
337.738	435.56
337.966	435.56
338.194	426.56
338.422	432.56
338.65	432.56
338.878	438.56
339.106	433.56
339.334	420.56
339.562	419.56
339.79	418.56
340.018	447.56
340.246	433.56
340.474	433.56
340.702	429.56
340.93	403.56
341.158	432.56
341.386	444.56
341.614	442.56
341.842	449.56
342.07	433.56
342.298	429.56
342.526	444.56
342.754	428.56
342.981	429.56
343.209	415.56
343.437	433.56
343.665	438.56
343.893	453.56
344.12	445.56
344.348	435.56
344.576	438.56
344.804	437.56
345.031	451.56
345.259	457.56
345.487	440.56
345.714	441.56
345.942	437.56
346.17	440.56
346.397	411.56
346.625	419.56
346.853	441.56
347.08	409.56
347.308	418.56
347.535	425.56
347.763	440.56
347.99	445.56
348.218	429.56
348.445	424.56
348.673	432.56
348.9	409.56
349.128	425.56
349.355	402.56
349.583	398.56
349.81	403.56
350.037	409.56
350.265	415.56
350.492	405.56
350.72	405.56
350.947	443.56
351.174	460.56
351.402	423.56
351.629	411.56
351.856	406.56
352.083	446.56
352.311	441.56
352.538	429.56
352.765	432.56
352.992	431.56
353.22	425.56
353.447	420.56
353.674	409.56
353.901	417.56
354.128	406.56
354.355	424.56
354.583	404.56
354.81	372.56
355.037	412.56
355.264	406.56
355.491	408.56
355.718	392.56
355.945	394.56
356.172	385.56
356.399	393.56
356.626	376.56
356.853	404.56
357.08	391.56
357.307	385.56
357.534	404.56
357.761	393.56
357.988	391.56
358.215	397.56
358.441	400.56
358.668	410.56
358.895	417.56
359.122	416.56
359.349	426.56
359.576	433.56
359.802	429.56
360.029	477.56
360.256	479.56
360.483	473.56
360.709	450.56
360.936	412.56
361.163	410.56
361.39	412.56
361.616	435.56
361.843	413.56
362.07	428.56
362.296	417.56
362.523	419.56
362.749	422.56
362.976	434.56
363.203	398.56
363.429	435.56
363.656	421.56
363.882	411.56
364.109	406.56
364.335	400.56
364.562	402.56
364.788	416.56
365.015	416.56
365.241	427.56
365.468	394.56
365.694	400.56
365.92	410.56
366.147	418.56
366.373	420.56
366.599	399.56
366.826	409.56
367.052	384.56
367.278	411.56
367.505	408.56
367.731	423.56
367.957	418.56
368.184	410.56
368.41	419.56
368.636	418.56
368.862	436.56
369.089	431.56
369.315	393.56
369.541	408.56
369.767	415.56
369.993	419.56
370.219	433.56
370.445	414.56
370.672	414.56
370.898	430.56
371.124	404.56
371.35	417.56
371.576	425.56
371.802	419.56
372.028	411.56
372.254	407.56
372.48	428.56
372.706	416.56
372.932	424.56
373.158	438.56
373.384	427.56
373.61	433.56
373.835	432.56
374.061	409.56
374.287	409.56
374.513	458.56
374.739	431.56
374.965	451.56
375.191	443.56
375.416	434.56
375.642	447.56
375.868	436.56
376.094	417.56
376.319	420.56
376.545	401.56
376.771	409.56
376.997	407.56
377.222	420.56
377.448	414.56
377.674	408.56
377.899	397.56
378.125	425.56
378.35	420.56
378.576	424.56
378.802	402.56
379.027	429.56
379.253	419.56
379.478	406.56
379.704	429.56
379.929	413.56
380.155	421.56
380.38	420.56
380.606	414.56
380.831	420.56
381.057	419.56
381.282	434.56
381.507	425.56
381.733	425.56
381.958	425.56
382.184	436.56
382.409	436.56
382.634	438.56
382.86	445.56
383.085	410.56
383.31	441.56
383.535	441.56
383.761	453.56
383.986	450.56
384.211	436.56
384.436	429.56
384.662	439.56
384.887	448.56
385.112	432.56
385.337	460.56
385.562	437.56
385.787	461.56
386.013	457.56
386.238	490.56
386.463	468.56
386.688	453.56
386.913	431.56
387.138	490.56
387.363	455.56
387.588	476.56
387.813	477.56
388.038	474.56
388.263	480.56
388.488	467.56
388.713	452.56
388.938	480.56
389.163	482.56
389.387	483.56
389.612	489.56
389.837	453.56
390.062	457.56
390.287	483.56
390.512	455.56
390.736	455.56
390.961	495.56
391.186	476.56
391.411	507.56
391.636	464.56
391.86	477.56
392.085	477.56
392.31	490.56
392.534	484.56
392.759	488.56
392.984	482.56
393.208	475.56
393.433	492.56
393.658	482.56
393.882	494.56
394.107	456.56
394.331	486.56
394.556	459.56
394.78	478.56
395.005	487.56
395.229	477.56
395.454	489.56
395.678	503.56
395.903	483.56
396.127	517.56
396.352	534.56
396.576	517.56
396.801	488.56
397.025	476.56
397.249	504.56
397.474	513.56
397.698	502.56
397.922	508.56
398.147	537.56
398.371	551.56
398.595	534.56
398.82	536.56
399.044	553.56
399.268	577.56
399.492	603.56
399.717	625.56
399.941	665.56
400.165	685.56
400.389	683.56
400.613	635.56
400.837	592.56
401.062	559.56
401.286	565.56
401.51	555.56
401.734	558.56
401.958	525.56
402.182	534.56
402.406	548.56
402.63	543.56
402.854	561.56
403.078	540.56
403.302	554.56
403.526	580.56
403.75	564.56
403.974	569.56
404.198	563.56
404.422	571.56
404.645	572.56
404.869	565.56
405.093	606.56
405.317	639.56
405.541	710.56
405.765	640.56
405.988	591.56
406.212	598.56
406.436	617.56
406.66	643.56
406.883	609.56
407.107	625.56
407.331	688.56
407.555	756.56
407.778	741.56
408.002	684.56
408.226	627.56
408.449	627.56
408.673	604.56
408.896	634.56
409.12	693.56
409.344	649.56
409.567	603.56
409.791	577.56
410.014	583.56
410.238	549.56
410.461	567.56
410.685	565.56
410.908	602.56
411.132	636.56
411.355	652.56
411.578	633.56
411.802	574.56
412.025	583.56
412.249	586.56
412.472	595.56
412.695	633.56
412.919	619.56
413.142	609.56
413.365	588.56
413.589	578.56
413.812	575.56
414.035	533.56
414.258	509.56
414.482	544.56
414.705	539.56
414.928	548.56
415.151	539.56
415.374	523.56
415.597	538.56
415.821	505.56
416.044	539.56
416.267	549.56
416.49	531.56
416.713	514.56
416.936	535.56
417.159	556.56
417.382	538.56
417.605	536.56
417.828	538.56
418.051	571.56
418.274	536.56
418.497	529.56
418.72	535.56
418.943	551.56
419.166	568.56
419.389	568.56
419.611	587.56
419.834	566.56
420.057	589.56
420.28	569.56
420.503	560.56
420.726	554.56
420.948	576.56
421.171	608.56
421.394	633.56
421.617	602.56
421.839	597.56
422.062	578.56
422.285	568.56
422.507	637.56
422.73	737.56
422.953	718.56
423.175	632.56
423.398	575.56
423.621	583.56
423.843	601.56
424.066	609.56
424.288	612.56
424.511	624.56
424.733	697.56
424.956	731.56
425.178	737.56
425.401	734.56
425.623	763.56
425.846	653.56
426.068	626.56
426.291	606.56
426.513	616.56
426.735	625.56
426.958	647.56
427.18	721.56
427.402	868.56
427.625	973.56
427.847	840.56
428.069	718.56
428.292	635.56
428.514	619.56
428.736	564.56
428.958	565.56
429.181	555.56
429.403	579.56
429.625	569.56
429.847	602.56
430.069	689.56
430.292	673.56
430.514	579.56
430.736	561.56
430.958	553.56
431.18	547.56
431.402	533.56
431.624	533.56
431.846	514.56
432.068	526.56
432.29	528.56
432.512	538.56
432.734	541.56
432.956	519.56
433.178	539.56
433.4	556.56
433.622	520.56
433.844	549.56
434.066	517.56
434.287	519.56
434.509	520.56
434.731	546.56
434.953	567.56
435.175	574.56
435.397	599.56
435.618	600.56
435.84	634.56
436.062	745.56
436.284	795.56
436.505	714.56
436.727	618.56
436.949	546.56
437.17	565.56
437.392	540.56
437.614	537.56
437.835	579.56
438.057	714.56
438.278	802.56
438.5	796.56
438.721	910.56
438.943	841.56
439.165	651.56
439.386	604.56
439.608	610.56
439.829	626.56
440.05	632.56
440.272	693.56
440.493	633.56
440.715	627.56
440.936	573.56
441.158	550.56
441.379	572.56
441.6	585.56
441.822	612.56
442.043	659.56
442.264	729.56
442.486	781.56
442.707	670.56
442.928	641.56
443.149	630.56
443.371	639.56
443.592	698.56
443.813	777.56
444.034	852.56
444.255	731.56
444.476	639.56
444.698	612.56
444.919	610.56
445.14	713.56
445.361	675.56
445.582	637.56
445.803	716.56
446.024	800.56
446.245	841.56
446.466	746.56
446.687	665.56
446.908	605.56
447.129	566.56
447.35	545.56
447.571	554.56
447.792	542.56
448.013	554.56
448.234	592.56
448.455	613.56
448.675	762.56
448.896	855.56
449.117	753.56
449.338	674.56
449.559	789.56
449.779	905.56
450	727.56
450.221	624.56
450.442	571.56
450.662	545.56
450.883	537.56
451.104	541.56
451.324	553.56
451.545	514.56
451.766	508.56
451.986	474.56
452.207	475.56
452.428	490.56
452.648	511.56
452.869	492.56
453.089	497.56
453.31	501.56
453.53	509.56
453.751	497.56
453.971	511.56
454.192	531.56
454.412	507.56
454.633	500.56
454.853	485.56
455.073	499.56
455.294	515.56
455.514	596.56
455.734	554.56
455.955	485.56
456.175	479.56
456.395	461.56
456.616	456.56
456.836	474.56
457.056	440.56
457.276	453.56
457.497	474.56
457.717	467.56
457.937	482.56
458.157	460.56
458.377	486.56
458.598	492.56
458.818	569.56
459.038	649.56
459.258	661.56
459.478	567.56
459.698	532.56
459.918	531.56
460.138	517.56
460.358	555.56
460.578	547.56
460.798	527.56
461.018	566.56
461.238	569.56
461.458	559.56
461.678	544.56
461.898	548.56
462.118	552.56
462.338	553.56
462.558	587.56
462.777	564.56
462.997	589.56
463.217	609.56
463.437	596.56
463.657	607.56
463.876	593.56
464.096	604.56
464.316	590.56
464.536	591.56
464.755	596.56
464.975	580.56
465.195	597.56
465.414	687.56
465.634	612.56
465.854	568.56
466.073	535.56
466.293	535.56
466.512	523.56
466.732	515.56
466.951	516.56
467.171	504.56
467.391	535.56
467.61	543.56
467.829	532.56
468.049	519.56
468.268	524.56
468.488	524.56
468.707	498.56
468.927	497.56
469.146	478.56
469.365	492.56
469.585	499.56
469.804	496.56
470.023	522.56
470.243	529.56
470.462	531.56
470.681	525.56
470.901	548.56
471.12	524.56
471.339	514.56
471.558	516.56
471.777	528.56
471.997	519.56
472.216	525.56
472.435	572.56
472.654	546.56
472.873	513.56
473.092	515.56
473.311	510.56
473.53	525.56
473.749	520.56
473.968	566.56
474.187	656.56
474.406	654.56
474.625	574.56
474.844	530.56
475.063	521.56
475.282	508.56
475.501	538.56
475.72	539.56
475.939	515.56
476.158	540.56
476.377	559.56
476.596	552.56
476.814	542.56
477.033	554.56
477.252	571.56
477.471	547.56
477.69	563.56
477.908	564.56
478.127	570.56
478.346	587.56
478.564	617.56
478.783	604.56
479.002	594.56
479.22	592.56
479.439	598.56
479.658	613.56
479.876	608.56
480.095	635.56
480.313	679.56
480.532	654.56
480.751	656.56
480.969	645.56
481.188	706.56
481.406	742.56
481.624	674.56
481.843	629.56
482.061	627.56
482.28	601.56
482.498	624.56
482.717	621.56
482.935	593.56
483.153	618.56
483.372	604.56
483.59	611.56
483.808	609.56
484.027	598.56
484.245	618.56
484.463	637.56
484.681	637.56
484.9	633.56
485.118	649.56
485.336	620.56
485.554	625.56
485.772	629.56
485.99	634.56
486.209	653.56
486.427	626.56
486.645	661.56
486.863	669.56
487.081	649.56
487.299	663.56
487.517	659.56
487.735	664.56
487.953	681.56
488.171	644.56
488.389	644.56
488.607	653.56
488.825	674.56
489.043	657.56
489.261	677.56
489.479	676.56
489.696	654.56
489.914	657.56
490.132	701.56
490.35	692.56
490.568	704.56
490.786	703.56
491.003	683.56
491.221	689.56
491.439	727.56
491.657	743.56
491.874	765.56
492.092	733.56
492.31	747.56
492.527	765.56
492.745	775.56
492.963	779.56
493.18	786.56
493.398	771.56
493.615	754.56
493.833	804.56
494.05	778.56
494.268	769.56
494.485	772.56
494.703	751.56
494.92	776.56
495.138	746.56
495.355	765.56
495.573	793.56
495.79	798.56
496.008	788.56
496.225	792.56
496.442	797.56
496.66	797.56
496.877	797.56
497.094	797.56
497.312	792.56
497.529	794.56
497.746	811.56
497.963	836.56
498.181	861.56
498.398	880.56
498.615	893.56
498.832	897.56
499.049	936.56
499.267	937.56
499.484	964.56
499.701	976.56
499.918	1016.56
500.135	1096.56
500.352	1132.56
500.569	1151.56
500.786	1144.56
501.003	1128.56
501.22	1115.56
501.437	1055.56
501.654	1020.56
