Data from 1966.PennyLincolnUp.Lamp.En5.5.200Scan.071719.P1._HRD10591_14-13-32-913.txt Node
Date: Thu Jul 18 14:13:32 EDT 2019
User: cochatt
Spectrometer: HR+D1059
Trigger mode: 1
Integration Time (sec): 1.000000E-1
Scans to average: 1
Electric dark correction enabled: true
Nonlinearity correction enabled: false
Boxcar width: 0
XAxis mode: Wavelengths
Number of Pixels in Spectrum: 2048
>>>>>Begin Spectral Data<<<<<
223.165	-15.62
223.4	-15.62
223.635	-15.62
223.869	-25.62
224.104	-10.62
224.338	-18.62
224.573	-13.62
224.808	-16.62
225.042	-15.62
225.277	7.38
225.511	-10.62
225.746	12.38
225.98	5.38
226.215	9.38
226.449	20.38
226.683	23.38
226.918	18.38
227.152	30.38
227.387	44.38
227.621	48.38
227.856	37.38
228.09	42.38
228.324	66.38
228.559	62.38
228.793	67.38
229.027	81.38
229.262	75.38
229.496	97.38
229.73	91.38
229.964	101.38
230.199	93.38
230.433	106.38
230.667	105.38
230.901	107.38
231.136	106.38
231.37	93.38
231.604	101.38
231.838	97.38
232.072	81.38
232.306	113.38
232.541	96.38
232.775	103.38
233.009	105.38
233.243	81.38
233.477	92.38
233.711	101.38
233.945	96.38
234.179	95.38
234.413	101.38
234.647	95.38
234.881	99.38
235.115	95.38
235.349	106.38
235.583	108.38
235.817	105.38
236.051	101.38
236.285	107.38
236.519	94.38
236.753	101.38
236.987	109.38
237.221	126.38
237.455	141.38
237.689	132.38
237.922	106.38
238.156	94.38
238.39	95.38
238.624	94.38
238.858	98.38
239.091	98.38
239.325	96.38
239.559	117.38
239.793	108.38
240.027	104.38
240.26	104.38
240.494	106.38
240.728	113.38
240.961	105.38
241.195	101.38
241.429	101.38
241.662	77.38
241.896	112.38
242.13	106.38
242.363	106.38
242.597	101.38
242.83	91.38
243.064	97.38
243.298	112.38
243.531	90.38
243.765	113.38
243.998	112.38
244.232	104.38
244.465	112.38
244.699	116.38
244.932	121.38
245.166	110.38
245.399	109.38
245.633	100.38
245.866	105.38
246.099	99.38
246.333	115.38
246.566	111.38
246.8	115.38
247.033	113.38
247.266	105.38
247.5	123.38
247.733	127.38
247.966	127.38
248.2	120.38
248.433	121.38
248.666	123.38
248.899	129.38
249.133	136.38
249.366	130.38
249.599	125.38
249.832	118.38
250.066	130.38
250.299	116.38
250.532	130.38
250.765	132.38
250.998	129.38
251.231	135.38
251.465	138.38
251.698	119.38
251.931	134.38
252.164	124.38
252.397	133.38
252.63	132.38
252.863	139.38
253.096	146.38
253.329	158.38
253.562	135.38
253.795	140.38
254.028	139.38
254.261	130.38
254.494	143.38
254.727	150.38
254.96	167.38
255.193	170.38
255.426	163.38
255.659	137.38
255.892	155.38
256.124	149.38
256.357	132.38
256.59	131.38
256.823	138.38
257.056	130.38
257.289	133.38
257.521	133.38
257.754	133.38
257.987	122.38
258.22	132.38
258.452	147.38
258.685	143.38
258.918	120.38
259.151	136.38
259.383	140.38
259.616	156.38
259.849	139.38
260.081	141.38
260.314	162.38
260.547	148.38
260.779	143.38
261.012	136.38
261.244	136.38
261.477	129.38
261.71	143.38
261.942	140.38
262.175	153.38
262.407	147.38
262.64	125.38
262.872	143.38
263.105	136.38
263.337	138.38
263.57	120.38
263.802	129.38
264.035	136.38
264.267	125.38
264.499	144.38
264.732	126.38
264.964	140.38
265.197	140.38
265.429	137.38
265.661	153.38
265.894	135.38
266.126	143.38
266.358	125.38
266.591	121.38
266.823	147.38
267.055	129.38
267.287	154.38
267.52	148.38
267.752	141.38
267.984	145.38
268.216	148.38
268.448	140.38
268.681	149.38
268.913	148.38
269.145	151.38
269.377	183.38
269.609	167.38
269.841	150.38
270.073	158.38
270.306	163.38
270.538	179.38
270.77	189.38
271.002	193.38
271.234	171.38
271.466	184.38
271.698	179.38
271.93	170.38
272.162	185.38
272.394	192.38
272.626	186.38
272.858	154.38
273.09	166.38
273.322	156.38
273.553	171.38
273.785	155.38
274.017	156.38
274.249	157.38
274.481	165.38
274.713	159.38
274.945	143.38
275.176	146.38
275.408	145.38
275.64	159.38
275.872	165.38
276.104	164.38
276.335	160.38
276.567	180.38
276.799	174.38
277.031	180.38
277.262	181.38
277.494	187.38
277.726	180.38
277.957	161.38
278.189	157.38
278.421	169.38
278.652	163.38
278.884	145.38
279.115	159.38
279.347	169.38
279.579	156.38
279.81	161.38
280.042	161.38
280.273	152.38
280.505	163.38
280.736	162.38
280.968	174.38
281.199	163.38
281.431	157.38
281.662	160.38
281.894	159.38
282.125	158.38
282.356	173.38
282.588	181.38
282.819	183.38
283.051	160.38
283.282	163.38
283.513	163.38
283.745	173.38
283.976	161.38
284.207	169.38
284.439	173.38
284.67	149.38
284.901	181.38
285.132	167.38
285.364	170.38
285.595	175.38
285.826	164.38
286.057	158.38
286.288	167.38
286.52	156.38
286.751	169.38
286.982	155.38
287.213	168.38
287.444	171.38
287.675	179.38
287.906	183.38
288.138	167.38
288.369	159.38
288.6	189.38
288.831	196.38
289.062	171.38
289.293	185.38
289.524	153.38
289.755	167.38
289.986	155.38
290.217	158.38
290.448	171.38
290.679	157.38
290.91	173.38
291.141	168.38
291.371	171.38
291.602	167.38
291.833	161.38
292.064	155.38
292.295	168.38
292.526	173.38
292.757	167.38
292.987	155.38
293.218	167.38
293.449	162.38
293.68	167.38
293.91	166.38
294.141	193.38
294.372	169.38
294.603	179.38
294.833	168.38
295.064	167.38
295.295	158.38
295.525	197.38
295.756	180.38
295.987	186.38
296.217	178.38
296.448	180.38
296.679	162.38
296.909	168.38
297.14	167.38
297.37	172.38
297.601	172.38
297.831	153.38
298.062	154.38
298.292	185.38
298.523	188.38
298.753	181.38
298.984	187.38
299.214	176.38
299.445	191.38
299.675	183.38
299.905	180.38
300.136	189.38
300.366	164.38
300.597	169.38
300.827	179.38
301.057	186.38
301.288	181.38
301.518	191.38
301.748	181.38
301.979	167.38
302.209	177.38
302.439	201.38
302.669	188.38
302.9	189.38
303.13	174.38
303.36	197.38
303.59	184.38
303.82	201.38
304.051	196.38
304.281	176.38
304.511	187.38
304.741	175.38
304.971	180.38
305.201	186.38
305.431	173.38
305.661	172.38
305.891	173.38
306.121	177.38
306.352	188.38
306.582	181.38
306.812	183.38
307.042	176.38
307.272	192.38
307.502	195.38
307.731	201.38
307.961	175.38
308.191	187.38
308.421	185.38
308.651	196.38
308.881	183.38
309.111	188.38
309.341	194.38
309.571	184.38
309.8	196.38
310.03	210.38
310.26	199.38
310.49	201.38
310.72	199.38
310.949	220.38
311.179	223.38
311.409	211.38
311.639	207.38
311.868	198.38
312.098	201.38
312.328	207.38
312.557	213.38
312.787	217.38
313.017	226.38
313.246	216.38
313.476	212.38
313.706	203.38
313.935	207.38
314.165	229.38
314.394	224.38
314.624	219.38
314.853	197.38
315.083	208.38
315.312	193.38
315.542	212.38
315.771	187.38
316.001	202.38
316.23	187.38
316.46	194.38
316.689	195.38
316.919	191.38
317.148	215.38
317.377	216.38
317.607	217.38
317.836	229.38
318.065	207.38
318.295	196.38
318.524	190.38
318.753	186.38
318.983	198.38
319.212	200.38
319.441	200.38
319.67	204.38
319.9	227.38
320.129	205.38
320.358	189.38
320.587	208.38
320.816	210.38
321.046	212.38
321.275	213.38
321.504	214.38
321.733	215.38
321.962	219.38
322.191	209.38
322.42	224.38
322.649	222.38
322.878	224.38
323.108	233.38
323.337	259.38
323.566	259.38
323.795	284.38
324.024	297.38
324.253	353.38
324.482	479.38
324.71	739.38
324.939	1000.38
325.168	803.38
325.397	408.38
325.626	270.38
325.855	271.38
326.084	249.38
326.313	265.38
326.542	250.38
326.77	287.38
326.999	332.38
327.228	450.38
327.457	673.38
327.686	731.38
327.914	473.38
328.143	344.38
328.372	310.38
328.6	297.38
328.829	285.38
329.058	292.38
329.287	320.38
329.515	288.38
329.744	273.38
329.972	261.38
330.201	306.38
330.43	318.38
330.658	337.38
330.887	337.38
331.115	341.38
331.344	271.38
331.572	253.38
331.801	258.38
332.03	260.38
332.258	257.38
332.486	243.38
332.715	237.38
332.943	214.38
333.172	244.38
333.4	234.38
333.629	248.38
333.857	263.38
334.085	267.38
334.314	267.38
334.542	296.38
334.771	291.38
334.999	273.38
335.227	257.38
335.455	242.38
335.684	235.38
335.912	240.38
336.14	237.38
336.369	229.38
336.597	218.38
336.825	225.38
337.053	225.38
337.281	213.38
337.51	227.38
337.738	258.38
337.966	228.38
338.194	246.38
338.422	232.38
338.65	235.38
338.878	225.38
339.106	227.38
339.334	217.38
339.562	236.38
339.79	229.38
340.018	204.38
340.246	210.38
340.474	234.38
340.702	238.38
340.93	216.38
341.158	213.38
341.386	222.38
341.614	228.38
341.842	224.38
342.07	225.38
342.298	245.38
342.526	210.38
342.754	224.38
342.981	233.38
343.209	225.38
343.437	212.38
343.665	219.38
343.893	217.38
344.12	235.38
344.348	224.38
344.576	221.38
344.804	219.38
345.031	227.38
345.259	226.38
345.487	205.38
345.714	219.38
345.942	210.38
346.17	228.38
346.397	215.38
346.625	219.38
346.853	211.38
347.08	217.38
347.308	219.38
347.535	226.38
347.763	235.38
347.99	223.38
348.218	224.38
348.445	227.38
348.673	221.38
348.9	222.38
349.128	214.38
349.355	200.38
349.583	213.38
349.81	202.38
350.037	209.38
350.265	220.38
350.492	223.38
350.72	221.38
350.947	203.38
351.174	228.38
351.402	221.38
351.629	211.38
351.856	201.38
352.083	218.38
352.311	231.38
352.538	218.38
352.765	227.38
352.992	222.38
353.22	213.38
353.447	218.38
353.674	219.38
353.901	204.38
354.128	210.38
354.355	202.38
354.583	199.38
354.81	196.38
355.037	212.38
355.264	215.38
355.491	209.38
355.718	196.38
355.945	205.38
356.172	199.38
356.399	207.38
356.626	196.38
356.853	216.38
357.08	194.38
357.307	196.38
357.534	216.38
357.761	198.38
357.988	186.38
358.215	194.38
358.441	207.38
358.668	211.38
358.895	199.38
359.122	200.38
359.349	221.38
359.576	213.38
359.802	217.38
360.029	247.38
360.256	243.38
360.483	249.38
360.709	225.38
360.936	221.38
361.163	208.38
361.39	218.38
361.616	216.38
361.843	226.38
362.07	239.38
362.296	209.38
362.523	215.38
362.749	206.38
362.976	221.38
363.203	228.38
363.429	207.38
363.656	208.38
363.882	202.38
364.109	207.38
364.335	201.38
364.562	203.38
364.788	207.38
365.015	208.38
365.241	203.38
365.468	205.38
365.694	202.38
365.92	216.38
366.147	218.38
366.373	203.38
366.599	216.38
366.826	209.38
367.052	199.38
367.278	193.38
367.505	217.38
367.731	235.38
367.957	215.38
368.184	203.38
368.41	218.38
368.636	212.38
368.862	230.38
369.089	203.38
369.315	213.38
369.541	201.38
369.767	219.38
369.993	207.38
370.219	207.38
370.445	211.38
370.672	208.38
370.898	229.38
371.124	205.38
371.35	196.38
371.576	207.38
371.802	208.38
372.028	204.38
372.254	186.38
372.48	202.38
372.706	212.38
372.932	201.38
373.158	203.38
373.384	195.38
373.61	211.38
373.835	220.38
374.061	215.38
374.287	206.38
374.513	202.38
374.739	206.38
374.965	227.38
375.191	201.38
375.416	210.38
375.642	210.38
375.868	207.38
376.094	198.38
376.319	206.38
376.545	224.38
376.771	199.38
376.997	197.38
377.222	192.38
377.448	207.38
377.674	217.38
377.899	197.38
378.125	205.38
378.35	216.38
378.576	195.38
378.802	205.38
379.027	197.38
379.253	200.38
379.478	211.38
379.704	209.38
379.929	223.38
380.155	193.38
380.38	209.38
380.606	198.38
380.831	205.38
381.057	214.38
381.282	202.38
381.507	198.38
381.733	208.38
381.958	211.38
382.184	217.38
382.409	207.38
382.634	213.38
382.86	213.38
383.085	207.38
383.31	204.38
383.535	211.38
383.761	202.38
383.986	201.38
384.211	213.38
384.436	214.38
384.662	199.38
384.887	224.38
385.112	203.38
385.337	210.38
385.562	219.38
385.787	225.38
386.013	228.38
386.238	216.38
386.463	222.38
386.688	218.38
386.913	219.38
387.138	220.38
387.363	212.38
387.588	235.38
387.813	203.38
388.038	226.38
388.263	212.38
388.488	230.38
388.713	221.38
388.938	224.38
389.163	225.38
389.387	226.38
389.612	190.38
389.837	211.38
390.062	213.38
390.287	212.38
390.512	210.38
390.736	206.38
390.961	218.38
391.186	222.38
391.411	239.38
391.636	216.38
391.86	214.38
392.085	238.38
392.31	225.38
392.534	215.38
392.759	207.38
392.984	218.38
393.208	226.38
393.433	223.38
393.658	234.38
393.882	223.38
394.107	216.38
394.331	224.38
394.556	198.38
394.78	209.38
395.005	233.38
395.229	219.38
395.454	237.38
395.678	220.38
395.903	225.38
396.127	243.38
396.352	240.38
396.576	226.38
396.801	229.38
397.025	235.38
397.249	219.38
397.474	245.38
397.698	230.38
397.922	233.38
398.147	252.38
398.371	240.38
398.595	241.38
398.82	244.38
399.044	228.38
399.268	243.38
399.492	280.38
399.717	261.38
399.941	276.38
400.165	298.38
400.389	289.38
400.613	262.38
400.837	272.38
401.062	248.38
401.286	253.38
401.51	255.38
401.734	239.38
401.958	237.38
402.182	255.38
402.406	271.38
402.63	264.38
402.854	256.38
403.078	255.38
403.302	253.38
403.526	238.38
403.75	263.38
403.974	253.38
404.198	253.38
404.422	284.38
404.645	245.38
404.869	271.38
405.093	263.38
405.317	272.38
405.541	307.38
405.765	285.38
405.988	274.38
406.212	292.38
406.436	279.38
406.66	301.38
406.883	289.38
407.107	302.38
407.331	302.38
407.555	323.38
407.778	330.38
408.002	290.38
408.226	275.38
408.449	271.38
408.673	286.38
408.896	277.38
409.12	314.38
409.344	288.38
409.567	263.38
409.791	263.38
410.014	261.38
410.238	267.38
410.461	248.38
410.685	248.38
410.908	258.38
411.132	273.38
411.355	274.38
411.578	283.38
411.802	273.38
412.025	271.38
412.249	255.38
412.472	248.38
412.695	273.38
412.919	290.38
413.142	259.38
413.365	250.38
413.589	236.38
413.812	252.38
414.035	253.38
414.258	241.38
414.482	247.38
414.705	242.38
414.928	245.38
415.151	249.38
415.374	237.38
415.597	225.38
415.821	235.38
416.044	241.38
416.267	263.38
416.49	251.38
416.713	235.38
416.936	249.38
417.159	230.38
417.382	238.38
417.605	266.38
417.828	262.38
418.051	275.38
418.274	261.38
418.497	255.38
418.72	256.38
418.943	240.38
419.166	234.38
419.389	247.38
419.611	249.38
419.834	273.38
420.057	267.38
420.28	286.38
420.503	269.38
420.726	256.38
420.948	255.38
421.171	289.38
421.394	283.38
421.617	266.38
421.839	249.38
422.062	249.38
422.285	271.38
422.507	292.38
422.73	320.38
422.953	308.38
423.175	285.38
423.398	262.38
423.621	269.38
423.843	264.38
424.066	283.38
424.288	275.38
424.511	289.38
424.733	295.38
424.956	341.38
425.178	304.38
425.401	315.38
425.623	331.38
425.846	298.38
426.068	237.38
426.291	263.38
426.513	261.38
426.735	274.38
426.958	297.38
427.18	321.38
427.402	395.38
427.625	424.38
427.847	367.38
428.069	312.38
428.292	278.38
428.514	275.38
428.736	239.38
428.958	243.38
429.181	245.38
429.403	248.38
429.625	255.38
429.847	271.38
430.069	310.38
430.292	312.38
430.514	254.38
430.736	242.38
430.958	243.38
431.18	252.38
431.402	243.38
431.624	234.38
431.846	222.38
432.068	252.38
432.29	239.38
432.512	251.38
432.734	239.38
432.956	245.38
433.178	233.38
433.4	249.38
433.622	251.38
433.844	236.38
434.066	236.38
434.287	233.38
434.509	242.38
434.731	254.38
434.953	242.38
435.175	260.38
435.397	291.38
435.618	278.38
435.84	286.38
436.062	319.38
436.284	330.38
436.505	289.38
436.727	260.38
436.949	267.38
437.17	259.38
437.392	264.38
437.614	276.38
437.835	282.38
438.057	311.38
438.278	364.38
438.5	348.38
438.721	364.38
438.943	353.38
439.165	292.38
439.386	277.38
439.608	276.38
439.829	279.38
440.05	274.38
440.272	315.38
440.493	302.38
440.715	272.38
440.936	253.38
441.158	267.38
441.379	244.38
441.6	264.38
441.822	264.38
442.043	305.38
442.264	321.38
442.486	323.38
442.707	260.38
442.928	280.38
443.149	289.38
443.371	300.38
443.592	306.38
443.813	337.38
444.034	351.38
444.255	295.38
444.476	288.38
444.698	281.38
444.919	277.38
445.14	360.38
445.361	331.38
445.582	307.38
445.803	305.38
446.024	356.38
446.245	364.38
446.466	305.38
446.687	302.38
446.908	255.38
447.129	245.38
447.35	258.38
447.571	257.38
447.792	251.38
448.013	251.38
448.234	255.38
448.455	286.38
448.675	341.38
448.896	370.38
449.117	309.38
449.338	302.38
449.559	346.38
449.779	373.38
450	309.38
450.221	250.38
450.442	243.38
450.662	254.38
450.883	237.38
451.104	274.38
451.324	261.38
451.545	254.38
451.766	223.38
451.986	223.38
452.207	227.38
452.428	228.38
452.648	225.38
452.869	262.38
453.089	244.38
453.31	253.38
453.53	250.38
453.751	247.38
453.971	228.38
454.192	243.38
454.412	240.38
454.633	227.38
454.853	236.38
455.073	239.38
455.294	239.38
455.514	277.38
455.734	260.38
455.955	234.38
456.175	241.38
456.395	220.38
456.616	211.38
456.836	213.38
457.056	215.38
457.276	208.38
457.497	209.38
457.717	230.38
457.937	237.38
458.157	230.38
458.377	234.38
458.598	237.38
458.818	262.38
459.038	288.38
459.258	313.38
459.478	265.38
459.698	263.38
459.918	263.38
460.138	225.38
460.358	231.38
460.578	255.38
460.798	255.38
461.018	252.38
461.238	235.38
461.458	249.38
461.678	236.38
461.898	252.38
462.118	243.38
462.338	255.38
462.558	263.38
462.777	257.38
462.997	240.38
463.217	251.38
463.437	271.38
463.657	263.38
463.876	252.38
464.096	249.38
464.316	247.38
464.536	252.38
464.755	249.38
464.975	268.38
465.195	293.38
465.414	336.38
465.634	285.38
465.854	263.38
466.073	262.38
466.293	239.38
466.512	235.38
466.732	217.38
466.951	224.38
467.171	228.38
467.391	244.38
467.61	240.38
467.829	237.38
468.049	242.38
468.268	267.38
468.488	243.38
468.707	230.38
468.927	242.38
469.146	227.38
469.365	223.38
469.585	227.38
469.804	236.38
470.023	235.38
470.243	262.38
470.462	267.38
470.681	269.38
470.901	268.38
471.12	241.38
471.339	238.38
471.558	237.38
471.777	232.38
471.997	235.38
472.216	237.38
472.435	263.38
472.654	257.38
472.873	226.38
473.092	240.38
473.311	234.38
473.53	230.38
473.749	237.38
473.968	276.38
474.187	304.38
474.406	319.38
474.625	253.38
474.844	264.38
475.063	246.38
475.282	232.38
475.501	223.38
475.72	234.38
475.939	229.38
476.158	244.38
476.377	234.38
476.596	240.38
476.814	236.38
477.033	235.38
477.252	249.38
477.471	258.38
477.69	240.38
477.908	245.38
478.127	263.38
478.346	258.38
478.564	251.38
478.783	242.38
479.002	256.38
479.22	273.38
479.439	267.38
479.658	276.38
479.876	261.38
480.095	267.38
480.313	296.38
480.532	286.38
480.751	282.38
480.969	300.38
481.188	333.38
481.406	367.38
481.624	304.38
481.843	269.38
482.061	277.38
482.28	286.38
482.498	264.38
482.717	274.38
482.935	281.38
483.153	287.38
483.372	256.38
483.59	268.38
483.808	272.38
484.027	277.38
484.245	276.38
484.463	280.38
484.681	272.38
484.9	299.38
485.118	287.38
485.336	275.38
485.554	275.38
485.772	285.38
485.99	299.38
486.209	294.38
486.427	296.38
486.645	285.38
486.863	297.38
487.081	285.38
487.299	271.38
487.517	291.38
487.735	306.38
487.953	301.38
488.171	292.38
488.389	302.38
488.607	300.38
488.825	299.38
489.043	283.38
489.261	286.38
489.479	288.38
489.696	283.38
489.914	299.38
490.132	301.38
490.35	313.38
490.568	306.38
490.786	313.38
491.003	320.38
491.221	327.38
491.439	333.38
491.657	333.38
491.874	338.38
492.092	371.38
492.31	350.38
492.527	334.38
492.745	329.38
492.963	347.38
493.18	340.38
493.398	371.38
493.615	344.38
493.833	345.38
494.05	345.38
494.268	338.38
494.485	350.38
494.703	350.38
494.92	358.38
495.138	337.38
495.355	344.38
495.573	356.38
495.79	348.38
496.008	345.38
496.225	338.38
496.442	343.38
496.66	327.38
496.877	318.38
497.094	339.38
497.312	329.38
497.529	352.38
497.746	354.38
497.963	340.38
498.181	347.38
498.398	355.38
498.615	359.38
498.832	364.38
499.049	366.38
499.267	364.38
499.484	375.38
499.701	400.38
499.918	393.38
500.135	439.38
500.352	417.38
500.569	433.38
500.786	441.38
501.003	463.38
501.22	433.38
501.437	428.38
501.654	437.38
501.871	412.38
502.088	410.38
502.305	384.38
