Data from 1966.PennyLincolnUp.Lamp.En5.5.200Scan.071719.P1._HRD10591_14-14-15-914.txt Node
Date: Thu Jul 18 14:14:15 EDT 2019
User: cochatt
Spectrometer: HR+D1059
Trigger mode: 1
Integration Time (sec): 1.000000E-1
Scans to average: 1
Electric dark correction enabled: true
Nonlinearity correction enabled: false
Boxcar width: 0
XAxis mode: Wavelengths
Number of Pixels in Spectrum: 2048
>>>>>Begin Spectral Data<<<<<
223.165	-12.81
223.4	-12.81
223.635	-12.81
223.869	-24.81
224.104	-2.81
224.338	-21.81
224.573	-18.81
224.808	-9.81
225.042	-17.81
225.277	-3.81
225.511	4.19
225.746	2.19
225.98	16.19
226.215	2.19
226.449	5.19
226.683	18.19
226.918	40.19
227.152	24.19
227.387	41.19
227.621	44.19
227.856	42.19
228.09	28.19
228.324	47.19
228.559	52.19
228.793	52.19
229.027	69.19
229.262	89.19
229.496	83.19
229.73	88.19
229.964	115.19
230.199	89.19
230.433	102.19
230.667	107.19
230.901	84.19
231.136	97.19
231.37	102.19
231.604	92.19
231.838	93.19
232.072	100.19
232.306	93.19
232.541	87.19
232.775	89.19
233.009	82.19
233.243	83.19
233.477	89.19
233.711	99.19
233.945	89.19
234.179	87.19
234.413	101.19
234.647	100.19
234.881	92.19
235.115	89.19
235.349	92.19
235.583	107.19
235.817	95.19
236.051	96.19
236.285	100.19
236.519	107.19
236.753	100.19
236.987	100.19
237.221	120.19
237.455	148.19
237.689	128.19
237.922	106.19
238.156	101.19
238.39	107.19
238.624	101.19
238.858	87.19
239.091	113.19
239.325	90.19
239.559	88.19
239.793	90.19
240.027	99.19
240.26	97.19
240.494	135.19
240.728	112.19
240.961	106.19
241.195	108.19
241.429	101.19
241.662	104.19
241.896	95.19
242.13	106.19
242.363	101.19
242.597	93.19
242.83	97.19
243.064	106.19
243.298	97.19
243.531	95.19
243.765	110.19
243.998	107.19
244.232	99.19
244.465	103.19
244.699	112.19
244.932	115.19
245.166	113.19
245.399	90.19
245.633	102.19
245.866	92.19
246.099	90.19
246.333	98.19
246.566	90.19
246.8	107.19
247.033	112.19
247.266	106.19
247.5	124.19
247.733	120.19
247.966	115.19
248.2	109.19
248.433	107.19
248.666	109.19
248.899	122.19
249.133	126.19
249.366	127.19
249.599	135.19
249.832	133.19
250.066	117.19
250.299	133.19
250.532	107.19
250.765	142.19
250.998	132.19
251.231	130.19
251.465	125.19
251.698	126.19
251.931	134.19
252.164	123.19
252.397	137.19
252.63	119.19
252.863	138.19
253.096	136.19
253.329	151.19
253.562	133.19
253.795	138.19
254.028	126.19
254.261	128.19
254.494	142.19
254.727	160.19
254.96	169.19
255.193	164.19
255.426	157.19
255.659	147.19
255.892	134.19
256.124	163.19
256.357	152.19
256.59	140.19
256.823	145.19
257.056	141.19
257.289	133.19
257.521	132.19
257.754	126.19
257.987	136.19
258.22	136.19
258.452	128.19
258.685	118.19
258.918	127.19
259.151	145.19
259.383	141.19
259.616	140.19
259.849	136.19
260.081	137.19
260.314	153.19
260.547	179.19
260.779	131.19
261.012	131.19
261.244	134.19
261.477	131.19
261.71	130.19
261.942	134.19
262.175	142.19
262.407	154.19
262.64	128.19
262.872	133.19
263.105	131.19
263.337	150.19
263.57	147.19
263.802	128.19
264.035	120.19
264.267	136.19
264.499	135.19
264.732	139.19
264.964	147.19
265.197	138.19
265.429	131.19
265.661	138.19
265.894	143.19
266.126	140.19
266.358	134.19
266.591	120.19
266.823	128.19
267.055	140.19
267.287	126.19
267.52	152.19
267.752	135.19
267.984	138.19
268.216	130.19
268.448	158.19
268.681	139.19
268.913	156.19
269.145	129.19
269.377	149.19
269.609	166.19
269.841	166.19
270.073	171.19
270.306	184.19
270.538	183.19
270.77	180.19
271.002	169.19
271.234	167.19
271.466	193.19
271.698	196.19
271.93	185.19
272.162	192.19
272.394	166.19
272.626	186.19
272.858	167.19
273.09	165.19
273.322	152.19
273.553	164.19
273.785	169.19
274.017	156.19
274.249	148.19
274.481	161.19
274.713	154.19
274.945	166.19
275.176	180.19
275.408	153.19
275.64	148.19
275.872	162.19
276.104	161.19
276.335	176.19
276.567	157.19
276.799	183.19
277.031	195.19
277.262	205.19
277.494	196.19
277.726	193.19
277.957	164.19
278.189	182.19
278.421	154.19
278.652	151.19
278.884	159.19
279.115	175.19
279.347	164.19
279.579	154.19
279.81	148.19
280.042	170.19
280.273	154.19
280.505	144.19
280.736	172.19
280.968	156.19
281.199	173.19
281.431	163.19
281.662	154.19
281.894	158.19
282.125	158.19
282.356	169.19
282.588	174.19
282.819	169.19
283.051	166.19
283.282	174.19
283.513	164.19
283.745	165.19
283.976	171.19
284.207	170.19
284.439	152.19
284.67	166.19
284.901	164.19
285.132	156.19
285.364	167.19
285.595	157.19
285.826	161.19
286.057	167.19
286.288	152.19
286.52	161.19
286.751	172.19
286.982	160.19
287.213	162.19
287.444	163.19
287.675	164.19
287.906	179.19
288.138	173.19
288.369	176.19
288.6	173.19
288.831	176.19
289.062	172.19
289.293	168.19
289.524	160.19
289.755	177.19
289.986	164.19
290.217	170.19
290.448	167.19
290.679	164.19
290.91	163.19
291.141	167.19
291.371	164.19
291.602	161.19
291.833	162.19
292.064	180.19
292.295	174.19
292.526	175.19
292.757	182.19
292.987	171.19
293.218	171.19
293.449	162.19
293.68	186.19
293.91	149.19
294.141	160.19
294.372	164.19
294.603	165.19
294.833	168.19
295.064	170.19
295.295	162.19
295.525	172.19
295.756	171.19
295.987	197.19
296.217	197.19
296.448	196.19
296.679	195.19
296.909	173.19
297.14	168.19
297.37	190.19
297.601	173.19
297.831	170.19
298.062	170.19
298.292	180.19
298.523	177.19
298.753	182.19
298.984	162.19
299.214	170.19
299.445	177.19
299.675	176.19
299.905	194.19
300.136	193.19
300.366	192.19
300.597	169.19
300.827	173.19
301.057	170.19
301.288	209.19
301.518	169.19
301.748	190.19
301.979	192.19
302.209	184.19
302.439	187.19
302.669	184.19
302.9	185.19
303.13	184.19
303.36	178.19
303.59	193.19
303.82	199.19
304.051	203.19
304.281	180.19
304.511	180.19
304.741	183.19
304.971	173.19
305.201	192.19
305.431	181.19
305.661	180.19
305.891	180.19
306.121	185.19
306.352	194.19
306.582	187.19
306.812	194.19
307.042	184.19
307.272	191.19
307.502	191.19
307.731	167.19
307.961	180.19
308.191	190.19
308.421	185.19
308.651	210.19
308.881	181.19
309.111	186.19
309.341	192.19
309.571	195.19
309.8	200.19
310.03	209.19
310.26	208.19
310.49	195.19
310.72	208.19
310.949	221.19
311.179	218.19
311.409	212.19
311.639	217.19
311.868	200.19
312.098	212.19
312.328	216.19
312.557	198.19
312.787	212.19
313.017	229.19
313.246	227.19
313.476	209.19
313.706	216.19
313.935	228.19
314.165	219.19
314.394	219.19
314.624	200.19
314.853	193.19
315.083	199.19
315.312	211.19
315.542	200.19
315.771	201.19
316.001	209.19
316.23	214.19
316.46	180.19
316.689	205.19
316.919	189.19
317.148	211.19
317.377	226.19
317.607	206.19
317.836	218.19
318.065	201.19
318.295	196.19
318.524	192.19
318.753	201.19
318.983	199.19
319.212	211.19
319.441	222.19
319.67	209.19
319.9	211.19
320.129	194.19
320.358	213.19
320.587	220.19
320.816	217.19
321.046	221.19
321.275	233.19
321.504	215.19
321.733	209.19
321.962	219.19
322.191	217.19
322.42	225.19
322.649	231.19
322.878	238.19
323.108	258.19
323.337	278.19
323.566	274.19
323.795	281.19
324.024	300.19
324.253	372.19
324.482	518.19
324.71	780.19
324.939	1049.19
325.168	864.19
325.397	447.19
325.626	315.19
325.855	263.19
326.084	245.19
326.313	254.19
326.542	234.19
326.77	272.19
326.999	338.19
327.228	462.19
327.457	688.19
327.686	790.19
327.914	510.19
328.143	338.19
328.372	317.19
328.6	315.19
328.829	284.19
329.058	321.19
329.287	326.19
329.515	304.19
329.744	279.19
329.972	267.19
330.201	282.19
330.43	330.19
330.658	330.19
330.887	342.19
331.115	316.19
331.344	262.19
331.572	276.19
331.801	265.19
332.03	260.19
332.258	258.19
332.486	233.19
332.715	216.19
332.943	252.19
333.172	260.19
333.4	257.19
333.629	260.19
333.857	282.19
334.085	276.19
334.314	279.19
334.542	311.19
334.771	307.19
334.999	281.19
335.227	259.19
335.455	257.19
335.684	241.19
335.912	258.19
336.14	219.19
336.369	228.19
336.597	245.19
336.825	231.19
337.053	224.19
337.281	227.19
337.51	249.19
337.738	240.19
337.966	231.19
338.194	241.19
338.422	250.19
338.65	241.19
338.878	232.19
339.106	221.19
339.334	222.19
339.562	215.19
339.79	210.19
340.018	212.19
340.246	230.19
340.474	227.19
340.702	216.19
340.93	218.19
341.158	230.19
341.386	224.19
341.614	245.19
341.842	218.19
342.07	233.19
342.298	198.19
342.526	216.19
342.754	240.19
342.981	218.19
343.209	214.19
343.437	213.19
343.665	211.19
343.893	215.19
344.12	256.19
344.348	215.19
344.576	226.19
344.804	233.19
345.031	259.19
345.259	254.19
345.487	227.19
345.714	224.19
345.942	215.19
346.17	217.19
346.397	211.19
346.625	224.19
346.853	200.19
347.08	221.19
347.308	218.19
347.535	229.19
347.763	243.19
347.99	234.19
348.218	226.19
348.445	226.19
348.673	225.19
348.9	221.19
349.128	218.19
349.355	218.19
349.583	212.19
349.81	205.19
350.037	213.19
350.265	201.19
350.492	197.19
350.72	215.19
350.947	216.19
351.174	225.19
351.402	230.19
351.629	219.19
351.856	222.19
352.083	233.19
352.311	222.19
352.538	244.19
352.765	230.19
352.992	221.19
353.22	227.19
353.447	217.19
353.674	218.19
353.901	198.19
354.128	204.19
354.355	195.19
354.583	210.19
354.81	213.19
355.037	209.19
355.264	190.19
355.491	203.19
355.718	208.19
355.945	192.19
356.172	210.19
356.399	206.19
356.626	200.19
356.853	187.19
357.08	195.19
357.307	203.19
357.534	189.19
357.761	217.19
357.988	197.19
358.215	199.19
358.441	203.19
358.668	193.19
358.895	210.19
359.122	205.19
359.349	217.19
359.576	218.19
359.802	211.19
360.029	231.19
360.256	249.19
360.483	230.19
360.709	220.19
360.936	230.19
361.163	223.19
361.39	214.19
361.616	205.19
361.843	210.19
362.07	223.19
362.296	233.19
362.523	213.19
362.749	210.19
362.976	217.19
363.203	221.19
363.429	205.19
363.656	221.19
363.882	209.19
364.109	215.19
364.335	227.19
364.562	190.19
364.788	207.19
365.015	212.19
365.241	210.19
365.468	213.19
365.694	220.19
365.92	219.19
366.147	209.19
366.373	224.19
366.599	217.19
366.826	216.19
367.052	215.19
367.278	205.19
367.505	215.19
367.731	216.19
367.957	204.19
368.184	202.19
368.41	198.19
368.636	220.19
368.862	217.19
369.089	206.19
369.315	202.19
369.541	219.19
369.767	211.19
369.993	205.19
370.219	209.19
370.445	209.19
370.672	211.19
370.898	208.19
371.124	209.19
371.35	200.19
371.576	200.19
371.802	195.19
372.028	204.19
372.254	205.19
372.48	204.19
372.706	189.19
372.932	205.19
373.158	201.19
373.384	200.19
373.61	206.19
373.835	210.19
374.061	192.19
374.287	209.19
374.513	208.19
374.739	210.19
374.965	209.19
375.191	219.19
375.416	203.19
375.642	221.19
375.868	218.19
376.094	211.19
376.319	211.19
376.545	215.19
376.771	208.19
376.997	226.19
377.222	205.19
377.448	218.19
377.674	206.19
377.899	201.19
378.125	197.19
378.35	202.19
378.576	211.19
378.802	220.19
379.027	211.19
379.253	206.19
379.478	206.19
379.704	201.19
379.929	196.19
380.155	196.19
380.38	213.19
380.606	214.19
380.831	210.19
381.057	205.19
381.282	188.19
381.507	193.19
381.733	203.19
381.958	198.19
382.184	213.19
382.409	195.19
382.634	199.19
382.86	213.19
383.085	216.19
383.31	205.19
383.535	213.19
383.761	217.19
383.986	212.19
384.211	210.19
384.436	217.19
384.662	237.19
384.887	213.19
385.112	213.19
385.337	211.19
385.562	199.19
385.787	205.19
386.013	206.19
386.238	229.19
386.463	228.19
386.688	219.19
386.913	200.19
387.138	213.19
387.363	212.19
387.588	202.19
387.813	215.19
388.038	222.19
388.263	209.19
388.488	198.19
388.713	222.19
388.938	225.19
389.163	214.19
389.387	235.19
389.612	226.19
389.837	228.19
390.062	224.19
390.287	225.19
390.512	205.19
390.736	228.19
390.961	213.19
391.186	220.19
391.411	219.19
391.636	228.19
391.86	216.19
392.085	231.19
392.31	233.19
392.534	218.19
392.759	231.19
392.984	220.19
393.208	217.19
393.433	224.19
393.658	231.19
393.882	224.19
394.107	210.19
394.331	219.19
394.556	219.19
394.78	214.19
395.005	209.19
395.229	213.19
395.454	235.19
395.678	222.19
395.903	233.19
396.127	238.19
396.352	232.19
396.576	213.19
396.801	219.19
397.025	226.19
397.249	231.19
397.474	232.19
397.698	223.19
397.922	227.19
398.147	245.19
398.371	249.19
398.595	247.19
398.82	243.19
399.044	247.19
399.268	265.19
399.492	275.19
399.717	272.19
399.941	307.19
400.165	312.19
400.389	304.19
400.613	281.19
400.837	264.19
401.062	256.19
401.286	257.19
401.51	248.19
401.734	224.19
401.958	248.19
402.182	244.19
402.406	247.19
402.63	263.19
402.854	268.19
403.078	236.19
403.302	254.19
403.526	245.19
403.75	268.19
403.974	268.19
404.198	254.19
404.422	277.19
404.645	251.19
404.869	242.19
405.093	266.19
405.317	288.19
405.541	320.19
405.765	284.19
405.988	264.19
406.212	297.19
406.436	299.19
406.66	293.19
406.883	271.19
407.107	290.19
407.331	297.19
407.555	333.19
407.778	342.19
408.002	309.19
408.226	285.19
408.449	274.19
408.673	280.19
408.896	284.19
409.12	308.19
409.344	283.19
409.567	256.19
409.791	283.19
410.014	259.19
410.238	252.19
410.461	251.19
410.685	246.19
410.908	256.19
411.132	288.19
411.355	297.19
411.578	262.19
411.802	259.19
412.025	244.19
412.249	266.19
412.472	288.19
412.695	294.19
412.919	282.19
413.142	264.19
413.365	270.19
413.589	265.19
413.812	244.19
414.035	242.19
414.258	236.19
414.482	258.19
414.705	266.19
414.928	240.19
415.151	241.19
415.374	246.19
415.597	235.19
415.821	247.19
416.044	254.19
416.267	258.19
416.49	251.19
416.713	250.19
416.936	263.19
417.159	241.19
417.382	254.19
417.605	261.19
417.828	267.19
418.051	268.19
418.274	257.19
418.497	261.19
418.72	249.19
418.943	246.19
419.166	248.19
419.389	251.19
419.611	266.19
419.834	264.19
420.057	253.19
420.28	254.19
420.503	277.19
420.726	245.19
420.948	257.19
421.171	293.19
421.394	313.19
421.617	271.19
421.839	256.19
422.062	237.19
422.285	275.19
422.507	290.19
422.73	320.19
422.953	298.19
423.175	262.19
423.398	264.19
423.621	276.19
423.843	281.19
424.066	286.19
424.288	261.19
424.511	267.19
424.733	299.19
424.956	338.19
425.178	309.19
425.401	333.19
425.623	334.19
425.846	283.19
426.068	264.19
426.291	266.19
426.513	271.19
426.735	298.19
426.958	288.19
427.18	322.19
427.402	386.19
427.625	424.19
427.847	386.19
428.069	327.19
428.292	302.19
428.514	285.19
428.736	250.19
428.958	253.19
429.181	257.19
429.403	251.19
429.625	248.19
429.847	270.19
430.069	307.19
430.292	320.19
430.514	280.19
430.736	269.19
430.958	245.19
431.18	264.19
431.402	265.19
431.624	225.19
431.846	236.19
432.068	244.19
432.29	233.19
432.512	237.19
432.734	261.19
432.956	247.19
433.178	250.19
433.4	258.19
433.622	245.19
433.844	269.19
434.066	248.19
434.287	236.19
434.509	238.19
434.731	240.19
434.953	259.19
435.175	277.19
435.397	284.19
435.618	289.19
435.84	284.19
436.062	335.19
436.284	360.19
436.505	296.19
436.727	283.19
436.949	278.19
437.17	262.19
437.392	228.19
437.614	256.19
437.835	285.19
438.057	318.19
438.278	373.19
438.5	344.19
438.721	386.19
438.943	340.19
439.165	295.19
439.386	268.19
439.608	269.19
439.829	283.19
440.05	279.19
440.272	281.19
440.493	300.19
440.715	270.19
440.936	259.19
441.158	268.19
441.379	264.19
441.6	286.19
441.822	297.19
442.043	293.19
442.264	340.19
442.486	352.19
442.707	291.19
442.928	293.19
443.149	284.19
443.371	292.19
443.592	326.19
443.813	340.19
444.034	370.19
444.255	320.19
444.476	302.19
444.698	282.19
444.919	289.19
445.14	374.19
445.361	338.19
445.582	309.19
445.803	339.19
446.024	368.19
446.245	374.19
446.466	340.19
446.687	297.19
446.908	265.19
447.129	258.19
447.35	250.19
447.571	260.19
447.792	247.19
448.013	268.19
448.234	266.19
448.455	300.19
448.675	345.19
448.896	369.19
449.117	336.19
449.338	308.19
449.559	372.19
449.779	399.19
450	313.19
450.221	272.19
450.442	269.19
450.662	247.19
450.883	276.19
451.104	265.19
451.324	241.19
451.545	239.19
451.766	258.19
451.986	240.19
452.207	244.19
452.428	228.19
452.648	227.19
452.869	258.19
453.089	240.19
453.31	247.19
453.53	231.19
453.751	246.19
453.971	236.19
454.192	274.19
454.412	237.19
454.633	246.19
454.853	232.19
455.073	231.19
455.294	258.19
455.514	284.19
455.734	262.19
455.955	246.19
456.175	214.19
456.395	211.19
456.616	220.19
456.836	223.19
457.056	214.19
457.276	228.19
457.497	216.19
457.717	218.19
457.937	229.19
458.157	216.19
458.377	202.19
458.598	245.19
458.818	280.19
459.038	330.19
459.258	334.19
459.478	276.19
459.698	260.19
459.918	233.19
460.138	250.19
460.358	232.19
460.578	245.19
460.798	226.19
461.018	260.19
461.238	256.19
461.458	237.19
461.678	245.19
461.898	245.19
462.118	242.19
462.338	244.19
462.558	233.19
462.777	263.19
462.997	245.19
463.217	264.19
463.437	268.19
463.657	271.19
463.876	273.19
464.096	273.19
464.316	270.19
464.536	280.19
464.755	268.19
464.975	250.19
465.195	295.19
465.414	340.19
465.634	294.19
465.854	267.19
466.073	237.19
466.293	221.19
466.512	229.19
466.732	236.19
466.951	254.19
467.171	231.19
467.391	242.19
467.61	244.19
467.829	256.19
468.049	276.19
468.268	258.19
468.488	240.19
468.707	246.19
468.927	234.19
469.146	232.19
469.365	237.19
469.585	252.19
469.804	251.19
470.023	249.19
470.243	226.19
470.462	247.19
470.681	269.19
470.901	243.19
471.12	237.19
471.339	255.19
471.558	242.19
471.777	233.19
471.997	260.19
472.216	243.19
472.435	286.19
472.654	274.19
472.873	236.19
473.092	227.19
473.311	232.19
473.53	233.19
473.749	249.19
473.968	272.19
474.187	322.19
474.406	313.19
474.625	249.19
474.844	240.19
475.063	232.19
475.282	241.19
475.501	245.19
475.72	250.19
475.939	236.19
476.158	234.19
476.377	246.19
476.596	258.19
476.814	259.19
477.033	275.19
477.252	269.19
477.471	250.19
477.69	240.19
477.908	267.19
478.127	275.19
478.346	255.19
478.564	283.19
478.783	285.19
479.002	259.19
479.22	266.19
479.439	268.19
479.658	295.19
479.876	295.19
480.095	301.19
480.313	300.19
480.532	301.19
480.751	298.19
480.969	299.19
481.188	348.19
481.406	394.19
481.624	322.19
481.843	281.19
482.061	260.19
482.28	277.19
482.498	278.19
482.717	280.19
482.935	273.19
483.153	279.19
483.372	284.19
483.59	276.19
483.808	285.19
484.027	296.19
484.245	268.19
484.463	284.19
484.681	281.19
484.9	293.19
485.118	290.19
485.336	260.19
485.554	259.19
485.772	281.19
485.99	288.19
486.209	278.19
486.427	297.19
486.645	300.19
486.863	294.19
487.081	315.19
487.299	306.19
487.517	275.19
487.735	292.19
487.953	293.19
488.171	299.19
488.389	301.19
488.607	293.19
488.825	292.19
489.043	294.19
489.261	288.19
489.479	301.19
489.696	294.19
489.914	310.19
490.132	306.19
490.35	310.19
490.568	315.19
490.786	317.19
491.003	325.19
491.221	330.19
491.439	342.19
491.657	353.19
491.874	336.19
492.092	346.19
492.31	361.19
492.527	343.19
492.745	355.19
492.963	340.19
493.18	361.19
493.398	363.19
493.615	351.19
493.833	360.19
494.05	362.19
494.268	353.19
494.485	338.19
494.703	364.19
494.92	355.19
495.138	350.19
495.355	348.19
495.573	339.19
495.79	333.19
496.008	345.19
496.225	334.19
496.442	344.19
496.66	339.19
496.877	342.19
497.094	344.19
497.312	352.19
497.529	377.19
497.746	371.19
497.963	352.19
498.181	357.19
498.398	363.19
498.615	371.19
498.832	374.19
499.049	380.19
499.267	403.19
499.484	406.19
499.701	402.19
499.918	418.19
500.135	428.19
500.352	443.19
500.569	437.19
500.786	474.19
501.003	454.19
501.22	440.19
501.437	436.19
501.654	424.19
501.871	420.19
502.088	417.19
502.305	389.19
502.522	386.19
