Data from 1966.PennyLincolnUp.Lamp.En5.5.200Scan.071719.P1.Scan2.head_HRD10591_14-18-06-162.txt Node
Date: Thu Jul 18 14:18:06 EDT 2019
User: cochatt
Spectrometer: HR+D1059
Trigger mode: 1
Integration Time (sec): 1.000000E-1
Scans to average: 1
Electric dark correction enabled: true
Nonlinearity correction enabled: false
Boxcar width: 0
XAxis mode: Wavelengths
Number of Pixels in Spectrum: 2048
>>>>>Begin Spectral Data<<<<<
223.165	-17.31
223.4	-17.31
223.635	-17.31
223.869	-20.31
224.104	-9.31
224.338	-22.31
224.573	-10.31
224.808	-18.31
225.042	-3.31
225.277	-13.31
225.511	7.69
225.746	6.69
225.98	7.69
226.215	-0.31
226.449	8.69
226.683	26.69
226.918	24.69
227.152	32.69
227.387	40.69
227.621	38.69
227.856	50.69
228.09	44.69
228.324	37.69
228.559	55.69
228.793	54.69
229.027	93.69
229.262	120.69
229.496	116.69
229.73	124.69
229.964	155.69
230.199	134.69
230.433	120.69
230.667	118.69
230.901	114.69
231.136	96.69
231.37	121.69
231.604	123.69
231.838	102.69
232.072	98.69
232.306	128.69
232.541	108.69
232.775	123.69
233.009	97.69
233.243	111.69
233.477	111.69
233.711	108.69
233.945	126.69
234.179	121.69
234.413	124.69
234.647	111.69
234.881	120.69
235.115	114.69
235.349	114.69
235.583	107.69
235.817	119.69
236.051	126.69
236.285	127.69
236.519	130.69
236.753	136.69
236.987	158.69
237.221	173.69
237.455	230.69
237.689	190.69
237.922	144.69
238.156	142.69
238.39	131.69
238.624	106.69
238.858	130.69
239.091	141.69
239.325	126.69
239.559	126.69
239.793	135.69
240.027	134.69
240.26	148.69
240.494	160.69
240.728	147.69
240.961	157.69
241.195	154.69
241.429	128.69
241.662	118.69
241.896	116.69
242.13	134.69
242.363	136.69
242.597	128.69
242.83	142.69
243.064	135.69
243.298	136.69
243.531	143.69
243.765	128.69
243.998	148.69
244.232	159.69
244.465	148.69
244.699	164.69
244.932	150.69
245.166	141.69
245.399	148.69
245.633	141.69
245.866	158.69
246.099	152.69
246.333	150.69
246.566	154.69
246.8	164.69
247.033	158.69
247.266	150.69
247.5	162.69
247.733	178.69
247.966	175.69
248.2	174.69
248.433	169.69
248.666	176.69
248.899	194.69
249.133	203.69
249.366	211.69
249.599	205.69
249.832	196.69
250.066	179.69
250.299	184.69
250.532	187.69
250.765	194.69
250.998	220.69
251.231	234.69
251.465	208.69
251.698	202.69
251.931	194.69
252.164	174.69
252.397	204.69
252.63	206.69
252.863	202.69
253.096	226.69
253.329	229.69
253.562	233.69
253.795	219.69
254.028	218.69
254.261	212.69
254.494	235.69
254.727	254.69
254.96	279.69
255.193	271.69
255.426	259.69
255.659	227.69
255.892	237.69
256.124	256.69
256.357	240.69
256.59	210.69
256.823	213.69
257.056	205.69
257.289	216.69
257.521	234.69
257.754	230.69
257.987	211.69
258.22	222.69
258.452	215.69
258.685	202.69
258.918	210.69
259.151	223.69
259.383	207.69
259.616	226.69
259.849	234.69
260.081	252.69
260.314	261.69
260.547	266.69
260.779	240.69
261.012	236.69
261.244	246.69
261.477	237.69
261.71	234.69
261.942	227.69
262.175	227.69
262.407	233.69
262.64	234.69
262.872	218.69
263.105	218.69
263.337	221.69
263.57	223.69
263.802	212.69
264.035	224.69
264.267	223.69
264.499	205.69
264.732	223.69
264.964	218.69
265.197	218.69
265.429	218.69
265.661	207.69
265.894	215.69
266.126	227.69
266.358	221.69
266.591	223.69
266.823	246.69
267.055	249.69
267.287	240.69
267.52	221.69
267.752	236.69
267.984	229.69
268.216	220.69
268.448	238.69
268.681	237.69
268.913	248.69
269.145	251.69
269.377	283.69
269.609	292.69
269.841	276.69
270.073	259.69
270.306	290.69
270.538	299.69
270.77	313.69
271.002	312.69
271.234	287.69
271.466	310.69
271.698	308.69
271.93	318.69
272.162	329.69
272.394	336.69
272.626	325.69
272.858	301.69
273.09	290.69
273.322	284.69
273.553	261.69
273.785	268.69
274.017	272.69
274.249	262.69
274.481	297.69
274.713	267.69
274.945	262.69
275.176	261.69
275.408	256.69
275.64	258.69
275.872	269.69
276.104	247.69
276.335	283.69
276.567	251.69
276.799	290.69
277.031	316.69
277.262	330.69
277.494	319.69
277.726	316.69
277.957	299.69
278.189	299.69
278.421	276.69
278.652	284.69
278.884	264.69
279.115	288.69
279.347	264.69
279.579	267.69
279.81	277.69
280.042	277.69
280.273	272.69
280.505	274.69
280.736	263.69
280.968	292.69
281.199	280.69
281.431	278.69
281.662	256.69
281.894	281.69
282.125	287.69
282.356	281.69
282.588	309.69
282.819	297.69
283.051	298.69
283.282	263.69
283.513	291.69
283.745	278.69
283.976	301.69
284.207	295.69
284.439	293.69
284.67	307.69
284.901	280.69
285.132	285.69
285.364	283.69
285.595	292.69
285.826	270.69
286.057	276.69
286.288	292.69
286.52	298.69
286.751	291.69
286.982	293.69
287.213	296.69
287.444	299.69
287.675	298.69
287.906	306.69
288.138	315.69
288.369	297.69
288.6	319.69
288.831	296.69
289.062	310.69
289.293	302.69
289.524	313.69
289.755	289.69
289.986	310.69
290.217	286.69
290.448	294.69
290.679	295.69
290.91	293.69
291.141	283.69
291.371	293.69
291.602	311.69
291.833	289.69
292.064	308.69
292.295	304.69
292.526	294.69
292.757	308.69
292.987	303.69
293.218	310.69
293.449	317.69
293.68	307.69
293.91	286.69
294.141	314.69
294.372	297.69
294.603	308.69
294.833	295.69
295.064	271.69
295.295	307.69
295.525	297.69
295.756	320.69
295.987	306.69
296.217	355.69
296.448	336.69
296.679	316.69
296.909	321.69
297.14	304.69
297.37	317.69
297.601	323.69
297.831	311.69
298.062	314.69
298.292	314.69
298.523	314.69
298.753	326.69
298.984	314.69
299.214	304.69
299.445	321.69
299.675	317.69
299.905	330.69
300.136	330.69
300.366	309.69
300.597	321.69
300.827	326.69
301.057	326.69
301.288	319.69
301.518	358.69
301.748	325.69
301.979	341.69
302.209	332.69
302.439	330.69
302.669	331.69
302.9	342.69
303.13	326.69
303.36	345.69
303.59	346.69
303.82	351.69
304.051	360.69
304.281	340.69
304.511	336.69
304.741	312.69
304.971	332.69
305.201	332.69
305.431	330.69
305.661	341.69
305.891	342.69
306.121	350.69
306.352	346.69
306.582	350.69
306.812	328.69
307.042	317.69
307.272	331.69
307.502	331.69
307.731	345.69
307.961	329.69
308.191	342.69
308.421	328.69
308.651	355.69
308.881	348.69
309.111	349.69
309.341	353.69
309.571	376.69
309.8	364.69
310.03	378.69
310.26	374.69
310.49	387.69
310.72	389.69
310.949	391.69
311.179	412.69
311.409	376.69
311.639	385.69
311.868	383.69
312.098	397.69
312.328	383.69
312.557	409.69
312.787	430.69
313.017	390.69
313.246	404.69
313.476	393.69
313.706	410.69
313.935	373.69
314.165	406.69
314.394	430.69
314.624	416.69
314.853	404.69
315.083	399.69
315.312	386.69
315.542	395.69
315.771	387.69
316.001	380.69
316.23	386.69
316.46	401.69
316.689	393.69
316.919	390.69
317.148	407.69
317.377	397.69
317.607	405.69
317.836	404.69
318.065	394.69
318.295	370.69
318.524	391.69
318.753	384.69
318.983	393.69
319.212	392.69
319.441	377.69
319.67	387.69
319.9	402.69
320.129	400.69
320.358	402.69
320.587	406.69
320.816	404.69
321.046	394.69
321.275	409.69
321.504	397.69
321.733	404.69
321.962	406.69
322.191	422.69
322.42	442.69
322.649	446.69
322.878	469.69
323.108	457.69
323.337	471.69
323.566	495.69
323.795	509.69
324.024	569.69
324.253	671.69
324.482	988.69
324.71	1502.69
324.939	2227.69
325.168	1919.69
325.397	971.69
325.626	652.69
325.855	544.69
326.084	491.69
326.313	520.69
326.542	516.69
326.77	542.69
326.999	611.69
327.228	866.69
327.457	1319.69
327.686	1668.69
327.914	1109.69
328.143	712.69
328.372	607.69
328.6	597.69
328.829	571.69
329.058	563.69
329.287	583.69
329.515	571.69
329.744	533.69
329.972	506.69
330.201	538.69
330.43	606.69
330.658	619.69
330.887	620.69
331.115	615.69
331.344	534.69
331.572	509.69
331.801	498.69
332.03	493.69
332.258	491.69
332.486	479.69
332.715	476.69
332.943	459.69
333.172	485.69
333.4	462.69
333.629	467.69
333.857	494.69
334.085	526.69
334.314	523.69
334.542	571.69
334.771	575.69
334.999	521.69
335.227	504.69
335.455	475.69
335.684	484.69
335.912	476.69
336.14	465.69
336.369	468.69
336.597	486.69
336.825	479.69
337.053	471.69
337.281	489.69
337.51	462.69
337.738	450.69
337.966	469.69
338.194	481.69
338.422	467.69
338.65	452.69
338.878	444.69
339.106	437.69
339.334	464.69
339.562	477.69
339.79	438.69
340.018	435.69
340.246	455.69
340.474	461.69
340.702	450.69
340.93	450.69
341.158	436.69
341.386	444.69
341.614	464.69
341.842	451.69
342.07	440.69
342.298	420.69
342.526	436.69
342.754	448.69
342.981	441.69
343.209	463.69
343.437	452.69
343.665	437.69
343.893	447.69
344.12	493.69
344.348	459.69
344.576	447.69
344.804	474.69
345.031	474.69
345.259	473.69
345.487	471.69
345.714	446.69
345.942	437.69
346.17	424.69
346.397	446.69
346.625	443.69
346.853	466.69
347.08	443.69
347.308	432.69
347.535	460.69
347.763	441.69
347.99	430.69
348.218	439.69
348.445	445.69
348.673	436.69
348.9	442.69
349.128	453.69
349.355	423.69
349.583	450.69
349.81	446.69
350.037	426.69
350.265	409.69
350.492	438.69
350.72	438.69
350.947	423.69
351.174	442.69
351.402	460.69
351.629	447.69
351.856	451.69
352.083	442.69
352.311	458.69
352.538	454.69
352.765	470.69
352.992	441.69
353.22	436.69
353.447	430.69
353.674	448.69
353.901	438.69
354.128	423.69
354.355	420.69
354.583	431.69
354.81	439.69
355.037	419.69
355.264	423.69
355.491	420.69
355.718	397.69
355.945	407.69
356.172	408.69
356.399	406.69
356.626	418.69
356.853	412.69
357.08	434.69
357.307	401.69
357.534	407.69
357.761	406.69
357.988	420.69
358.215	428.69
358.441	417.69
358.668	415.69
358.895	420.69
359.122	426.69
359.349	442.69
359.576	436.69
359.802	459.69
360.029	501.69
360.256	503.69
360.483	491.69
360.709	432.69
360.936	456.69
361.163	468.69
361.39	447.69
361.616	439.69
361.843	446.69
362.07	438.69
362.296	465.69
362.523	442.69
362.749	440.69
362.976	440.69
363.203	431.69
363.429	413.69
363.656	415.69
363.882	445.69
364.109	439.69
364.335	442.69
364.562	430.69
364.788	434.69
365.015	424.69
365.241	438.69
365.468	418.69
365.694	413.69
365.92	436.69
366.147	420.69
366.373	447.69
366.599	455.69
366.826	435.69
367.052	413.69
367.278	436.69
367.505	448.69
367.731	419.69
367.957	429.69
368.184	422.69
368.41	457.69
368.636	438.69
368.862	452.69
369.089	450.69
369.315	446.69
369.541	444.69
369.767	419.69
369.993	415.69
370.219	429.69
370.445	431.69
370.672	451.69
370.898	422.69
371.124	426.69
371.35	438.69
371.576	440.69
371.802	437.69
372.028	451.69
372.254	443.69
372.48	426.69
372.706	447.69
372.932	439.69
373.158	452.69
373.384	445.69
373.61	467.69
373.835	441.69
374.061	431.69
374.287	431.69
374.513	430.69
374.739	431.69
374.965	440.69
375.191	444.69
375.416	444.69
375.642	450.69
375.868	456.69
376.094	451.69
376.319	452.69
376.545	429.69
376.771	437.69
376.997	423.69
377.222	437.69
377.448	422.69
377.674	451.69
377.899	451.69
378.125	428.69
378.35	443.69
378.576	451.69
378.802	436.69
379.027	446.69
379.253	459.69
379.478	442.69
379.704	438.69
379.929	453.69
380.155	458.69
380.38	439.69
380.606	424.69
380.831	436.69
381.057	444.69
381.282	429.69
381.507	414.69
381.733	445.69
381.958	452.69
382.184	463.69
382.409	448.69
382.634	447.69
382.86	441.69
383.085	440.69
383.31	451.69
383.535	455.69
383.761	465.69
383.986	464.69
384.211	464.69
384.436	470.69
384.662	499.69
384.887	460.69
385.112	492.69
385.337	480.69
385.562	486.69
385.787	478.69
386.013	490.69
386.238	507.69
386.463	501.69
386.688	482.69
386.913	492.69
387.138	488.69
387.363	488.69
387.588	483.69
387.813	489.69
388.038	488.69
388.263	489.69
388.488	480.69
388.713	501.69
388.938	470.69
389.163	498.69
389.387	466.69
389.612	505.69
389.837	492.69
390.062	478.69
390.287	470.69
390.512	469.69
390.736	473.69
390.961	475.69
391.186	484.69
391.411	481.69
391.636	516.69
391.86	506.69
392.085	498.69
392.31	503.69
392.534	480.69
392.759	486.69
392.984	518.69
393.208	505.69
393.433	493.69
393.658	500.69
393.882	514.69
394.107	487.69
394.331	499.69
394.556	500.69
394.78	515.69
395.005	498.69
395.229	504.69
395.454	494.69
395.678	498.69
395.903	527.69
396.127	538.69
396.352	547.69
396.576	543.69
396.801	500.69
397.025	502.69
397.249	530.69
397.474	543.69
397.698	552.69
397.922	538.69
398.147	540.69
398.371	567.69
398.595	537.69
398.82	572.69
399.044	578.69
399.268	579.69
399.492	622.69
399.717	649.69
399.941	656.69
400.165	717.69
400.389	696.69
400.613	664.69
400.837	622.69
401.062	582.69
401.286	593.69
401.51	576.69
401.734	578.69
401.958	579.69
402.182	570.69
402.406	580.69
402.63	584.69
402.854	592.69
403.078	580.69
403.302	565.69
403.526	597.69
403.75	589.69
403.974	584.69
404.198	583.69
404.422	595.69
404.645	607.69
404.869	587.69
405.093	660.69
405.317	657.69
405.541	725.69
405.765	640.69
405.988	639.69
406.212	628.69
406.436	648.69
406.66	661.69
406.883	661.69
407.107	693.69
407.331	704.69
407.555	784.69
407.778	776.69
408.002	694.69
408.226	661.69
408.449	669.69
408.673	654.69
408.896	680.69
409.12	717.69
409.344	674.69
409.567	614.69
409.791	609.69
410.014	599.69
410.238	591.69
410.461	603.69
410.685	605.69
410.908	616.69
411.132	664.69
411.355	669.69
411.578	655.69
411.802	590.69
412.025	614.69
412.249	602.69
412.472	589.69
412.695	660.69
412.919	650.69
413.142	614.69
413.365	596.69
413.589	586.69
413.812	577.69
414.035	584.69
414.258	572.69
414.482	568.69
414.705	572.69
414.928	549.69
415.151	564.69
415.374	553.69
415.597	554.69
415.821	555.69
416.044	565.69
416.267	562.69
416.49	560.69
416.713	585.69
416.936	562.69
417.159	553.69
417.382	568.69
417.605	553.69
417.828	568.69
418.051	580.69
418.274	581.69
418.497	565.69
418.72	551.69
418.943	543.69
419.166	569.69
419.389	619.69
419.611	621.69
419.834	632.69
420.057	600.69
420.28	595.69
420.503	581.69
420.726	593.69
420.948	602.69
421.171	652.69
421.394	677.69
421.617	587.69
421.839	583.69
422.062	573.69
422.285	591.69
422.507	641.69
422.73	747.69
422.953	738.69
423.175	658.69
423.398	595.69
423.621	601.69
423.843	638.69
424.066	661.69
424.288	652.69
424.511	658.69
424.733	708.69
424.956	804.69
425.178	746.69
425.401	752.69
425.623	775.69
425.846	693.69
426.068	636.69
426.291	617.69
426.513	600.69
426.735	635.69
426.958	658.69
427.18	759.69
427.402	894.69
427.625	997.69
427.847	870.69
428.069	754.69
428.292	671.69
428.514	620.69
428.736	620.69
428.958	597.69
429.181	585.69
429.403	587.69
429.625	600.69
429.847	639.69
430.069	680.69
430.292	710.69
430.514	604.69
430.736	593.69
430.958	580.69
431.18	553.69
431.402	547.69
431.624	529.69
431.846	527.69
432.068	544.69
432.29	567.69
432.512	551.69
432.734	564.69
432.956	560.69
433.178	586.69
433.4	564.69
433.622	588.69
433.844	579.69
434.066	541.69
434.287	560.69
434.509	538.69
434.731	576.69
434.953	579.69
435.175	619.69
435.397	628.69
435.618	634.69
435.84	675.69
436.062	779.69
436.284	858.69
436.505	685.69
436.727	630.69
436.949	593.69
437.17	602.69
437.392	582.69
437.614	591.69
437.835	633.69
438.057	710.69
438.278	837.69
438.5	854.69
438.721	949.69
438.943	896.69
439.165	698.69
439.386	641.69
439.608	654.69
439.829	651.69
440.05	668.69
440.272	720.69
440.493	673.69
440.715	620.69
440.936	577.69
441.158	600.69
441.379	582.69
441.6	589.69
441.822	636.69
442.043	674.69
442.264	765.69
442.486	827.69
442.707	691.69
442.928	653.69
443.149	656.69
443.371	681.69
443.592	699.69
443.813	827.69
444.034	871.69
444.255	739.69
444.476	666.69
444.698	648.69
444.919	637.69
445.14	740.69
445.361	697.69
445.582	685.69
445.803	749.69
446.024	883.69
446.245	875.69
446.466	798.69
446.687	692.69
446.908	641.69
447.129	584.69
447.35	570.69
447.571	585.69
447.792	565.69
448.013	590.69
448.234	607.69
448.455	667.69
448.675	780.69
448.896	895.69
449.117	787.69
449.338	741.69
449.559	854.69
449.779	958.69
450	769.69
450.221	624.69
450.442	587.69
450.662	570.69
450.883	571.69
451.104	581.69
451.324	559.69
451.545	566.69
451.766	526.69
451.986	499.69
452.207	521.69
452.428	520.69
452.648	525.69
452.869	522.69
453.089	536.69
453.31	523.69
453.53	538.69
453.751	526.69
453.971	524.69
454.192	540.69
454.412	531.69
454.633	519.69
454.853	522.69
455.073	500.69
455.294	549.69
455.514	626.69
455.734	591.69
455.955	538.69
456.175	495.69
456.395	484.69
456.616	495.69
456.836	510.69
457.056	471.69
457.276	485.69
457.497	503.69
457.717	516.69
457.937	506.69
458.157	505.69
458.377	522.69
458.598	540.69
458.818	593.69
459.038	695.69
459.258	698.69
459.478	627.69
459.698	568.69
459.918	550.69
460.138	566.69
460.358	543.69
460.578	567.69
460.798	572.69
461.018	571.69
461.238	566.69
461.458	559.69
461.678	576.69
461.898	598.69
462.118	578.69
462.338	605.69
462.558	587.69
462.777	590.69
462.997	615.69
463.217	619.69
463.437	639.69
463.657	630.69
463.876	616.69
464.096	626.69
464.316	591.69
464.536	614.69
464.755	615.69
464.975	615.69
465.195	649.69
465.414	726.69
465.634	642.69
465.854	578.69
466.073	574.69
466.293	575.69
466.512	558.69
466.732	546.69
466.951	544.69
467.171	525.69
467.391	526.69
467.61	534.69
467.829	568.69
468.049	549.69
468.268	546.69
468.488	546.69
468.707	541.69
468.927	532.69
469.146	512.69
469.365	503.69
469.585	521.69
469.804	531.69
470.023	562.69
470.243	556.69
470.462	568.69
470.681	562.69
470.901	568.69
471.12	542.69
471.339	512.69
471.558	523.69
471.777	551.69
471.997	539.69
472.216	526.69
472.435	576.69
472.654	562.69
472.873	555.69
473.092	579.69
473.311	562.69
473.53	562.69
473.749	545.69
473.968	613.69
474.187	727.69
474.406	717.69
474.625	601.69
474.844	560.69
475.063	569.69
475.282	539.69
475.501	552.69
475.72	564.69
475.939	582.69
476.158	553.69
476.377	557.69
476.596	573.69
476.814	563.69
477.033	573.69
477.252	581.69
477.471	590.69
477.69	608.69
477.908	597.69
478.127	599.69
478.346	612.69
478.564	602.69
478.783	617.69
479.002	614.69
479.22	614.69
479.439	653.69
479.658	669.69
479.876	667.69
480.095	676.69
480.313	693.69
480.532	694.69
480.751	687.69
480.969	674.69
481.188	770.69
481.406	792.69
481.624	714.69
481.843	662.69
482.061	668.69
482.28	650.69
482.498	637.69
482.717	632.69
482.935	639.69
483.153	652.69
483.372	649.69
483.59	646.69
483.808	657.69
484.027	640.69
484.245	645.69
484.463	621.69
484.681	667.69
484.9	663.69
485.118	669.69
485.336	659.69
485.554	675.69
485.772	658.69
485.99	676.69
486.209	686.69
486.427	675.69
486.645	686.69
486.863	677.69
487.081	692.69
487.299	702.69
487.517	670.69
487.735	684.69
487.953	693.69
488.171	696.69
488.389	700.69
488.607	683.69
488.825	706.69
489.043	663.69
489.261	720.69
489.479	695.69
489.696	686.69
489.914	683.69
490.132	715.69
490.35	744.69
490.568	732.69
490.786	721.69
491.003	730.69
491.221	736.69
491.439	778.69
491.657	790.69
491.874	762.69
492.092	788.69
492.31	785.69
492.527	796.69
492.745	806.69
492.963	792.69
493.18	789.69
493.398	774.69
493.615	809.69
493.833	799.69
494.05	832.69
494.268	829.69
494.485	827.69
494.703	819.69
494.92	820.69
495.138	851.69
495.355	806.69
495.573	831.69
495.79	848.69
496.008	818.69
496.225	784.69
496.442	804.69
496.66	820.69
496.877	813.69
497.094	831.69
497.312	848.69
497.529	853.69
497.746	844.69
497.963	862.69
498.181	903.69
498.398	891.69
498.615	899.69
498.832	950.69
499.049	954.69
499.267	975.69
499.484	1008.69
499.701	1047.69
499.918	1071.69
500.135	1107.69
500.352	1216.69
500.569	1195.69
500.786	1204.69
501.003	1199.69
501.22	1151.69
501.437	1104.69
501.654	1082.69
