Data from 1966.PennyLincolnUp.Lamp.En5.5.200Scan.071719.P1.Scan2.head_HRD10591_14-18-15-172.txt Node
Date: Thu Jul 18 14:18:15 EDT 2019
User: cochatt
Spectrometer: HR+D1059
Trigger mode: 1
Integration Time (sec): 1.000000E-1
Scans to average: 1
Electric dark correction enabled: true
Nonlinearity correction enabled: false
Boxcar width: 0
XAxis mode: Wavelengths
Number of Pixels in Spectrum: 2048
>>>>>Begin Spectral Data<<<<<
223.165	-17.94
223.4	-17.94
223.635	-17.94
223.869	-15.94
224.104	-32.94
224.338	-13.94
224.573	-2.94
224.808	-3.94
225.042	-8.94
225.277	-3.94
225.511	-11.94
225.746	0.06
225.98	11.06
226.215	13.06
226.449	22.06
226.683	18.06
226.918	29.06
227.152	19.06
227.387	16.06
227.621	36.06
227.856	39.06
228.09	48.06
228.324	39.06
228.559	50.06
228.793	66.06
229.027	108.06
229.262	107.06
229.496	103.06
229.73	140.06
229.964	146.06
230.199	131.06
230.433	134.06
230.667	116.06
230.901	119.06
231.136	110.06
231.37	129.06
231.604	98.06
231.838	115.06
232.072	113.06
232.306	102.06
232.541	114.06
232.775	101.06
233.009	96.06
233.243	105.06
233.477	108.06
233.711	116.06
233.945	105.06
234.179	111.06
234.413	114.06
234.647	112.06
234.881	127.06
235.115	115.06
235.349	114.06
235.583	114.06
235.817	119.06
236.051	122.06
236.285	119.06
236.519	119.06
236.753	138.06
236.987	160.06
237.221	194.06
237.455	227.06
237.689	194.06
237.922	147.06
238.156	119.06
238.39	122.06
238.624	146.06
238.858	136.06
239.091	120.06
239.325	134.06
239.559	123.06
239.793	116.06
240.027	127.06
240.26	151.06
240.494	141.06
240.728	136.06
240.961	133.06
241.195	141.06
241.429	129.06
241.662	132.06
241.896	125.06
242.13	142.06
242.363	134.06
242.597	144.06
242.83	139.06
243.064	131.06
243.298	132.06
243.531	136.06
243.765	129.06
243.998	147.06
244.232	144.06
244.465	146.06
244.699	150.06
244.932	154.06
245.166	145.06
245.399	146.06
245.633	138.06
245.866	149.06
246.099	153.06
246.333	143.06
246.566	163.06
246.8	147.06
247.033	144.06
247.266	158.06
247.5	165.06
247.733	167.06
247.966	174.06
248.2	171.06
248.433	166.06
248.666	171.06
248.899	194.06
249.133	196.06
249.366	194.06
249.599	183.06
249.832	161.06
250.066	179.06
250.299	171.06
250.532	197.06
250.765	203.06
250.998	210.06
251.231	223.06
251.465	219.06
251.698	186.06
251.931	200.06
252.164	186.06
252.397	185.06
252.63	194.06
252.863	201.06
253.096	220.06
253.329	230.06
253.562	221.06
253.795	206.06
254.028	203.06
254.261	204.06
254.494	216.06
254.727	255.06
254.96	283.06
255.193	268.06
255.426	233.06
255.659	237.06
255.892	234.06
256.124	224.06
256.357	209.06
256.59	205.06
256.823	210.06
257.056	212.06
257.289	204.06
257.521	190.06
257.754	203.06
257.987	208.06
258.22	195.06
258.452	198.06
258.685	207.06
258.918	196.06
259.151	199.06
259.383	208.06
259.616	229.06
259.849	220.06
260.081	230.06
260.314	251.06
260.547	256.06
260.779	238.06
261.012	219.06
261.244	223.06
261.477	230.06
261.71	226.06
261.942	233.06
262.175	240.06
262.407	217.06
262.64	212.06
262.872	211.06
263.105	217.06
263.337	208.06
263.57	210.06
263.802	208.06
264.035	208.06
264.267	208.06
264.499	207.06
264.732	215.06
264.964	218.06
265.197	194.06
265.429	204.06
265.661	202.06
265.894	201.06
266.126	218.06
266.358	229.06
266.591	211.06
266.823	219.06
267.055	222.06
267.287	227.06
267.52	213.06
267.752	230.06
267.984	223.06
268.216	202.06
268.448	242.06
268.681	233.06
268.913	249.06
269.145	256.06
269.377	259.06
269.609	261.06
269.841	266.06
270.073	260.06
270.306	282.06
270.538	310.06
270.77	303.06
271.002	280.06
271.234	282.06
271.466	281.06
271.698	303.06
271.93	322.06
272.162	315.06
272.394	316.06
272.626	298.06
272.858	282.06
273.09	284.06
273.322	257.06
273.553	258.06
273.785	265.06
274.017	261.06
274.249	258.06
274.481	267.06
274.713	275.06
274.945	267.06
275.176	256.06
275.408	256.06
275.64	259.06
275.872	256.06
276.104	269.06
276.335	261.06
276.567	274.06
276.799	282.06
277.031	300.06
277.262	305.06
277.494	326.06
277.726	292.06
277.957	276.06
278.189	277.06
278.421	270.06
278.652	277.06
278.884	265.06
279.115	240.06
279.347	270.06
279.579	261.06
279.81	247.06
280.042	267.06
280.273	263.06
280.505	261.06
280.736	262.06
280.968	275.06
281.199	268.06
281.431	267.06
281.662	251.06
281.894	277.06
282.125	258.06
282.356	272.06
282.588	300.06
282.819	291.06
283.051	272.06
283.282	259.06
283.513	283.06
283.745	268.06
283.976	264.06
284.207	279.06
284.439	258.06
284.67	268.06
284.901	281.06
285.132	269.06
285.364	279.06
285.595	272.06
285.826	283.06
286.057	268.06
286.288	288.06
286.52	261.06
286.751	268.06
286.982	287.06
287.213	283.06
287.444	278.06
287.675	280.06
287.906	293.06
288.138	281.06
288.369	311.06
288.6	304.06
288.831	284.06
289.062	281.06
289.293	275.06
289.524	284.06
289.755	295.06
289.986	296.06
290.217	284.06
290.448	294.06
290.679	270.06
290.91	271.06
291.141	282.06
291.371	282.06
291.602	286.06
291.833	295.06
292.064	276.06
292.295	283.06
292.526	294.06
292.757	282.06
292.987	297.06
293.218	283.06
293.449	318.06
293.68	300.06
293.91	273.06
294.141	304.06
294.372	284.06
294.603	297.06
294.833	296.06
295.064	297.06
295.295	290.06
295.525	288.06
295.756	302.06
295.987	297.06
296.217	318.06
296.448	315.06
296.679	301.06
296.909	313.06
297.14	303.06
297.37	316.06
297.601	292.06
297.831	312.06
298.062	313.06
298.292	304.06
298.523	288.06
298.753	307.06
298.984	295.06
299.214	316.06
299.445	292.06
299.675	300.06
299.905	319.06
300.136	321.06
300.366	300.06
300.597	290.06
300.827	322.06
301.057	318.06
301.288	312.06
301.518	330.06
301.748	320.06
301.979	330.06
302.209	314.06
302.439	328.06
302.669	311.06
302.9	320.06
303.13	318.06
303.36	305.06
303.59	341.06
303.82	336.06
304.051	343.06
304.281	329.06
304.511	334.06
304.741	322.06
304.971	308.06
305.201	326.06
305.431	319.06
305.661	323.06
305.891	332.06
306.121	335.06
306.352	336.06
306.582	335.06
306.812	330.06
307.042	353.06
307.272	346.06
307.502	327.06
307.731	343.06
307.961	312.06
308.191	340.06
308.421	331.06
308.651	322.06
308.881	343.06
309.111	337.06
309.341	327.06
309.571	328.06
309.8	331.06
310.03	370.06
310.26	374.06
310.49	346.06
310.72	379.06
310.949	377.06
311.179	397.06
311.409	362.06
311.639	368.06
311.868	380.06
312.098	371.06
312.328	376.06
312.557	371.06
312.787	397.06
313.017	387.06
313.246	362.06
313.476	364.06
313.706	372.06
313.935	374.06
314.165	388.06
314.394	391.06
314.624	391.06
314.853	370.06
315.083	380.06
315.312	379.06
315.542	352.06
315.771	366.06
316.001	352.06
316.23	370.06
316.46	354.06
316.689	370.06
316.919	367.06
317.148	368.06
317.377	373.06
317.607	380.06
317.836	379.06
318.065	378.06
318.295	357.06
318.524	358.06
318.753	383.06
318.983	378.06
319.212	371.06
319.441	362.06
319.67	394.06
319.9	398.06
320.129	372.06
320.358	380.06
320.587	390.06
320.816	385.06
321.046	402.06
321.275	384.06
321.504	386.06
321.733	420.06
321.962	401.06
322.191	406.06
322.42	409.06
322.649	431.06
322.878	435.06
323.108	458.06
323.337	444.06
323.566	512.06
323.795	506.06
324.024	532.06
324.253	642.06
324.482	942.06
324.71	1466.06
324.939	2218.06
325.168	1921.06
325.397	947.06
325.626	636.06
325.855	538.06
326.084	500.06
326.313	491.06
326.542	491.06
326.77	548.06
326.999	610.06
327.228	847.06
327.457	1309.06
327.686	1660.06
327.914	1086.06
328.143	700.06
328.372	611.06
328.6	564.06
328.829	568.06
329.058	520.06
329.287	552.06
329.515	519.06
329.744	505.06
329.972	507.06
330.201	540.06
330.43	571.06
330.658	560.06
330.887	587.06
331.115	594.06
331.344	518.06
331.572	484.06
331.801	506.06
332.03	470.06
332.258	472.06
332.486	480.06
332.715	441.06
332.943	454.06
333.172	440.06
333.4	476.06
333.629	456.06
333.857	480.06
334.085	506.06
334.314	527.06
334.542	523.06
334.771	556.06
334.999	510.06
335.227	497.06
335.455	482.06
335.684	465.06
335.912	462.06
336.14	457.06
336.369	455.06
336.597	444.06
336.825	473.06
337.053	451.06
337.281	450.06
337.51	449.06
337.738	461.06
337.966	444.06
338.194	454.06
338.422	468.06
338.65	442.06
338.878	427.06
339.106	436.06
339.334	449.06
339.562	423.06
339.79	452.06
340.018	447.06
340.246	425.06
340.474	440.06
340.702	438.06
340.93	420.06
341.158	412.06
341.386	437.06
341.614	446.06
341.842	435.06
342.07	450.06
342.298	437.06
342.526	412.06
342.754	430.06
342.981	420.06
343.209	426.06
343.437	427.06
343.665	419.06
343.893	437.06
344.12	456.06
344.348	438.06
344.576	444.06
344.804	447.06
345.031	462.06
345.259	461.06
345.487	421.06
345.714	430.06
345.942	446.06
346.17	422.06
346.397	420.06
346.625	417.06
346.853	398.06
347.08	439.06
347.308	434.06
347.535	430.06
347.763	429.06
347.99	435.06
348.218	431.06
348.445	458.06
348.673	454.06
348.9	398.06
349.128	426.06
349.355	411.06
349.583	407.06
349.81	408.06
350.037	427.06
350.265	410.06
350.492	410.06
350.72	427.06
350.947	414.06
351.174	426.06
351.402	425.06
351.629	430.06
351.856	435.06
352.083	423.06
352.311	435.06
352.538	454.06
352.765	449.06
352.992	434.06
353.22	416.06
353.447	425.06
353.674	430.06
353.901	416.06
354.128	421.06
354.355	399.06
354.583	414.06
354.81	406.06
355.037	408.06
355.264	392.06
355.491	411.06
355.718	406.06
355.945	396.06
356.172	413.06
356.399	405.06
356.626	403.06
356.853	398.06
357.08	379.06
357.307	405.06
357.534	401.06
357.761	413.06
357.988	400.06
358.215	404.06
358.441	394.06
358.668	398.06
358.895	410.06
359.122	423.06
359.349	422.06
359.576	408.06
359.802	440.06
360.029	469.06
360.256	491.06
360.483	455.06
360.709	465.06
360.936	423.06
361.163	418.06
361.39	439.06
361.616	432.06
361.843	436.06
362.07	419.06
362.296	421.06
362.523	390.06
362.749	419.06
362.976	426.06
363.203	429.06
363.429	412.06
363.656	424.06
363.882	418.06
364.109	419.06
364.335	427.06
364.562	414.06
364.788	436.06
365.015	447.06
365.241	423.06
365.468	426.06
365.694	424.06
365.92	424.06
366.147	420.06
366.373	408.06
366.599	419.06
366.826	416.06
367.052	397.06
367.278	403.06
367.505	406.06
367.731	402.06
367.957	418.06
368.184	405.06
368.41	420.06
368.636	398.06
368.862	455.06
369.089	428.06
369.315	421.06
369.541	401.06
369.767	440.06
369.993	431.06
370.219	412.06
370.445	421.06
370.672	433.06
370.898	417.06
371.124	426.06
371.35	441.06
371.576	396.06
371.802	431.06
372.028	417.06
372.254	416.06
372.48	416.06
372.706	437.06
372.932	434.06
373.158	420.06
373.384	435.06
373.61	427.06
373.835	428.06
374.061	431.06
374.287	430.06
374.513	430.06
374.739	418.06
374.965	419.06
375.191	419.06
375.416	447.06
375.642	424.06
375.868	427.06
376.094	421.06
376.319	419.06
376.545	424.06
376.771	420.06
376.997	424.06
377.222	424.06
377.448	423.06
377.674	414.06
377.899	422.06
378.125	426.06
378.35	416.06
378.576	419.06
378.802	424.06
379.027	416.06
379.253	445.06
379.478	422.06
379.704	419.06
379.929	419.06
380.155	432.06
380.38	416.06
380.606	435.06
380.831	423.06
381.057	435.06
381.282	410.06
381.507	407.06
381.733	435.06
381.958	429.06
382.184	431.06
382.409	425.06
382.634	438.06
382.86	422.06
383.085	443.06
383.31	430.06
383.535	441.06
383.761	450.06
383.986	439.06
384.211	440.06
384.436	453.06
384.662	448.06
384.887	455.06
385.112	460.06
385.337	471.06
385.562	458.06
385.787	451.06
386.013	480.06
386.238	514.06
386.463	464.06
386.688	462.06
386.913	489.06
387.138	465.06
387.363	471.06
387.588	466.06
387.813	473.06
388.038	478.06
388.263	475.06
388.488	469.06
388.713	467.06
388.938	468.06
389.163	470.06
389.387	482.06
389.612	463.06
389.837	478.06
390.062	465.06
390.287	475.06
390.512	466.06
390.736	478.06
390.961	478.06
391.186	479.06
391.411	473.06
391.636	462.06
391.86	470.06
392.085	482.06
392.31	474.06
392.534	473.06
392.759	502.06
392.984	474.06
393.208	481.06
393.433	485.06
393.658	488.06
393.882	458.06
394.107	473.06
394.331	478.06
394.556	498.06
394.78	484.06
395.005	479.06
395.229	473.06
395.454	481.06
395.678	494.06
395.903	515.06
396.127	510.06
396.352	545.06
396.576	500.06
396.801	483.06
397.025	492.06
397.249	493.06
397.474	524.06
397.698	516.06
397.922	501.06
398.147	551.06
398.371	524.06
398.595	526.06
398.82	544.06
399.044	550.06
399.268	562.06
399.492	601.06
399.717	617.06
399.941	672.06
400.165	694.06
400.389	692.06
400.613	599.06
400.837	592.06
401.062	559.06
401.286	562.06
401.51	547.06
401.734	555.06
401.958	546.06
402.182	561.06
402.406	563.06
402.63	571.06
402.854	575.06
403.078	561.06
403.302	565.06
403.526	575.06
403.75	585.06
403.974	563.06
404.198	564.06
404.422	572.06
404.645	580.06
404.869	591.06
405.093	625.06
405.317	667.06
405.541	710.06
405.765	622.06
405.988	623.06
406.212	601.06
406.436	638.06
406.66	640.06
406.883	612.06
407.107	648.06
407.331	680.06
407.555	758.06
407.778	747.06
408.002	684.06
408.226	640.06
408.449	628.06
408.673	625.06
408.896	646.06
409.12	707.06
409.344	662.06
409.567	605.06
409.791	578.06
410.014	579.06
410.238	577.06
410.461	578.06
410.685	588.06
410.908	610.06
411.132	629.06
411.355	678.06
411.578	655.06
411.802	612.06
412.025	577.06
412.249	587.06
412.472	606.06
412.695	663.06
412.919	652.06
413.142	610.06
413.365	569.06
413.589	549.06
413.812	552.06
414.035	555.06
414.258	536.06
414.482	544.06
414.705	553.06
414.928	569.06
415.151	539.06
415.374	559.06
415.597	544.06
415.821	522.06
416.044	538.06
416.267	544.06
416.49	534.06
416.713	536.06
416.936	579.06
417.159	549.06
417.382	538.06
417.605	547.06
417.828	554.06
418.051	564.06
418.274	550.06
418.497	543.06
418.72	546.06
418.943	543.06
419.166	562.06
419.389	591.06
419.611	570.06
419.834	568.06
420.057	584.06
420.28	561.06
420.503	572.06
420.726	569.06
420.948	586.06
421.171	608.06
421.394	661.06
421.617	596.06
421.839	585.06
422.062	594.06
422.285	595.06
422.507	635.06
422.73	755.06
422.953	704.06
423.175	608.06
423.398	564.06
423.621	592.06
423.843	611.06
424.066	625.06
424.288	610.06
424.511	626.06
424.733	686.06
424.956	760.06
425.178	741.06
425.401	728.06
425.623	756.06
425.846	648.06
426.068	606.06
426.291	599.06
426.513	622.06
426.735	620.06
426.958	654.06
427.18	739.06
427.402	889.06
427.625	974.06
427.847	845.06
428.069	736.06
428.292	681.06
428.514	599.06
428.736	570.06
428.958	564.06
429.181	577.06
429.403	562.06
429.625	587.06
429.847	584.06
430.069	670.06
430.292	668.06
430.514	599.06
430.736	574.06
430.958	559.06
431.18	536.06
431.402	530.06
431.624	526.06
431.846	527.06
432.068	495.06
432.29	537.06
432.512	523.06
432.734	558.06
432.956	528.06
433.178	554.06
433.4	551.06
433.622	544.06
433.844	545.06
434.066	550.06
434.287	536.06
434.509	527.06
434.731	555.06
434.953	544.06
435.175	574.06
435.397	624.06
435.618	596.06
435.84	668.06
436.062	773.06
436.284	840.06
436.505	682.06
436.727	647.06
436.949	582.06
437.17	568.06
437.392	565.06
437.614	580.06
437.835	583.06
438.057	716.06
438.278	834.06
438.5	832.06
438.721	899.06
438.943	883.06
439.165	697.06
439.386	618.06
439.608	611.06
439.829	619.06
440.05	651.06
440.272	711.06
440.493	672.06
440.715	610.06
440.936	586.06
441.158	561.06
441.379	583.06
441.6	586.06
441.822	603.06
442.043	663.06
442.264	735.06
442.486	768.06
442.707	648.06
442.928	635.06
443.149	617.06
443.371	636.06
443.592	699.06
443.813	800.06
444.034	871.06
444.255	710.06
444.476	640.06
444.698	624.06
444.919	618.06
445.14	750.06
445.361	686.06
445.582	655.06
445.803	718.06
446.024	840.06
446.245	869.06
446.466	778.06
446.687	660.06
446.908	623.06
447.129	580.06
447.35	560.06
447.571	550.06
447.792	573.06
448.013	546.06
448.234	579.06
448.455	642.06
448.675	760.06
448.896	886.06
449.117	712.06
449.338	715.06
449.559	815.06
449.779	961.06
450	735.06
450.221	611.06
450.442	591.06
450.662	552.06
450.883	533.06
451.104	572.06
451.324	572.06
451.545	531.06
451.766	514.06
451.986	517.06
452.207	513.06
452.428	498.06
452.648	510.06
452.869	507.06
453.089	523.06
453.31	507.06
453.53	498.06
453.751	514.06
453.971	499.06
454.192	502.06
454.412	514.06
454.633	518.06
454.853	497.06
455.073	498.06
455.294	531.06
455.514	593.06
455.734	572.06
455.955	512.06
456.175	482.06
456.395	486.06
456.616	457.06
456.836	491.06
457.056	460.06
457.276	455.06
457.497	479.06
457.717	491.06
457.937	483.06
458.157	490.06
458.377	478.06
458.598	495.06
458.818	569.06
459.038	673.06
459.258	676.06
459.478	584.06
459.698	547.06
459.918	549.06
460.138	540.06
460.358	502.06
460.578	534.06
460.798	563.06
461.018	563.06
461.238	560.06
461.458	571.06
461.678	536.06
461.898	562.06
462.118	549.06
462.338	578.06
462.558	578.06
462.777	578.06
462.997	601.06
463.217	586.06
463.437	626.06
463.657	604.06
463.876	597.06
464.096	601.06
464.316	605.06
464.536	592.06
464.755	604.06
464.975	611.06
465.195	629.06
465.414	700.06
465.634	626.06
465.854	582.06
466.073	539.06
466.293	530.06
466.512	545.06
466.732	511.06
466.951	544.06
467.171	501.06
467.391	524.06
467.61	538.06
467.829	550.06
468.049	524.06
468.268	527.06
468.488	532.06
468.707	506.06
468.927	514.06
469.146	505.06
469.365	494.06
469.585	504.06
469.804	524.06
470.023	523.06
470.243	548.06
470.462	537.06
470.681	557.06
470.901	554.06
471.12	514.06
471.339	528.06
471.558	519.06
471.777	541.06
471.997	533.06
472.216	536.06
472.435	563.06
472.654	570.06
472.873	532.06
473.092	517.06
473.311	527.06
473.53	524.06
473.749	550.06
473.968	587.06
474.187	664.06
474.406	700.06
474.625	610.06
474.844	545.06
475.063	541.06
475.282	542.06
475.501	521.06
475.72	537.06
475.939	566.06
476.158	558.06
476.377	516.06
476.596	543.06
476.814	559.06
477.033	561.06
477.252	565.06
477.471	567.06
477.69	570.06
477.908	594.06
478.127	568.06
478.346	590.06
478.564	604.06
478.783	603.06
479.002	587.06
479.22	587.06
479.439	603.06
479.658	641.06
479.876	637.06
480.095	649.06
480.313	713.06
480.532	694.06
480.751	639.06
480.969	654.06
481.188	708.06
481.406	770.06
481.624	679.06
481.843	634.06
482.061	630.06
482.28	631.06
482.498	630.06
482.717	617.06
482.935	624.06
483.153	614.06
483.372	632.06
483.59	618.06
483.808	620.06
484.027	613.06
484.245	627.06
484.463	634.06
484.681	643.06
484.9	648.06
485.118	652.06
485.336	647.06
485.554	643.06
485.772	622.06
485.99	652.06
486.209	670.06
486.427	666.06
486.645	670.06
486.863	656.06
487.081	662.06
487.299	668.06
487.517	674.06
487.735	690.06
487.953	659.06
488.171	682.06
488.389	667.06
488.607	679.06
488.825	673.06
489.043	650.06
489.261	689.06
489.479	664.06
489.696	693.06
489.914	672.06
490.132	710.06
490.35	727.06
490.568	720.06
490.786	690.06
491.003	731.06
491.221	712.06
491.439	755.06
491.657	745.06
491.874	740.06
492.092	770.06
492.31	767.06
492.527	777.06
492.745	778.06
492.963	789.06
493.18	774.06
493.398	810.06
493.615	791.06
493.833	804.06
494.05	808.06
494.268	780.06
494.485	791.06
494.703	789.06
494.92	794.06
495.138	803.06
495.355	801.06
495.573	792.06
495.79	776.06
496.008	814.06
496.225	819.06
496.442	786.06
496.66	829.06
496.877	808.06
497.094	798.06
497.312	843.06
497.529	834.06
497.746	812.06
497.963	824.06
498.181	879.06
498.398	892.06
498.615	907.06
498.832	910.06
499.049	896.06
499.267	954.06
499.484	959.06
499.701	1006.06
499.918	1048.06
500.135	1089.06
500.352	1136.06
500.569	1145.06
500.786	1171.06
501.003	1146.06
501.22	1147.06
501.437	1087.06
501.654	1031.06
