Data from 1966.PennyLincolnUp.Lamp.En5.5.200Scan.071719.P1._HRD10591_14-12-24-912.txt Node
Date: Thu Jul 18 14:12:24 EDT 2019
User: cochatt
Spectrometer: HR+D1059
Trigger mode: 1
Integration Time (sec): 1.000000E-1
Scans to average: 1
Electric dark correction enabled: true
Nonlinearity correction enabled: false
Boxcar width: 0
XAxis mode: Wavelengths
Number of Pixels in Spectrum: 2048
>>>>>Begin Spectral Data<<<<<
223.165	-34.38
223.4	-34.38
223.635	-34.38
223.869	-11.38
224.104	-13.38
224.338	-16.38
224.573	-14.38
224.808	-15.38
225.042	-10.38
225.277	-10.38
225.511	1.62
225.746	5.62
225.98	9.62
226.215	13.62
226.449	15.62
226.683	19.62
226.918	21.62
227.152	38.62
227.387	26.62
227.621	52.62
227.856	35.62
228.09	45.62
228.324	41.62
228.559	61.62
228.793	70.62
229.027	87.62
229.262	83.62
229.496	76.62
229.73	74.62
229.964	94.62
230.199	76.62
230.433	80.62
230.667	89.62
230.901	72.62
231.136	68.62
231.37	93.62
231.604	90.62
231.838	89.62
232.072	88.62
232.306	92.62
232.541	88.62
232.775	101.62
233.009	85.62
233.243	88.62
233.477	75.62
233.711	92.62
233.945	90.62
234.179	98.62
234.413	95.62
234.647	81.62
234.881	98.62
235.115	103.62
235.349	103.62
235.583	95.62
235.817	111.62
236.051	103.62
236.285	92.62
236.519	93.62
236.753	108.62
236.987	86.62
237.221	119.62
237.455	124.62
237.689	126.62
237.922	92.62
238.156	100.62
238.39	78.62
238.624	105.62
238.858	90.62
239.091	94.62
239.325	88.62
239.559	88.62
239.793	99.62
240.027	90.62
240.26	104.62
240.494	115.62
240.728	109.62
240.961	99.62
241.195	105.62
241.429	100.62
241.662	100.62
241.896	82.62
242.13	100.62
242.363	101.62
242.597	95.62
242.83	110.62
243.064	97.62
243.298	90.62
243.531	96.62
243.765	103.62
243.998	105.62
244.232	97.62
244.465	97.62
244.699	98.62
244.932	101.62
245.166	100.62
245.399	113.62
245.633	98.62
245.866	85.62
246.099	102.62
246.333	104.62
246.566	89.62
246.8	100.62
247.033	110.62
247.266	120.62
247.5	110.62
247.733	87.62
247.966	128.62
248.2	114.62
248.433	103.62
248.666	105.62
248.899	120.62
249.133	130.62
249.366	133.62
249.599	112.62
249.832	115.62
250.066	120.62
250.299	124.62
250.532	124.62
250.765	129.62
250.998	132.62
251.231	138.62
251.465	124.62
251.698	117.62
251.931	118.62
252.164	121.62
252.397	116.62
252.63	118.62
252.863	123.62
253.096	112.62
253.329	126.62
253.562	133.62
253.795	132.62
254.028	131.62
254.261	119.62
254.494	125.62
254.727	158.62
254.96	150.62
255.193	161.62
255.426	134.62
255.659	127.62
255.892	146.62
256.124	130.62
256.357	141.62
256.59	140.62
256.823	121.62
257.056	120.62
257.289	112.62
257.521	125.62
257.754	130.62
257.987	115.62
258.22	122.62
258.452	130.62
258.685	128.62
258.918	110.62
259.151	131.62
259.383	126.62
259.616	128.62
259.849	134.62
260.081	141.62
260.314	156.62
260.547	145.62
260.779	140.62
261.012	129.62
261.244	132.62
261.477	126.62
261.71	138.62
261.942	125.62
262.175	124.62
262.407	130.62
262.64	138.62
262.872	119.62
263.105	139.62
263.337	135.62
263.57	109.62
263.802	138.62
264.035	127.62
264.267	133.62
264.499	132.62
264.732	122.62
264.964	123.62
265.197	124.62
265.429	130.62
265.661	115.62
265.894	132.62
266.126	149.62
266.358	124.62
266.591	127.62
266.823	132.62
267.055	136.62
267.287	140.62
267.52	125.62
267.752	125.62
267.984	137.62
268.216	125.62
268.448	132.62
268.681	148.62
268.913	139.62
269.145	150.62
269.377	142.62
269.609	149.62
269.841	131.62
270.073	144.62
270.306	157.62
270.538	189.62
270.77	171.62
271.002	150.62
271.234	176.62
271.466	157.62
271.698	170.62
271.93	168.62
272.162	163.62
272.394	148.62
272.626	164.62
272.858	155.62
273.09	152.62
273.322	148.62
273.553	150.62
273.785	148.62
274.017	130.62
274.249	150.62
274.481	164.62
274.713	147.62
274.945	151.62
275.176	159.62
275.408	148.62
275.64	148.62
275.872	158.62
276.104	155.62
276.335	153.62
276.567	156.62
276.799	152.62
277.031	162.62
277.262	179.62
277.494	167.62
277.726	152.62
277.957	162.62
278.189	163.62
278.421	133.62
278.652	162.62
278.884	150.62
279.115	139.62
279.347	157.62
279.579	141.62
279.81	158.62
280.042	152.62
280.273	136.62
280.505	150.62
280.736	144.62
280.968	158.62
281.199	148.62
281.431	151.62
281.662	136.62
281.894	148.62
282.125	150.62
282.356	159.62
282.588	187.62
282.819	150.62
283.051	137.62
283.282	150.62
283.513	155.62
283.745	158.62
283.976	154.62
284.207	155.62
284.439	161.62
284.67	150.62
284.901	137.62
285.132	145.62
285.364	138.62
285.595	158.62
285.826	159.62
286.057	145.62
286.288	157.62
286.52	162.62
286.751	165.62
286.982	153.62
287.213	159.62
287.444	150.62
287.675	140.62
287.906	153.62
288.138	165.62
288.369	148.62
288.6	162.62
288.831	156.62
289.062	150.62
289.293	166.62
289.524	168.62
289.755	164.62
289.986	153.62
290.217	142.62
290.448	166.62
290.679	168.62
290.91	166.62
291.141	161.62
291.371	167.62
291.602	166.62
291.833	148.62
292.064	174.62
292.295	161.62
292.526	162.62
292.757	156.62
292.987	158.62
293.218	149.62
293.449	133.62
293.68	161.62
293.91	153.62
294.141	159.62
294.372	158.62
294.603	156.62
294.833	154.62
295.064	156.62
295.295	172.62
295.525	155.62
295.756	161.62
295.987	157.62
296.217	157.62
296.448	173.62
296.679	189.62
296.909	160.62
297.14	163.62
297.37	164.62
297.601	165.62
297.831	162.62
298.062	166.62
298.292	156.62
298.523	160.62
298.753	176.62
298.984	153.62
299.214	164.62
299.445	169.62
299.675	177.62
299.905	151.62
300.136	163.62
300.366	169.62
300.597	165.62
300.827	169.62
301.057	174.62
301.288	168.62
301.518	166.62
301.748	180.62
301.979	188.62
302.209	183.62
302.439	173.62
302.669	162.62
302.9	169.62
303.13	166.62
303.36	182.62
303.59	162.62
303.82	180.62
304.051	174.62
304.281	178.62
304.511	189.62
304.741	194.62
304.971	174.62
305.201	177.62
305.431	157.62
305.661	168.62
305.891	186.62
306.121	168.62
306.352	163.62
306.582	186.62
306.812	178.62
307.042	181.62
307.272	162.62
307.502	168.62
307.731	183.62
307.961	160.62
308.191	185.62
308.421	176.62
308.651	179.62
308.881	176.62
309.111	188.62
309.341	182.62
309.571	194.62
309.8	179.62
310.03	173.62
310.26	187.62
310.49	185.62
310.72	192.62
310.949	189.62
311.179	197.62
311.409	184.62
311.639	194.62
311.868	180.62
312.098	187.62
312.328	192.62
312.557	203.62
312.787	222.62
313.017	212.62
313.246	176.62
313.476	196.62
313.706	179.62
313.935	189.62
314.165	200.62
314.394	208.62
314.624	204.62
314.853	189.62
315.083	200.62
315.312	205.62
315.542	188.62
315.771	197.62
316.001	182.62
316.23	191.62
316.46	189.62
316.689	203.62
316.919	219.62
317.148	184.62
317.377	189.62
317.607	202.62
317.836	194.62
318.065	189.62
318.295	180.62
318.524	173.62
318.753	194.62
318.983	172.62
319.212	184.62
319.441	201.62
319.67	200.62
319.9	189.62
320.129	198.62
320.358	186.62
320.587	181.62
320.816	188.62
321.046	197.62
321.275	184.62
321.504	187.62
321.733	210.62
321.962	198.62
322.191	203.62
322.42	210.62
322.649	221.62
322.878	213.62
323.108	193.62
323.337	234.62
323.566	227.62
323.795	243.62
324.024	255.62
324.253	316.62
324.482	447.62
324.71	651.62
324.939	869.62
325.168	709.62
325.397	364.62
325.626	263.62
325.855	231.62
326.084	222.62
326.313	221.62
326.542	223.62
326.77	254.62
326.999	306.62
327.228	407.62
327.457	593.62
327.686	675.62
327.914	435.62
328.143	298.62
328.372	282.62
328.6	269.62
328.829	254.62
329.058	269.62
329.287	268.62
329.515	250.62
329.744	240.62
329.972	237.62
330.201	246.62
330.43	266.62
330.658	279.62
330.887	308.62
331.115	283.62
331.344	252.62
331.572	229.62
331.801	231.62
332.03	226.62
332.258	219.62
332.486	230.62
332.715	204.62
332.943	216.62
333.172	241.62
333.4	229.62
333.629	209.62
333.857	234.62
334.085	219.62
334.314	225.62
334.542	268.62
334.771	271.62
334.999	242.62
335.227	227.62
335.455	216.62
335.684	227.62
335.912	224.62
336.14	211.62
336.369	222.62
336.597	235.62
336.825	218.62
337.053	213.62
337.281	230.62
337.51	215.62
337.738	214.62
337.966	220.62
338.194	206.62
338.422	192.62
338.65	203.62
338.878	214.62
339.106	223.62
339.334	220.62
339.562	217.62
339.79	201.62
340.018	190.62
340.246	205.62
340.474	213.62
340.702	210.62
340.93	208.62
341.158	203.62
341.386	215.62
341.614	221.62
341.842	210.62
342.07	206.62
342.298	208.62
342.526	215.62
342.754	198.62
342.981	208.62
343.209	217.62
343.437	222.62
343.665	202.62
343.893	209.62
344.12	221.62
344.348	213.62
344.576	228.62
344.804	205.62
345.031	216.62
345.259	241.62
345.487	226.62
345.714	210.62
345.942	203.62
346.17	219.62
346.397	206.62
346.625	199.62
346.853	195.62
347.08	212.62
347.308	195.62
347.535	203.62
347.763	205.62
347.99	193.62
348.218	192.62
348.445	206.62
348.673	217.62
348.9	216.62
349.128	200.62
349.355	196.62
349.583	196.62
349.81	185.62
350.037	194.62
350.265	194.62
350.492	207.62
350.72	188.62
350.947	202.62
351.174	190.62
351.402	217.62
351.629	212.62
351.856	209.62
352.083	206.62
352.311	202.62
352.538	193.62
352.765	198.62
352.992	211.62
353.22	200.62
353.447	192.62
353.674	192.62
353.901	198.62
354.128	184.62
354.355	180.62
354.583	195.62
354.81	188.62
355.037	205.62
355.264	187.62
355.491	179.62
355.718	192.62
355.945	202.62
356.172	189.62
356.399	187.62
356.626	187.62
356.853	194.62
357.08	197.62
357.307	188.62
357.534	174.62
357.761	196.62
357.988	180.62
358.215	195.62
358.441	193.62
358.668	192.62
358.895	196.62
359.122	206.62
359.349	192.62
359.576	199.62
359.802	210.62
360.029	218.62
360.256	247.62
360.483	213.62
360.709	198.62
360.936	221.62
361.163	209.62
361.39	188.62
361.616	203.62
361.843	210.62
362.07	211.62
362.296	203.62
362.523	211.62
362.749	194.62
362.976	197.62
363.203	194.62
363.429	199.62
363.656	190.62
363.882	178.62
364.109	194.62
364.335	184.62
364.562	196.62
364.788	193.62
365.015	192.62
365.241	188.62
365.468	199.62
365.694	192.62
365.92	184.62
366.147	192.62
366.373	194.62
366.599	205.62
366.826	192.62
367.052	199.62
367.278	208.62
367.505	197.62
367.731	200.62
367.957	187.62
368.184	210.62
368.41	184.62
368.636	196.62
368.862	196.62
369.089	197.62
369.315	186.62
369.541	205.62
369.767	195.62
369.993	197.62
370.219	195.62
370.445	192.62
370.672	195.62
370.898	188.62
371.124	188.62
371.35	180.62
371.576	186.62
371.802	205.62
372.028	188.62
372.254	190.62
372.48	185.62
372.706	202.62
372.932	188.62
373.158	197.62
373.384	199.62
373.61	191.62
373.835	184.62
374.061	190.62
374.287	192.62
374.513	202.62
374.739	204.62
374.965	181.62
375.191	218.62
375.416	192.62
375.642	183.62
375.868	204.62
376.094	194.62
376.319	184.62
376.545	187.62
376.771	182.62
376.997	187.62
377.222	200.62
377.448	195.62
377.674	193.62
377.899	191.62
378.125	198.62
378.35	216.62
378.576	214.62
378.802	200.62
379.027	194.62
379.253	211.62
379.478	213.62
379.704	187.62
379.929	189.62
380.155	199.62
380.38	204.62
380.606	187.62
380.831	188.62
381.057	180.62
381.282	197.62
381.507	205.62
381.733	196.62
381.958	207.62
382.184	191.62
382.409	206.62
382.634	210.62
382.86	230.62
383.085	209.62
383.31	196.62
383.535	208.62
383.761	207.62
383.986	184.62
384.211	196.62
384.436	194.62
384.662	199.62
384.887	219.62
385.112	217.62
385.337	202.62
385.562	209.62
385.787	222.62
386.013	203.62
386.238	214.62
386.463	223.62
386.688	227.62
386.913	210.62
387.138	203.62
387.363	209.62
387.588	213.62
387.813	206.62
388.038	214.62
388.263	210.62
388.488	199.62
388.713	204.62
388.938	219.62
389.163	220.62
389.387	199.62
389.612	204.62
389.837	218.62
390.062	215.62
390.287	205.62
390.512	188.62
390.736	186.62
390.961	219.62
391.186	213.62
391.411	204.62
391.636	222.62
391.86	216.62
392.085	221.62
392.31	240.62
392.534	212.62
392.759	206.62
392.984	203.62
393.208	212.62
393.433	225.62
393.658	219.62
393.882	213.62
394.107	201.62
394.331	206.62
394.556	196.62
394.78	210.62
395.005	219.62
395.229	196.62
395.454	203.62
395.678	208.62
395.903	227.62
396.127	240.62
396.352	233.62
396.576	222.62
396.801	245.62
397.025	238.62
397.249	229.62
397.474	232.62
397.698	231.62
397.922	240.62
398.147	227.62
398.371	227.62
398.595	227.62
398.82	224.62
399.044	235.62
399.268	242.62
399.492	248.62
399.717	258.62
399.941	278.62
400.165	284.62
400.389	300.62
400.613	267.62
400.837	240.62
401.062	243.62
401.286	226.62
401.51	252.62
401.734	229.62
401.958	231.62
402.182	225.62
402.406	236.62
402.63	246.62
402.854	230.62
403.078	235.62
403.302	235.62
403.526	245.62
403.75	235.62
403.974	252.62
404.198	252.62
404.422	258.62
404.645	260.62
404.869	262.62
405.093	257.62
405.317	281.62
405.541	310.62
405.765	276.62
405.988	252.62
406.212	257.62
406.436	264.62
406.66	281.62
406.883	266.62
407.107	276.62
407.331	282.62
407.555	322.62
407.778	323.62
408.002	291.62
408.226	260.62
408.449	264.62
408.673	280.62
408.896	285.62
409.12	276.62
409.344	293.62
409.567	259.62
409.791	233.62
410.014	239.62
410.238	234.62
410.461	237.62
410.685	243.62
410.908	253.62
411.132	270.62
411.355	268.62
411.578	266.62
411.802	248.62
412.025	244.62
412.249	260.62
412.472	265.62
412.695	269.62
412.919	269.62
413.142	266.62
413.365	237.62
413.589	248.62
413.812	232.62
414.035	254.62
414.258	236.62
414.482	230.62
414.705	228.62
414.928	233.62
415.151	238.62
415.374	216.62
415.597	228.62
415.821	246.62
416.044	243.62
416.267	246.62
416.49	235.62
416.713	238.62
416.936	221.62
417.159	221.62
417.382	238.62
417.605	263.62
417.828	229.62
418.051	246.62
418.274	247.62
418.497	234.62
418.72	249.62
418.943	227.62
419.166	233.62
419.389	252.62
419.611	250.62
419.834	249.62
420.057	247.62
420.28	235.62
420.503	246.62
420.726	264.62
420.948	255.62
421.171	264.62
421.394	271.62
421.617	248.62
421.839	252.62
422.062	243.62
422.285	242.62
422.507	280.62
422.73	305.62
422.953	288.62
423.175	260.62
423.398	258.62
423.621	269.62
423.843	278.62
424.066	264.62
424.288	260.62
424.511	266.62
424.733	284.62
424.956	304.62
425.178	314.62
425.401	299.62
425.623	300.62
425.846	258.62
426.068	250.62
426.291	273.62
426.513	274.62
426.735	263.62
426.958	274.62
427.18	330.62
427.402	354.62
427.625	389.62
427.847	328.62
428.069	292.62
428.292	267.62
428.514	253.62
428.736	245.62
428.958	262.62
429.181	243.62
429.403	218.62
429.625	235.62
429.847	256.62
430.069	279.62
430.292	266.62
430.514	240.62
430.736	230.62
430.958	234.62
431.18	220.62
431.402	232.62
431.624	230.62
431.846	221.62
432.068	239.62
432.29	240.62
432.512	236.62
432.734	242.62
432.956	239.62
433.178	233.62
433.4	229.62
433.622	243.62
433.844	229.62
434.066	215.62
434.287	223.62
434.509	230.62
434.731	243.62
434.953	246.62
435.175	262.62
435.397	245.62
435.618	256.62
435.84	293.62
436.062	312.62
436.284	325.62
436.505	284.62
436.727	269.62
436.949	236.62
437.17	235.62
437.392	236.62
437.614	240.62
437.835	285.62
438.057	297.62
438.278	316.62
438.5	338.62
438.721	357.62
438.943	346.62
439.165	271.62
439.386	262.62
439.608	279.62
439.829	259.62
440.05	277.62
440.272	295.62
440.493	272.62
440.715	265.62
440.936	266.62
441.158	238.62
441.379	250.62
441.6	241.62
441.822	266.62
442.043	296.62
442.264	332.62
442.486	331.62
442.707	296.62
442.928	233.62
443.149	269.62
443.371	275.62
443.592	288.62
443.813	329.62
444.034	354.62
444.255	294.62
444.476	271.62
444.698	256.62
444.919	263.62
445.14	363.62
445.361	306.62
445.582	288.62
445.803	293.62
446.024	338.62
446.245	351.62
446.466	297.62
446.687	290.62
446.908	260.62
447.129	237.62
447.35	237.62
447.571	241.62
447.792	226.62
448.013	247.62
448.234	234.62
448.455	257.62
448.675	324.62
448.896	351.62
449.117	280.62
449.338	300.62
449.559	320.62
449.779	381.62
450	272.62
450.221	258.62
450.442	229.62
450.662	220.62
450.883	252.62
451.104	249.62
451.324	224.62
451.545	216.62
451.766	217.62
451.986	213.62
452.207	212.62
452.428	228.62
452.648	218.62
452.869	216.62
453.089	229.62
453.31	237.62
453.53	233.62
453.751	213.62
453.971	224.62
454.192	221.62
454.412	237.62
454.633	228.62
454.853	220.62
455.073	217.62
455.294	230.62
455.514	276.62
455.734	244.62
455.955	225.62
456.175	209.62
456.395	201.62
456.616	206.62
456.836	213.62
457.056	213.62
457.276	202.62
457.497	207.62
457.717	218.62
457.937	215.62
458.157	209.62
458.377	203.62
458.598	232.62
458.818	244.62
459.038	293.62
459.258	288.62
459.478	235.62
459.698	218.62
459.918	225.62
460.138	228.62
460.358	246.62
460.578	233.62
460.798	230.62
461.018	243.62
461.238	243.62
461.458	250.62
461.678	228.62
461.898	240.62
462.118	249.62
462.338	233.62
462.558	243.62
462.777	240.62
462.997	267.62
463.217	260.62
463.437	250.62
463.657	245.62
463.876	243.62
464.096	261.62
464.316	248.62
464.536	260.62
464.755	267.62
464.975	270.62
465.195	289.62
465.414	300.62
465.634	272.62
465.854	236.62
466.073	244.62
466.293	205.62
466.512	226.62
466.732	233.62
466.951	216.62
467.171	241.62
467.391	238.62
467.61	240.62
467.829	240.62
468.049	216.62
468.268	235.62
468.488	233.62
468.707	211.62
468.927	220.62
469.146	227.62
469.365	213.62
469.585	217.62
469.804	228.62
470.023	237.62
470.243	232.62
470.462	225.62
470.681	226.62
470.901	232.62
471.12	227.62
471.339	233.62
471.558	258.62
471.777	235.62
471.997	226.62
472.216	231.62
472.435	251.62
472.654	233.62
472.873	221.62
473.092	237.62
473.311	232.62
473.53	226.62
473.749	228.62
473.968	243.62
474.187	273.62
474.406	300.62
474.625	235.62
474.844	224.62
475.063	224.62
475.282	218.62
475.501	227.62
475.72	231.62
475.939	213.62
476.158	218.62
476.377	233.62
476.596	251.62
476.814	233.62
477.033	221.62
477.252	237.62
477.471	231.62
477.69	259.62
477.908	246.62
478.127	236.62
478.346	245.62
478.564	258.62
478.783	238.62
479.002	263.62
479.22	264.62
479.439	265.62
479.658	265.62
479.876	260.62
480.095	280.62
480.313	264.62
480.532	288.62
480.751	262.62
480.969	270.62
481.188	312.62
481.406	314.62
481.624	273.62
481.843	279.62
482.061	261.62
482.28	264.62
482.498	255.62
482.717	281.62
482.935	268.62
483.153	278.62
483.372	251.62
483.59	256.62
483.808	270.62
484.027	267.62
484.245	250.62
484.463	254.62
484.681	277.62
484.9	274.62
485.118	277.62
485.336	293.62
485.554	280.62
485.772	266.62
485.99	267.62
486.209	270.62
486.427	270.62
486.645	286.62
486.863	282.62
487.081	274.62
487.299	281.62
487.517	292.62
487.735	284.62
487.953	280.62
488.171	291.62
488.389	264.62
488.607	266.62
488.825	267.62
489.043	291.62
489.261	282.62
489.479	259.62
489.696	294.62
489.914	305.62
490.132	282.62
490.35	289.62
490.568	296.62
490.786	295.62
491.003	321.62
491.221	314.62
491.439	325.62
491.657	324.62
491.874	321.62
492.092	301.62
492.31	323.62
492.527	322.62
492.745	309.62
492.963	321.62
493.18	316.62
493.398	320.62
493.615	326.62
493.833	313.62
494.05	317.62
494.268	317.62
494.485	319.62
494.703	307.62
494.92	324.62
495.138	324.62
495.355	321.62
495.573	328.62
495.79	302.62
496.008	329.62
496.225	339.62
496.442	321.62
496.66	324.62
496.877	344.62
497.094	314.62
497.312	334.62
497.529	338.62
497.746	329.62
497.963	328.62
498.181	317.62
498.398	353.62
498.615	338.62
498.832	354.62
499.049	367.62
499.267	366.62
499.484	370.62
499.701	384.62
499.918	417.62
500.135	407.62
500.352	438.62
500.569	455.62
500.786	437.62
501.003	433.62
501.22	421.62
501.437	411.62
501.654	404.62
501.871	386.62
502.088	382.62
502.305	370.62
502.522	370.62
502.739	343.62
