Data from 1966.PennyLincolnUp.Lamp.En5.5.200Scan.071719.P1.Scan2.head_HRD10591_14-17-07-084.txt Node
Date: Thu Jul 18 14:17:07 EDT 2019
User: cochatt
Spectrometer: HR+D1059
Trigger mode: 1
Integration Time (sec): 1.000000E-1
Scans to average: 1
Electric dark correction enabled: true
Nonlinearity correction enabled: false
Boxcar width: 0
XAxis mode: Wavelengths
Number of Pixels in Spectrum: 2048
>>>>>Begin Spectral Data<<<<<
223.165	-5.94
223.4	-5.94
223.635	-5.94
223.869	-5.94
224.104	-22.94
224.338	-2.94
224.573	-22.94
224.808	-0.94
225.042	-12.94
225.277	-11.94
225.511	-3.94
225.746	-4.94
225.98	-0.94
226.215	1.06
226.449	20.06
226.683	24.06
226.918	18.06
227.152	33.06
227.387	25.06
227.621	29.06
227.856	41.06
228.09	47.06
228.324	32.06
228.559	51.06
228.793	64.06
229.027	77.06
229.262	96.06
229.496	108.06
229.73	109.06
229.964	149.06
230.199	132.06
230.433	105.06
230.667	108.06
230.901	100.06
231.136	100.06
231.37	116.06
231.604	124.06
231.838	122.06
232.072	106.06
232.306	124.06
232.541	122.06
232.775	104.06
233.009	105.06
233.243	117.06
233.477	117.06
233.711	108.06
233.945	116.06
234.179	114.06
234.413	105.06
234.647	118.06
234.881	117.06
235.115	112.06
235.349	112.06
235.583	118.06
235.817	113.06
236.051	120.06
236.285	122.06
236.519	120.06
236.753	107.06
236.987	122.06
237.221	147.06
237.455	211.06
237.689	169.06
237.922	131.06
238.156	124.06
238.39	124.06
238.624	100.06
238.858	121.06
239.091	122.06
239.325	120.06
239.559	122.06
239.793	108.06
240.027	121.06
240.26	139.06
240.494	128.06
240.728	121.06
240.961	143.06
241.195	142.06
241.429	139.06
241.662	123.06
241.896	128.06
242.13	139.06
242.363	127.06
242.597	140.06
242.83	141.06
243.064	143.06
243.298	125.06
243.531	151.06
243.765	150.06
243.998	145.06
244.232	131.06
244.465	141.06
244.699	137.06
244.932	141.06
245.166	149.06
245.399	135.06
245.633	133.06
245.866	132.06
246.099	122.06
246.333	167.06
246.566	128.06
246.8	154.06
247.033	143.06
247.266	144.06
247.5	159.06
247.733	170.06
247.966	159.06
248.2	169.06
248.433	156.06
248.666	165.06
248.899	175.06
249.133	182.06
249.366	185.06
249.599	196.06
249.832	169.06
250.066	164.06
250.299	195.06
250.532	181.06
250.765	190.06
250.998	210.06
251.231	226.06
251.465	220.06
251.698	213.06
251.931	188.06
252.164	181.06
252.397	187.06
252.63	202.06
252.863	200.06
253.096	220.06
253.329	200.06
253.562	209.06
253.795	213.06
254.028	218.06
254.261	204.06
254.494	216.06
254.727	223.06
254.96	267.06
255.193	254.06
255.426	214.06
255.659	209.06
255.892	240.06
256.124	211.06
256.357	215.06
256.59	205.06
256.823	217.06
257.056	200.06
257.289	206.06
257.521	191.06
257.754	196.06
257.987	193.06
258.22	204.06
258.452	205.06
258.685	205.06
258.918	188.06
259.151	202.06
259.383	195.06
259.616	231.06
259.849	216.06
260.081	220.06
260.314	248.06
260.547	249.06
260.779	243.06
261.012	216.06
261.244	221.06
261.477	215.06
261.71	213.06
261.942	212.06
262.175	218.06
262.407	210.06
262.64	203.06
262.872	205.06
263.105	214.06
263.337	215.06
263.57	215.06
263.802	199.06
264.035	206.06
264.267	206.06
264.499	212.06
264.732	199.06
264.964	210.06
265.197	214.06
265.429	197.06
265.661	192.06
265.894	205.06
266.126	212.06
266.358	197.06
266.591	211.06
266.823	219.06
267.055	215.06
267.287	227.06
267.52	219.06
267.752	216.06
267.984	218.06
268.216	219.06
268.448	221.06
268.681	232.06
268.913	232.06
269.145	248.06
269.377	263.06
269.609	253.06
269.841	253.06
270.073	263.06
270.306	269.06
270.538	292.06
270.77	314.06
271.002	284.06
271.234	266.06
271.466	278.06
271.698	288.06
271.93	292.06
272.162	292.06
272.394	275.06
272.626	285.06
272.858	266.06
273.09	272.06
273.322	269.06
273.553	256.06
273.785	229.06
274.017	250.06
274.249	264.06
274.481	246.06
274.713	249.06
274.945	250.06
275.176	268.06
275.408	253.06
275.64	242.06
275.872	254.06
276.104	250.06
276.335	256.06
276.567	265.06
276.799	261.06
277.031	295.06
277.262	304.06
277.494	295.06
277.726	273.06
277.957	274.06
278.189	272.06
278.421	270.06
278.652	264.06
278.884	267.06
279.115	261.06
279.347	263.06
279.579	268.06
279.81	259.06
280.042	265.06
280.273	267.06
280.505	239.06
280.736	277.06
280.968	255.06
281.199	249.06
281.431	263.06
281.662	245.06
281.894	270.06
282.125	268.06
282.356	285.06
282.588	285.06
282.819	282.06
283.051	275.06
283.282	240.06
283.513	259.06
283.745	274.06
283.976	257.06
284.207	279.06
284.439	267.06
284.67	288.06
284.901	276.06
285.132	277.06
285.364	265.06
285.595	276.06
285.826	281.06
286.057	286.06
286.288	279.06
286.52	286.06
286.751	290.06
286.982	260.06
287.213	284.06
287.444	287.06
287.675	278.06
287.906	291.06
288.138	291.06
288.369	267.06
288.6	285.06
288.831	308.06
289.062	295.06
289.293	284.06
289.524	305.06
289.755	280.06
289.986	282.06
290.217	284.06
290.448	287.06
290.679	266.06
290.91	276.06
291.141	267.06
291.371	268.06
291.602	282.06
291.833	283.06
292.064	299.06
292.295	270.06
292.526	288.06
292.757	301.06
292.987	279.06
293.218	272.06
293.449	292.06
293.68	283.06
293.91	277.06
294.141	290.06
294.372	288.06
294.603	294.06
294.833	290.06
295.064	263.06
295.295	273.06
295.525	280.06
295.756	300.06
295.987	304.06
296.217	315.06
296.448	317.06
296.679	297.06
296.909	281.06
297.14	293.06
297.37	281.06
297.601	311.06
297.831	295.06
298.062	293.06
298.292	310.06
298.523	295.06
298.753	305.06
298.984	321.06
299.214	307.06
299.445	301.06
299.675	284.06
299.905	291.06
300.136	301.06
300.366	304.06
300.597	299.06
300.827	315.06
301.057	329.06
301.288	327.06
301.518	304.06
301.748	322.06
301.979	318.06
302.209	331.06
302.439	309.06
302.669	331.06
302.9	317.06
303.13	312.06
303.36	321.06
303.59	330.06
303.82	324.06
304.051	309.06
304.281	315.06
304.511	317.06
304.741	318.06
304.971	312.06
305.201	299.06
305.431	324.06
305.661	320.06
305.891	315.06
306.121	318.06
306.352	314.06
306.582	316.06
306.812	337.06
307.042	320.06
307.272	313.06
307.502	335.06
307.731	322.06
307.961	316.06
308.191	322.06
308.421	330.06
308.651	308.06
308.881	324.06
309.111	335.06
309.341	341.06
309.571	336.06
309.8	339.06
310.03	355.06
310.26	373.06
310.49	364.06
310.72	372.06
310.949	378.06
311.179	378.06
311.409	359.06
311.639	349.06
311.868	356.06
312.098	359.06
312.328	371.06
312.557	377.06
312.787	403.06
313.017	377.06
313.246	375.06
313.476	364.06
313.706	370.06
313.935	369.06
314.165	371.06
314.394	405.06
314.624	373.06
314.853	367.06
315.083	377.06
315.312	373.06
315.542	375.06
315.771	377.06
316.001	365.06
316.23	367.06
316.46	367.06
316.689	390.06
316.919	357.06
317.148	389.06
317.377	371.06
317.607	366.06
317.836	376.06
318.065	373.06
318.295	363.06
318.524	359.06
318.753	367.06
318.983	384.06
319.212	375.06
319.441	407.06
319.67	392.06
319.9	380.06
320.129	367.06
320.358	382.06
320.587	364.06
320.816	386.06
321.046	392.06
321.275	392.06
321.504	378.06
321.733	385.06
321.962	405.06
322.191	389.06
322.42	386.06
322.649	399.06
322.878	411.06
323.108	409.06
323.337	453.06
323.566	449.06
323.795	475.06
324.024	492.06
324.253	588.06
324.482	844.06
324.71	1315.06
324.939	1895.06
325.168	1660.06
325.397	841.06
325.626	575.06
325.855	515.06
326.084	460.06
326.313	473.06
326.542	473.06
326.77	479.06
326.999	551.06
327.228	777.06
327.457	1167.06
327.686	1459.06
327.914	966.06
328.143	630.06
328.372	563.06
328.6	552.06
328.829	517.06
329.058	548.06
329.287	515.06
329.515	514.06
329.744	467.06
329.972	469.06
330.201	510.06
330.43	523.06
330.658	555.06
330.887	583.06
331.115	541.06
331.344	490.06
331.572	460.06
331.801	464.06
332.03	463.06
332.258	461.06
332.486	464.06
332.715	453.06
332.943	421.06
333.172	447.06
333.4	428.06
333.629	463.06
333.857	468.06
334.085	489.06
334.314	482.06
334.542	524.06
334.771	521.06
334.999	482.06
335.227	499.06
335.455	488.06
335.684	451.06
335.912	453.06
336.14	468.06
336.369	443.06
336.597	462.06
336.825	463.06
337.053	441.06
337.281	440.06
337.51	421.06
337.738	440.06
337.966	439.06
338.194	410.06
338.422	445.06
338.65	443.06
338.878	429.06
339.106	428.06
339.334	426.06
339.562	439.06
339.79	420.06
340.018	431.06
340.246	421.06
340.474	422.06
340.702	450.06
340.93	445.06
341.158	428.06
341.386	421.06
341.614	428.06
341.842	411.06
342.07	427.06
342.298	428.06
342.526	419.06
342.754	405.06
342.981	405.06
343.209	410.06
343.437	447.06
343.665	426.06
343.893	439.06
344.12	432.06
344.348	451.06
344.576	442.06
344.804	457.06
345.031	427.06
345.259	441.06
345.487	431.06
345.714	415.06
345.942	440.06
346.17	389.06
346.397	427.06
346.625	435.06
346.853	417.06
347.08	412.06
347.308	428.06
347.535	428.06
347.763	418.06
347.99	424.06
348.218	437.06
348.445	431.06
348.673	419.06
348.9	424.06
349.128	415.06
349.355	413.06
349.583	404.06
349.81	405.06
350.037	413.06
350.265	404.06
350.492	417.06
350.72	400.06
350.947	417.06
351.174	429.06
351.402	419.06
351.629	425.06
351.856	416.06
352.083	434.06
352.311	443.06
352.538	440.06
352.765	419.06
352.992	428.06
353.22	425.06
353.447	392.06
353.674	401.06
353.901	377.06
354.128	387.06
354.355	395.06
354.583	381.06
354.81	393.06
355.037	389.06
355.264	392.06
355.491	389.06
355.718	382.06
355.945	390.06
356.172	406.06
356.399	385.06
356.626	379.06
356.853	378.06
357.08	387.06
357.307	413.06
357.534	386.06
357.761	404.06
357.988	401.06
358.215	409.06
358.441	408.06
358.668	396.06
358.895	410.06
359.122	405.06
359.349	408.06
359.576	403.06
359.802	413.06
360.029	451.06
360.256	461.06
360.483	461.06
360.709	412.06
360.936	408.06
361.163	422.06
361.39	424.06
361.616	429.06
361.843	422.06
362.07	416.06
362.296	428.06
362.523	407.06
362.749	434.06
362.976	419.06
363.203	415.06
363.429	415.06
363.656	431.06
363.882	409.06
364.109	413.06
364.335	389.06
364.562	410.06
364.788	413.06
365.015	412.06
365.241	396.06
365.468	412.06
365.694	403.06
365.92	427.06
366.147	409.06
366.373	395.06
366.599	415.06
366.826	423.06
367.052	398.06
367.278	404.06
367.505	403.06
367.731	404.06
367.957	422.06
368.184	399.06
368.41	405.06
368.636	439.06
368.862	441.06
369.089	446.06
369.315	426.06
369.541	401.06
369.767	421.06
369.993	409.06
370.219	393.06
370.445	427.06
370.672	401.06
370.898	418.06
371.124	420.06
371.35	424.06
371.576	417.06
371.802	401.06
372.028	422.06
372.254	417.06
372.48	418.06
372.706	417.06
372.932	428.06
373.158	426.06
373.384	436.06
373.61	406.06
373.835	436.06
374.061	418.06
374.287	433.06
374.513	437.06
374.739	441.06
374.965	429.06
375.191	422.06
375.416	427.06
375.642	423.06
375.868	419.06
376.094	434.06
376.319	420.06
376.545	432.06
376.771	425.06
376.997	419.06
377.222	432.06
377.448	406.06
377.674	411.06
377.899	411.06
378.125	416.06
378.35	431.06
378.576	407.06
378.802	410.06
379.027	416.06
379.253	433.06
379.478	410.06
379.704	422.06
379.929	449.06
380.155	426.06
380.38	439.06
380.606	420.06
380.831	426.06
381.057	451.06
381.282	436.06
381.507	427.06
381.733	436.06
381.958	425.06
382.184	423.06
382.409	445.06
382.634	426.06
382.86	427.06
383.085	441.06
383.31	429.06
383.535	444.06
383.761	446.06
383.986	457.06
384.211	470.06
384.436	456.06
384.662	472.06
384.887	459.06
385.112	451.06
385.337	453.06
385.562	474.06
385.787	461.06
386.013	465.06
386.238	461.06
386.463	483.06
386.688	468.06
386.913	490.06
387.138	480.06
387.363	456.06
387.588	467.06
387.813	460.06
388.038	475.06
388.263	464.06
388.488	471.06
388.713	474.06
388.938	481.06
389.163	484.06
389.387	469.06
389.612	480.06
389.837	487.06
390.062	447.06
390.287	472.06
390.512	481.06
390.736	463.06
390.961	466.06
391.186	481.06
391.411	488.06
391.636	467.06
391.86	488.06
392.085	475.06
392.31	522.06
392.534	470.06
392.759	496.06
392.984	475.06
393.208	481.06
393.433	498.06
393.658	500.06
393.882	502.06
394.107	460.06
394.331	467.06
394.556	479.06
394.78	483.06
395.005	468.06
395.229	532.06
395.454	504.06
395.678	491.06
395.903	492.06
396.127	522.06
396.352	506.06
396.576	480.06
396.801	495.06
397.025	514.06
397.249	506.06
397.474	519.06
397.698	502.06
397.922	528.06
398.147	521.06
398.371	554.06
398.595	531.06
398.82	545.06
399.044	525.06
399.268	578.06
399.492	600.06
399.717	659.06
399.941	663.06
400.165	669.06
400.389	680.06
400.613	641.06
400.837	595.06
401.062	566.06
401.286	556.06
401.51	544.06
401.734	554.06
401.958	551.06
402.182	576.06
402.406	577.06
402.63	565.06
402.854	569.06
403.078	553.06
403.302	544.06
403.526	570.06
403.75	587.06
403.974	562.06
404.198	550.06
404.422	573.06
404.645	590.06
404.869	583.06
405.093	614.06
405.317	669.06
405.541	694.06
405.765	625.06
405.988	603.06
406.212	607.06
406.436	639.06
406.66	631.06
406.883	637.06
407.107	646.06
407.331	683.06
407.555	746.06
407.778	748.06
408.002	652.06
408.226	644.06
408.449	631.06
408.673	619.06
408.896	657.06
409.12	677.06
409.344	664.06
409.567	590.06
409.791	604.06
410.014	592.06
410.238	577.06
410.461	581.06
410.685	584.06
410.908	589.06
411.132	640.06
411.355	655.06
411.578	643.06
411.802	592.06
412.025	567.06
412.249	567.06
412.472	612.06
412.695	649.06
412.919	642.06
413.142	555.06
413.365	585.06
413.589	555.06
413.812	557.06
414.035	567.06
414.258	561.06
414.482	538.06
414.705	539.06
414.928	565.06
415.151	546.06
415.374	555.06
415.597	533.06
415.821	536.06
416.044	524.06
416.267	556.06
416.49	546.06
416.713	537.06
416.936	565.06
417.159	530.06
417.382	556.06
417.605	555.06
417.828	553.06
418.051	554.06
418.274	552.06
418.497	541.06
418.72	553.06
418.943	536.06
419.166	553.06
419.389	592.06
419.611	579.06
419.834	593.06
420.057	556.06
420.28	595.06
420.503	566.06
420.726	557.06
420.948	588.06
421.171	631.06
421.394	647.06
421.617	579.06
421.839	562.06
422.062	562.06
422.285	563.06
422.507	664.06
422.73	723.06
422.953	680.06
423.175	613.06
423.398	580.06
423.621	584.06
423.843	609.06
424.066	619.06
424.288	609.06
424.511	605.06
424.733	684.06
424.956	763.06
425.178	724.06
425.401	719.06
425.623	747.06
425.846	641.06
426.068	590.06
426.291	589.06
426.513	575.06
426.735	585.06
426.958	624.06
427.18	707.06
427.402	867.06
427.625	953.06
427.847	825.06
428.069	720.06
428.292	640.06
428.514	584.06
428.736	582.06
428.958	588.06
429.181	550.06
429.403	561.06
429.625	563.06
429.847	586.06
430.069	667.06
430.292	641.06
430.514	562.06
430.736	584.06
430.958	536.06
431.18	552.06
431.402	545.06
431.624	521.06
431.846	531.06
432.068	502.06
432.29	536.06
432.512	547.06
432.734	541.06
432.956	526.06
433.178	533.06
433.4	563.06
433.622	532.06
433.844	564.06
434.066	538.06
434.287	523.06
434.509	543.06
434.731	553.06
434.953	564.06
435.175	556.06
435.397	569.06
435.618	609.06
435.84	638.06
436.062	723.06
436.284	775.06
436.505	654.06
436.727	628.06
436.949	565.06
437.17	558.06
437.392	555.06
437.614	534.06
437.835	588.06
438.057	672.06
438.278	819.06
438.5	794.06
438.721	876.06
438.943	832.06
439.165	665.06
439.386	623.06
439.608	627.06
439.829	614.06
440.05	641.06
440.272	678.06
440.493	621.06
440.715	596.06
440.936	578.06
441.158	555.06
441.379	564.06
441.6	594.06
441.822	596.06
442.043	626.06
442.264	718.06
442.486	757.06
442.707	659.06
442.928	606.06
443.149	616.06
443.371	636.06
443.592	677.06
443.813	771.06
444.034	841.06
444.255	693.06
444.476	641.06
444.698	611.06
444.919	619.06
445.14	709.06
445.361	648.06
445.582	643.06
445.803	709.06
446.024	802.06
446.245	791.06
446.466	739.06
446.687	657.06
446.908	603.06
447.129	575.06
447.35	563.06
447.571	563.06
447.792	560.06
448.013	559.06
448.234	589.06
448.455	604.06
448.675	725.06
448.896	890.06
449.117	727.06
449.338	676.06
449.559	822.06
449.779	890.06
450	730.06
450.221	601.06
450.442	567.06
450.662	533.06
450.883	559.06
451.104	553.06
451.324	523.06
451.545	522.06
451.766	507.06
451.986	506.06
452.207	487.06
452.428	479.06
452.648	492.06
452.869	496.06
453.089	497.06
453.31	503.06
453.53	509.06
453.751	470.06
453.971	511.06
454.192	518.06
454.412	498.06
454.633	476.06
454.853	502.06
455.073	515.06
455.294	526.06
455.514	586.06
455.734	544.06
455.955	489.06
456.175	479.06
456.395	464.06
456.616	458.06
456.836	487.06
457.056	491.06
457.276	476.06
457.497	480.06
457.717	472.06
457.937	476.06
458.157	501.06
458.377	505.06
458.598	510.06
458.818	563.06
459.038	629.06
459.258	647.06
459.478	575.06
459.698	559.06
459.918	570.06
460.138	546.06
460.358	534.06
460.578	551.06
460.798	569.06
461.018	567.06
461.238	547.06
461.458	542.06
461.678	539.06
461.898	570.06
462.118	524.06
462.338	551.06
462.558	574.06
462.777	598.06
462.997	598.06
463.217	616.06
463.437	633.06
463.657	599.06
463.876	591.06
464.096	605.06
464.316	560.06
464.536	591.06
464.755	589.06
464.975	599.06
465.195	604.06
465.414	650.06
465.634	625.06
465.854	571.06
466.073	544.06
466.293	529.06
466.512	519.06
466.732	533.06
466.951	514.06
467.171	497.06
467.391	519.06
467.61	511.06
467.829	538.06
468.049	531.06
468.268	516.06
468.488	526.06
468.707	501.06
468.927	511.06
469.146	495.06
469.365	522.06
469.585	516.06
469.804	492.06
470.023	523.06
470.243	531.06
470.462	530.06
470.681	525.06
470.901	529.06
471.12	511.06
471.339	528.06
471.558	535.06
471.777	524.06
471.997	514.06
472.216	525.06
472.435	541.06
472.654	556.06
472.873	499.06
473.092	509.06
473.311	515.06
473.53	523.06
473.749	545.06
473.968	567.06
474.187	659.06
474.406	681.06
474.625	576.06
474.844	521.06
475.063	530.06
475.282	523.06
475.501	529.06
475.72	513.06
475.939	525.06
476.158	539.06
476.377	529.06
476.596	541.06
476.814	578.06
477.033	563.06
477.252	585.06
477.471	580.06
477.69	539.06
477.908	567.06
478.127	583.06
478.346	556.06
478.564	572.06
478.783	596.06
479.002	636.06
479.22	592.06
479.439	614.06
479.658	628.06
479.876	628.06
480.095	635.06
480.313	656.06
480.532	661.06
480.751	618.06
480.969	657.06
481.188	684.06
481.406	695.06
481.624	661.06
481.843	638.06
482.061	641.06
482.28	608.06
482.498	623.06
482.717	627.06
482.935	582.06
483.153	603.06
483.372	630.06
483.59	612.06
483.808	620.06
484.027	631.06
484.245	627.06
484.463	626.06
484.681	602.06
484.9	627.06
485.118	607.06
485.336	618.06
485.554	645.06
485.772	632.06
485.99	635.06
486.209	633.06
486.427	637.06
486.645	658.06
486.863	663.06
487.081	674.06
487.299	658.06
487.517	670.06
487.735	669.06
487.953	644.06
488.171	680.06
488.389	652.06
488.607	641.06
488.825	664.06
489.043	665.06
489.261	677.06
489.479	664.06
489.696	659.06
489.914	688.06
490.132	661.06
490.35	663.06
490.568	673.06
490.786	690.06
491.003	680.06
491.221	718.06
491.439	735.06
491.657	706.06
491.874	727.06
492.092	745.06
492.31	740.06
492.527	751.06
492.745	744.06
492.963	745.06
493.18	765.06
493.398	745.06
493.615	785.06
493.833	774.06
494.05	758.06
494.268	761.06
494.485	741.06
494.703	749.06
494.92	768.06
495.138	787.06
495.355	765.06
495.573	765.06
495.79	749.06
496.008	779.06
496.225	776.06
496.442	802.06
496.66	800.06
496.877	754.06
497.094	796.06
497.312	783.06
497.529	836.06
497.746	833.06
497.963	791.06
498.181	843.06
498.398	854.06
498.615	869.06
498.832	899.06
499.049	901.06
499.267	983.06
499.484	971.06
499.701	999.06
499.918	1048.06
500.135	1107.06
500.352	1149.06
500.569	1185.06
500.786	1157.06
501.003	1147.06
501.22	1096.06
501.437	1053.06
501.654	1057.06
