Data from 1966.PennyLincolnUp.Lamp.En5.5.200Scan.071719.P1._HRD10591_14-13-34-914.txt Node
Date: Thu Jul 18 14:13:34 EDT 2019
User: cochatt
Spectrometer: HR+D1059
Trigger mode: 1
Integration Time (sec): 1.000000E-1
Scans to average: 1
Electric dark correction enabled: true
Nonlinearity correction enabled: false
Boxcar width: 0
XAxis mode: Wavelengths
Number of Pixels in Spectrum: 2048
>>>>>Begin Spectral Data<<<<<
223.165	-18.56
223.4	-18.56
223.635	-18.56
223.869	-8.56
224.104	5.44
224.338	-19.56
224.573	-19.56
224.808	-12.56
225.042	-8.56
225.277	-9.56
225.511	-8.56
225.746	-1.56
225.98	12.44
226.215	14.44
226.449	-4.56
226.683	27.44
226.918	32.44
227.152	19.44
227.387	27.44
227.621	34.44
227.856	38.44
228.09	45.44
228.324	56.44
228.559	45.44
228.793	70.44
229.027	87.44
229.262	97.44
229.496	83.44
229.73	102.44
229.964	97.44
230.199	95.44
230.433	94.44
230.667	99.44
230.901	90.44
231.136	86.44
231.37	87.44
231.604	113.44
231.838	98.44
232.072	117.44
232.306	100.44
232.541	102.44
232.775	106.44
233.009	86.44
233.243	91.44
233.477	100.44
233.711	99.44
233.945	107.44
234.179	110.44
234.413	107.44
234.647	93.44
234.881	106.44
235.115	93.44
235.349	101.44
235.583	85.44
235.817	117.44
236.051	106.44
236.285	101.44
236.519	109.44
236.753	98.44
236.987	111.44
237.221	118.44
237.455	149.44
237.689	124.44
237.922	101.44
238.156	104.44
238.39	93.44
238.624	95.44
238.858	89.44
239.091	98.44
239.325	90.44
239.559	98.44
239.793	93.44
240.027	102.44
240.26	103.44
240.494	105.44
240.728	120.44
240.961	106.44
241.195	109.44
241.429	104.44
241.662	108.44
241.896	84.44
242.13	102.44
242.363	99.44
242.597	97.44
242.83	101.44
243.064	98.44
243.298	106.44
243.531	116.44
243.765	112.44
243.998	116.44
244.232	105.44
244.465	91.44
244.699	102.44
244.932	105.44
245.166	100.44
245.399	106.44
245.633	112.44
245.866	122.44
246.099	117.44
246.333	107.44
246.566	105.44
246.8	115.44
247.033	114.44
247.266	93.44
247.5	119.44
247.733	123.44
247.966	103.44
248.2	114.44
248.433	123.44
248.666	121.44
248.899	122.44
249.133	128.44
249.366	153.44
249.599	117.44
249.832	117.44
250.066	123.44
250.299	119.44
250.532	137.44
250.765	138.44
250.998	138.44
251.231	130.44
251.465	121.44
251.698	133.44
251.931	129.44
252.164	132.44
252.397	123.44
252.63	131.44
252.863	127.44
253.096	128.44
253.329	151.44
253.562	138.44
253.795	131.44
254.028	136.44
254.261	141.44
254.494	151.44
254.727	162.44
254.96	164.44
255.193	159.44
255.426	151.44
255.659	139.44
255.892	148.44
256.124	147.44
256.357	130.44
256.59	143.44
256.823	126.44
257.056	141.44
257.289	146.44
257.521	122.44
257.754	129.44
257.987	125.44
258.22	125.44
258.452	125.44
258.685	126.44
258.918	137.44
259.151	129.44
259.383	131.44
259.616	134.44
259.849	129.44
260.081	131.44
260.314	162.44
260.547	161.44
260.779	145.44
261.012	136.44
261.244	131.44
261.477	143.44
261.71	140.44
261.942	149.44
262.175	137.44
262.407	146.44
262.64	142.44
262.872	134.44
263.105	132.44
263.337	133.44
263.57	133.44
263.802	137.44
264.035	147.44
264.267	128.44
264.499	142.44
264.732	139.44
264.964	159.44
265.197	133.44
265.429	137.44
265.661	144.44
265.894	127.44
266.126	135.44
266.358	141.44
266.591	150.44
266.823	144.44
267.055	153.44
267.287	142.44
267.52	125.44
267.752	148.44
267.984	150.44
268.216	128.44
268.448	155.44
268.681	150.44
268.913	165.44
269.145	171.44
269.377	177.44
269.609	170.44
269.841	154.44
270.073	168.44
270.306	173.44
270.538	193.44
270.77	193.44
271.002	186.44
271.234	168.44
271.466	178.44
271.698	195.44
271.93	187.44
272.162	187.44
272.394	200.44
272.626	171.44
272.858	179.44
273.09	168.44
273.322	144.44
273.553	152.44
273.785	147.44
274.017	159.44
274.249	158.44
274.481	159.44
274.713	163.44
274.945	176.44
275.176	167.44
275.408	173.44
275.64	159.44
275.872	147.44
276.104	146.44
276.335	151.44
276.567	152.44
276.799	161.44
277.031	197.44
277.262	179.44
277.494	178.44
277.726	167.44
277.957	163.44
278.189	178.44
278.421	187.44
278.652	168.44
278.884	167.44
279.115	166.44
279.347	157.44
279.579	151.44
279.81	154.44
280.042	173.44
280.273	169.44
280.505	172.44
280.736	174.44
280.968	159.44
281.199	160.44
281.431	164.44
281.662	154.44
281.894	141.44
282.125	164.44
282.356	173.44
282.588	174.44
282.819	173.44
283.051	162.44
283.282	170.44
283.513	183.44
283.745	178.44
283.976	160.44
284.207	168.44
284.439	148.44
284.67	172.44
284.901	171.44
285.132	166.44
285.364	177.44
285.595	165.44
285.826	160.44
286.057	150.44
286.288	145.44
286.52	144.44
286.751	165.44
286.982	172.44
287.213	170.44
287.444	171.44
287.675	173.44
287.906	170.44
288.138	185.44
288.369	153.44
288.6	170.44
288.831	170.44
289.062	169.44
289.293	165.44
289.524	182.44
289.755	175.44
289.986	170.44
290.217	166.44
290.448	173.44
290.679	159.44
290.91	169.44
291.141	158.44
291.371	163.44
291.602	169.44
291.833	163.44
292.064	172.44
292.295	171.44
292.526	147.44
292.757	175.44
292.987	183.44
293.218	190.44
293.449	175.44
293.68	166.44
293.91	176.44
294.141	194.44
294.372	158.44
294.603	176.44
294.833	182.44
295.064	173.44
295.295	179.44
295.525	148.44
295.756	179.44
295.987	169.44
296.217	183.44
296.448	178.44
296.679	183.44
296.909	173.44
297.14	167.44
297.37	187.44
297.601	171.44
297.831	170.44
298.062	194.44
298.292	186.44
298.523	183.44
298.753	194.44
298.984	178.44
299.214	179.44
299.445	171.44
299.675	194.44
299.905	177.44
300.136	169.44
300.366	178.44
300.597	183.44
300.827	181.44
301.057	193.44
301.288	187.44
301.518	190.44
301.748	177.44
301.979	185.44
302.209	199.44
302.439	182.44
302.669	169.44
302.9	193.44
303.13	191.44
303.36	186.44
303.59	182.44
303.82	200.44
304.051	179.44
304.281	181.44
304.511	185.44
304.741	199.44
304.971	168.44
305.201	184.44
305.431	169.44
305.661	174.44
305.891	187.44
306.121	208.44
306.352	182.44
306.582	199.44
306.812	189.44
307.042	197.44
307.272	185.44
307.502	173.44
307.731	173.44
307.961	190.44
308.191	196.44
308.421	191.44
308.651	188.44
308.881	203.44
309.111	201.44
309.341	201.44
309.571	204.44
309.8	206.44
310.03	207.44
310.26	205.44
310.49	199.44
310.72	213.44
310.949	235.44
311.179	223.44
311.409	205.44
311.639	205.44
311.868	189.44
312.098	209.44
312.328	206.44
312.557	215.44
312.787	229.44
313.017	230.44
313.246	208.44
313.476	210.44
313.706	191.44
313.935	191.44
314.165	227.44
314.394	223.44
314.624	198.44
314.853	217.44
315.083	198.44
315.312	220.44
315.542	230.44
315.771	211.44
316.001	215.44
316.23	204.44
316.46	208.44
316.689	207.44
316.919	202.44
317.148	188.44
317.377	230.44
317.607	210.44
317.836	214.44
318.065	179.44
318.295	207.44
318.524	216.44
318.753	208.44
318.983	219.44
319.212	193.44
319.441	205.44
319.67	214.44
319.9	219.44
320.129	199.44
320.358	193.44
320.587	209.44
320.816	209.44
321.046	217.44
321.275	223.44
321.504	210.44
321.733	220.44
321.962	207.44
322.191	217.44
322.42	232.44
322.649	230.44
322.878	241.44
323.108	232.44
323.337	258.44
323.566	275.44
323.795	278.44
324.024	293.44
324.253	366.44
324.482	514.44
324.71	744.44
324.939	997.44
325.168	812.44
325.397	409.44
325.626	304.44
325.855	281.44
326.084	254.44
326.313	270.44
326.542	251.44
326.77	252.44
326.999	331.44
327.228	473.44
327.457	655.44
327.686	755.44
327.914	477.44
328.143	352.44
328.372	314.44
328.6	298.44
328.829	290.44
329.058	309.44
329.287	317.44
329.515	282.44
329.744	267.44
329.972	270.44
330.201	273.44
330.43	309.44
330.658	334.44
330.887	328.44
331.115	321.44
331.344	266.44
331.572	243.44
331.801	249.44
332.03	260.44
332.258	235.44
332.486	245.44
332.715	249.44
332.943	245.44
333.172	227.44
333.4	243.44
333.629	237.44
333.857	257.44
334.085	251.44
334.314	272.44
334.542	306.44
334.771	283.44
334.999	286.44
335.227	266.44
335.455	257.44
335.684	235.44
335.912	234.44
336.14	245.44
336.369	246.44
336.597	226.44
336.825	238.44
337.053	226.44
337.281	225.44
337.51	223.44
337.738	226.44
337.966	230.44
338.194	236.44
338.422	230.44
338.65	217.44
338.878	222.44
339.106	232.44
339.334	221.44
339.562	217.44
339.79	216.44
340.018	198.44
340.246	218.44
340.474	242.44
340.702	232.44
340.93	223.44
341.158	223.44
341.386	232.44
341.614	230.44
341.842	222.44
342.07	227.44
342.298	233.44
342.526	212.44
342.754	210.44
342.981	233.44
343.209	221.44
343.437	221.44
343.665	236.44
343.893	229.44
344.12	227.44
344.348	222.44
344.576	237.44
344.804	226.44
345.031	239.44
345.259	239.44
345.487	241.44
345.714	232.44
345.942	232.44
346.17	245.44
346.397	229.44
346.625	206.44
346.853	215.44
347.08	210.44
347.308	215.44
347.535	217.44
347.763	233.44
347.99	235.44
348.218	228.44
348.445	246.44
348.673	243.44
348.9	229.44
349.128	225.44
349.355	205.44
349.583	214.44
349.81	215.44
350.037	220.44
350.265	210.44
350.492	231.44
350.72	207.44
350.947	215.44
351.174	227.44
351.402	237.44
351.629	227.44
351.856	217.44
352.083	244.44
352.311	239.44
352.538	233.44
352.765	227.44
352.992	223.44
353.22	224.44
353.447	198.44
353.674	223.44
353.901	210.44
354.128	221.44
354.355	209.44
354.583	204.44
354.81	200.44
355.037	217.44
355.264	190.44
355.491	222.44
355.718	194.44
355.945	196.44
356.172	224.44
356.399	208.44
356.626	206.44
356.853	207.44
357.08	190.44
357.307	210.44
357.534	191.44
357.761	197.44
357.988	207.44
358.215	205.44
358.441	205.44
358.668	208.44
358.895	202.44
359.122	201.44
359.349	213.44
359.576	199.44
359.802	231.44
360.029	246.44
360.256	242.44
360.483	248.44
360.709	226.44
360.936	229.44
361.163	219.44
361.39	235.44
361.616	221.44
361.843	215.44
362.07	235.44
362.296	226.44
362.523	211.44
362.749	200.44
362.976	205.44
363.203	226.44
363.429	196.44
363.656	224.44
363.882	211.44
364.109	208.44
364.335	204.44
364.562	194.44
364.788	214.44
365.015	230.44
365.241	202.44
365.468	197.44
365.694	207.44
365.92	217.44
366.147	219.44
366.373	209.44
366.599	211.44
366.826	208.44
367.052	224.44
367.278	210.44
367.505	205.44
367.731	210.44
367.957	202.44
368.184	202.44
368.41	214.44
368.636	218.44
368.862	220.44
369.089	208.44
369.315	210.44
369.541	217.44
369.767	210.44
369.993	201.44
370.219	202.44
370.445	201.44
370.672	215.44
370.898	207.44
371.124	191.44
371.35	209.44
371.576	207.44
371.802	203.44
372.028	201.44
372.254	196.44
372.48	206.44
372.706	218.44
372.932	199.44
373.158	201.44
373.384	202.44
373.61	214.44
373.835	212.44
374.061	214.44
374.287	195.44
374.513	197.44
374.739	206.44
374.965	206.44
375.191	206.44
375.416	226.44
375.642	199.44
375.868	207.44
376.094	216.44
376.319	208.44
376.545	211.44
376.771	203.44
376.997	218.44
377.222	214.44
377.448	208.44
377.674	203.44
377.899	212.44
378.125	221.44
378.35	199.44
378.576	210.44
378.802	203.44
379.027	189.44
379.253	217.44
379.478	203.44
379.704	199.44
379.929	202.44
380.155	208.44
380.38	197.44
380.606	210.44
380.831	206.44
381.057	214.44
381.282	227.44
381.507	189.44
381.733	201.44
381.958	218.44
382.184	201.44
382.409	219.44
382.634	203.44
382.86	228.44
383.085	218.44
383.31	209.44
383.535	210.44
383.761	211.44
383.986	217.44
384.211	219.44
384.436	222.44
384.662	235.44
384.887	217.44
385.112	217.44
385.337	223.44
385.562	213.44
385.787	220.44
386.013	234.44
386.238	225.44
386.463	227.44
386.688	221.44
386.913	218.44
387.138	228.44
387.363	241.44
387.588	221.44
387.813	209.44
388.038	223.44
388.263	222.44
388.488	235.44
388.713	236.44
388.938	223.44
389.163	234.44
389.387	246.44
389.612	227.44
389.837	210.44
390.062	240.44
390.287	230.44
390.512	224.44
390.736	232.44
390.961	222.44
391.186	225.44
391.411	229.44
391.636	221.44
391.86	219.44
392.085	234.44
392.31	224.44
392.534	232.44
392.759	219.44
392.984	247.44
393.208	235.44
393.433	223.44
393.658	233.44
393.882	232.44
394.107	222.44
394.331	223.44
394.556	212.44
394.78	240.44
395.005	214.44
395.229	234.44
395.454	233.44
395.678	242.44
395.903	249.44
396.127	267.44
396.352	245.44
396.576	220.44
396.801	224.44
397.025	232.44
397.249	232.44
397.474	220.44
397.698	226.44
397.922	226.44
398.147	252.44
398.371	250.44
398.595	242.44
398.82	247.44
399.044	249.44
399.268	256.44
399.492	282.44
399.717	279.44
399.941	293.44
400.165	288.44
400.389	301.44
400.613	290.44
400.837	250.44
401.062	261.44
401.286	255.44
401.51	249.44
401.734	259.44
401.958	252.44
402.182	242.44
402.406	247.44
402.63	238.44
402.854	266.44
403.078	267.44
403.302	244.44
403.526	253.44
403.75	258.44
403.974	265.44
404.198	257.44
404.422	262.44
404.645	257.44
404.869	268.44
405.093	274.44
405.317	288.44
405.541	300.44
405.765	271.44
405.988	279.44
406.212	296.44
406.436	283.44
406.66	302.44
406.883	278.44
407.107	302.44
407.331	316.44
407.555	337.44
407.778	328.44
408.002	309.44
408.226	296.44
408.449	268.44
408.673	291.44
408.896	286.44
409.12	287.44
409.344	282.44
409.567	281.44
409.791	256.44
410.014	266.44
410.238	268.44
410.461	264.44
410.685	260.44
410.908	270.44
411.132	285.44
411.355	292.44
411.578	278.44
411.802	267.44
412.025	250.44
412.249	249.44
412.472	272.44
412.695	281.44
412.919	290.44
413.142	267.44
413.365	263.44
413.589	266.44
413.812	243.44
414.035	256.44
414.258	250.44
414.482	265.44
414.705	251.44
414.928	263.44
415.151	245.44
415.374	232.44
415.597	252.44
415.821	248.44
416.044	247.44
416.267	251.44
416.49	237.44
416.713	234.44
416.936	236.44
417.159	232.44
417.382	235.44
417.605	259.44
417.828	249.44
418.051	270.44
418.274	274.44
418.497	240.44
418.72	237.44
418.943	246.44
419.166	243.44
419.389	259.44
419.611	283.44
419.834	270.44
420.057	267.44
420.28	256.44
420.503	263.44
420.726	267.44
420.948	250.44
421.171	276.44
421.394	286.44
421.617	268.44
421.839	252.44
422.062	255.44
422.285	277.44
422.507	294.44
422.73	336.44
422.953	323.44
423.175	287.44
423.398	274.44
423.621	273.44
423.843	281.44
424.066	270.44
424.288	267.44
424.511	296.44
424.733	313.44
424.956	339.44
425.178	341.44
425.401	310.44
425.623	329.44
425.846	281.44
426.068	289.44
426.291	276.44
426.513	272.44
426.735	264.44
426.958	313.44
427.18	338.44
427.402	385.44
427.625	401.44
427.847	385.44
428.069	324.44
428.292	293.44
428.514	265.44
428.736	272.44
428.958	267.44
429.181	262.44
429.403	248.44
429.625	281.44
429.847	285.44
430.069	298.44
430.292	266.44
430.514	263.44
430.736	269.44
430.958	263.44
431.18	234.44
431.402	238.44
431.624	256.44
431.846	251.44
432.068	251.44
432.29	249.44
432.512	236.44
432.734	249.44
432.956	242.44
433.178	243.44
433.4	248.44
433.622	243.44
433.844	235.44
434.066	244.44
434.287	251.44
434.509	261.44
434.731	236.44
434.953	242.44
435.175	269.44
435.397	273.44
435.618	288.44
435.84	289.44
436.062	323.44
436.284	358.44
436.505	293.44
436.727	284.44
436.949	267.44
437.17	244.44
437.392	261.44
437.614	258.44
437.835	269.44
438.057	326.44
438.278	359.44
438.5	342.44
438.721	377.44
438.943	364.44
439.165	305.44
439.386	255.44
439.608	294.44
439.829	274.44
440.05	301.44
440.272	322.44
440.493	301.44
440.715	266.44
440.936	269.44
441.158	264.44
441.379	270.44
441.6	275.44
441.822	269.44
442.043	295.44
442.264	338.44
442.486	329.44
442.707	289.44
442.928	275.44
443.149	272.44
443.371	306.44
443.592	323.44
443.813	357.44
444.034	368.44
444.255	306.44
444.476	275.44
444.698	282.44
444.919	264.44
445.14	363.44
445.361	305.44
445.582	295.44
445.803	325.44
446.024	382.44
446.245	387.44
446.466	330.44
446.687	293.44
446.908	271.44
447.129	258.44
447.35	256.44
447.571	260.44
447.792	237.44
448.013	265.44
448.234	255.44
448.455	275.44
448.675	317.44
448.896	378.44
449.117	307.44
449.338	304.44
449.559	329.44
449.779	377.44
450	323.44
450.221	263.44
450.442	274.44
450.662	244.44
450.883	259.44
451.104	271.44
451.324	254.44
451.545	242.44
451.766	242.44
451.986	234.44
452.207	223.44
452.428	231.44
452.648	227.44
452.869	232.44
453.089	266.44
453.31	239.44
453.53	243.44
453.751	231.44
453.971	243.44
454.192	258.44
454.412	231.44
454.633	238.44
454.853	237.44
455.073	238.44
455.294	257.44
455.514	279.44
455.734	257.44
455.955	215.44
456.175	219.44
456.395	201.44
456.616	229.44
456.836	228.44
457.056	221.44
457.276	216.44
457.497	221.44
457.717	222.44
457.937	232.44
458.157	235.44
458.377	227.44
458.598	242.44
458.818	273.44
459.038	327.44
459.258	325.44
459.478	249.44
459.698	255.44
459.918	236.44
460.138	233.44
460.358	258.44
460.578	259.44
460.798	247.44
461.018	271.44
461.238	252.44
461.458	261.44
461.678	250.44
461.898	247.44
462.118	245.44
462.338	243.44
462.558	248.44
462.777	246.44
462.997	282.44
463.217	264.44
463.437	253.44
463.657	248.44
463.876	250.44
464.096	265.44
464.316	259.44
464.536	281.44
464.755	271.44
464.975	278.44
465.195	298.44
465.414	346.44
465.634	269.44
465.854	250.44
466.073	245.44
466.293	231.44
466.512	253.44
466.732	227.44
466.951	245.44
467.171	237.44
467.391	256.44
467.61	259.44
467.829	240.44
468.049	259.44
468.268	261.44
468.488	231.44
468.707	225.44
468.927	226.44
469.146	219.44
469.365	251.44
469.585	249.44
469.804	242.44
470.023	244.44
470.243	246.44
470.462	266.44
470.681	265.44
470.901	257.44
471.12	225.44
471.339	246.44
471.558	251.44
471.777	241.44
471.997	255.44
472.216	243.44
472.435	268.44
472.654	275.44
472.873	238.44
473.092	242.44
473.311	223.44
473.53	233.44
473.749	262.44
473.968	263.44
474.187	317.44
474.406	312.44
474.625	270.44
474.844	241.44
475.063	248.44
475.282	239.44
475.501	240.44
475.72	253.44
475.939	250.44
476.158	253.44
476.377	250.44
476.596	250.44
476.814	240.44
477.033	273.44
477.252	247.44
477.471	253.44
477.69	253.44
477.908	267.44
478.127	266.44
478.346	268.44
478.564	267.44
478.783	270.44
479.002	275.44
479.22	264.44
479.439	289.44
479.658	295.44
479.876	293.44
480.095	283.44
480.313	304.44
480.532	300.44
480.751	295.44
480.969	320.44
481.188	360.44
481.406	367.44
481.624	313.44
481.843	283.44
482.061	294.44
482.28	282.44
482.498	286.44
482.717	284.44
482.935	273.44
483.153	272.44
483.372	274.44
483.59	281.44
483.808	276.44
484.027	280.44
484.245	269.44
484.463	273.44
484.681	278.44
484.9	283.44
485.118	302.44
485.336	288.44
485.554	288.44
485.772	294.44
485.99	291.44
486.209	282.44
486.427	290.44
486.645	298.44
486.863	293.44
487.081	310.44
487.299	294.44
487.517	286.44
487.735	285.44
487.953	300.44
488.171	291.44
488.389	283.44
488.607	300.44
488.825	299.44
489.043	294.44
489.261	303.44
489.479	285.44
489.696	287.44
489.914	301.44
490.132	339.44
490.35	315.44
490.568	310.44
490.786	314.44
491.003	302.44
491.221	341.44
491.439	335.44
491.657	347.44
491.874	351.44
492.092	341.44
492.31	370.44
492.527	347.44
492.745	335.44
492.963	343.44
493.18	375.44
493.398	365.44
493.615	346.44
493.833	338.44
494.05	343.44
494.268	335.44
494.485	351.44
494.703	351.44
494.92	349.44
495.138	349.44
495.355	348.44
495.573	353.44
495.79	348.44
496.008	352.44
496.225	338.44
496.442	336.44
496.66	339.44
496.877	328.44
497.094	331.44
497.312	337.44
497.529	339.44
497.746	363.44
497.963	343.44
498.181	361.44
498.398	368.44
498.615	365.44
498.832	362.44
499.049	376.44
499.267	373.44
499.484	394.44
499.701	407.44
499.918	431.44
500.135	441.44
500.352	454.44
500.569	442.44
500.786	461.44
501.003	449.44
501.22	434.44
501.437	422.44
501.654	431.44
501.871	415.44
502.088	414.44
502.305	380.44
502.522	365.44
