Data from 1966.PennyLincolnUp.Lamp.En5.5.200Scan.071719.P1._HRD10591_14-15-15-935.txt Node
Date: Thu Jul 18 14:15:15 EDT 2019
User: cochatt
Spectrometer: HR+D1059
Trigger mode: 1
Integration Time (sec): 1.000000E-1
Scans to average: 1
Electric dark correction enabled: true
Nonlinearity correction enabled: false
Boxcar width: 0
XAxis mode: Wavelengths
Number of Pixels in Spectrum: 2048
>>>>>Begin Spectral Data<<<<<
223.165	-26.12
223.4	-26.12
223.635	-26.12
223.869	-11.12
224.104	-14.12
224.338	-3.12
224.573	-33.12
224.808	-25.12
225.042	6.88
225.277	-9.12
225.511	-7.12
225.746	-1.12
225.98	12.88
226.215	11.88
226.449	21.88
226.683	25.88
226.918	21.88
227.152	28.88
227.387	24.88
227.621	45.88
227.856	29.88
228.09	42.88
228.324	60.88
228.559	54.88
228.793	57.88
229.027	78.88
229.262	85.88
229.496	85.88
229.73	93.88
229.964	103.88
230.199	99.88
230.433	97.88
230.667	94.88
230.901	99.88
231.136	91.88
231.37	93.88
231.604	93.88
231.838	87.88
232.072	107.88
232.306	88.88
232.541	86.88
232.775	102.88
233.009	102.88
233.243	120.88
233.477	100.88
233.711	91.88
233.945	87.88
234.179	97.88
234.413	105.88
234.647	93.88
234.881	87.88
235.115	90.88
235.349	92.88
235.583	103.88
235.817	105.88
236.051	93.88
236.285	108.88
236.519	107.88
236.753	100.88
236.987	114.88
237.221	129.88
237.455	150.88
237.689	133.88
237.922	112.88
238.156	102.88
238.39	103.88
238.624	95.88
238.858	99.88
239.091	98.88
239.325	95.88
239.559	102.88
239.793	95.88
240.027	103.88
240.26	117.88
240.494	121.88
240.728	118.88
240.961	106.88
241.195	91.88
241.429	108.88
241.662	106.88
241.896	105.88
242.13	120.88
242.363	102.88
242.597	90.88
242.83	106.88
243.064	112.88
243.298	96.88
243.531	97.88
243.765	126.88
243.998	116.88
244.232	107.88
244.465	99.88
244.699	102.88
244.932	112.88
245.166	102.88
245.399	121.88
245.633	113.88
245.866	111.88
246.099	119.88
246.333	107.88
246.566	116.88
246.8	90.88
247.033	124.88
247.266	111.88
247.5	123.88
247.733	112.88
247.966	128.88
248.2	120.88
248.433	127.88
248.666	116.88
248.899	122.88
249.133	137.88
249.366	149.88
249.599	140.88
249.832	137.88
250.066	121.88
250.299	135.88
250.532	140.88
250.765	137.88
250.998	149.88
251.231	141.88
251.465	134.88
251.698	129.88
251.931	137.88
252.164	126.88
252.397	129.88
252.63	137.88
252.863	141.88
253.096	124.88
253.329	140.88
253.562	132.88
253.795	130.88
254.028	121.88
254.261	139.88
254.494	144.88
254.727	165.88
254.96	164.88
255.193	159.88
255.426	151.88
255.659	138.88
255.892	158.88
256.124	145.88
256.357	130.88
256.59	145.88
256.823	137.88
257.056	133.88
257.289	135.88
257.521	133.88
257.754	127.88
257.987	128.88
258.22	132.88
258.452	139.88
258.685	140.88
258.918	140.88
259.151	134.88
259.383	136.88
259.616	140.88
259.849	152.88
260.081	138.88
260.314	148.88
260.547	177.88
260.779	155.88
261.012	160.88
261.244	145.88
261.477	140.88
261.71	156.88
261.942	152.88
262.175	148.88
262.407	146.88
262.64	134.88
262.872	152.88
263.105	150.88
263.337	129.88
263.57	136.88
263.802	152.88
264.035	132.88
264.267	134.88
264.499	141.88
264.732	131.88
264.964	132.88
265.197	143.88
265.429	130.88
265.661	146.88
265.894	157.88
266.126	147.88
266.358	144.88
266.591	146.88
266.823	144.88
267.055	150.88
267.287	152.88
267.52	138.88
267.752	132.88
267.984	134.88
268.216	157.88
268.448	159.88
268.681	156.88
268.913	155.88
269.145	162.88
269.377	162.88
269.609	171.88
269.841	160.88
270.073	157.88
270.306	185.88
270.538	186.88
270.77	191.88
271.002	174.88
271.234	168.88
271.466	188.88
271.698	201.88
271.93	189.88
272.162	206.88
272.394	189.88
272.626	179.88
272.858	173.88
273.09	167.88
273.322	156.88
273.553	169.88
273.785	162.88
274.017	151.88
274.249	154.88
274.481	162.88
274.713	156.88
274.945	167.88
275.176	168.88
275.408	175.88
275.64	173.88
275.872	164.88
276.104	166.88
276.335	167.88
276.567	185.88
276.799	163.88
277.031	191.88
277.262	200.88
277.494	190.88
277.726	175.88
277.957	192.88
278.189	182.88
278.421	148.88
278.652	153.88
278.884	167.88
279.115	173.88
279.347	177.88
279.579	152.88
279.81	177.88
280.042	169.88
280.273	160.88
280.505	159.88
280.736	156.88
280.968	161.88
281.199	165.88
281.431	170.88
281.662	163.88
281.894	164.88
282.125	168.88
282.356	168.88
282.588	184.88
282.819	183.88
283.051	169.88
283.282	175.88
283.513	161.88
283.745	187.88
283.976	168.88
284.207	171.88
284.439	175.88
284.67	180.88
284.901	162.88
285.132	163.88
285.364	169.88
285.595	162.88
285.826	161.88
286.057	160.88
286.288	188.88
286.52	157.88
286.751	183.88
286.982	169.88
287.213	164.88
287.444	173.88
287.675	150.88
287.906	164.88
288.138	192.88
288.369	201.88
288.6	185.88
288.831	175.88
289.062	172.88
289.293	173.88
289.524	187.88
289.755	177.88
289.986	171.88
290.217	160.88
290.448	168.88
290.679	143.88
290.91	166.88
291.141	156.88
291.371	173.88
291.602	172.88
291.833	176.88
292.064	172.88
292.295	153.88
292.526	175.88
292.757	165.88
292.987	182.88
293.218	182.88
293.449	172.88
293.68	186.88
293.91	175.88
294.141	170.88
294.372	176.88
294.603	186.88
294.833	163.88
295.064	189.88
295.295	173.88
295.525	175.88
295.756	203.88
295.987	187.88
296.217	199.88
296.448	199.88
296.679	164.88
296.909	164.88
297.14	183.88
297.37	183.88
297.601	191.88
297.831	191.88
298.062	176.88
298.292	190.88
298.523	170.88
298.753	176.88
298.984	167.88
299.214	185.88
299.445	176.88
299.675	184.88
299.905	199.88
300.136	206.88
300.366	190.88
300.597	201.88
300.827	187.88
301.057	188.88
301.288	200.88
301.518	193.88
301.748	190.88
301.979	170.88
302.209	188.88
302.439	177.88
302.669	186.88
302.9	192.88
303.13	184.88
303.36	185.88
303.59	195.88
303.82	192.88
304.051	194.88
304.281	217.88
304.511	190.88
304.741	184.88
304.971	192.88
305.201	186.88
305.431	187.88
305.661	189.88
305.891	172.88
306.121	191.88
306.352	194.88
306.582	217.88
306.812	210.88
307.042	201.88
307.272	188.88
307.502	186.88
307.731	193.88
307.961	185.88
308.191	206.88
308.421	209.88
308.651	198.88
308.881	200.88
309.111	200.88
309.341	197.88
309.571	209.88
309.8	204.88
310.03	222.88
310.26	231.88
310.49	213.88
310.72	222.88
310.949	207.88
311.179	213.88
311.409	220.88
311.639	215.88
311.868	214.88
312.098	202.88
312.328	224.88
312.557	215.88
312.787	230.88
313.017	228.88
313.246	230.88
313.476	223.88
313.706	223.88
313.935	209.88
314.165	221.88
314.394	225.88
314.624	229.88
314.853	230.88
315.083	232.88
315.312	209.88
315.542	205.88
315.771	202.88
316.001	197.88
316.23	205.88
316.46	220.88
316.689	225.88
316.919	222.88
317.148	215.88
317.377	213.88
317.607	222.88
317.836	201.88
318.065	184.88
318.295	205.88
318.524	210.88
318.753	202.88
318.983	213.88
319.212	201.88
319.441	221.88
319.67	193.88
319.9	215.88
320.129	196.88
320.358	222.88
320.587	219.88
320.816	223.88
321.046	207.88
321.275	213.88
321.504	223.88
321.733	212.88
321.962	203.88
322.191	237.88
322.42	248.88
322.649	248.88
322.878	258.88
323.108	246.88
323.337	269.88
323.566	270.88
323.795	318.88
324.024	323.88
324.253	364.88
324.482	547.88
324.71	770.88
324.939	1035.88
325.168	843.88
325.397	453.88
325.626	297.88
325.855	271.88
326.084	272.88
326.313	252.88
326.542	279.88
326.77	294.88
326.999	355.88
327.228	465.88
327.457	650.88
327.686	779.88
327.914	527.88
328.143	358.88
328.372	327.88
328.6	327.88
328.829	310.88
329.058	334.88
329.287	333.88
329.515	287.88
329.744	274.88
329.972	273.88
330.201	298.88
330.43	305.88
330.658	353.88
330.887	361.88
331.115	310.88
331.344	291.88
331.572	250.88
331.801	272.88
332.03	263.88
332.258	260.88
332.486	252.88
332.715	246.88
332.943	245.88
333.172	260.88
333.4	260.88
333.629	266.88
333.857	277.88
334.085	282.88
334.314	286.88
334.542	312.88
334.771	319.88
334.999	304.88
335.227	268.88
335.455	252.88
335.684	251.88
335.912	261.88
336.14	238.88
336.369	231.88
336.597	250.88
336.825	266.88
337.053	240.88
337.281	248.88
337.51	228.88
337.738	234.88
337.966	234.88
338.194	245.88
338.422	256.88
338.65	245.88
338.878	252.88
339.106	223.88
339.334	234.88
339.562	247.88
339.79	239.88
340.018	223.88
340.246	224.88
340.474	251.88
340.702	248.88
340.93	234.88
341.158	236.88
341.386	239.88
341.614	221.88
341.842	232.88
342.07	232.88
342.298	221.88
342.526	233.88
342.754	221.88
342.981	220.88
343.209	241.88
343.437	224.88
343.665	223.88
343.893	249.88
344.12	224.88
344.348	242.88
344.576	253.88
344.804	235.88
345.031	238.88
345.259	251.88
345.487	240.88
345.714	243.88
345.942	229.88
346.17	202.88
346.397	231.88
346.625	232.88
346.853	221.88
347.08	231.88
347.308	217.88
347.535	219.88
347.763	224.88
347.99	236.88
348.218	235.88
348.445	245.88
348.673	244.88
348.9	232.88
349.128	228.88
349.355	220.88
349.583	221.88
349.81	229.88
350.037	239.88
350.265	209.88
350.492	214.88
350.72	214.88
350.947	225.88
351.174	226.88
351.402	227.88
351.629	237.88
351.856	252.88
352.083	235.88
352.311	246.88
352.538	234.88
352.765	254.88
352.992	217.88
353.22	218.88
353.447	241.88
353.674	224.88
353.901	222.88
354.128	232.88
354.355	208.88
354.583	209.88
354.81	213.88
355.037	218.88
355.264	207.88
355.491	198.88
355.718	187.88
355.945	214.88
356.172	198.88
356.399	202.88
356.626	218.88
356.853	224.88
357.08	202.88
357.307	205.88
357.534	197.88
357.761	210.88
357.988	219.88
358.215	212.88
358.441	191.88
358.668	217.88
358.895	208.88
359.122	204.88
359.349	211.88
359.576	218.88
359.802	225.88
360.029	249.88
360.256	260.88
360.483	238.88
360.709	230.88
360.936	217.88
361.163	228.88
361.39	234.88
361.616	224.88
361.843	191.88
362.07	222.88
362.296	240.88
362.523	246.88
362.749	230.88
362.976	227.88
363.203	215.88
363.429	226.88
363.656	226.88
363.882	216.88
364.109	222.88
364.335	206.88
364.562	205.88
364.788	216.88
365.015	220.88
365.241	223.88
365.468	221.88
365.694	204.88
365.92	204.88
366.147	227.88
366.373	201.88
366.599	232.88
366.826	215.88
367.052	218.88
367.278	214.88
367.505	191.88
367.731	236.88
367.957	208.88
368.184	209.88
368.41	217.88
368.636	241.88
368.862	224.88
369.089	226.88
369.315	205.88
369.541	222.88
369.767	216.88
369.993	221.88
370.219	212.88
370.445	211.88
370.672	203.88
370.898	196.88
371.124	221.88
371.35	221.88
371.576	200.88
371.802	216.88
372.028	217.88
372.254	235.88
372.48	218.88
372.706	219.88
372.932	212.88
373.158	209.88
373.384	229.88
373.61	224.88
373.835	225.88
374.061	195.88
374.287	223.88
374.513	215.88
374.739	208.88
374.965	232.88
375.191	210.88
375.416	218.88
375.642	210.88
375.868	207.88
376.094	198.88
376.319	212.88
376.545	197.88
376.771	203.88
376.997	227.88
377.222	205.88
377.448	211.88
377.674	222.88
377.899	192.88
378.125	214.88
378.35	208.88
378.576	214.88
378.802	209.88
379.027	201.88
379.253	209.88
379.478	216.88
379.704	215.88
379.929	200.88
380.155	225.88
380.38	221.88
380.606	214.88
380.831	210.88
381.057	218.88
381.282	213.88
381.507	215.88
381.733	214.88
381.958	213.88
382.184	213.88
382.409	218.88
382.634	222.88
382.86	210.88
383.085	216.88
383.31	221.88
383.535	240.88
383.761	202.88
383.986	213.88
384.211	223.88
384.436	224.88
384.662	228.88
384.887	221.88
385.112	222.88
385.337	217.88
385.562	207.88
385.787	220.88
386.013	242.88
386.238	237.88
386.463	241.88
386.688	229.88
386.913	232.88
387.138	232.88
387.363	231.88
387.588	233.88
387.813	222.88
388.038	230.88
388.263	219.88
388.488	220.88
388.713	237.88
388.938	238.88
389.163	214.88
389.387	230.88
389.612	233.88
389.837	218.88
390.062	230.88
390.287	216.88
390.512	209.88
390.736	214.88
390.961	233.88
391.186	210.88
391.411	218.88
391.636	230.88
391.86	239.88
392.085	238.88
392.31	254.88
392.534	231.88
392.759	219.88
392.984	228.88
393.208	234.88
393.433	233.88
393.658	248.88
393.882	238.88
394.107	247.88
394.331	239.88
394.556	228.88
394.78	228.88
395.005	228.88
395.229	232.88
395.454	244.88
395.678	225.88
395.903	238.88
396.127	254.88
396.352	252.88
396.576	233.88
396.801	226.88
397.025	226.88
397.249	234.88
397.474	244.88
397.698	225.88
397.922	240.88
398.147	271.88
398.371	229.88
398.595	247.88
398.82	252.88
399.044	268.88
399.268	258.88
399.492	286.88
399.717	288.88
399.941	297.88
400.165	296.88
400.389	271.88
400.613	274.88
400.837	271.88
401.062	266.88
401.286	271.88
401.51	245.88
401.734	264.88
401.958	244.88
402.182	262.88
402.406	264.88
402.63	285.88
402.854	273.88
403.078	242.88
403.302	270.88
403.526	283.88
403.75	263.88
403.974	258.88
404.198	239.88
404.422	264.88
404.645	272.88
404.869	272.88
405.093	277.88
405.317	290.88
405.541	300.88
405.765	296.88
405.988	273.88
406.212	296.88
406.436	301.88
406.66	319.88
406.883	300.88
407.107	300.88
407.331	301.88
407.555	338.88
407.778	336.88
408.002	297.88
408.226	298.88
408.449	271.88
408.673	282.88
408.896	294.88
409.12	301.88
409.344	299.88
409.567	265.88
409.791	258.88
410.014	281.88
410.238	277.88
410.461	270.88
410.685	272.88
410.908	276.88
411.132	288.88
411.355	295.88
411.578	286.88
411.802	280.88
412.025	271.88
412.249	278.88
412.472	277.88
412.695	304.88
412.919	282.88
413.142	277.88
413.365	252.88
413.589	265.88
413.812	258.88
414.035	257.88
414.258	253.88
414.482	253.88
414.705	257.88
414.928	268.88
415.151	253.88
415.374	253.88
415.597	247.88
415.821	233.88
416.044	253.88
416.267	256.88
416.49	249.88
416.713	245.88
416.936	238.88
417.159	232.88
417.382	260.88
417.605	257.88
417.828	255.88
418.051	271.88
418.274	256.88
418.497	262.88
418.72	264.88
418.943	242.88
419.166	271.88
419.389	259.88
419.611	269.88
419.834	277.88
420.057	260.88
420.28	257.88
420.503	278.88
420.726	265.88
420.948	277.88
421.171	290.88
421.394	308.88
421.617	288.88
421.839	276.88
422.062	254.88
422.285	270.88
422.507	312.88
422.73	325.88
422.953	310.88
423.175	287.88
423.398	283.88
423.621	292.88
423.843	295.88
424.066	286.88
424.288	286.88
424.511	304.88
424.733	316.88
424.956	364.88
425.178	333.88
425.401	332.88
425.623	336.88
425.846	311.88
426.068	270.88
426.291	288.88
426.513	277.88
426.735	306.88
426.958	305.88
427.18	337.88
427.402	404.88
427.625	433.88
427.847	379.88
428.069	340.88
428.292	303.88
428.514	278.88
428.736	250.88
428.958	268.88
429.181	282.88
429.403	248.88
429.625	285.88
429.847	292.88
430.069	293.88
430.292	310.88
430.514	269.88
430.736	263.88
430.958	258.88
431.18	254.88
431.402	247.88
431.624	238.88
431.846	249.88
432.068	244.88
432.29	247.88
432.512	244.88
432.734	269.88
432.956	252.88
433.178	255.88
433.4	270.88
433.622	260.88
433.844	260.88
434.066	252.88
434.287	249.88
434.509	257.88
434.731	248.88
434.953	253.88
435.175	270.88
435.397	288.88
435.618	283.88
435.84	287.88
436.062	332.88
436.284	342.88
436.505	305.88
436.727	264.88
436.949	268.88
437.17	263.88
437.392	267.88
437.614	265.88
437.835	288.88
438.057	352.88
438.278	358.88
438.5	366.88
438.721	405.88
438.943	360.88
439.165	305.88
439.386	280.88
439.608	274.88
439.829	284.88
440.05	292.88
440.272	320.88
440.493	298.88
440.715	277.88
440.936	277.88
441.158	269.88
441.379	269.88
441.6	277.88
441.822	277.88
442.043	299.88
442.264	327.88
442.486	347.88
442.707	287.88
442.928	292.88
443.149	303.88
443.371	309.88
443.592	329.88
443.813	348.88
444.034	384.88
444.255	310.88
444.476	282.88
444.698	294.88
444.919	290.88
445.14	381.88
445.361	321.88
445.582	297.88
445.803	332.88
446.024	379.88
446.245	380.88
446.466	348.88
446.687	297.88
446.908	274.88
447.129	254.88
447.35	282.88
447.571	274.88
447.792	261.88
448.013	266.88
448.234	260.88
448.455	304.88
448.675	358.88
448.896	385.88
449.117	312.88
449.338	316.88
449.559	359.88
449.779	416.88
450	319.88
450.221	270.88
450.442	262.88
450.662	252.88
450.883	273.88
451.104	272.88
451.324	280.88
451.545	268.88
451.766	246.88
451.986	242.88
452.207	229.88
452.428	220.88
452.648	238.88
452.869	255.88
453.089	236.88
453.31	250.88
453.53	260.88
453.751	242.88
453.971	242.88
454.192	257.88
454.412	255.88
454.633	236.88
454.853	226.88
455.073	230.88
455.294	251.88
455.514	294.88
455.734	256.88
455.955	237.88
456.175	234.88
456.395	221.88
456.616	210.88
456.836	218.88
457.056	224.88
457.276	206.88
457.497	226.88
457.717	217.88
457.937	241.88
458.157	240.88
458.377	233.88
458.598	244.88
458.818	278.88
459.038	320.88
459.258	306.88
459.478	271.88
459.698	246.88
459.918	229.88
460.138	261.88
460.358	248.88
460.578	249.88
460.798	244.88
461.018	247.88
461.238	253.88
461.458	264.88
461.678	241.88
461.898	258.88
462.118	265.88
462.338	249.88
462.558	248.88
462.777	262.88
462.997	255.88
463.217	282.88
463.437	265.88
463.657	257.88
463.876	260.88
464.096	264.88
464.316	279.88
464.536	273.88
464.755	290.88
464.975	291.88
465.195	318.88
465.414	373.88
465.634	322.88
465.854	273.88
466.073	249.88
466.293	270.88
466.512	238.88
466.732	260.88
466.951	234.88
467.171	246.88
467.391	239.88
467.61	259.88
467.829	249.88
468.049	250.88
468.268	260.88
468.488	249.88
468.707	232.88
468.927	245.88
469.146	242.88
469.365	230.88
469.585	220.88
469.804	224.88
470.023	268.88
470.243	230.88
470.462	249.88
470.681	253.88
470.901	257.88
471.12	254.88
471.339	254.88
471.558	254.88
471.777	240.88
471.997	241.88
472.216	266.88
472.435	280.88
472.654	277.88
472.873	242.88
473.092	228.88
473.311	249.88
473.53	249.88
473.749	253.88
473.968	286.88
474.187	331.88
474.406	309.88
474.625	260.88
474.844	250.88
475.063	249.88
475.282	273.88
475.501	248.88
475.72	245.88
475.939	260.88
476.158	268.88
476.377	256.88
476.596	263.88
476.814	266.88
477.033	250.88
477.252	250.88
477.471	268.88
477.69	267.88
477.908	268.88
478.127	258.88
478.346	270.88
478.564	269.88
478.783	280.88
479.002	281.88
479.22	271.88
479.439	286.88
479.658	287.88
479.876	287.88
480.095	284.88
480.313	303.88
480.532	302.88
480.751	306.88
480.969	324.88
481.188	356.88
481.406	388.88
481.624	312.88
481.843	304.88
482.061	277.88
482.28	268.88
482.498	294.88
482.717	283.88
482.935	280.88
483.153	290.88
483.372	282.88
483.59	301.88
483.808	284.88
484.027	272.88
484.245	275.88
484.463	289.88
484.681	290.88
484.9	280.88
485.118	291.88
485.336	278.88
485.554	293.88
485.772	301.88
485.99	284.88
486.209	293.88
486.427	309.88
486.645	315.88
486.863	335.88
487.081	335.88
487.299	288.88
487.517	300.88
487.735	293.88
487.953	296.88
488.171	303.88
488.389	309.88
488.607	314.88
488.825	297.88
489.043	298.88
489.261	294.88
489.479	304.88
489.696	294.88
489.914	303.88
490.132	326.88
490.35	322.88
490.568	320.88
490.786	337.88
491.003	335.88
491.221	345.88
491.439	336.88
491.657	346.88
491.874	344.88
492.092	376.88
492.31	352.88
492.527	346.88
492.745	364.88
492.963	374.88
493.18	346.88
493.398	374.88
493.615	374.88
493.833	370.88
494.05	367.88
494.268	356.88
494.485	362.88
494.703	363.88
494.92	352.88
495.138	352.88
495.355	350.88
495.573	350.88
495.79	342.88
496.008	374.88
496.225	348.88
496.442	342.88
496.66	342.88
496.877	357.88
497.094	373.88
497.312	346.88
497.529	364.88
497.746	368.88
497.963	348.88
498.181	360.88
498.398	369.88
498.615	369.88
498.832	385.88
499.049	382.88
499.267	404.88
499.484	412.88
499.701	426.88
499.918	428.88
500.135	433.88
500.352	442.88
500.569	458.88
500.786	453.88
501.003	464.88
501.22	452.88
501.437	442.88
501.654	432.88
501.871	417.88
502.088	400.88
502.305	406.88
502.522	388.88
