Data from 1966.PennyLincolnUp.Lamp.En5.5.200Scan.071719.P1._HRD10591_14-13-08-913.txt Node
Date: Thu Jul 18 14:13:08 EDT 2019
User: cochatt
Spectrometer: HR+D1059
Trigger mode: 1
Integration Time (sec): 1.000000E-1
Scans to average: 1
Electric dark correction enabled: true
Nonlinearity correction enabled: false
Boxcar width: 0
XAxis mode: Wavelengths
Number of Pixels in Spectrum: 2048
>>>>>Begin Spectral Data<<<<<
223.165	0.19
223.4	0.19
223.635	0.19
223.869	-26.81
224.104	-21.81
224.338	-2.81
224.573	-19.81
224.808	-16.81
225.042	-17.81
225.277	-12.81
225.511	-5.81
225.746	23.19
225.98	14.19
226.215	15.19
226.449	16.19
226.683	13.19
226.918	22.19
227.152	20.19
227.387	38.19
227.621	33.19
227.856	58.19
228.09	25.19
228.324	56.19
228.559	63.19
228.793	68.19
229.027	86.19
229.262	76.19
229.496	76.19
229.73	87.19
229.964	100.19
230.199	107.19
230.433	76.19
230.667	75.19
230.901	85.19
231.136	103.19
231.37	93.19
231.604	88.19
231.838	80.19
232.072	82.19
232.306	97.19
232.541	94.19
232.775	102.19
233.009	83.19
233.243	92.19
233.477	87.19
233.711	111.19
233.945	99.19
234.179	92.19
234.413	116.19
234.647	95.19
234.881	95.19
235.115	89.19
235.349	86.19
235.583	80.19
235.817	84.19
236.051	98.19
236.285	86.19
236.519	101.19
236.753	99.19
236.987	109.19
237.221	110.19
237.455	144.19
237.689	121.19
237.922	101.19
238.156	94.19
238.39	100.19
238.624	90.19
238.858	90.19
239.091	88.19
239.325	91.19
239.559	96.19
239.793	100.19
240.027	112.19
240.26	129.19
240.494	108.19
240.728	103.19
240.961	103.19
241.195	100.19
241.429	97.19
241.662	91.19
241.896	110.19
242.13	117.19
242.363	98.19
242.597	90.19
242.83	90.19
243.064	105.19
243.298	110.19
243.531	86.19
243.765	97.19
243.998	91.19
244.232	95.19
244.465	111.19
244.699	118.19
244.932	103.19
245.166	119.19
245.399	103.19
245.633	91.19
245.866	101.19
246.099	102.19
246.333	112.19
246.566	103.19
246.8	109.19
247.033	106.19
247.266	111.19
247.5	111.19
247.733	116.19
247.966	114.19
248.2	115.19
248.433	114.19
248.666	100.19
248.899	126.19
249.133	127.19
249.366	120.19
249.599	141.19
249.832	124.19
250.066	116.19
250.299	119.19
250.532	139.19
250.765	117.19
250.998	136.19
251.231	129.19
251.465	134.19
251.698	137.19
251.931	131.19
252.164	120.19
252.397	126.19
252.63	134.19
252.863	127.19
253.096	135.19
253.329	140.19
253.562	137.19
253.795	141.19
254.028	131.19
254.261	134.19
254.494	138.19
254.727	145.19
254.96	150.19
255.193	149.19
255.426	140.19
255.659	144.19
255.892	131.19
256.124	158.19
256.357	136.19
256.59	136.19
256.823	145.19
257.056	148.19
257.289	116.19
257.521	118.19
257.754	127.19
257.987	124.19
258.22	135.19
258.452	114.19
258.685	137.19
258.918	131.19
259.151	145.19
259.383	138.19
259.616	138.19
259.849	134.19
260.081	138.19
260.314	156.19
260.547	148.19
260.779	156.19
261.012	132.19
261.244	158.19
261.477	140.19
261.71	136.19
261.942	128.19
262.175	133.19
262.407	143.19
262.64	137.19
262.872	140.19
263.105	124.19
263.337	138.19
263.57	134.19
263.802	139.19
264.035	132.19
264.267	118.19
264.499	140.19
264.732	129.19
264.964	142.19
265.197	134.19
265.429	136.19
265.661	135.19
265.894	135.19
266.126	136.19
266.358	131.19
266.591	140.19
266.823	135.19
267.055	146.19
267.287	125.19
267.52	133.19
267.752	129.19
267.984	127.19
268.216	128.19
268.448	144.19
268.681	133.19
268.913	134.19
269.145	157.19
269.377	163.19
269.609	158.19
269.841	171.19
270.073	153.19
270.306	178.19
270.538	186.19
270.77	179.19
271.002	159.19
271.234	166.19
271.466	161.19
271.698	180.19
271.93	175.19
272.162	183.19
272.394	170.19
272.626	180.19
272.858	158.19
273.09	162.19
273.322	158.19
273.553	137.19
273.785	154.19
274.017	157.19
274.249	150.19
274.481	138.19
274.713	151.19
274.945	159.19
275.176	145.19
275.408	162.19
275.64	156.19
275.872	150.19
276.104	154.19
276.335	164.19
276.567	145.19
276.799	167.19
277.031	183.19
277.262	175.19
277.494	200.19
277.726	166.19
277.957	168.19
278.189	144.19
278.421	163.19
278.652	146.19
278.884	168.19
279.115	150.19
279.347	157.19
279.579	162.19
279.81	142.19
280.042	142.19
280.273	153.19
280.505	153.19
280.736	161.19
280.968	152.19
281.199	154.19
281.431	138.19
281.662	149.19
281.894	158.19
282.125	164.19
282.356	178.19
282.588	165.19
282.819	170.19
283.051	166.19
283.282	165.19
283.513	162.19
283.745	148.19
283.976	156.19
284.207	155.19
284.439	163.19
284.67	166.19
284.901	154.19
285.132	148.19
285.364	154.19
285.595	159.19
285.826	144.19
286.057	158.19
286.288	153.19
286.52	166.19
286.751	160.19
286.982	155.19
287.213	159.19
287.444	164.19
287.675	166.19
287.906	173.19
288.138	173.19
288.369	185.19
288.6	171.19
288.831	178.19
289.062	190.19
289.293	157.19
289.524	158.19
289.755	166.19
289.986	183.19
290.217	157.19
290.448	172.19
290.679	164.19
290.91	160.19
291.141	174.19
291.371	171.19
291.602	166.19
291.833	160.19
292.064	164.19
292.295	164.19
292.526	167.19
292.757	170.19
292.987	178.19
293.218	164.19
293.449	170.19
293.68	159.19
293.91	171.19
294.141	165.19
294.372	172.19
294.603	164.19
294.833	169.19
295.064	160.19
295.295	184.19
295.525	167.19
295.756	180.19
295.987	176.19
296.217	167.19
296.448	192.19
296.679	162.19
296.909	168.19
297.14	174.19
297.37	175.19
297.601	165.19
297.831	166.19
298.062	176.19
298.292	168.19
298.523	162.19
298.753	173.19
298.984	171.19
299.214	173.19
299.445	184.19
299.675	183.19
299.905	170.19
300.136	175.19
300.366	183.19
300.597	192.19
300.827	171.19
301.057	194.19
301.288	173.19
301.518	182.19
301.748	180.19
301.979	174.19
302.209	183.19
302.439	183.19
302.669	193.19
302.9	174.19
303.13	177.19
303.36	172.19
303.59	177.19
303.82	191.19
304.051	197.19
304.281	174.19
304.511	191.19
304.741	182.19
304.971	182.19
305.201	182.19
305.431	173.19
305.661	182.19
305.891	182.19
306.121	174.19
306.352	208.19
306.582	182.19
306.812	182.19
307.042	184.19
307.272	180.19
307.502	190.19
307.731	180.19
307.961	183.19
308.191	187.19
308.421	164.19
308.651	175.19
308.881	188.19
309.111	189.19
309.341	202.19
309.571	196.19
309.8	196.19
310.03	188.19
310.26	204.19
310.49	186.19
310.72	190.19
310.949	203.19
311.179	199.19
311.409	206.19
311.639	199.19
311.868	190.19
312.098	209.19
312.328	214.19
312.557	197.19
312.787	221.19
313.017	215.19
313.246	214.19
313.476	200.19
313.706	202.19
313.935	208.19
314.165	224.19
314.394	205.19
314.624	210.19
314.853	226.19
315.083	192.19
315.312	190.19
315.542	210.19
315.771	185.19
316.001	176.19
316.23	183.19
316.46	203.19
316.689	196.19
316.919	208.19
317.148	196.19
317.377	201.19
317.607	204.19
317.836	187.19
318.065	201.19
318.295	210.19
318.524	196.19
318.753	180.19
318.983	190.19
319.212	190.19
319.441	218.19
319.67	197.19
319.9	208.19
320.129	206.19
320.358	206.19
320.587	204.19
320.816	198.19
321.046	203.19
321.275	213.19
321.504	205.19
321.733	203.19
321.962	221.19
322.191	221.19
322.42	215.19
322.649	222.19
322.878	235.19
323.108	252.19
323.337	229.19
323.566	248.19
323.795	274.19
324.024	282.19
324.253	342.19
324.482	479.19
324.71	706.19
324.939	957.19
325.168	777.19
325.397	398.19
325.626	296.19
325.855	248.19
326.084	242.19
326.313	255.19
326.542	254.19
326.77	282.19
326.999	325.19
327.228	425.19
327.457	658.19
327.686	701.19
327.914	462.19
328.143	349.19
328.372	322.19
328.6	287.19
328.829	292.19
329.058	286.19
329.287	291.19
329.515	270.19
329.744	246.19
329.972	243.19
330.201	269.19
330.43	296.19
330.658	310.19
330.887	308.19
331.115	297.19
331.344	260.19
331.572	242.19
331.801	247.19
332.03	251.19
332.258	246.19
332.486	233.19
332.715	231.19
332.943	255.19
333.172	246.19
333.4	217.19
333.629	242.19
333.857	253.19
334.085	258.19
334.314	270.19
334.542	273.19
334.771	299.19
334.999	263.19
335.227	236.19
335.455	239.19
335.684	239.19
335.912	221.19
336.14	220.19
336.369	231.19
336.597	237.19
336.825	227.19
337.053	212.19
337.281	218.19
337.51	224.19
337.738	215.19
337.966	244.19
338.194	237.19
338.422	242.19
338.65	229.19
338.878	235.19
339.106	218.19
339.334	219.19
339.562	213.19
339.79	224.19
340.018	223.19
340.246	203.19
340.474	226.19
340.702	234.19
340.93	229.19
341.158	221.19
341.386	231.19
341.614	219.19
341.842	208.19
342.07	220.19
342.298	235.19
342.526	215.19
342.754	209.19
342.981	240.19
343.209	218.19
343.437	220.19
343.665	208.19
343.893	230.19
344.12	233.19
344.348	223.19
344.576	224.19
344.804	221.19
345.031	224.19
345.259	236.19
345.487	220.19
345.714	204.19
345.942	208.19
346.17	203.19
346.397	221.19
346.625	211.19
346.853	221.19
347.08	220.19
347.308	206.19
347.535	216.19
347.763	218.19
347.99	236.19
348.218	238.19
348.445	226.19
348.673	225.19
348.9	211.19
349.128	196.19
349.355	203.19
349.583	228.19
349.81	198.19
350.037	202.19
350.265	211.19
350.492	217.19
350.72	213.19
350.947	223.19
351.174	217.19
351.402	233.19
351.629	207.19
351.856	215.19
352.083	207.19
352.311	239.19
352.538	228.19
352.765	222.19
352.992	212.19
353.22	221.19
353.447	218.19
353.674	229.19
353.901	196.19
354.128	205.19
354.355	204.19
354.583	222.19
354.81	213.19
355.037	215.19
355.264	194.19
355.491	196.19
355.718	207.19
355.945	205.19
356.172	199.19
356.399	220.19
356.626	199.19
356.853	199.19
357.08	214.19
357.307	203.19
357.534	204.19
357.761	206.19
357.988	211.19
358.215	200.19
358.441	204.19
358.668	207.19
358.895	198.19
359.122	220.19
359.349	192.19
359.576	199.19
359.802	209.19
360.029	247.19
360.256	242.19
360.483	233.19
360.709	227.19
360.936	227.19
361.163	195.19
361.39	198.19
361.616	198.19
361.843	185.19
362.07	214.19
362.296	211.19
362.523	208.19
362.749	213.19
362.976	226.19
363.203	204.19
363.429	202.19
363.656	209.19
363.882	196.19
364.109	215.19
364.335	225.19
364.562	199.19
364.788	217.19
365.015	202.19
365.241	198.19
365.468	220.19
365.694	210.19
365.92	206.19
366.147	208.19
366.373	196.19
366.599	216.19
366.826	198.19
367.052	206.19
367.278	209.19
367.505	203.19
367.731	217.19
367.957	215.19
368.184	201.19
368.41	210.19
368.636	218.19
368.862	205.19
369.089	202.19
369.315	209.19
369.541	197.19
369.767	210.19
369.993	188.19
370.219	205.19
370.445	203.19
370.672	210.19
370.898	191.19
371.124	199.19
371.35	207.19
371.576	190.19
371.802	203.19
372.028	194.19
372.254	187.19
372.48	208.19
372.706	191.19
372.932	203.19
373.158	201.19
373.384	206.19
373.61	212.19
373.835	217.19
374.061	205.19
374.287	205.19
374.513	194.19
374.739	189.19
374.965	200.19
375.191	196.19
375.416	198.19
375.642	217.19
375.868	207.19
376.094	207.19
376.319	203.19
376.545	204.19
376.771	211.19
376.997	196.19
377.222	200.19
377.448	206.19
377.674	207.19
377.899	194.19
378.125	190.19
378.35	203.19
378.576	206.19
378.802	198.19
379.027	199.19
379.253	195.19
379.478	200.19
379.704	194.19
379.929	206.19
380.155	209.19
380.38	205.19
380.606	207.19
380.831	215.19
381.057	202.19
381.282	194.19
381.507	195.19
381.733	212.19
381.958	190.19
382.184	201.19
382.409	204.19
382.634	199.19
382.86	219.19
383.085	206.19
383.31	205.19
383.535	210.19
383.761	207.19
383.986	201.19
384.211	212.19
384.436	200.19
384.662	218.19
384.887	236.19
385.112	221.19
385.337	212.19
385.562	211.19
385.787	221.19
386.013	233.19
386.238	217.19
386.463	220.19
386.688	206.19
386.913	218.19
387.138	222.19
387.363	208.19
387.588	205.19
387.813	212.19
388.038	223.19
388.263	202.19
388.488	218.19
388.713	220.19
388.938	215.19
389.163	198.19
389.387	219.19
389.612	224.19
389.837	219.19
390.062	207.19
390.287	226.19
390.512	236.19
390.736	216.19
390.961	221.19
391.186	215.19
391.411	200.19
391.636	226.19
391.86	215.19
392.085	210.19
392.31	219.19
392.534	219.19
392.759	225.19
392.984	237.19
393.208	220.19
393.433	213.19
393.658	230.19
393.882	247.19
394.107	216.19
394.331	220.19
394.556	211.19
394.78	242.19
395.005	230.19
395.229	211.19
395.454	222.19
395.678	248.19
395.903	223.19
396.127	228.19
396.352	241.19
396.576	220.19
396.801	220.19
397.025	230.19
397.249	255.19
397.474	243.19
397.698	223.19
397.922	232.19
398.147	229.19
398.371	248.19
398.595	240.19
398.82	250.19
399.044	242.19
399.268	265.19
399.492	269.19
399.717	294.19
399.941	298.19
400.165	300.19
400.389	305.19
400.613	262.19
400.837	260.19
401.062	231.19
401.286	228.19
401.51	226.19
401.734	247.19
401.958	248.19
402.182	245.19
402.406	248.19
402.63	254.19
402.854	249.19
403.078	249.19
403.302	238.19
403.526	267.19
403.75	264.19
403.974	246.19
404.198	258.19
404.422	262.19
404.645	269.19
404.869	249.19
405.093	267.19
405.317	282.19
405.541	305.19
405.765	290.19
405.988	267.19
406.212	264.19
406.436	261.19
406.66	297.19
406.883	268.19
407.107	276.19
407.331	298.19
407.555	327.19
407.778	312.19
408.002	314.19
408.226	287.19
408.449	251.19
408.673	275.19
408.896	279.19
409.12	294.19
409.344	280.19
409.567	259.19
409.791	249.19
410.014	264.19
410.238	253.19
410.461	252.19
410.685	270.19
410.908	268.19
411.132	284.19
411.355	272.19
411.578	264.19
411.802	260.19
412.025	252.19
412.249	266.19
412.472	286.19
412.695	292.19
412.919	258.19
413.142	243.19
413.365	255.19
413.589	252.19
413.812	244.19
414.035	248.19
414.258	234.19
414.482	227.19
414.705	257.19
414.928	223.19
415.151	233.19
415.374	252.19
415.597	239.19
415.821	241.19
416.044	233.19
416.267	248.19
416.49	262.19
416.713	232.19
416.936	259.19
417.159	236.19
417.382	238.19
417.605	237.19
417.828	259.19
418.051	237.19
418.274	256.19
418.497	238.19
418.72	243.19
418.943	252.19
419.166	266.19
419.389	279.19
419.611	274.19
419.834	246.19
420.057	280.19
420.28	272.19
420.503	246.19
420.726	246.19
420.948	269.19
421.171	271.19
421.394	295.19
421.617	286.19
421.839	239.19
422.062	248.19
422.285	258.19
422.507	284.19
422.73	324.19
422.953	290.19
423.175	256.19
423.398	256.19
423.621	262.19
423.843	275.19
424.066	291.19
424.288	272.19
424.511	308.19
424.733	286.19
424.956	338.19
425.178	319.19
425.401	312.19
425.623	338.19
425.846	289.19
426.068	258.19
426.291	257.19
426.513	267.19
426.735	256.19
426.958	294.19
427.18	322.19
427.402	380.19
427.625	405.19
427.847	373.19
428.069	306.19
428.292	285.19
428.514	255.19
428.736	257.19
428.958	256.19
429.181	249.19
429.403	256.19
429.625	270.19
429.847	272.19
430.069	294.19
430.292	298.19
430.514	242.19
430.736	235.19
430.958	244.19
431.18	252.19
431.402	250.19
431.624	234.19
431.846	226.19
432.068	249.19
432.29	242.19
432.512	241.19
432.734	252.19
432.956	229.19
433.178	244.19
433.4	250.19
433.622	246.19
433.844	249.19
434.066	238.19
434.287	232.19
434.509	242.19
434.731	236.19
434.953	242.19
435.175	232.19
435.397	268.19
435.618	276.19
435.84	272.19
436.062	314.19
436.284	352.19
436.505	292.19
436.727	277.19
436.949	259.19
437.17	245.19
437.392	244.19
437.614	246.19
437.835	281.19
438.057	329.19
438.278	347.19
438.5	331.19
438.721	360.19
438.943	348.19
439.165	288.19
439.386	254.19
439.608	271.19
439.829	289.19
440.05	290.19
440.272	290.19
440.493	275.19
440.715	273.19
440.936	287.19
441.158	261.19
441.379	233.19
441.6	239.19
441.822	269.19
442.043	284.19
442.264	336.19
442.486	333.19
442.707	288.19
442.928	273.19
443.149	290.19
443.371	290.19
443.592	294.19
443.813	331.19
444.034	342.19
444.255	293.19
444.476	264.19
444.698	249.19
444.919	273.19
445.14	377.19
445.361	312.19
445.582	291.19
445.803	321.19
446.024	356.19
446.245	347.19
446.466	323.19
446.687	280.19
446.908	252.19
447.129	260.19
447.35	246.19
447.571	257.19
447.792	251.19
448.013	243.19
448.234	256.19
448.455	278.19
448.675	336.19
448.896	382.19
449.117	311.19
449.338	301.19
449.559	354.19
449.779	371.19
450	309.19
450.221	272.19
450.442	243.19
450.662	246.19
450.883	240.19
451.104	271.19
451.324	243.19
451.545	228.19
451.766	200.19
451.986	237.19
452.207	212.19
452.428	228.19
452.648	229.19
452.869	216.19
453.089	228.19
453.31	245.19
453.53	244.19
453.751	224.19
453.971	237.19
454.192	250.19
454.412	230.19
454.633	230.19
454.853	226.19
455.073	218.19
455.294	240.19
455.514	266.19
455.734	261.19
455.955	227.19
456.175	236.19
456.395	218.19
456.616	223.19
456.836	223.19
457.056	203.19
457.276	215.19
457.497	212.19
457.717	212.19
457.937	215.19
458.157	213.19
458.377	235.19
458.598	239.19
458.818	270.19
459.038	286.19
459.258	286.19
459.478	255.19
459.698	245.19
459.918	233.19
460.138	233.19
460.358	237.19
460.578	237.19
460.798	234.19
461.018	234.19
461.238	241.19
461.458	226.19
461.678	240.19
461.898	236.19
462.118	236.19
462.338	242.19
462.558	266.19
462.777	256.19
462.997	259.19
463.217	275.19
463.437	267.19
463.657	240.19
463.876	237.19
464.096	257.19
464.316	252.19
464.536	248.19
464.755	264.19
464.975	273.19
465.195	291.19
465.414	328.19
465.634	268.19
465.854	252.19
466.073	246.19
466.293	245.19
466.512	228.19
466.732	248.19
466.951	216.19
467.171	247.19
467.391	228.19
467.61	242.19
467.829	251.19
468.049	226.19
468.268	225.19
468.488	221.19
468.707	211.19
468.927	246.19
469.146	219.19
469.365	209.19
469.585	219.19
469.804	232.19
470.023	246.19
470.243	247.19
470.462	238.19
470.681	234.19
470.901	237.19
471.12	237.19
471.339	244.19
471.558	226.19
471.777	227.19
471.997	236.19
472.216	258.19
472.435	275.19
472.654	256.19
472.873	253.19
473.092	239.19
473.311	240.19
473.53	223.19
473.749	248.19
473.968	250.19
474.187	310.19
474.406	313.19
474.625	238.19
474.844	245.19
475.063	239.19
475.282	224.19
475.501	242.19
475.72	261.19
475.939	239.19
476.158	236.19
476.377	234.19
476.596	237.19
476.814	252.19
477.033	254.19
477.252	252.19
477.471	252.19
477.69	243.19
477.908	256.19
478.127	248.19
478.346	251.19
478.564	266.19
478.783	263.19
479.002	265.19
479.22	263.19
479.439	282.19
479.658	278.19
479.876	291.19
480.095	283.19
480.313	299.19
480.532	282.19
480.751	278.19
480.969	272.19
481.188	312.19
481.406	355.19
481.624	296.19
481.843	286.19
482.061	286.19
482.28	267.19
482.498	255.19
482.717	266.19
482.935	268.19
483.153	262.19
483.372	263.19
483.59	278.19
483.808	272.19
484.027	280.19
484.245	271.19
484.463	281.19
484.681	277.19
484.9	272.19
485.118	272.19
485.336	268.19
485.554	283.19
485.772	273.19
485.99	267.19
486.209	276.19
486.427	292.19
486.645	282.19
486.863	286.19
487.081	297.19
487.299	287.19
487.517	283.19
487.735	293.19
487.953	275.19
488.171	289.19
488.389	282.19
488.607	270.19
488.825	295.19
489.043	303.19
489.261	299.19
489.479	299.19
489.696	302.19
489.914	300.19
490.132	288.19
490.35	311.19
490.568	307.19
490.786	306.19
491.003	335.19
491.221	326.19
491.439	329.19
491.657	343.19
491.874	322.19
492.092	346.19
492.31	346.19
492.527	339.19
492.745	342.19
492.963	322.19
493.18	350.19
493.398	339.19
493.615	343.19
493.833	347.19
494.05	335.19
494.268	333.19
494.485	346.19
494.703	324.19
494.92	344.19
495.138	339.19
495.355	333.19
495.573	330.19
495.79	327.19
496.008	337.19
496.225	342.19
496.442	337.19
496.66	352.19
496.877	339.19
497.094	336.19
497.312	331.19
497.529	352.19
497.746	339.19
497.963	353.19
498.181	366.19
498.398	344.19
498.615	347.19
498.832	363.19
499.049	379.19
499.267	371.19
499.484	368.19
499.701	405.19
499.918	401.19
500.135	397.19
500.352	446.19
500.569	448.19
500.786	455.19
501.003	439.19
501.22	428.19
501.437	406.19
501.654	424.19
501.871	417.19
502.088	381.19
502.305	376.19
502.522	350.19
