Data from 1966.PennyLincolnUp.Lamp.En5.5.200Scan.071719.P1._HRD10591_14-12-41-913.txt Node
Date: Thu Jul 18 14:12:41 EDT 2019
User: cochatt
Spectrometer: HR+D1059
Trigger mode: 1
Integration Time (sec): 1.000000E-1
Scans to average: 1
Electric dark correction enabled: true
Nonlinearity correction enabled: false
Boxcar width: 0
XAxis mode: Wavelengths
Number of Pixels in Spectrum: 2048
>>>>>Begin Spectral Data<<<<<
223.165	-17.56
223.4	-17.56
223.635	-17.56
223.869	-11.56
224.104	-12.56
224.338	-13.56
224.573	-16.56
224.808	-33.56
225.042	-0.56
225.277	-4.56
225.511	-6.56
225.746	-10.56
225.98	7.44
226.215	4.44
226.449	15.44
226.683	20.44
226.918	39.44
227.152	40.44
227.387	41.44
227.621	23.44
227.856	34.44
228.09	41.44
228.324	57.44
228.559	40.44
228.793	70.44
229.027	80.44
229.262	77.44
229.496	81.44
229.73	94.44
229.964	100.44
230.199	85.44
230.433	87.44
230.667	95.44
230.901	96.44
231.136	88.44
231.37	95.44
231.604	86.44
231.838	81.44
232.072	100.44
232.306	90.44
232.541	89.44
232.775	103.44
233.009	92.44
233.243	103.44
233.477	87.44
233.711	81.44
233.945	103.44
234.179	92.44
234.413	91.44
234.647	91.44
234.881	80.44
235.115	103.44
235.349	110.44
235.583	85.44
235.817	92.44
236.051	95.44
236.285	99.44
236.519	103.44
236.753	114.44
236.987	118.44
237.221	120.44
237.455	121.44
237.689	112.44
237.922	90.44
238.156	88.44
238.39	100.44
238.624	87.44
238.858	86.44
239.091	83.44
239.325	101.44
239.559	89.44
239.793	101.44
240.027	97.44
240.26	102.44
240.494	80.44
240.728	107.44
240.961	96.44
241.195	115.44
241.429	95.44
241.662	90.44
241.896	102.44
242.13	106.44
242.363	101.44
242.597	89.44
242.83	100.44
243.064	106.44
243.298	108.44
243.531	108.44
243.765	95.44
243.998	94.44
244.232	100.44
244.465	93.44
244.699	106.44
244.932	104.44
245.166	110.44
245.399	107.44
245.633	108.44
245.866	103.44
246.099	115.44
246.333	104.44
246.566	115.44
246.8	92.44
247.033	82.44
247.266	103.44
247.5	103.44
247.733	104.44
247.966	130.44
248.2	98.44
248.433	105.44
248.666	108.44
248.899	112.44
249.133	133.44
249.366	123.44
249.599	120.44
249.832	112.44
250.066	130.44
250.299	122.44
250.532	120.44
250.765	127.44
250.998	129.44
251.231	152.44
251.465	121.44
251.698	127.44
251.931	130.44
252.164	100.44
252.397	127.44
252.63	121.44
252.863	119.44
253.096	127.44
253.329	134.44
253.562	132.44
253.795	111.44
254.028	132.44
254.261	142.44
254.494	149.44
254.727	156.44
254.96	153.44
255.193	142.44
255.426	137.44
255.659	131.44
255.892	140.44
256.124	137.44
256.357	135.44
256.59	131.44
256.823	126.44
257.056	107.44
257.289	112.44
257.521	119.44
257.754	116.44
257.987	127.44
258.22	125.44
258.452	123.44
258.685	136.44
258.918	146.44
259.151	132.44
259.383	138.44
259.616	134.44
259.849	127.44
260.081	129.44
260.314	138.44
260.547	135.44
260.779	142.44
261.012	143.44
261.244	143.44
261.477	132.44
261.71	132.44
261.942	131.44
262.175	140.44
262.407	116.44
262.64	137.44
262.872	130.44
263.105	120.44
263.337	132.44
263.57	125.44
263.802	133.44
264.035	135.44
264.267	125.44
264.499	132.44
264.732	130.44
264.964	130.44
265.197	128.44
265.429	120.44
265.661	124.44
265.894	129.44
266.126	129.44
266.358	123.44
266.591	131.44
266.823	141.44
267.055	143.44
267.287	142.44
267.52	142.44
267.752	144.44
267.984	141.44
268.216	133.44
268.448	134.44
268.681	135.44
268.913	124.44
269.145	145.44
269.377	159.44
269.609	151.44
269.841	154.44
270.073	152.44
270.306	160.44
270.538	172.44
270.77	164.44
271.002	176.44
271.234	163.44
271.466	155.44
271.698	161.44
271.93	184.44
272.162	171.44
272.394	155.44
272.626	172.44
272.858	145.44
273.09	154.44
273.322	136.44
273.553	152.44
273.785	155.44
274.017	144.44
274.249	132.44
274.481	142.44
274.713	151.44
274.945	160.44
275.176	162.44
275.408	152.44
275.64	150.44
275.872	152.44
276.104	146.44
276.335	142.44
276.567	147.44
276.799	156.44
277.031	161.44
277.262	184.44
277.494	194.44
277.726	156.44
277.957	168.44
278.189	155.44
278.421	150.44
278.652	142.44
278.884	160.44
279.115	144.44
279.347	148.44
279.579	153.44
279.81	155.44
280.042	151.44
280.273	140.44
280.505	163.44
280.736	139.44
280.968	138.44
281.199	148.44
281.431	168.44
281.662	149.44
281.894	156.44
282.125	163.44
282.356	172.44
282.588	164.44
282.819	169.44
283.051	147.44
283.282	158.44
283.513	148.44
283.745	165.44
283.976	155.44
284.207	169.44
284.439	154.44
284.67	165.44
284.901	171.44
285.132	143.44
285.364	153.44
285.595	166.44
285.826	145.44
286.057	171.44
286.288	172.44
286.52	172.44
286.751	153.44
286.982	165.44
287.213	152.44
287.444	165.44
287.675	157.44
287.906	144.44
288.138	158.44
288.369	171.44
288.6	173.44
288.831	160.44
289.062	168.44
289.293	177.44
289.524	164.44
289.755	144.44
289.986	140.44
290.217	156.44
290.448	144.44
290.679	156.44
290.91	171.44
291.141	160.44
291.371	157.44
291.602	152.44
291.833	153.44
292.064	152.44
292.295	147.44
292.526	160.44
292.757	150.44
292.987	174.44
293.218	138.44
293.449	160.44
293.68	156.44
293.91	151.44
294.141	160.44
294.372	173.44
294.603	179.44
294.833	158.44
295.064	162.44
295.295	174.44
295.525	152.44
295.756	164.44
295.987	164.44
296.217	174.44
296.448	181.44
296.679	162.44
296.909	171.44
297.14	156.44
297.37	164.44
297.601	164.44
297.831	182.44
298.062	171.44
298.292	159.44
298.523	184.44
298.753	173.44
298.984	163.44
299.214	169.44
299.445	161.44
299.675	164.44
299.905	149.44
300.136	180.44
300.366	169.44
300.597	165.44
300.827	185.44
301.057	170.44
301.288	182.44
301.518	171.44
301.748	170.44
301.979	162.44
302.209	153.44
302.439	172.44
302.669	178.44
302.9	170.44
303.13	169.44
303.36	180.44
303.59	184.44
303.82	182.44
304.051	189.44
304.281	175.44
304.511	184.44
304.741	161.44
304.971	171.44
305.201	184.44
305.431	162.44
305.661	169.44
305.891	178.44
306.121	182.44
306.352	187.44
306.582	174.44
306.812	182.44
307.042	176.44
307.272	179.44
307.502	174.44
307.731	198.44
307.961	170.44
308.191	167.44
308.421	187.44
308.651	178.44
308.881	173.44
309.111	183.44
309.341	174.44
309.571	164.44
309.8	181.44
310.03	193.44
310.26	188.44
310.49	194.44
310.72	193.44
310.949	213.44
311.179	203.44
311.409	196.44
311.639	199.44
311.868	195.44
312.098	203.44
312.328	192.44
312.557	197.44
312.787	211.44
313.017	207.44
313.246	205.44
313.476	190.44
313.706	192.44
313.935	201.44
314.165	203.44
314.394	213.44
314.624	209.44
314.853	208.44
315.083	200.44
315.312	184.44
315.542	187.44
315.771	179.44
316.001	199.44
316.23	190.44
316.46	195.44
316.689	201.44
316.919	196.44
317.148	190.44
317.377	189.44
317.607	196.44
317.836	190.44
318.065	195.44
318.295	171.44
318.524	199.44
318.753	190.44
318.983	198.44
319.212	208.44
319.441	182.44
319.67	180.44
319.9	186.44
320.129	195.44
320.358	202.44
320.587	206.44
320.816	191.44
321.046	197.44
321.275	206.44
321.504	183.44
321.733	188.44
321.962	198.44
322.191	215.44
322.42	219.44
322.649	209.44
322.878	231.44
323.108	236.44
323.337	239.44
323.566	243.44
323.795	250.44
324.024	261.44
324.253	315.44
324.482	444.44
324.71	656.44
324.939	932.44
325.168	726.44
325.397	409.44
325.626	279.44
325.855	230.44
326.084	212.44
326.313	231.44
326.542	226.44
326.77	256.44
326.999	302.44
327.228	406.44
327.457	573.44
327.686	656.44
327.914	446.44
328.143	310.44
328.372	276.44
328.6	271.44
328.829	258.44
329.058	253.44
329.287	296.44
329.515	268.44
329.744	235.44
329.972	217.44
330.201	266.44
330.43	285.44
330.658	278.44
330.887	290.44
331.115	284.44
331.344	244.44
331.572	247.44
331.801	237.44
332.03	250.44
332.258	229.44
332.486	237.44
332.715	216.44
332.943	222.44
333.172	235.44
333.4	219.44
333.629	228.44
333.857	228.44
334.085	239.44
334.314	251.44
334.542	268.44
334.771	281.44
334.999	258.44
335.227	242.44
335.455	227.44
335.684	227.44
335.912	229.44
336.14	231.44
336.369	219.44
336.597	244.44
336.825	235.44
337.053	235.44
337.281	220.44
337.51	218.44
337.738	213.44
337.966	217.44
338.194	218.44
338.422	221.44
338.65	204.44
338.878	226.44
339.106	212.44
339.334	211.44
339.562	209.44
339.79	224.44
340.018	219.44
340.246	213.44
340.474	216.44
340.702	227.44
340.93	211.44
341.158	215.44
341.386	221.44
341.614	215.44
341.842	203.44
342.07	208.44
342.298	204.44
342.526	210.44
342.754	204.44
342.981	193.44
343.209	208.44
343.437	210.44
343.665	206.44
343.893	211.44
344.12	217.44
344.348	215.44
344.576	215.44
344.804	214.44
345.031	226.44
345.259	216.44
345.487	210.44
345.714	213.44
345.942	215.44
346.17	191.44
346.397	193.44
346.625	200.44
346.853	200.44
347.08	210.44
347.308	199.44
347.535	205.44
347.763	223.44
347.99	217.44
348.218	217.44
348.445	222.44
348.673	206.44
348.9	202.44
349.128	219.44
349.355	203.44
349.583	199.44
349.81	206.44
350.037	200.44
350.265	206.44
350.492	197.44
350.72	188.44
350.947	207.44
351.174	193.44
351.402	204.44
351.629	214.44
351.856	199.44
352.083	200.44
352.311	211.44
352.538	225.44
352.765	217.44
352.992	217.44
353.22	201.44
353.447	198.44
353.674	195.44
353.901	202.44
354.128	219.44
354.355	196.44
354.583	189.44
354.81	198.44
355.037	207.44
355.264	199.44
355.491	184.44
355.718	196.44
355.945	197.44
356.172	196.44
356.399	198.44
356.626	181.44
356.853	200.44
357.08	186.44
357.307	193.44
357.534	180.44
357.761	196.44
357.988	191.44
358.215	192.44
358.441	191.44
358.668	185.44
358.895	207.44
359.122	202.44
359.349	195.44
359.576	216.44
359.802	225.44
360.029	212.44
360.256	242.44
360.483	206.44
360.709	207.44
360.936	200.44
361.163	214.44
361.39	212.44
361.616	196.44
361.843	223.44
362.07	205.44
362.296	194.44
362.523	207.44
362.749	207.44
362.976	206.44
363.203	207.44
363.429	205.44
363.656	217.44
363.882	190.44
364.109	203.44
364.335	207.44
364.562	197.44
364.788	198.44
365.015	204.44
365.241	207.44
365.468	211.44
365.694	190.44
365.92	198.44
366.147	191.44
366.373	182.44
366.599	191.44
366.826	192.44
367.052	183.44
367.278	202.44
367.505	198.44
367.731	207.44
367.957	209.44
368.184	202.44
368.41	186.44
368.636	210.44
368.862	199.44
369.089	212.44
369.315	172.44
369.541	204.44
369.767	195.44
369.993	194.44
370.219	200.44
370.445	201.44
370.672	188.44
370.898	201.44
371.124	190.44
371.35	192.44
371.576	213.44
371.802	183.44
372.028	172.44
372.254	187.44
372.48	190.44
372.706	207.44
372.932	183.44
373.158	198.44
373.384	204.44
373.61	183.44
373.835	204.44
374.061	187.44
374.287	196.44
374.513	204.44
374.739	191.44
374.965	200.44
375.191	192.44
375.416	194.44
375.642	203.44
375.868	206.44
376.094	202.44
376.319	198.44
376.545	199.44
376.771	198.44
376.997	203.44
377.222	203.44
377.448	206.44
377.674	206.44
377.899	215.44
378.125	191.44
378.35	198.44
378.576	195.44
378.802	175.44
379.027	188.44
379.253	192.44
379.478	201.44
379.704	203.44
379.929	195.44
380.155	192.44
380.38	191.44
380.606	206.44
380.831	201.44
381.057	202.44
381.282	175.44
381.507	198.44
381.733	204.44
381.958	197.44
382.184	195.44
382.409	197.44
382.634	174.44
382.86	208.44
383.085	197.44
383.31	210.44
383.535	191.44
383.761	197.44
383.986	197.44
384.211	207.44
384.436	205.44
384.662	194.44
384.887	210.44
385.112	213.44
385.337	197.44
385.562	228.44
385.787	208.44
386.013	223.44
386.238	218.44
386.463	205.44
386.688	217.44
386.913	216.44
387.138	191.44
387.363	192.44
387.588	201.44
387.813	207.44
388.038	194.44
388.263	211.44
388.488	226.44
388.713	211.44
388.938	194.44
389.163	201.44
389.387	197.44
389.612	214.44
389.837	212.44
390.062	207.44
390.287	202.44
390.512	212.44
390.736	196.44
390.961	200.44
391.186	203.44
391.411	214.44
391.636	214.44
391.86	222.44
392.085	194.44
392.31	204.44
392.534	220.44
392.759	203.44
392.984	211.44
393.208	214.44
393.433	221.44
393.658	206.44
393.882	229.44
394.107	211.44
394.331	214.44
394.556	210.44
394.78	205.44
395.005	231.44
395.229	227.44
395.454	207.44
395.678	221.44
395.903	228.44
396.127	228.44
396.352	222.44
396.576	223.44
396.801	207.44
397.025	215.44
397.249	219.44
397.474	223.44
397.698	227.44
397.922	226.44
398.147	232.44
398.371	227.44
398.595	228.44
398.82	241.44
399.044	226.44
399.268	246.44
399.492	250.44
399.717	282.44
399.941	279.44
400.165	291.44
400.389	278.44
400.613	254.44
400.837	233.44
401.062	232.44
401.286	248.44
401.51	230.44
401.734	254.44
401.958	235.44
402.182	226.44
402.406	219.44
402.63	231.44
402.854	238.44
403.078	249.44
403.302	239.44
403.526	246.44
403.75	244.44
403.974	260.44
404.198	240.44
404.422	242.44
404.645	232.44
404.869	265.44
405.093	269.44
405.317	267.44
405.541	288.44
405.765	253.44
405.988	266.44
406.212	240.44
406.436	294.44
406.66	263.44
406.883	261.44
407.107	259.44
407.331	286.44
407.555	310.44
407.778	314.44
408.002	282.44
408.226	259.44
408.449	254.44
408.673	259.44
408.896	276.44
409.12	287.44
409.344	293.44
409.567	240.44
409.791	239.44
410.014	265.44
410.238	250.44
410.461	238.44
410.685	244.44
410.908	242.44
411.132	246.44
411.355	284.44
411.578	264.44
411.802	256.44
412.025	252.44
412.249	255.44
412.472	273.44
412.695	257.44
412.919	281.44
413.142	243.44
413.365	233.44
413.589	235.44
413.812	256.44
414.035	234.44
414.258	242.44
414.482	244.44
414.705	241.44
414.928	229.44
415.151	230.44
415.374	229.44
415.597	236.44
415.821	233.44
416.044	230.44
416.267	231.44
416.49	243.44
416.713	245.44
416.936	245.44
417.159	244.44
417.382	233.44
417.605	241.44
417.828	238.44
418.051	238.44
418.274	251.44
418.497	230.44
418.72	233.44
418.943	238.44
419.166	227.44
419.389	238.44
419.611	246.44
419.834	243.44
420.057	263.44
420.28	241.44
420.503	236.44
420.726	236.44
420.948	250.44
421.171	258.44
421.394	275.44
421.617	225.44
421.839	211.44
422.062	249.44
422.285	254.44
422.507	267.44
422.73	314.44
422.953	298.44
423.175	242.44
423.398	244.44
423.621	230.44
423.843	254.44
424.066	246.44
424.288	250.44
424.511	273.44
424.733	311.44
424.956	328.44
425.178	300.44
425.401	307.44
425.623	302.44
425.846	258.44
426.068	280.44
426.291	244.44
426.513	246.44
426.735	236.44
426.958	268.44
427.18	311.44
427.402	349.44
427.625	398.44
427.847	358.44
428.069	286.44
428.292	260.44
428.514	246.44
428.736	245.44
428.958	243.44
429.181	231.44
429.403	235.44
429.625	240.44
429.847	254.44
430.069	286.44
430.292	298.44
430.514	258.44
430.736	248.44
430.958	235.44
431.18	237.44
431.402	228.44
431.624	222.44
431.846	238.44
432.068	222.44
432.29	219.44
432.512	226.44
432.734	236.44
432.956	238.44
433.178	251.44
433.4	252.44
433.622	240.44
433.844	233.44
434.066	231.44
434.287	223.44
434.509	229.44
434.731	238.44
434.953	227.44
435.175	252.44
435.397	252.44
435.618	273.44
435.84	272.44
436.062	302.44
436.284	349.44
436.505	268.44
436.727	254.44
436.949	256.44
437.17	251.44
437.392	235.44
437.614	246.44
437.835	254.44
438.057	286.44
438.278	361.44
438.5	334.44
438.721	356.44
438.943	350.44
439.165	268.44
439.386	267.44
439.608	270.44
439.829	263.44
440.05	275.44
440.272	290.44
440.493	275.44
440.715	256.44
440.936	260.44
441.158	247.44
441.379	239.44
441.6	250.44
441.822	275.44
442.043	251.44
442.264	323.44
442.486	320.44
442.707	284.44
442.928	258.44
443.149	274.44
443.371	282.44
443.592	296.44
443.813	313.44
444.034	351.44
444.255	283.44
444.476	271.44
444.698	255.44
444.919	263.44
445.14	347.44
445.361	302.44
445.582	296.44
445.803	299.44
446.024	338.44
446.245	341.44
446.466	322.44
446.687	271.44
446.908	248.44
447.129	228.44
447.35	228.44
447.571	234.44
447.792	213.44
448.013	250.44
448.234	245.44
448.455	250.44
448.675	318.44
448.896	354.44
449.117	287.44
449.338	290.44
449.559	316.44
449.779	365.44
450	302.44
450.221	252.44
450.442	227.44
450.662	234.44
450.883	243.44
451.104	260.44
451.324	237.44
451.545	223.44
451.766	229.44
451.986	223.44
452.207	213.44
452.428	212.44
452.648	203.44
452.869	202.44
453.089	233.44
453.31	213.44
453.53	226.44
453.751	208.44
453.971	213.44
454.192	218.44
454.412	229.44
454.633	221.44
454.853	218.44
455.073	199.44
455.294	226.44
455.514	237.44
455.734	261.44
455.955	211.44
456.175	206.44
456.395	207.44
456.616	185.44
456.836	210.44
457.056	209.44
457.276	209.44
457.497	204.44
457.717	204.44
457.937	203.44
458.157	231.44
458.377	211.44
458.598	216.44
458.818	256.44
459.038	311.44
459.258	276.44
459.478	242.44
459.698	237.44
459.918	218.44
460.138	231.44
460.358	217.44
460.578	231.44
460.798	247.44
461.018	247.44
461.238	239.44
461.458	220.44
461.678	221.44
461.898	225.44
462.118	239.44
462.338	219.44
462.558	259.44
462.777	250.44
462.997	237.44
463.217	246.44
463.437	239.44
463.657	234.44
463.876	237.44
464.096	260.44
464.316	233.44
464.536	251.44
464.755	230.44
464.975	238.44
465.195	279.44
465.414	301.44
465.634	266.44
465.854	233.44
466.073	230.44
466.293	227.44
466.512	232.44
466.732	223.44
466.951	212.44
467.171	242.44
467.391	224.44
467.61	222.44
467.829	237.44
468.049	215.44
468.268	223.44
468.488	213.44
468.707	224.44
468.927	221.44
469.146	219.44
469.365	214.44
469.585	213.44
469.804	229.44
470.023	220.44
470.243	219.44
470.462	227.44
470.681	226.44
470.901	235.44
471.12	224.44
471.339	231.44
471.558	216.44
471.777	229.44
471.997	216.44
472.216	243.44
472.435	264.44
472.654	252.44
472.873	221.44
473.092	223.44
473.311	217.44
473.53	220.44
473.749	218.44
473.968	247.44
474.187	287.44
474.406	284.44
474.625	239.44
474.844	231.44
475.063	217.44
475.282	222.44
475.501	226.44
475.72	211.44
475.939	213.44
476.158	226.44
476.377	219.44
476.596	228.44
476.814	240.44
477.033	222.44
477.252	231.44
477.471	226.44
477.69	250.44
477.908	231.44
478.127	246.44
478.346	232.44
478.564	269.44
478.783	250.44
479.002	261.44
479.22	265.44
479.439	264.44
479.658	265.44
479.876	270.44
480.095	273.44
480.313	293.44
480.532	292.44
480.751	276.44
480.969	281.44
481.188	308.44
481.406	336.44
481.624	272.44
481.843	290.44
482.061	272.44
482.28	262.44
482.498	246.44
482.717	248.44
482.935	249.44
483.153	260.44
483.372	260.44
483.59	268.44
483.808	272.44
484.027	269.44
484.245	253.44
484.463	277.44
484.681	255.44
484.9	267.44
485.118	286.44
485.336	243.44
485.554	264.44
485.772	249.44
485.99	278.44
486.209	251.44
486.427	263.44
486.645	276.44
486.863	290.44
487.081	287.44
487.299	272.44
487.517	289.44
487.735	272.44
487.953	302.44
488.171	286.44
488.389	292.44
488.607	273.44
488.825	278.44
489.043	268.44
489.261	271.44
489.479	259.44
489.696	281.44
489.914	282.44
490.132	278.44
490.35	264.44
490.568	292.44
490.786	306.44
491.003	283.44
491.221	304.44
491.439	309.44
491.657	320.44
491.874	328.44
492.092	331.44
492.31	312.44
492.527	303.44
492.745	324.44
492.963	325.44
493.18	319.44
493.398	297.44
493.615	320.44
493.833	324.44
494.05	331.44
494.268	325.44
494.485	321.44
494.703	324.44
494.92	335.44
495.138	309.44
495.355	339.44
495.573	335.44
495.79	325.44
496.008	315.44
496.225	299.44
496.442	311.44
496.66	333.44
496.877	315.44
497.094	327.44
497.312	324.44
497.529	311.44
497.746	328.44
497.963	324.44
498.181	336.44
498.398	348.44
498.615	314.44
498.832	358.44
499.049	351.44
499.267	369.44
499.484	382.44
499.701	388.44
499.918	411.44
500.135	435.44
500.352	419.44
500.569	421.44
500.786	441.44
501.003	421.44
501.22	418.44
501.437	397.44
501.654	379.44
501.871	390.44
502.088	382.44
502.305	364.44
502.522	347.44
