Data from 1966.PennyLincolnUp.Lamp.En5.5.200Scan.071719.P1._HRD10591_14-12-49-913.txt Node
Date: Thu Jul 18 14:12:49 EDT 2019
User: cochatt
Spectrometer: HR+D1059
Trigger mode: 1
Integration Time (sec): 1.000000E-1
Scans to average: 1
Electric dark correction enabled: true
Nonlinearity correction enabled: false
Boxcar width: 0
XAxis mode: Wavelengths
Number of Pixels in Spectrum: 2048
>>>>>Begin Spectral Data<<<<<
223.165	-24.94
223.4	-24.94
223.635	-24.94
223.869	-13.94
224.104	-10.94
224.338	-13.94
224.573	-4.94
224.808	-6.94
225.042	-9.94
225.277	0.06
225.511	-9.94
225.746	2.06
225.98	13.06
226.215	17.06
226.449	12.06
226.683	13.06
226.918	17.06
227.152	21.06
227.387	40.06
227.621	36.06
227.856	30.06
228.09	47.06
228.324	41.06
228.559	48.06
228.793	41.06
229.027	74.06
229.262	74.06
229.496	87.06
229.73	87.06
229.964	94.06
230.199	96.06
230.433	82.06
230.667	74.06
230.901	94.06
231.136	85.06
231.37	92.06
231.604	90.06
231.838	81.06
232.072	93.06
232.306	91.06
232.541	87.06
232.775	98.06
233.009	87.06
233.243	91.06
233.477	94.06
233.711	89.06
233.945	84.06
234.179	75.06
234.413	92.06
234.647	83.06
234.881	93.06
235.115	93.06
235.349	95.06
235.583	103.06
235.817	87.06
236.051	93.06
236.285	90.06
236.519	89.06
236.753	96.06
236.987	99.06
237.221	115.06
237.455	132.06
237.689	114.06
237.922	101.06
238.156	84.06
238.39	89.06
238.624	93.06
238.858	83.06
239.091	100.06
239.325	88.06
239.559	87.06
239.793	91.06
240.027	89.06
240.26	98.06
240.494	106.06
240.728	87.06
240.961	116.06
241.195	92.06
241.429	103.06
241.662	99.06
241.896	83.06
242.13	102.06
242.363	101.06
242.597	99.06
242.83	87.06
243.064	97.06
243.298	82.06
243.531	91.06
243.765	83.06
243.998	97.06
244.232	96.06
244.465	99.06
244.699	99.06
244.932	94.06
245.166	99.06
245.399	100.06
245.633	102.06
245.866	86.06
246.099	99.06
246.333	91.06
246.566	84.06
246.8	102.06
247.033	108.06
247.266	95.06
247.5	94.06
247.733	104.06
247.966	114.06
248.2	109.06
248.433	122.06
248.666	106.06
248.899	114.06
249.133	132.06
249.366	128.06
249.599	121.06
249.832	126.06
250.066	128.06
250.299	123.06
250.532	103.06
250.765	117.06
250.998	128.06
251.231	142.06
251.465	128.06
251.698	131.06
251.931	120.06
252.164	122.06
252.397	114.06
252.63	121.06
252.863	119.06
253.096	127.06
253.329	133.06
253.562	139.06
253.795	139.06
254.028	115.06
254.261	120.06
254.494	138.06
254.727	154.06
254.96	161.06
255.193	150.06
255.426	133.06
255.659	142.06
255.892	146.06
256.124	141.06
256.357	129.06
256.59	122.06
256.823	132.06
257.056	126.06
257.289	122.06
257.521	128.06
257.754	121.06
257.987	121.06
258.22	131.06
258.452	129.06
258.685	126.06
258.918	121.06
259.151	130.06
259.383	120.06
259.616	136.06
259.849	111.06
260.081	120.06
260.314	132.06
260.547	146.06
260.779	137.06
261.012	130.06
261.244	133.06
261.477	140.06
261.71	134.06
261.942	130.06
262.175	142.06
262.407	141.06
262.64	137.06
262.872	119.06
263.105	119.06
263.337	118.06
263.57	118.06
263.802	115.06
264.035	124.06
264.267	128.06
264.499	130.06
264.732	129.06
264.964	121.06
265.197	131.06
265.429	122.06
265.661	136.06
265.894	119.06
266.126	103.06
266.358	128.06
266.591	124.06
266.823	134.06
267.055	136.06
267.287	123.06
267.52	130.06
267.752	126.06
267.984	138.06
268.216	129.06
268.448	123.06
268.681	132.06
268.913	123.06
269.145	161.06
269.377	142.06
269.609	152.06
269.841	141.06
270.073	155.06
270.306	167.06
270.538	175.06
270.77	176.06
271.002	172.06
271.234	173.06
271.466	150.06
271.698	171.06
271.93	166.06
272.162	180.06
272.394	164.06
272.626	153.06
272.858	160.06
273.09	169.06
273.322	152.06
273.553	140.06
273.785	145.06
274.017	152.06
274.249	156.06
274.481	147.06
274.713	152.06
274.945	157.06
275.176	156.06
275.408	148.06
275.64	156.06
275.872	143.06
276.104	132.06
276.335	131.06
276.567	160.06
276.799	170.06
277.031	198.06
277.262	183.06
277.494	178.06
277.726	168.06
277.957	142.06
278.189	154.06
278.421	154.06
278.652	138.06
278.884	150.06
279.115	144.06
279.347	139.06
279.579	140.06
279.81	158.06
280.042	169.06
280.273	149.06
280.505	136.06
280.736	150.06
280.968	143.06
281.199	155.06
281.431	138.06
281.662	151.06
281.894	145.06
282.125	157.06
282.356	170.06
282.588	158.06
282.819	182.06
283.051	176.06
283.282	150.06
283.513	150.06
283.745	137.06
283.976	156.06
284.207	156.06
284.439	153.06
284.67	164.06
284.901	146.06
285.132	146.06
285.364	141.06
285.595	163.06
285.826	142.06
286.057	159.06
286.288	163.06
286.52	149.06
286.751	170.06
286.982	170.06
287.213	143.06
287.444	157.06
287.675	162.06
287.906	163.06
288.138	156.06
288.369	164.06
288.6	170.06
288.831	146.06
289.062	182.06
289.293	141.06
289.524	175.06
289.755	151.06
289.986	162.06
290.217	148.06
290.448	165.06
290.679	163.06
290.91	170.06
291.141	170.06
291.371	173.06
291.602	155.06
291.833	145.06
292.064	164.06
292.295	146.06
292.526	155.06
292.757	156.06
292.987	155.06
293.218	144.06
293.449	164.06
293.68	144.06
293.91	157.06
294.141	150.06
294.372	162.06
294.603	153.06
294.833	136.06
295.064	147.06
295.295	164.06
295.525	165.06
295.756	161.06
295.987	179.06
296.217	192.06
296.448	181.06
296.679	150.06
296.909	160.06
297.14	167.06
297.37	194.06
297.601	163.06
297.831	139.06
298.062	165.06
298.292	172.06
298.523	174.06
298.753	159.06
298.984	178.06
299.214	160.06
299.445	148.06
299.675	167.06
299.905	169.06
300.136	160.06
300.366	173.06
300.597	156.06
300.827	162.06
301.057	168.06
301.288	164.06
301.518	185.06
301.748	178.06
301.979	164.06
302.209	180.06
302.439	179.06
302.669	165.06
302.9	174.06
303.13	179.06
303.36	177.06
303.59	181.06
303.82	171.06
304.051	179.06
304.281	171.06
304.511	168.06
304.741	169.06
304.971	168.06
305.201	158.06
305.431	166.06
305.661	172.06
305.891	176.06
306.121	177.06
306.352	188.06
306.582	187.06
306.812	192.06
307.042	190.06
307.272	182.06
307.502	176.06
307.731	170.06
307.961	183.06
308.191	170.06
308.421	171.06
308.651	174.06
308.881	169.06
309.111	200.06
309.341	171.06
309.571	190.06
309.8	199.06
310.03	180.06
310.26	202.06
310.49	201.06
310.72	202.06
310.949	202.06
311.179	202.06
311.409	198.06
311.639	211.06
311.868	191.06
312.098	183.06
312.328	210.06
312.557	217.06
312.787	215.06
313.017	212.06
313.246	191.06
313.476	191.06
313.706	195.06
313.935	174.06
314.165	197.06
314.394	216.06
314.624	195.06
314.853	210.06
315.083	215.06
315.312	201.06
315.542	192.06
315.771	187.06
316.001	194.06
316.23	196.06
316.46	200.06
316.689	200.06
316.919	184.06
317.148	199.06
317.377	184.06
317.607	194.06
317.836	193.06
318.065	190.06
318.295	194.06
318.524	190.06
318.753	198.06
318.983	194.06
319.212	199.06
319.441	202.06
319.67	191.06
319.9	201.06
320.129	187.06
320.358	204.06
320.587	191.06
320.816	194.06
321.046	193.06
321.275	193.06
321.504	192.06
321.733	190.06
321.962	196.06
322.191	220.06
322.42	192.06
322.649	215.06
322.878	218.06
323.108	222.06
323.337	233.06
323.566	252.06
323.795	262.06
324.024	290.06
324.253	334.06
324.482	464.06
324.71	677.06
324.939	890.06
325.168	726.06
325.397	387.06
325.626	276.06
325.855	237.06
326.084	245.06
326.313	228.06
326.542	247.06
326.77	254.06
326.999	308.06
327.228	410.06
327.457	601.06
327.686	671.06
327.914	449.06
328.143	317.06
328.372	291.06
328.6	281.06
328.829	279.06
329.058	258.06
329.287	288.06
329.515	273.06
329.744	240.06
329.972	267.06
330.201	248.06
330.43	302.06
330.658	295.06
330.887	316.06
331.115	291.06
331.344	258.06
331.572	253.06
331.801	241.06
332.03	239.06
332.258	251.06
332.486	226.06
332.715	202.06
332.943	217.06
333.172	225.06
333.4	229.06
333.629	215.06
333.857	236.06
334.085	231.06
334.314	246.06
334.542	277.06
334.771	281.06
334.999	261.06
335.227	240.06
335.455	219.06
335.684	218.06
335.912	214.06
336.14	223.06
336.369	203.06
336.597	227.06
336.825	213.06
337.053	213.06
337.281	227.06
337.51	232.06
337.738	227.06
337.966	222.06
338.194	216.06
338.422	224.06
338.65	225.06
338.878	215.06
339.106	187.06
339.334	211.06
339.562	206.06
339.79	224.06
340.018	227.06
340.246	215.06
340.474	203.06
340.702	217.06
340.93	204.06
341.158	202.06
341.386	224.06
341.614	214.06
341.842	202.06
342.07	190.06
342.298	210.06
342.526	194.06
342.754	200.06
342.981	207.06
343.209	217.06
343.437	222.06
343.665	215.06
343.893	212.06
344.12	203.06
344.348	206.06
344.576	211.06
344.804	215.06
345.031	222.06
345.259	222.06
345.487	205.06
345.714	214.06
345.942	204.06
346.17	211.06
346.397	192.06
346.625	199.06
346.853	198.06
347.08	198.06
347.308	214.06
347.535	199.06
347.763	218.06
347.99	214.06
348.218	202.06
348.445	225.06
348.673	214.06
348.9	206.06
349.128	202.06
349.355	207.06
349.583	206.06
349.81	186.06
350.037	201.06
350.265	201.06
350.492	219.06
350.72	202.06
350.947	202.06
351.174	221.06
351.402	205.06
351.629	194.06
351.856	201.06
352.083	219.06
352.311	222.06
352.538	227.06
352.765	218.06
352.992	208.06
353.22	233.06
353.447	220.06
353.674	200.06
353.901	191.06
354.128	200.06
354.355	210.06
354.583	194.06
354.81	196.06
355.037	193.06
355.264	195.06
355.491	174.06
355.718	190.06
355.945	201.06
356.172	190.06
356.399	183.06
356.626	190.06
356.853	219.06
357.08	207.06
357.307	195.06
357.534	192.06
357.761	202.06
357.988	183.06
358.215	205.06
358.441	198.06
358.668	194.06
358.895	204.06
359.122	184.06
359.349	186.06
359.576	211.06
359.802	215.06
360.029	242.06
360.256	235.06
360.483	224.06
360.709	209.06
360.936	199.06
361.163	215.06
361.39	199.06
361.616	196.06
361.843	230.06
362.07	203.06
362.296	208.06
362.523	202.06
362.749	208.06
362.976	203.06
363.203	203.06
363.429	188.06
363.656	203.06
363.882	207.06
364.109	197.06
364.335	199.06
364.562	198.06
364.788	191.06
365.015	196.06
365.241	197.06
365.468	187.06
365.694	215.06
365.92	196.06
366.147	171.06
366.373	207.06
366.599	200.06
366.826	178.06
367.052	176.06
367.278	196.06
367.505	202.06
367.731	192.06
367.957	190.06
368.184	181.06
368.41	221.06
368.636	204.06
368.862	208.06
369.089	206.06
369.315	187.06
369.541	203.06
369.767	194.06
369.993	192.06
370.219	203.06
370.445	194.06
370.672	178.06
370.898	196.06
371.124	203.06
371.35	195.06
371.576	193.06
371.802	195.06
372.028	206.06
372.254	196.06
372.48	197.06
372.706	185.06
372.932	192.06
373.158	186.06
373.384	209.06
373.61	186.06
373.835	192.06
374.061	195.06
374.287	189.06
374.513	183.06
374.739	200.06
374.965	198.06
375.191	216.06
375.416	194.06
375.642	197.06
375.868	188.06
376.094	191.06
376.319	186.06
376.545	206.06
376.771	196.06
376.997	197.06
377.222	210.06
377.448	196.06
377.674	193.06
377.899	185.06
378.125	203.06
378.35	198.06
378.576	211.06
378.802	187.06
379.027	201.06
379.253	190.06
379.478	182.06
379.704	198.06
379.929	177.06
380.155	187.06
380.38	196.06
380.606	200.06
380.831	206.06
381.057	197.06
381.282	195.06
381.507	197.06
381.733	207.06
381.958	194.06
382.184	187.06
382.409	194.06
382.634	189.06
382.86	208.06
383.085	186.06
383.31	216.06
383.535	193.06
383.761	218.06
383.986	210.06
384.211	208.06
384.436	221.06
384.662	206.06
384.887	190.06
385.112	211.06
385.337	198.06
385.562	203.06
385.787	204.06
386.013	229.06
386.238	227.06
386.463	236.06
386.688	209.06
386.913	199.06
387.138	216.06
387.363	215.06
387.588	206.06
387.813	223.06
388.038	228.06
388.263	206.06
388.488	222.06
388.713	207.06
388.938	195.06
389.163	219.06
389.387	212.06
389.612	232.06
389.837	222.06
390.062	219.06
390.287	211.06
390.512	218.06
390.736	222.06
390.961	215.06
391.186	204.06
391.411	211.06
391.636	197.06
391.86	210.06
392.085	222.06
392.31	221.06
392.534	214.06
392.759	203.06
392.984	207.06
393.208	211.06
393.433	225.06
393.658	215.06
393.882	210.06
394.107	206.06
394.331	207.06
394.556	211.06
394.78	198.06
395.005	215.06
395.229	208.06
395.454	202.06
395.678	222.06
395.903	225.06
396.127	231.06
396.352	229.06
396.576	224.06
396.801	224.06
397.025	208.06
397.249	231.06
397.474	219.06
397.698	222.06
397.922	228.06
398.147	219.06
398.371	242.06
398.595	244.06
398.82	254.06
399.044	229.06
399.268	240.06
399.492	255.06
399.717	282.06
399.941	281.06
400.165	279.06
400.389	276.06
400.613	264.06
400.837	239.06
401.062	239.06
401.286	235.06
401.51	246.06
401.734	236.06
401.958	248.06
402.182	258.06
402.406	251.06
402.63	242.06
402.854	243.06
403.078	240.06
403.302	267.06
403.526	252.06
403.75	245.06
403.974	243.06
404.198	231.06
404.422	254.06
404.645	250.06
404.869	256.06
405.093	269.06
405.317	295.06
405.541	282.06
405.765	262.06
405.988	257.06
406.212	274.06
406.436	280.06
406.66	283.06
406.883	267.06
407.107	281.06
407.331	304.06
407.555	314.06
407.778	318.06
408.002	278.06
408.226	277.06
408.449	261.06
408.673	255.06
408.896	278.06
409.12	290.06
409.344	291.06
409.567	266.06
409.791	264.06
410.014	229.06
410.238	250.06
410.461	234.06
410.685	276.06
410.908	272.06
411.132	267.06
411.355	281.06
411.578	263.06
411.802	255.06
412.025	245.06
412.249	242.06
412.472	274.06
412.695	274.06
412.919	271.06
413.142	240.06
413.365	248.06
413.589	233.06
413.812	243.06
414.035	231.06
414.258	242.06
414.482	234.06
414.705	234.06
414.928	253.06
415.151	225.06
415.374	233.06
415.597	247.06
415.821	249.06
416.044	233.06
416.267	244.06
416.49	225.06
416.713	243.06
416.936	232.06
417.159	244.06
417.382	238.06
417.605	239.06
417.828	257.06
418.051	247.06
418.274	249.06
418.497	232.06
418.72	236.06
418.943	246.06
419.166	227.06
419.389	256.06
419.611	242.06
419.834	260.06
420.057	258.06
420.28	238.06
420.503	249.06
420.726	254.06
420.948	237.06
421.171	280.06
421.394	270.06
421.617	252.06
421.839	242.06
422.062	230.06
422.285	258.06
422.507	266.06
422.73	315.06
422.953	293.06
423.175	261.06
423.398	246.06
423.621	250.06
423.843	276.06
424.066	275.06
424.288	258.06
424.511	276.06
424.733	304.06
424.956	311.06
425.178	316.06
425.401	310.06
425.623	302.06
425.846	271.06
426.068	262.06
426.291	241.06
426.513	258.06
426.735	240.06
426.958	262.06
427.18	324.06
427.402	359.06
427.625	384.06
427.847	346.06
428.069	314.06
428.292	272.06
428.514	241.06
428.736	235.06
428.958	238.06
429.181	239.06
429.403	253.06
429.625	234.06
429.847	262.06
430.069	290.06
430.292	304.06
430.514	246.06
430.736	238.06
430.958	242.06
431.18	216.06
431.402	234.06
431.624	226.06
431.846	254.06
432.068	225.06
432.29	229.06
432.512	248.06
432.734	247.06
432.956	227.06
433.178	233.06
433.4	259.06
433.622	232.06
433.844	221.06
434.066	223.06
434.287	216.06
434.509	225.06
434.731	235.06
434.953	240.06
435.175	252.06
435.397	254.06
435.618	240.06
435.84	264.06
436.062	308.06
436.284	338.06
436.505	282.06
436.727	262.06
436.949	244.06
437.17	248.06
437.392	247.06
437.614	255.06
437.835	258.06
438.057	299.06
438.278	336.06
438.5	347.06
438.721	363.06
438.943	342.06
439.165	288.06
439.386	266.06
439.608	267.06
439.829	264.06
440.05	260.06
440.272	290.06
440.493	279.06
440.715	251.06
440.936	251.06
441.158	251.06
441.379	255.06
441.6	249.06
441.822	254.06
442.043	284.06
442.264	299.06
442.486	336.06
442.707	272.06
442.928	292.06
443.149	280.06
443.371	260.06
443.592	294.06
443.813	323.06
444.034	346.06
444.255	292.06
444.476	274.06
444.698	239.06
444.919	264.06
445.14	350.06
445.361	302.06
445.582	282.06
445.803	326.06
446.024	346.06
446.245	353.06
446.466	322.06
446.687	270.06
446.908	248.06
447.129	254.06
447.35	227.06
447.571	238.06
447.792	252.06
448.013	243.06
448.234	235.06
448.455	270.06
448.675	310.06
448.896	347.06
449.117	295.06
449.338	294.06
449.559	336.06
449.779	368.06
450	303.06
450.221	237.06
450.442	263.06
450.662	243.06
450.883	242.06
451.104	266.06
451.324	247.06
451.545	230.06
451.766	236.06
451.986	223.06
452.207	224.06
452.428	234.06
452.648	212.06
452.869	231.06
453.089	243.06
453.31	237.06
453.53	223.06
453.751	228.06
453.971	220.06
454.192	230.06
454.412	223.06
454.633	214.06
454.853	224.06
455.073	215.06
455.294	215.06
455.514	266.06
455.734	250.06
455.955	207.06
456.175	218.06
456.395	206.06
456.616	210.06
456.836	207.06
457.056	219.06
457.276	202.06
457.497	218.06
457.717	210.06
457.937	212.06
458.157	209.06
458.377	214.06
458.598	202.06
458.818	273.06
459.038	310.06
459.258	306.06
459.478	267.06
459.698	242.06
459.918	231.06
460.138	227.06
460.358	227.06
460.578	238.06
460.798	229.06
461.018	257.06
461.238	235.06
461.458	232.06
461.678	231.06
461.898	230.06
462.118	230.06
462.338	261.06
462.558	248.06
462.777	249.06
462.997	250.06
463.217	250.06
463.437	243.06
463.657	243.06
463.876	253.06
464.096	259.06
464.316	239.06
464.536	258.06
464.755	246.06
464.975	251.06
465.195	267.06
465.414	316.06
465.634	259.06
465.854	235.06
466.073	241.06
466.293	275.06
466.512	227.06
466.732	204.06
466.951	221.06
467.171	234.06
467.391	225.06
467.61	228.06
467.829	234.06
468.049	235.06
468.268	233.06
468.488	229.06
468.707	225.06
468.927	231.06
469.146	203.06
469.365	226.06
469.585	221.06
469.804	230.06
470.023	228.06
470.243	239.06
470.462	232.06
470.681	266.06
470.901	246.06
471.12	228.06
471.339	238.06
471.558	238.06
471.777	231.06
471.997	228.06
472.216	222.06
472.435	272.06
472.654	252.06
472.873	231.06
473.092	223.06
473.311	210.06
473.53	236.06
473.749	242.06
473.968	252.06
474.187	287.06
474.406	295.06
474.625	251.06
474.844	234.06
475.063	206.06
475.282	220.06
475.501	223.06
475.72	233.06
475.939	243.06
476.158	247.06
476.377	231.06
476.596	233.06
476.814	238.06
477.033	248.06
477.252	236.06
477.471	244.06
477.69	252.06
477.908	242.06
478.127	257.06
478.346	262.06
478.564	235.06
478.783	236.06
479.002	257.06
479.22	260.06
479.439	271.06
479.658	251.06
479.876	286.06
480.095	278.06
480.313	290.06
480.532	291.06
480.751	276.06
480.969	297.06
481.188	324.06
481.406	351.06
481.624	307.06
481.843	266.06
482.061	274.06
482.28	265.06
482.498	266.06
482.717	266.06
482.935	251.06
483.153	263.06
483.372	259.06
483.59	268.06
483.808	256.06
484.027	263.06
484.245	268.06
484.463	265.06
484.681	266.06
484.9	280.06
485.118	286.06
485.336	278.06
485.554	260.06
485.772	277.06
485.99	265.06
486.209	266.06
486.427	285.06
486.645	264.06
486.863	289.06
487.081	295.06
487.299	286.06
487.517	273.06
487.735	283.06
487.953	267.06
488.171	269.06
488.389	266.06
488.607	264.06
488.825	262.06
489.043	291.06
489.261	288.06
489.479	276.06
489.696	268.06
489.914	295.06
490.132	299.06
490.35	290.06
490.568	305.06
490.786	306.06
491.003	298.06
491.221	322.06
491.439	341.06
491.657	326.06
491.874	316.06
492.092	329.06
492.31	320.06
492.527	336.06
492.745	328.06
492.963	321.06
493.18	318.06
493.398	360.06
493.615	350.06
493.833	347.06
494.05	339.06
494.268	317.06
494.485	339.06
494.703	322.06
494.92	338.06
495.138	336.06
495.355	344.06
495.573	325.06
495.79	321.06
496.008	331.06
496.225	330.06
496.442	335.06
496.66	322.06
496.877	338.06
497.094	353.06
497.312	320.06
497.529	326.06
497.746	333.06
497.963	327.06
498.181	352.06
498.398	339.06
498.615	353.06
498.832	365.06
499.049	380.06
499.267	369.06
499.484	386.06
499.701	383.06
499.918	416.06
500.135	428.06
500.352	440.06
500.569	454.06
500.786	445.06
501.003	435.06
501.22	408.06
501.437	404.06
501.654	407.06
501.871	411.06
502.088	400.06
502.305	376.06
502.522	366.06
502.739	349.06
502.956	350.06
