Data from 1966.PennyLincolnUp.Lamp.En5.5.200Scan.071719.P1.Scan2.head_HRD10591_14-16-52-063.txt Node
Date: Thu Jul 18 14:16:52 EDT 2019
User: cochatt
Spectrometer: HR+D1059
Trigger mode: 1
Integration Time (sec): 1.000000E-1
Scans to average: 1
Electric dark correction enabled: true
Nonlinearity correction enabled: false
Boxcar width: 0
XAxis mode: Wavelengths
Number of Pixels in Spectrum: 2048
>>>>>Begin Spectral Data<<<<<
223.165	-12.19
223.4	-12.19
223.635	-12.19
223.869	-39.19
224.104	-10.19
224.338	-29.19
224.573	-12.19
224.808	-0.19
225.042	-11.19
225.277	-0.19
225.511	-4.19
225.746	10.81
225.98	15.81
226.215	15.81
226.449	17.81
226.683	16.81
226.918	17.81
227.152	23.81
227.387	38.81
227.621	31.81
227.856	41.81
228.09	41.81
228.324	40.81
228.559	52.81
228.793	64.81
229.027	86.81
229.262	97.81
229.496	100.81
229.73	125.81
229.964	138.81
230.199	116.81
230.433	107.81
230.667	85.81
230.901	117.81
231.136	95.81
231.37	107.81
231.604	101.81
231.838	98.81
232.072	102.81
232.306	119.81
232.541	105.81
232.775	119.81
233.009	113.81
233.243	98.81
233.477	116.81
233.711	118.81
233.945	113.81
234.179	98.81
234.413	110.81
234.647	116.81
234.881	129.81
235.115	118.81
235.349	103.81
235.583	126.81
235.817	119.81
236.051	118.81
236.285	121.81
236.519	113.81
236.753	124.81
236.987	126.81
237.221	165.81
237.455	224.81
237.689	164.81
237.922	108.81
238.156	121.81
238.39	122.81
238.624	131.81
238.858	130.81
239.091	110.81
239.325	102.81
239.559	117.81
239.793	106.81
240.027	120.81
240.26	138.81
240.494	144.81
240.728	132.81
240.961	152.81
241.195	151.81
241.429	129.81
241.662	116.81
241.896	126.81
242.13	117.81
242.363	127.81
242.597	128.81
242.83	130.81
243.064	135.81
243.298	133.81
243.531	144.81
243.765	144.81
243.998	128.81
244.232	127.81
244.465	128.81
244.699	136.81
244.932	123.81
245.166	143.81
245.399	136.81
245.633	127.81
245.866	147.81
246.099	118.81
246.333	143.81
246.566	145.81
246.8	148.81
247.033	155.81
247.266	136.81
247.5	154.81
247.733	152.81
247.966	168.81
248.2	159.81
248.433	154.81
248.666	172.81
248.899	164.81
249.133	193.81
249.366	195.81
249.599	198.81
249.832	158.81
250.066	172.81
250.299	161.81
250.532	176.81
250.765	192.81
250.998	187.81
251.231	198.81
251.465	196.81
251.698	196.81
251.931	191.81
252.164	183.81
252.397	193.81
252.63	191.81
252.863	176.81
253.096	194.81
253.329	211.81
253.562	193.81
253.795	199.81
254.028	191.81
254.261	211.81
254.494	196.81
254.727	228.81
254.96	238.81
255.193	247.81
255.426	220.81
255.659	212.81
255.892	213.81
256.124	219.81
256.357	218.81
256.59	201.81
256.823	206.81
257.056	204.81
257.289	187.81
257.521	207.81
257.754	193.81
257.987	195.81
258.22	190.81
258.452	202.81
258.685	193.81
258.918	203.81
259.151	183.81
259.383	213.81
259.616	201.81
259.849	204.81
260.081	217.81
260.314	234.81
260.547	223.81
260.779	230.81
261.012	219.81
261.244	197.81
261.477	202.81
261.71	204.81
261.942	211.81
262.175	220.81
262.407	216.81
262.64	191.81
262.872	197.81
263.105	211.81
263.337	218.81
263.57	190.81
263.802	197.81
264.035	192.81
264.267	207.81
264.499	200.81
264.732	185.81
264.964	217.81
265.197	209.81
265.429	190.81
265.661	203.81
265.894	209.81
266.126	198.81
266.358	182.81
266.591	210.81
266.823	193.81
267.055	208.81
267.287	210.81
267.52	187.81
267.752	214.81
267.984	217.81
268.216	207.81
268.448	219.81
268.681	198.81
268.913	222.81
269.145	238.81
269.377	236.81
269.609	247.81
269.841	224.81
270.073	234.81
270.306	269.81
270.538	259.81
270.77	275.81
271.002	258.81
271.234	260.81
271.466	268.81
271.698	287.81
271.93	286.81
272.162	272.81
272.394	286.81
272.626	265.81
272.858	253.81
273.09	261.81
273.322	249.81
273.553	246.81
273.785	233.81
274.017	248.81
274.249	249.81
274.481	244.81
274.713	228.81
274.945	240.81
275.176	246.81
275.408	241.81
275.64	240.81
275.872	239.81
276.104	233.81
276.335	242.81
276.567	254.81
276.799	266.81
277.031	278.81
277.262	281.81
277.494	297.81
277.726	259.81
277.957	258.81
278.189	240.81
278.421	226.81
278.652	252.81
278.884	268.81
279.115	232.81
279.347	242.81
279.579	260.81
279.81	246.81
280.042	245.81
280.273	231.81
280.505	235.81
280.736	242.81
280.968	263.81
281.199	231.81
281.431	245.81
281.662	250.81
281.894	235.81
282.125	250.81
282.356	262.81
282.588	274.81
282.819	272.81
283.051	264.81
283.282	246.81
283.513	266.81
283.745	256.81
283.976	253.81
284.207	253.81
284.439	264.81
284.67	267.81
284.901	278.81
285.132	228.81
285.364	263.81
285.595	268.81
285.826	255.81
286.057	263.81
286.288	261.81
286.52	285.81
286.751	259.81
286.982	255.81
287.213	250.81
287.444	256.81
287.675	260.81
287.906	270.81
288.138	280.81
288.369	280.81
288.6	289.81
288.831	267.81
289.062	278.81
289.293	272.81
289.524	281.81
289.755	278.81
289.986	259.81
290.217	276.81
290.448	272.81
290.679	261.81
290.91	275.81
291.141	256.81
291.371	282.81
291.602	260.81
291.833	265.81
292.064	266.81
292.295	264.81
292.526	262.81
292.757	270.81
292.987	264.81
293.218	292.81
293.449	268.81
293.68	299.81
293.91	261.81
294.141	271.81
294.372	282.81
294.603	286.81
294.833	281.81
295.064	276.81
295.295	254.81
295.525	278.81
295.756	286.81
295.987	290.81
296.217	291.81
296.448	302.81
296.679	278.81
296.909	276.81
297.14	264.81
297.37	286.81
297.601	282.81
297.831	277.81
298.062	284.81
298.292	280.81
298.523	282.81
298.753	290.81
298.984	289.81
299.214	277.81
299.445	280.81
299.675	299.81
299.905	293.81
300.136	302.81
300.366	297.81
300.597	282.81
300.827	291.81
301.057	292.81
301.288	306.81
301.518	315.81
301.748	305.81
301.979	297.81
302.209	299.81
302.439	304.81
302.669	286.81
302.9	312.81
303.13	310.81
303.36	297.81
303.59	298.81
303.82	303.81
304.051	314.81
304.281	298.81
304.511	291.81
304.741	321.81
304.971	311.81
305.201	305.81
305.431	296.81
305.661	290.81
305.891	300.81
306.121	296.81
306.352	298.81
306.582	310.81
306.812	304.81
307.042	325.81
307.272	311.81
307.502	300.81
307.731	312.81
307.961	303.81
308.191	320.81
308.421	310.81
308.651	314.81
308.881	318.81
309.111	316.81
309.341	321.81
309.571	318.81
309.8	315.81
310.03	336.81
310.26	352.81
310.49	347.81
310.72	353.81
310.949	378.81
311.179	363.81
311.409	346.81
311.639	337.81
311.868	326.81
312.098	350.81
312.328	337.81
312.557	347.81
312.787	357.81
313.017	366.81
313.246	355.81
313.476	362.81
313.706	337.81
313.935	344.81
314.165	346.81
314.394	363.81
314.624	370.81
314.853	344.81
315.083	361.81
315.312	355.81
315.542	345.81
315.771	342.81
316.001	360.81
316.23	351.81
316.46	342.81
316.689	369.81
316.919	358.81
317.148	372.81
317.377	361.81
317.607	340.81
317.836	341.81
318.065	359.81
318.295	346.81
318.524	338.81
318.753	345.81
318.983	368.81
319.212	341.81
319.441	355.81
319.67	350.81
319.9	344.81
320.129	340.81
320.358	346.81
320.587	343.81
320.816	371.81
321.046	384.81
321.275	364.81
321.504	358.81
321.733	359.81
321.962	375.81
322.191	377.81
322.42	394.81
322.649	404.81
322.878	394.81
323.108	397.81
323.337	421.81
323.566	426.81
323.795	459.81
324.024	485.81
324.253	564.81
324.482	787.81
324.71	1214.81
324.939	1794.81
325.168	1562.81
325.397	769.81
325.626	546.81
325.855	462.81
326.084	427.81
326.313	452.81
326.542	447.81
326.77	471.81
326.999	570.81
327.228	718.81
327.457	1095.81
327.686	1346.81
327.914	895.81
328.143	586.81
328.372	527.81
328.6	497.81
328.829	476.81
329.058	480.81
329.287	503.81
329.515	469.81
329.744	460.81
329.972	441.81
330.201	449.81
330.43	483.81
330.658	517.81
330.887	522.81
331.115	519.81
331.344	452.81
331.572	461.81
331.801	423.81
332.03	441.81
332.258	425.81
332.486	422.81
332.715	414.81
332.943	433.81
333.172	426.81
333.4	414.81
333.629	438.81
333.857	453.81
334.085	445.81
334.314	457.81
334.542	510.81
334.771	498.81
334.999	472.81
335.227	452.81
335.455	428.81
335.684	434.81
335.912	434.81
336.14	399.81
336.369	420.81
336.597	450.81
336.825	428.81
337.053	432.81
337.281	414.81
337.51	403.81
337.738	430.81
337.966	419.81
338.194	426.81
338.422	418.81
338.65	423.81
338.878	413.81
339.106	410.81
339.334	407.81
339.562	417.81
339.79	407.81
340.018	420.81
340.246	399.81
340.474	439.81
340.702	405.81
340.93	402.81
341.158	394.81
341.386	402.81
341.614	419.81
341.842	395.81
342.07	406.81
342.298	400.81
342.526	402.81
342.754	384.81
342.981	404.81
343.209	399.81
343.437	414.81
343.665	399.81
343.893	419.81
344.12	422.81
344.348	403.81
344.576	409.81
344.804	440.81
345.031	418.81
345.259	422.81
345.487	427.81
345.714	408.81
345.942	416.81
346.17	400.81
346.397	385.81
346.625	395.81
346.853	395.81
347.08	404.81
347.308	392.81
347.535	423.81
347.763	403.81
347.99	401.81
348.218	407.81
348.445	395.81
348.673	424.81
348.9	395.81
349.128	382.81
349.355	402.81
349.583	383.81
349.81	388.81
350.037	381.81
350.265	384.81
350.492	383.81
350.72	389.81
350.947	395.81
351.174	397.81
351.402	392.81
351.629	407.81
351.856	403.81
352.083	393.81
352.311	406.81
352.538	425.81
352.765	400.81
352.992	408.81
353.22	393.81
353.447	400.81
353.674	366.81
353.901	386.81
354.128	377.81
354.355	368.81
354.583	381.81
354.81	388.81
355.037	388.81
355.264	390.81
355.491	377.81
355.718	385.81
355.945	377.81
356.172	380.81
356.399	380.81
356.626	378.81
356.853	380.81
357.08	382.81
357.307	374.81
357.534	373.81
357.761	362.81
357.988	386.81
358.215	377.81
358.441	378.81
358.668	391.81
358.895	393.81
359.122	390.81
359.349	378.81
359.576	396.81
359.802	407.81
360.029	406.81
360.256	455.81
360.483	434.81
360.709	412.81
360.936	418.81
361.163	399.81
361.39	383.81
361.616	400.81
361.843	403.81
362.07	406.81
362.296	402.81
362.523	389.81
362.749	403.81
362.976	402.81
363.203	397.81
363.429	387.81
363.656	392.81
363.882	398.81
364.109	386.81
364.335	410.81
364.562	387.81
364.788	378.81
365.015	387.81
365.241	386.81
365.468	400.81
365.694	410.81
365.92	390.81
366.147	393.81
366.373	401.81
366.599	402.81
366.826	380.81
367.052	380.81
367.278	374.81
367.505	385.81
367.731	408.81
367.957	397.81
368.184	379.81
368.41	392.81
368.636	396.81
368.862	391.81
369.089	406.81
369.315	395.81
369.541	388.81
369.767	402.81
369.993	382.81
370.219	398.81
370.445	409.81
370.672	391.81
370.898	396.81
371.124	401.81
371.35	389.81
371.576	389.81
371.802	397.81
372.028	396.81
372.254	416.81
372.48	420.81
372.706	403.81
372.932	421.81
373.158	424.81
373.384	417.81
373.61	438.81
373.835	410.81
374.061	415.81
374.287	419.81
374.513	418.81
374.739	409.81
374.965	391.81
375.191	420.81
375.416	396.81
375.642	430.81
375.868	404.81
376.094	389.81
376.319	396.81
376.545	415.81
376.771	390.81
376.997	388.81
377.222	411.81
377.448	427.81
377.674	394.81
377.899	402.81
378.125	382.81
378.35	394.81
378.576	409.81
378.802	399.81
379.027	393.81
379.253	406.81
379.478	382.81
379.704	404.81
379.929	394.81
380.155	409.81
380.38	398.81
380.606	414.81
380.831	400.81
381.057	408.81
381.282	411.81
381.507	400.81
381.733	395.81
381.958	407.81
382.184	406.81
382.409	401.81
382.634	400.81
382.86	402.81
383.085	412.81
383.31	435.81
383.535	446.81
383.761	424.81
383.986	420.81
384.211	421.81
384.436	458.81
384.662	443.81
384.887	438.81
385.112	444.81
385.337	457.81
385.562	410.81
385.787	447.81
386.013	471.81
386.238	459.81
386.463	435.81
386.688	446.81
386.913	448.81
387.138	466.81
387.363	455.81
387.588	443.81
387.813	458.81
388.038	453.81
388.263	450.81
388.488	440.81
388.713	464.81
388.938	465.81
389.163	463.81
389.387	464.81
389.612	438.81
389.837	448.81
390.062	457.81
390.287	442.81
390.512	425.81
390.736	463.81
390.961	457.81
391.186	467.81
391.411	442.81
391.636	450.81
391.86	478.81
392.085	480.81
392.31	476.81
392.534	471.81
392.759	465.81
392.984	464.81
393.208	454.81
393.433	487.81
393.658	480.81
393.882	441.81
394.107	479.81
394.331	480.81
394.556	456.81
394.78	468.81
395.005	470.81
395.229	460.81
395.454	481.81
395.678	494.81
395.903	472.81
396.127	492.81
396.352	516.81
396.576	491.81
396.801	481.81
397.025	468.81
397.249	497.81
397.474	514.81
397.698	484.81
397.922	500.81
398.147	513.81
398.371	523.81
398.595	518.81
398.82	498.81
399.044	518.81
399.268	540.81
399.492	580.81
399.717	586.81
399.941	625.81
400.165	670.81
400.389	645.81
400.613	594.81
400.837	565.81
401.062	539.81
401.286	552.81
401.51	527.81
401.734	500.81
401.958	522.81
402.182	521.81
402.406	515.81
402.63	527.81
402.854	518.81
403.078	544.81
403.302	541.81
403.526	532.81
403.75	534.81
403.974	530.81
404.198	538.81
404.422	546.81
404.645	532.81
404.869	537.81
405.093	585.81
405.317	613.81
405.541	662.81
405.765	583.81
405.988	553.81
406.212	590.81
406.436	594.81
406.66	616.81
406.883	592.81
407.107	603.81
407.331	648.81
407.555	716.81
407.778	695.81
408.002	662.81
408.226	612.81
408.449	592.81
408.673	588.81
408.896	611.81
409.12	642.81
409.344	627.81
409.567	579.81
409.791	553.81
410.014	561.81
410.238	525.81
410.461	539.81
410.685	554.81
410.908	565.81
411.132	588.81
411.355	632.81
411.578	597.81
411.802	568.81
412.025	552.81
412.249	573.81
412.472	558.81
412.695	602.81
412.919	588.81
413.142	577.81
413.365	542.81
413.589	546.81
413.812	535.81
414.035	529.81
414.258	522.81
414.482	519.81
414.705	526.81
414.928	531.81
415.151	535.81
415.374	513.81
415.597	520.81
415.821	524.81
416.044	514.81
416.267	531.81
416.49	504.81
416.713	514.81
416.936	503.81
417.159	524.81
417.382	520.81
417.605	512.81
417.828	501.81
418.051	554.81
418.274	525.81
418.497	522.81
418.72	516.81
418.943	506.81
419.166	526.81
419.389	544.81
419.611	549.81
419.834	553.81
420.057	549.81
420.28	545.81
420.503	553.81
420.726	524.81
420.948	565.81
421.171	595.81
421.394	619.81
421.617	567.81
421.839	553.81
422.062	542.81
422.285	532.81
422.507	589.81
422.73	672.81
422.953	632.81
423.175	580.81
423.398	554.81
423.621	583.81
423.843	580.81
424.066	567.81
424.288	563.81
424.511	595.81
424.733	650.81
424.956	760.81
425.178	694.81
425.401	684.81
425.623	703.81
425.846	613.81
426.068	590.81
426.291	568.81
426.513	566.81
426.735	574.81
426.958	602.81
427.18	694.81
427.402	828.81
427.625	912.81
427.847	780.81
428.069	687.81
428.292	584.81
428.514	553.81
428.736	539.81
428.958	529.81
429.181	525.81
429.403	523.81
429.625	531.81
429.847	579.81
430.069	626.81
430.292	608.81
430.514	536.81
430.736	523.81
430.958	535.81
431.18	520.81
431.402	506.81
431.624	485.81
431.846	504.81
432.068	512.81
432.29	523.81
432.512	497.81
432.734	534.81
432.956	489.81
433.178	518.81
433.4	526.81
433.622	522.81
433.844	524.81
434.066	506.81
434.287	496.81
434.509	519.81
434.731	524.81
434.953	550.81
435.175	550.81
435.397	593.81
435.618	570.81
435.84	598.81
436.062	703.81
436.284	798.81
436.505	653.81
436.727	595.81
436.949	562.81
437.17	511.81
437.392	538.81
437.614	540.81
437.835	576.81
438.057	663.81
438.278	737.81
438.5	760.81
438.721	823.81
438.943	801.81
439.165	644.81
439.386	581.81
439.608	586.81
439.829	556.81
440.05	606.81
440.272	646.81
440.493	587.81
440.715	578.81
440.936	498.81
441.158	564.81
441.379	545.81
441.6	560.81
441.822	559.81
442.043	595.81
442.264	680.81
442.486	735.81
442.707	626.81
442.928	584.81
443.149	612.81
443.371	612.81
443.592	640.81
443.813	745.81
444.034	830.81
444.255	663.81
444.476	587.81
444.698	596.81
444.919	569.81
445.14	678.81
445.361	642.81
445.582	611.81
445.803	677.81
446.024	768.81
446.245	770.81
446.466	728.81
446.687	601.81
446.908	581.81
447.129	531.81
447.35	526.81
447.571	525.81
447.792	521.81
448.013	512.81
448.234	530.81
448.455	591.81
448.675	711.81
448.896	839.81
449.117	655.81
449.338	666.81
449.559	745.81
449.779	891.81
450	682.81
450.221	584.81
450.442	525.81
450.662	507.81
450.883	512.81
451.104	532.81
451.324	507.81
451.545	497.81
451.766	488.81
451.986	462.81
452.207	469.81
452.428	484.81
452.648	491.81
452.869	475.81
453.089	488.81
453.31	476.81
453.53	486.81
453.751	469.81
453.971	479.81
454.192	507.81
454.412	469.81
454.633	489.81
454.853	472.81
455.073	464.81
455.294	484.81
455.514	555.81
455.734	537.81
455.955	484.81
456.175	441.81
456.395	458.81
456.616	465.81
456.836	442.81
457.056	443.81
457.276	446.81
457.497	459.81
457.717	451.81
457.937	465.81
458.157	480.81
458.377	459.81
458.598	499.81
458.818	532.81
459.038	577.81
459.258	609.81
459.478	560.81
459.698	516.81
459.918	516.81
460.138	523.81
460.358	515.81
460.578	542.81
460.798	544.81
461.018	522.81
461.238	552.81
461.458	546.81
461.678	531.81
461.898	526.81
462.118	526.81
462.338	543.81
462.558	539.81
462.777	532.81
462.997	589.81
463.217	584.81
463.437	585.81
463.657	572.81
463.876	554.81
464.096	552.81
464.316	569.81
464.536	564.81
464.755	556.81
464.975	572.81
465.195	578.81
465.414	618.81
465.634	578.81
465.854	564.81
466.073	517.81
466.293	536.81
466.512	516.81
466.732	517.81
466.951	496.81
467.171	491.81
467.391	507.81
467.61	531.81
467.829	526.81
468.049	488.81
468.268	512.81
468.488	501.81
468.707	466.81
468.927	488.81
469.146	470.81
469.365	487.81
469.585	487.81
469.804	499.81
470.023	520.81
470.243	495.81
470.462	511.81
470.681	533.81
470.901	515.81
471.12	504.81
471.339	520.81
471.558	523.81
471.777	512.81
471.997	481.81
472.216	516.81
472.435	515.81
472.654	496.81
472.873	502.81
473.092	486.81
473.311	496.81
473.53	487.81
473.749	502.81
473.968	550.81
474.187	625.81
474.406	654.81
474.625	544.81
474.844	506.81
475.063	488.81
475.282	496.81
475.501	491.81
475.72	521.81
475.939	494.81
476.158	524.81
476.377	534.81
476.596	504.81
476.814	520.81
477.033	538.81
477.252	535.81
477.471	538.81
477.69	543.81
477.908	547.81
478.127	569.81
478.346	568.81
478.564	570.81
478.783	560.81
479.002	552.81
479.22	566.81
479.439	587.81
479.658	616.81
479.876	607.81
480.095	632.81
480.313	623.81
480.532	634.81
480.751	628.81
480.969	605.81
481.188	670.81
481.406	686.81
481.624	649.81
481.843	615.81
482.061	594.81
482.28	595.81
482.498	566.81
482.717	590.81
482.935	604.81
483.153	588.81
483.372	580.81
483.59	595.81
483.808	602.81
484.027	584.81
484.245	584.81
484.463	604.81
484.681	596.81
484.9	616.81
485.118	609.81
485.336	598.81
485.554	635.81
485.772	624.81
485.99	617.81
486.209	647.81
486.427	594.81
486.645	599.81
486.863	640.81
487.081	672.81
487.299	634.81
487.517	630.81
487.735	632.81
487.953	656.81
488.171	629.81
488.389	632.81
488.607	624.81
488.825	655.81
489.043	628.81
489.261	640.81
489.479	625.81
489.696	652.81
489.914	636.81
490.132	642.81
490.35	662.81
490.568	672.81
490.786	668.81
491.003	659.81
491.221	690.81
491.439	715.81
491.657	697.81
491.874	727.81
492.092	706.81
492.31	694.81
492.527	719.81
492.745	730.81
492.963	743.81
493.18	724.81
493.398	711.81
493.615	728.81
493.833	731.81
494.05	735.81
494.268	750.81
494.485	736.81
494.703	721.81
494.92	739.81
495.138	734.81
495.355	735.81
495.573	788.81
495.79	750.81
496.008	747.81
496.225	739.81
496.442	723.81
496.66	739.81
496.877	731.81
497.094	777.81
497.312	770.81
497.529	791.81
497.746	768.81
497.963	787.81
498.181	824.81
498.398	809.81
498.615	839.81
498.832	884.81
499.049	858.81
499.267	881.81
499.484	920.81
499.701	970.81
499.918	978.81
500.135	1067.81
500.352	1086.81
500.569	1100.81
500.786	1150.81
501.003	1073.81
501.22	1075.81
501.437	1043.81
501.654	975.81
