Data from 1966.PennyLincolnUp.Lamp.En5.5.200Scan.071719.P1.Scan2.head_HRD10591_14-18-43-210.txt Node
Date: Thu Jul 18 14:18:43 EDT 2019
User: cochatt
Spectrometer: HR+D1059
Trigger mode: 1
Integration Time (sec): 1.000000E-1
Scans to average: 1
Electric dark correction enabled: true
Nonlinearity correction enabled: false
Boxcar width: 0
XAxis mode: Wavelengths
Number of Pixels in Spectrum: 2048
>>>>>Begin Spectral Data<<<<<
223.165	-30.94
223.4	-30.94
223.635	-30.94
223.869	-13.94
224.104	-13.94
224.338	-13.94
224.573	-13.94
224.808	-19.94
225.042	-6.94
225.277	-5.94
225.511	10.06
225.746	-3.94
225.98	14.06
226.215	23.06
226.449	23.06
226.683	2.06
226.918	23.06
227.152	28.06
227.387	43.06
227.621	52.06
227.856	48.06
228.09	51.06
228.324	61.06
228.559	25.06
228.793	60.06
229.027	108.06
229.262	109.06
229.496	109.06
229.73	142.06
229.964	153.06
230.199	124.06
230.433	121.06
230.667	105.06
230.901	108.06
231.136	104.06
231.37	113.06
231.604	107.06
231.838	119.06
232.072	132.06
232.306	119.06
232.541	116.06
232.775	137.06
233.009	118.06
233.243	132.06
233.477	118.06
233.711	109.06
233.945	121.06
234.179	122.06
234.413	112.06
234.647	120.06
234.881	122.06
235.115	128.06
235.349	99.06
235.583	129.06
235.817	114.06
236.051	128.06
236.285	126.06
236.519	129.06
236.753	130.06
236.987	156.06
237.221	191.06
237.455	246.06
237.689	223.06
237.922	142.06
238.156	134.06
238.39	127.06
238.624	126.06
238.858	130.06
239.091	138.06
239.325	126.06
239.559	140.06
239.793	127.06
240.027	133.06
240.26	156.06
240.494	169.06
240.728	164.06
240.961	156.06
241.195	155.06
241.429	151.06
241.662	134.06
241.896	134.06
242.13	143.06
242.363	147.06
242.597	136.06
242.83	129.06
243.064	157.06
243.298	143.06
243.531	145.06
243.765	156.06
243.998	160.06
244.232	144.06
244.465	156.06
244.699	139.06
244.932	163.06
245.166	172.06
245.399	151.06
245.633	166.06
245.866	161.06
246.099	145.06
246.333	166.06
246.566	171.06
246.8	159.06
247.033	153.06
247.266	174.06
247.5	168.06
247.733	182.06
247.966	180.06
248.2	174.06
248.433	180.06
248.666	177.06
248.899	198.06
249.133	215.06
249.366	216.06
249.599	205.06
249.832	204.06
250.066	194.06
250.299	177.06
250.532	207.06
250.765	219.06
250.998	221.06
251.231	242.06
251.465	231.06
251.698	221.06
251.931	199.06
252.164	200.06
252.397	196.06
252.63	200.06
252.863	223.06
253.096	229.06
253.329	235.06
253.562	228.06
253.795	223.06
254.028	229.06
254.261	232.06
254.494	248.06
254.727	262.06
254.96	286.06
255.193	289.06
255.426	253.06
255.659	244.06
255.892	237.06
256.124	221.06
256.357	236.06
256.59	237.06
256.823	234.06
257.056	231.06
257.289	222.06
257.521	232.06
257.754	225.06
257.987	214.06
258.22	219.06
258.452	210.06
258.685	224.06
258.918	225.06
259.151	228.06
259.383	227.06
259.616	226.06
259.849	238.06
260.081	240.06
260.314	259.06
260.547	280.06
260.779	242.06
261.012	256.06
261.244	222.06
261.477	241.06
261.71	226.06
261.942	238.06
262.175	256.06
262.407	254.06
262.64	236.06
262.872	226.06
263.105	220.06
263.337	228.06
263.57	213.06
263.802	216.06
264.035	213.06
264.267	222.06
264.499	226.06
264.732	233.06
264.964	232.06
265.197	234.06
265.429	228.06
265.661	221.06
265.894	214.06
266.126	233.06
266.358	234.06
266.591	250.06
266.823	244.06
267.055	249.06
267.287	242.06
267.52	239.06
267.752	241.06
267.984	238.06
268.216	230.06
268.448	243.06
268.681	257.06
268.913	275.06
269.145	259.06
269.377	275.06
269.609	279.06
269.841	284.06
270.073	299.06
270.306	319.06
270.538	326.06
270.77	324.06
271.002	302.06
271.234	303.06
271.466	318.06
271.698	332.06
271.93	351.06
272.162	334.06
272.394	330.06
272.626	324.06
272.858	309.06
273.09	295.06
273.322	281.06
273.553	278.06
273.785	282.06
274.017	277.06
274.249	284.06
274.481	277.06
274.713	274.06
274.945	294.06
275.176	275.06
275.408	283.06
275.64	265.06
275.872	285.06
276.104	280.06
276.335	285.06
276.567	290.06
276.799	300.06
277.031	338.06
277.262	344.06
277.494	324.06
277.726	313.06
277.957	310.06
278.189	297.06
278.421	291.06
278.652	304.06
278.884	267.06
279.115	295.06
279.347	254.06
279.579	277.06
279.81	274.06
280.042	267.06
280.273	269.06
280.505	265.06
280.736	273.06
280.968	297.06
281.199	292.06
281.431	279.06
281.662	287.06
281.894	292.06
282.125	294.06
282.356	291.06
282.588	308.06
282.819	322.06
283.051	284.06
283.282	268.06
283.513	293.06
283.745	283.06
283.976	281.06
284.207	305.06
284.439	294.06
284.67	297.06
284.901	294.06
285.132	303.06
285.364	314.06
285.595	289.06
285.826	292.06
286.057	290.06
286.288	292.06
286.52	297.06
286.751	303.06
286.982	304.06
287.213	300.06
287.444	292.06
287.675	302.06
287.906	324.06
288.138	300.06
288.369	323.06
288.6	313.06
288.831	316.06
289.062	307.06
289.293	311.06
289.524	322.06
289.755	317.06
289.986	290.06
290.217	292.06
290.448	309.06
290.679	310.06
290.91	317.06
291.141	311.06
291.371	297.06
291.602	320.06
291.833	327.06
292.064	308.06
292.295	313.06
292.526	286.06
292.757	292.06
292.987	319.06
293.218	316.06
293.449	317.06
293.68	320.06
293.91	315.06
294.141	311.06
294.372	314.06
294.603	304.06
294.833	318.06
295.064	301.06
295.295	304.06
295.525	309.06
295.756	318.06
295.987	325.06
296.217	346.06
296.448	345.06
296.679	341.06
296.909	314.06
297.14	334.06
297.37	337.06
297.601	324.06
297.831	321.06
298.062	319.06
298.292	310.06
298.523	330.06
298.753	330.06
298.984	328.06
299.214	336.06
299.445	339.06
299.675	343.06
299.905	321.06
300.136	338.06
300.366	339.06
300.597	330.06
300.827	332.06
301.057	329.06
301.288	343.06
301.518	329.06
301.748	320.06
301.979	335.06
302.209	358.06
302.439	342.06
302.669	356.06
302.9	354.06
303.13	348.06
303.36	346.06
303.59	370.06
303.82	344.06
304.051	351.06
304.281	349.06
304.511	342.06
304.741	332.06
304.971	342.06
305.201	346.06
305.431	351.06
305.661	353.06
305.891	335.06
306.121	324.06
306.352	350.06
306.582	347.06
306.812	337.06
307.042	347.06
307.272	333.06
307.502	337.06
307.731	372.06
307.961	369.06
308.191	367.06
308.421	351.06
308.651	359.06
308.881	362.06
309.111	362.06
309.341	359.06
309.571	380.06
309.8	387.06
310.03	372.06
310.26	412.06
310.49	375.06
310.72	393.06
310.949	416.06
311.179	423.06
311.409	391.06
311.639	405.06
311.868	402.06
312.098	390.06
312.328	400.06
312.557	411.06
312.787	425.06
313.017	416.06
313.246	427.06
313.476	392.06
313.706	391.06
313.935	407.06
314.165	412.06
314.394	417.06
314.624	412.06
314.853	424.06
315.083	396.06
315.312	394.06
315.542	398.06
315.771	377.06
316.001	398.06
316.23	410.06
316.46	390.06
316.689	403.06
316.919	402.06
317.148	420.06
317.377	404.06
317.607	410.06
317.836	405.06
318.065	406.06
318.295	385.06
318.524	396.06
318.753	401.06
318.983	397.06
319.212	396.06
319.441	391.06
319.67	429.06
319.9	410.06
320.129	402.06
320.358	402.06
320.587	422.06
320.816	426.06
321.046	436.06
321.275	432.06
321.504	424.06
321.733	423.06
321.962	401.06
322.191	421.06
322.42	440.06
322.649	472.06
322.878	475.06
323.108	472.06
323.337	489.06
323.566	518.06
323.795	566.06
324.024	604.06
324.253	719.06
324.482	1002.06
324.71	1591.06
324.939	2372.06
325.168	2038.06
325.397	1016.06
325.626	657.06
325.855	578.06
326.084	528.06
326.313	513.06
326.542	525.06
326.77	587.06
326.999	689.06
327.228	906.06
327.457	1423.06
327.686	1793.06
327.914	1138.06
328.143	742.06
328.372	664.06
328.6	605.06
328.829	598.06
329.058	607.06
329.287	630.06
329.515	588.06
329.744	553.06
329.972	547.06
330.201	585.06
330.43	615.06
330.658	619.06
330.887	646.06
331.115	638.06
331.344	546.06
331.572	517.06
331.801	538.06
332.03	542.06
332.258	506.06
332.486	473.06
332.715	514.06
332.943	477.06
333.172	484.06
333.4	470.06
333.629	492.06
333.857	521.06
334.085	530.06
334.314	546.06
334.542	578.06
334.771	598.06
334.999	550.06
335.227	529.06
335.455	485.06
335.684	489.06
335.912	495.06
336.14	495.06
336.369	481.06
336.597	493.06
336.825	494.06
337.053	501.06
337.281	484.06
337.51	469.06
337.738	480.06
337.966	483.06
338.194	485.06
338.422	466.06
338.65	457.06
338.878	468.06
339.106	460.06
339.334	462.06
339.562	446.06
339.79	466.06
340.018	485.06
340.246	469.06
340.474	473.06
340.702	474.06
340.93	458.06
341.158	463.06
341.386	448.06
341.614	480.06
341.842	460.06
342.07	449.06
342.298	460.06
342.526	450.06
342.754	448.06
342.981	445.06
343.209	447.06
343.437	460.06
343.665	446.06
343.893	470.06
344.12	481.06
344.348	480.06
344.576	456.06
344.804	471.06
345.031	484.06
345.259	470.06
345.487	471.06
345.714	461.06
345.942	458.06
346.17	454.06
346.397	435.06
346.625	442.06
346.853	478.06
347.08	461.06
347.308	445.06
347.535	477.06
347.763	467.06
347.99	470.06
348.218	471.06
348.445	476.06
348.673	441.06
348.9	432.06
349.128	441.06
349.355	411.06
349.583	438.06
349.81	452.06
350.037	437.06
350.265	445.06
350.492	447.06
350.72	450.06
350.947	454.06
351.174	456.06
351.402	473.06
351.629	469.06
351.856	451.06
352.083	477.06
352.311	447.06
352.538	467.06
352.765	472.06
352.992	477.06
353.22	467.06
353.447	465.06
353.674	456.06
353.901	430.06
354.128	426.06
354.355	423.06
354.583	449.06
354.81	416.06
355.037	425.06
355.264	421.06
355.491	425.06
355.718	424.06
355.945	441.06
356.172	432.06
356.399	426.06
356.626	400.06
356.853	423.06
357.08	417.06
357.307	439.06
357.534	422.06
357.761	416.06
357.988	416.06
358.215	447.06
358.441	417.06
358.668	418.06
358.895	439.06
359.122	441.06
359.349	445.06
359.576	449.06
359.802	482.06
360.029	511.06
360.256	528.06
360.483	500.06
360.709	461.06
360.936	476.06
361.163	446.06
361.39	463.06
361.616	467.06
361.843	445.06
362.07	463.06
362.296	465.06
362.523	456.06
362.749	439.06
362.976	451.06
363.203	451.06
363.429	448.06
363.656	450.06
363.882	446.06
364.109	436.06
364.335	449.06
364.562	457.06
364.788	443.06
365.015	459.06
365.241	453.06
365.468	444.06
365.694	450.06
365.92	468.06
366.147	457.06
366.373	450.06
366.599	433.06
366.826	430.06
367.052	444.06
367.278	453.06
367.505	436.06
367.731	449.06
367.957	449.06
368.184	462.06
368.41	431.06
368.636	449.06
368.862	465.06
369.089	455.06
369.315	455.06
369.541	432.06
369.767	451.06
369.993	462.06
370.219	458.06
370.445	444.06
370.672	448.06
370.898	430.06
371.124	444.06
371.35	437.06
371.576	438.06
371.802	448.06
372.028	439.06
372.254	446.06
372.48	449.06
372.706	460.06
372.932	445.06
373.158	466.06
373.384	445.06
373.61	452.06
373.835	428.06
374.061	449.06
374.287	444.06
374.513	447.06
374.739	470.06
374.965	473.06
375.191	441.06
375.416	473.06
375.642	458.06
375.868	460.06
376.094	447.06
376.319	446.06
376.545	456.06
376.771	447.06
376.997	447.06
377.222	441.06
377.448	432.06
377.674	444.06
377.899	434.06
378.125	456.06
378.35	461.06
378.576	449.06
378.802	444.06
379.027	428.06
379.253	448.06
379.478	450.06
379.704	443.06
379.929	474.06
380.155	457.06
380.38	428.06
380.606	456.06
380.831	439.06
381.057	466.06
381.282	434.06
381.507	454.06
381.733	461.06
381.958	466.06
382.184	473.06
382.409	479.06
382.634	454.06
382.86	466.06
383.085	449.06
383.31	469.06
383.535	455.06
383.761	486.06
383.986	461.06
384.211	453.06
384.436	463.06
384.662	469.06
384.887	501.06
385.112	518.06
385.337	482.06
385.562	471.06
385.787	483.06
386.013	490.06
386.238	522.06
386.463	512.06
386.688	508.06
386.913	493.06
387.138	497.06
387.363	491.06
387.588	503.06
387.813	477.06
388.038	484.06
388.263	506.06
388.488	486.06
388.713	518.06
388.938	509.06
389.163	518.06
389.387	509.06
389.612	502.06
389.837	487.06
390.062	506.06
390.287	506.06
390.512	498.06
390.736	516.06
390.961	493.06
391.186	481.06
391.411	517.06
391.636	516.06
391.86	509.06
392.085	514.06
392.31	526.06
392.534	529.06
392.759	532.06
392.984	518.06
393.208	517.06
393.433	517.06
393.658	505.06
393.882	506.06
394.107	517.06
394.331	514.06
394.556	514.06
394.78	514.06
395.005	510.06
395.229	508.06
395.454	525.06
395.678	529.06
395.903	538.06
396.127	558.06
396.352	566.06
396.576	528.06
396.801	526.06
397.025	524.06
397.249	551.06
397.474	517.06
397.698	548.06
397.922	562.06
398.147	549.06
398.371	574.06
398.595	548.06
398.82	557.06
399.044	581.06
399.268	622.06
399.492	647.06
399.717	676.06
399.941	689.06
400.165	732.06
400.389	739.06
400.613	669.06
400.837	591.06
401.062	618.06
401.286	599.06
401.51	591.06
401.734	592.06
401.958	587.06
402.182	585.06
402.406	595.06
402.63	588.06
402.854	614.06
403.078	592.06
403.302	606.06
403.526	581.06
403.75	610.06
403.974	621.06
404.198	609.06
404.422	616.06
404.645	622.06
404.869	622.06
405.093	662.06
405.317	710.06
405.541	768.06
405.765	674.06
405.988	623.06
406.212	625.06
406.436	678.06
406.66	685.06
406.883	663.06
407.107	678.06
407.331	719.06
407.555	805.06
407.778	797.06
408.002	728.06
408.226	692.06
408.449	676.06
408.673	666.06
408.896	714.06
409.12	752.06
409.344	692.06
409.567	637.06
409.791	632.06
410.014	624.06
410.238	605.06
410.461	593.06
410.685	635.06
410.908	604.06
411.132	655.06
411.355	662.06
411.578	663.06
411.802	615.06
412.025	605.06
412.249	612.06
412.472	657.06
412.695	690.06
412.919	655.06
413.142	639.06
413.365	613.06
413.589	604.06
413.812	576.06
414.035	596.06
414.258	546.06
414.482	581.06
414.705	590.06
414.928	597.06
415.151	579.06
415.374	559.06
415.597	565.06
415.821	589.06
416.044	578.06
416.267	579.06
416.49	574.06
416.713	579.06
416.936	578.06
417.159	580.06
417.382	586.06
417.605	569.06
417.828	590.06
418.051	626.06
418.274	580.06
418.497	571.06
418.72	585.06
418.943	555.06
419.166	616.06
419.389	624.06
419.611	638.06
419.834	624.06
420.057	594.06
420.28	601.06
420.503	618.06
420.726	603.06
420.948	598.06
421.171	664.06
421.394	683.06
421.617	633.06
421.839	607.06
422.062	598.06
422.285	602.06
422.507	687.06
422.73	792.06
422.953	728.06
423.175	658.06
423.398	628.06
423.621	606.06
423.843	656.06
424.066	651.06
424.288	640.06
424.511	658.06
424.733	714.06
424.956	809.06
425.178	795.06
425.401	794.06
425.623	804.06
425.846	686.06
426.068	637.06
426.291	640.06
426.513	646.06
426.735	639.06
426.958	692.06
427.18	776.06
427.402	952.06
427.625	1071.06
427.847	875.06
428.069	790.06
428.292	694.06
428.514	639.06
428.736	639.06
428.958	625.06
429.181	609.06
429.403	608.06
429.625	625.06
429.847	644.06
430.069	708.06
430.292	749.06
430.514	635.06
430.736	610.06
430.958	611.06
431.18	585.06
431.402	570.06
431.624	553.06
431.846	550.06
432.068	565.06
432.29	567.06
432.512	561.06
432.734	573.06
432.956	584.06
433.178	580.06
433.4	598.06
433.622	594.06
433.844	584.06
434.066	574.06
434.287	573.06
434.509	575.06
434.731	565.06
434.953	595.06
435.175	609.06
435.397	639.06
435.618	641.06
435.84	718.06
436.062	805.06
436.284	866.06
436.505	725.06
436.727	654.06
436.949	625.06
437.17	602.06
437.392	602.06
437.614	631.06
437.835	647.06
438.057	762.06
438.278	850.06
438.5	865.06
438.721	956.06
438.943	910.06
439.165	712.06
439.386	655.06
439.608	666.06
439.829	656.06
440.05	693.06
440.272	742.06
440.493	699.06
440.715	623.06
440.936	635.06
441.158	612.06
441.379	598.06
441.6	615.06
441.822	642.06
442.043	702.06
442.264	826.06
442.486	865.06
442.707	704.06
442.928	678.06
443.149	676.06
443.371	704.06
443.592	738.06
443.813	839.06
444.034	938.06
444.255	762.06
444.476	686.06
444.698	658.06
444.919	672.06
445.14	769.06
445.361	715.06
445.582	703.06
445.803	782.06
446.024	886.06
446.245	923.06
446.466	798.06
446.687	693.06
446.908	649.06
447.129	612.06
447.35	596.06
447.571	607.06
447.792	588.06
448.013	598.06
448.234	616.06
448.455	670.06
448.675	797.06
448.896	931.06
449.117	791.06
449.338	746.06
449.559	861.06
449.779	968.06
450	780.06
450.221	648.06
450.442	604.06
450.662	588.06
450.883	574.06
451.104	606.06
451.324	584.06
451.545	580.06
451.766	543.06
451.986	521.06
452.207	518.06
452.428	520.06
452.648	535.06
452.869	522.06
453.089	537.06
453.31	557.06
453.53	535.06
453.751	529.06
453.971	547.06
454.192	553.06
454.412	537.06
454.633	545.06
454.853	530.06
455.073	545.06
455.294	566.06
455.514	639.06
455.734	609.06
455.955	534.06
456.175	494.06
456.395	506.06
456.616	501.06
456.836	493.06
457.056	492.06
457.276	491.06
457.497	530.06
457.717	516.06
457.937	503.06
458.157	504.06
458.377	520.06
458.598	565.06
458.818	598.06
459.038	710.06
459.258	736.06
459.478	635.06
459.698	584.06
459.918	582.06
460.138	582.06
460.358	587.06
460.578	575.06
460.798	593.06
461.018	588.06
461.238	600.06
461.458	592.06
461.678	577.06
461.898	582.06
462.118	613.06
462.338	617.06
462.558	622.06
462.777	621.06
462.997	634.06
463.217	662.06
463.437	649.06
463.657	642.06
463.876	625.06
464.096	621.06
464.316	624.06
464.536	649.06
464.755	622.06
464.975	646.06
465.195	669.06
465.414	744.06
465.634	667.06
465.854	616.06
466.073	574.06
466.293	584.06
466.512	575.06
466.732	554.06
466.951	554.06
467.171	544.06
467.391	551.06
467.61	557.06
467.829	552.06
468.049	550.06
468.268	546.06
468.488	556.06
468.707	545.06
468.927	527.06
469.146	518.06
469.365	533.06
469.585	540.06
469.804	530.06
470.023	560.06
470.243	559.06
470.462	557.06
470.681	583.06
470.901	568.06
471.12	568.06
471.339	568.06
471.558	546.06
471.777	597.06
471.997	550.06
472.216	545.06
472.435	593.06
472.654	599.06
472.873	561.06
473.092	575.06
473.311	557.06
473.53	559.06
473.749	564.06
473.968	597.06
474.187	731.06
474.406	730.06
474.625	624.06
474.844	556.06
475.063	572.06
475.282	535.06
475.501	549.06
475.72	549.06
475.939	552.06
476.158	580.06
476.377	590.06
476.596	575.06
476.814	599.06
477.033	600.06
477.252	592.06
477.471	587.06
477.69	602.06
477.908	617.06
478.127	628.06
478.346	600.06
478.564	639.06
478.783	644.06
479.002	657.06
479.22	652.06
479.439	658.06
479.658	680.06
479.876	699.06
480.095	689.06
480.313	717.06
480.532	711.06
480.751	689.06
480.969	692.06
481.188	774.06
481.406	832.06
481.624	751.06
481.843	691.06
482.061	676.06
482.28	656.06
482.498	666.06
482.717	648.06
482.935	649.06
483.153	640.06
483.372	672.06
483.59	647.06
483.808	677.06
484.027	640.06
484.245	657.06
484.463	668.06
484.681	682.06
484.9	681.06
485.118	655.06
485.336	693.06
485.554	684.06
485.772	670.06
485.99	666.06
486.209	681.06
486.427	674.06
486.645	694.06
486.863	711.06
487.081	713.06
487.299	710.06
487.517	704.06
487.735	698.06
487.953	693.06
488.171	710.06
488.389	701.06
488.607	717.06
488.825	701.06
489.043	729.06
489.261	705.06
489.479	731.06
489.696	695.06
489.914	712.06
490.132	725.06
490.35	736.06
490.568	745.06
490.786	732.06
491.003	757.06
491.221	764.06
491.439	795.06
491.657	822.06
491.874	808.06
492.092	817.06
492.31	796.06
492.527	825.06
492.745	836.06
492.963	842.06
493.18	838.06
493.398	863.06
493.615	839.06
493.833	836.06
494.05	833.06
494.268	824.06
494.485	854.06
494.703	820.06
494.92	812.06
495.138	835.06
495.355	824.06
495.573	849.06
495.79	849.06
496.008	870.06
496.225	847.06
496.442	822.06
496.66	860.06
496.877	846.06
497.094	866.06
497.312	861.06
497.529	872.06
497.746	885.06
497.963	870.06
498.181	941.06
498.398	930.06
498.615	940.06
498.832	966.06
499.049	988.06
499.267	1004.06
499.484	1037.06
499.701	1078.06
499.918	1105.06
500.135	1176.06
500.352	1197.06
500.569	1213.06
500.786	1241.06
501.003	1198.06
501.22	1182.06
501.437	1176.06
501.654	1119.06
