Data from 1966.PennyLincolnUp.Lamp.En5.5.200Scan.071719.P1.Scan2.head_HRD10591_14-18-52-222.txt Node
Date: Thu Jul 18 14:18:52 EDT 2019
User: cochatt
Spectrometer: HR+D1059
Trigger mode: 1
Integration Time (sec): 1.000000E-1
Scans to average: 1
Electric dark correction enabled: true
Nonlinearity correction enabled: false
Boxcar width: 0
XAxis mode: Wavelengths
Number of Pixels in Spectrum: 2048
>>>>>Begin Spectral Data<<<<<
223.165	-14.5
223.4	-14.5
223.635	-14.5
223.869	-13.5
224.104	-13.5
224.338	-14.5
224.573	-16.5
224.808	-21.5
225.042	-13.5
225.277	2.5
225.511	0.5
225.746	-7.5
225.98	4.5
226.215	15.5
226.449	16.5
226.683	20.5
226.918	35.5
227.152	19.5
227.387	31.5
227.621	35.5
227.856	43.5
228.09	50.5
228.324	45.5
228.559	56.5
228.793	64.5
229.027	109.5
229.262	95.5
229.496	106.5
229.73	136.5
229.964	153.5
230.199	130.5
230.433	122.5
230.667	134.5
230.901	107.5
231.136	104.5
231.37	111.5
231.604	109.5
231.838	123.5
232.072	118.5
232.306	116.5
232.541	118.5
232.775	103.5
233.009	113.5
233.243	122.5
233.477	127.5
233.711	117.5
233.945	116.5
234.179	125.5
234.413	133.5
234.647	118.5
234.881	133.5
235.115	121.5
235.349	130.5
235.583	126.5
235.817	119.5
236.051	131.5
236.285	138.5
236.519	128.5
236.753	144.5
236.987	148.5
237.221	194.5
237.455	254.5
237.689	208.5
237.922	156.5
238.156	141.5
238.39	140.5
238.624	129.5
238.858	127.5
239.091	137.5
239.325	135.5
239.559	132.5
239.793	127.5
240.027	136.5
240.26	150.5
240.494	155.5
240.728	160.5
240.961	164.5
241.195	151.5
241.429	145.5
241.662	143.5
241.896	148.5
242.13	125.5
242.363	140.5
242.597	130.5
242.83	130.5
243.064	136.5
243.298	135.5
243.531	145.5
243.765	134.5
243.998	146.5
244.232	143.5
244.465	151.5
244.699	157.5
244.932	156.5
245.166	148.5
245.399	163.5
245.633	174.5
245.866	162.5
246.099	163.5
246.333	155.5
246.566	144.5
246.8	172.5
247.033	164.5
247.266	174.5
247.5	161.5
247.733	166.5
247.966	176.5
248.2	182.5
248.433	188.5
248.666	181.5
248.899	185.5
249.133	216.5
249.366	198.5
249.599	200.5
249.832	186.5
250.066	189.5
250.299	198.5
250.532	189.5
250.765	208.5
250.998	238.5
251.231	244.5
251.465	217.5
251.698	213.5
251.931	197.5
252.164	209.5
252.397	202.5
252.63	202.5
252.863	204.5
253.096	217.5
253.329	237.5
253.562	228.5
253.795	241.5
254.028	226.5
254.261	214.5
254.494	222.5
254.727	272.5
254.96	269.5
255.193	284.5
255.426	253.5
255.659	233.5
255.892	234.5
256.124	233.5
256.357	265.5
256.59	245.5
256.823	215.5
257.056	212.5
257.289	202.5
257.521	216.5
257.754	206.5
257.987	208.5
258.22	218.5
258.452	221.5
258.685	219.5
258.918	207.5
259.151	218.5
259.383	236.5
259.616	227.5
259.849	231.5
260.081	239.5
260.314	276.5
260.547	269.5
260.779	262.5
261.012	222.5
261.244	218.5
261.477	233.5
261.71	219.5
261.942	229.5
262.175	239.5
262.407	238.5
262.64	225.5
262.872	216.5
263.105	208.5
263.337	219.5
263.57	213.5
263.802	221.5
264.035	221.5
264.267	238.5
264.499	234.5
264.732	223.5
264.964	216.5
265.197	219.5
265.429	210.5
265.661	226.5
265.894	216.5
266.126	216.5
266.358	218.5
266.591	224.5
266.823	226.5
267.055	245.5
267.287	251.5
267.52	212.5
267.752	225.5
267.984	239.5
268.216	226.5
268.448	232.5
268.681	242.5
268.913	234.5
269.145	277.5
269.377	279.5
269.609	271.5
269.841	299.5
270.073	276.5
270.306	298.5
270.538	328.5
270.77	328.5
271.002	299.5
271.234	306.5
271.466	318.5
271.698	312.5
271.93	319.5
272.162	308.5
272.394	336.5
272.626	325.5
272.858	289.5
273.09	284.5
273.322	274.5
273.553	294.5
273.785	275.5
274.017	264.5
274.249	267.5
274.481	272.5
274.713	284.5
274.945	290.5
275.176	274.5
275.408	284.5
275.64	268.5
275.872	274.5
276.104	285.5
276.335	279.5
276.567	282.5
276.799	309.5
277.031	313.5
277.262	325.5
277.494	328.5
277.726	309.5
277.957	314.5
278.189	309.5
278.421	291.5
278.652	290.5
278.884	283.5
279.115	277.5
279.347	265.5
279.579	292.5
279.81	294.5
280.042	284.5
280.273	271.5
280.505	274.5
280.736	266.5
280.968	282.5
281.199	279.5
281.431	276.5
281.662	272.5
281.894	277.5
282.125	277.5
282.356	290.5
282.588	317.5
282.819	311.5
283.051	292.5
283.282	277.5
283.513	264.5
283.745	288.5
283.976	279.5
284.207	301.5
284.439	293.5
284.67	280.5
284.901	282.5
285.132	279.5
285.364	293.5
285.595	285.5
285.826	286.5
286.057	289.5
286.288	302.5
286.52	288.5
286.751	295.5
286.982	287.5
287.213	295.5
287.444	286.5
287.675	272.5
287.906	306.5
288.138	303.5
288.369	322.5
288.6	320.5
288.831	313.5
289.062	330.5
289.293	308.5
289.524	310.5
289.755	303.5
289.986	304.5
290.217	310.5
290.448	301.5
290.679	293.5
290.91	311.5
291.141	296.5
291.371	321.5
291.602	294.5
291.833	306.5
292.064	310.5
292.295	307.5
292.526	311.5
292.757	309.5
292.987	301.5
293.218	300.5
293.449	314.5
293.68	314.5
293.91	301.5
294.141	292.5
294.372	288.5
294.603	315.5
294.833	314.5
295.064	310.5
295.295	295.5
295.525	300.5
295.756	317.5
295.987	310.5
296.217	334.5
296.448	374.5
296.679	313.5
296.909	310.5
297.14	302.5
297.37	294.5
297.601	318.5
297.831	298.5
298.062	308.5
298.292	301.5
298.523	318.5
298.753	319.5
298.984	333.5
299.214	318.5
299.445	319.5
299.675	327.5
299.905	342.5
300.136	339.5
300.366	328.5
300.597	322.5
300.827	336.5
301.057	319.5
301.288	337.5
301.518	344.5
301.748	345.5
301.979	352.5
302.209	331.5
302.439	358.5
302.669	347.5
302.9	342.5
303.13	342.5
303.36	344.5
303.59	347.5
303.82	360.5
304.051	341.5
304.281	363.5
304.511	355.5
304.741	337.5
304.971	341.5
305.201	337.5
305.431	338.5
305.661	334.5
305.891	338.5
306.121	342.5
306.352	351.5
306.582	344.5
306.812	350.5
307.042	345.5
307.272	367.5
307.502	335.5
307.731	343.5
307.961	344.5
308.191	333.5
308.421	346.5
308.651	344.5
308.881	335.5
309.111	334.5
309.341	360.5
309.571	362.5
309.8	363.5
310.03	391.5
310.26	393.5
310.49	386.5
310.72	395.5
310.949	417.5
311.179	394.5
311.409	398.5
311.639	383.5
311.868	389.5
312.098	384.5
312.328	375.5
312.557	403.5
312.787	427.5
313.017	431.5
313.246	413.5
313.476	404.5
313.706	393.5
313.935	389.5
314.165	408.5
314.394	431.5
314.624	422.5
314.853	397.5
315.083	406.5
315.312	385.5
315.542	406.5
315.771	395.5
316.001	396.5
316.23	382.5
316.46	381.5
316.689	374.5
316.919	389.5
317.148	410.5
317.377	417.5
317.607	397.5
317.836	381.5
318.065	393.5
318.295	386.5
318.524	398.5
318.753	396.5
318.983	380.5
319.212	405.5
319.441	400.5
319.67	416.5
319.9	395.5
320.129	383.5
320.358	403.5
320.587	397.5
320.816	426.5
321.046	410.5
321.275	434.5
321.504	430.5
321.733	414.5
321.962	420.5
322.191	431.5
322.42	445.5
322.649	472.5
322.878	468.5
323.108	468.5
323.337	498.5
323.566	503.5
323.795	542.5
324.024	565.5
324.253	668.5
324.482	981.5
324.71	1536.5
324.939	2314.5
325.168	2023.5
325.397	989.5
325.626	667.5
325.855	540.5
326.084	523.5
326.313	531.5
326.542	525.5
326.77	577.5
326.999	675.5
327.228	866.5
327.457	1384.5
327.686	1759.5
327.914	1129.5
328.143	724.5
328.372	613.5
328.6	589.5
328.829	565.5
329.058	598.5
329.287	627.5
329.515	576.5
329.744	550.5
329.972	542.5
330.201	550.5
330.43	595.5
330.658	602.5
330.887	624.5
331.115	624.5
331.344	525.5
331.572	521.5
331.801	508.5
332.03	514.5
332.258	469.5
332.486	463.5
332.715	494.5
332.943	491.5
333.172	484.5
333.4	468.5
333.629	482.5
333.857	525.5
334.085	521.5
334.314	526.5
334.542	564.5
334.771	604.5
334.999	551.5
335.227	512.5
335.455	508.5
335.684	488.5
335.912	494.5
336.14	482.5
336.369	468.5
336.597	496.5
336.825	493.5
337.053	467.5
337.281	461.5
337.51	474.5
337.738	456.5
337.966	468.5
338.194	460.5
338.422	475.5
338.65	483.5
338.878	478.5
339.106	478.5
339.334	483.5
339.562	435.5
339.79	440.5
340.018	446.5
340.246	455.5
340.474	464.5
340.702	462.5
340.93	458.5
341.158	453.5
341.386	434.5
341.614	464.5
341.842	447.5
342.07	461.5
342.298	462.5
342.526	451.5
342.754	436.5
342.981	435.5
343.209	429.5
343.437	464.5
343.665	447.5
343.893	464.5
344.12	469.5
344.348	455.5
344.576	481.5
344.804	478.5
345.031	456.5
345.259	468.5
345.487	486.5
345.714	474.5
345.942	454.5
346.17	454.5
346.397	443.5
346.625	440.5
346.853	451.5
347.08	446.5
347.308	473.5
347.535	458.5
347.763	471.5
347.99	480.5
348.218	440.5
348.445	460.5
348.673	463.5
348.9	452.5
349.128	432.5
349.355	453.5
349.583	419.5
349.81	429.5
350.037	439.5
350.265	424.5
350.492	426.5
350.72	428.5
350.947	452.5
351.174	446.5
351.402	468.5
351.629	454.5
351.856	427.5
352.083	460.5
352.311	467.5
352.538	464.5
352.765	484.5
352.992	448.5
353.22	446.5
353.447	452.5
353.674	436.5
353.901	430.5
354.128	413.5
354.355	424.5
354.583	420.5
354.81	442.5
355.037	410.5
355.264	432.5
355.491	421.5
355.718	414.5
355.945	438.5
356.172	419.5
356.399	420.5
356.626	419.5
356.853	420.5
357.08	436.5
357.307	422.5
357.534	431.5
357.761	439.5
357.988	445.5
358.215	418.5
358.441	422.5
358.668	440.5
358.895	426.5
359.122	438.5
359.349	450.5
359.576	456.5
359.802	452.5
360.029	491.5
360.256	517.5
360.483	483.5
360.709	463.5
360.936	440.5
361.163	430.5
361.39	464.5
361.616	450.5
361.843	462.5
362.07	447.5
362.296	461.5
362.523	444.5
362.749	449.5
362.976	443.5
363.203	471.5
363.429	439.5
363.656	427.5
363.882	440.5
364.109	436.5
364.335	435.5
364.562	454.5
364.788	429.5
365.015	444.5
365.241	422.5
365.468	442.5
365.694	444.5
365.92	444.5
366.147	448.5
366.373	448.5
366.599	431.5
366.826	459.5
367.052	446.5
367.278	442.5
367.505	444.5
367.731	459.5
367.957	450.5
368.184	460.5
368.41	436.5
368.636	459.5
368.862	469.5
369.089	458.5
369.315	445.5
369.541	453.5
369.767	443.5
369.993	436.5
370.219	459.5
370.445	451.5
370.672	454.5
370.898	435.5
371.124	432.5
371.35	436.5
371.576	446.5
371.802	443.5
372.028	420.5
372.254	429.5
372.48	433.5
372.706	449.5
372.932	444.5
373.158	439.5
373.384	452.5
373.61	444.5
373.835	430.5
374.061	454.5
374.287	449.5
374.513	462.5
374.739	450.5
374.965	436.5
375.191	453.5
375.416	447.5
375.642	467.5
375.868	454.5
376.094	438.5
376.319	440.5
376.545	446.5
376.771	433.5
376.997	428.5
377.222	437.5
377.448	454.5
377.674	434.5
377.899	446.5
378.125	445.5
378.35	437.5
378.576	435.5
378.802	434.5
379.027	459.5
379.253	444.5
379.478	452.5
379.704	445.5
379.929	462.5
380.155	451.5
380.38	438.5
380.606	447.5
380.831	440.5
381.057	444.5
381.282	440.5
381.507	448.5
381.733	449.5
381.958	436.5
382.184	447.5
382.409	456.5
382.634	469.5
382.86	458.5
383.085	463.5
383.31	463.5
383.535	465.5
383.761	445.5
383.986	467.5
384.211	473.5
384.436	473.5
384.662	475.5
384.887	480.5
385.112	477.5
385.337	474.5
385.562	476.5
385.787	488.5
386.013	496.5
386.238	493.5
386.463	505.5
386.688	503.5
386.913	481.5
387.138	491.5
387.363	493.5
387.588	503.5
387.813	495.5
388.038	474.5
388.263	491.5
388.488	485.5
388.713	474.5
388.938	504.5
389.163	507.5
389.387	495.5
389.612	495.5
389.837	485.5
390.062	494.5
390.287	508.5
390.512	519.5
390.736	475.5
390.961	485.5
391.186	491.5
391.411	506.5
391.636	535.5
391.86	491.5
392.085	502.5
392.31	525.5
392.534	501.5
392.759	512.5
392.984	492.5
393.208	502.5
393.433	528.5
393.658	500.5
393.882	490.5
394.107	505.5
394.331	494.5
394.556	486.5
394.78	495.5
395.005	502.5
395.229	518.5
395.454	531.5
395.678	535.5
395.903	544.5
396.127	566.5
396.352	544.5
396.576	529.5
396.801	519.5
397.025	503.5
397.249	505.5
397.474	538.5
397.698	550.5
397.922	560.5
398.147	574.5
398.371	556.5
398.595	536.5
398.82	560.5
399.044	563.5
399.268	598.5
399.492	623.5
399.717	677.5
399.941	679.5
400.165	716.5
400.389	714.5
400.613	681.5
400.837	604.5
401.062	592.5
401.286	584.5
401.51	568.5
401.734	580.5
401.958	592.5
402.182	577.5
402.406	587.5
402.63	596.5
402.854	589.5
403.078	571.5
403.302	596.5
403.526	577.5
403.75	614.5
403.974	606.5
404.198	598.5
404.422	623.5
404.645	606.5
404.869	597.5
405.093	650.5
405.317	679.5
405.541	719.5
405.765	666.5
405.988	630.5
406.212	653.5
406.436	670.5
406.66	661.5
406.883	638.5
407.107	703.5
407.331	720.5
407.555	795.5
407.778	800.5
408.002	722.5
408.226	673.5
408.449	662.5
408.673	645.5
408.896	675.5
409.12	742.5
409.344	715.5
409.567	640.5
409.791	628.5
410.014	615.5
410.238	575.5
410.461	579.5
410.685	612.5
410.908	627.5
411.132	674.5
411.355	702.5
411.578	656.5
411.802	593.5
412.025	600.5
412.249	604.5
412.472	654.5
412.695	686.5
412.919	670.5
413.142	620.5
413.365	598.5
413.589	598.5
413.812	564.5
414.035	580.5
414.258	573.5
414.482	562.5
414.705	588.5
414.928	574.5
415.151	557.5
415.374	568.5
415.597	577.5
415.821	550.5
416.044	554.5
416.267	574.5
416.49	568.5
416.713	568.5
416.936	559.5
417.159	557.5
417.382	566.5
417.605	574.5
417.828	607.5
418.051	602.5
418.274	574.5
418.497	591.5
418.72	561.5
418.943	580.5
419.166	598.5
419.389	627.5
419.611	610.5
419.834	616.5
420.057	602.5
420.28	591.5
420.503	606.5
420.726	613.5
420.948	622.5
421.171	648.5
421.394	702.5
421.617	614.5
421.839	562.5
422.062	601.5
422.285	600.5
422.507	660.5
422.73	771.5
422.953	736.5
423.175	657.5
423.398	621.5
423.621	606.5
423.843	658.5
424.066	666.5
424.288	639.5
424.511	678.5
424.733	730.5
424.956	809.5
425.178	806.5
425.401	770.5
425.623	815.5
425.846	705.5
426.068	640.5
426.291	622.5
426.513	618.5
426.735	637.5
426.958	682.5
427.18	787.5
427.402	923.5
427.625	993.5
427.847	893.5
428.069	795.5
428.292	694.5
428.514	634.5
428.736	629.5
428.958	608.5
429.181	571.5
429.403	578.5
429.625	602.5
429.847	636.5
430.069	716.5
430.292	699.5
430.514	616.5
430.736	592.5
430.958	580.5
431.18	568.5
431.402	573.5
431.624	555.5
431.846	532.5
432.068	588.5
432.29	578.5
432.512	572.5
432.734	575.5
432.956	570.5
433.178	569.5
433.4	577.5
433.622	584.5
433.844	572.5
434.066	556.5
434.287	565.5
434.509	584.5
434.731	575.5
434.953	590.5
435.175	595.5
435.397	626.5
435.618	636.5
435.84	677.5
436.062	807.5
436.284	859.5
436.505	721.5
436.727	651.5
436.949	604.5
437.17	589.5
437.392	603.5
437.614	607.5
437.835	643.5
438.057	739.5
438.278	833.5
438.5	872.5
438.721	953.5
438.943	892.5
439.165	723.5
439.386	677.5
439.608	642.5
439.829	633.5
440.05	664.5
440.272	738.5
440.493	681.5
440.715	606.5
440.936	614.5
441.158	597.5
441.379	584.5
441.6	620.5
441.822	634.5
442.043	663.5
442.264	754.5
442.486	818.5
442.707	696.5
442.928	668.5
443.149	641.5
443.371	684.5
443.592	723.5
443.813	831.5
444.034	912.5
444.255	756.5
444.476	656.5
444.698	653.5
444.919	657.5
445.14	723.5
445.361	692.5
445.582	708.5
445.803	766.5
446.024	889.5
446.245	877.5
446.466	797.5
446.687	674.5
446.908	646.5
447.129	618.5
447.35	599.5
447.571	590.5
447.792	580.5
448.013	583.5
448.234	611.5
448.455	639.5
448.675	768.5
448.896	909.5
449.117	783.5
449.338	729.5
449.559	836.5
449.779	983.5
450	768.5
450.221	640.5
450.442	610.5
450.662	581.5
450.883	581.5
451.104	588.5
451.324	597.5
451.545	564.5
451.766	539.5
451.986	550.5
452.207	533.5
452.428	531.5
452.648	538.5
452.869	536.5
453.089	522.5
453.31	528.5
453.53	541.5
453.751	553.5
453.971	518.5
454.192	540.5
454.412	520.5
454.633	520.5
454.853	528.5
455.073	538.5
455.294	562.5
455.514	636.5
455.734	640.5
455.955	509.5
456.175	487.5
456.395	500.5
456.616	486.5
456.836	490.5
457.056	497.5
457.276	506.5
457.497	504.5
457.717	517.5
457.937	510.5
458.157	510.5
458.377	510.5
458.598	547.5
458.818	597.5
459.038	692.5
459.258	696.5
459.478	630.5
459.698	584.5
459.918	553.5
460.138	566.5
460.358	571.5
460.578	580.5
460.798	578.5
461.018	580.5
461.238	557.5
461.458	566.5
461.678	569.5
461.898	598.5
462.118	607.5
462.338	591.5
462.558	590.5
462.777	597.5
462.997	623.5
463.217	641.5
463.437	640.5
463.657	627.5
463.876	634.5
464.096	624.5
464.316	614.5
464.536	619.5
464.755	613.5
464.975	606.5
465.195	631.5
465.414	734.5
465.634	639.5
465.854	592.5
466.073	582.5
466.293	573.5
466.512	540.5
466.732	521.5
466.951	539.5
467.171	528.5
467.391	549.5
467.61	542.5
467.829	568.5
468.049	563.5
468.268	550.5
468.488	543.5
468.707	528.5
468.927	535.5
469.146	518.5
469.365	526.5
469.585	541.5
469.804	531.5
470.023	540.5
470.243	564.5
470.462	547.5
470.681	578.5
470.901	580.5
471.12	549.5
471.339	562.5
471.558	555.5
471.777	588.5
471.997	571.5
472.216	559.5
472.435	571.5
472.654	556.5
472.873	549.5
473.092	547.5
473.311	553.5
473.53	548.5
473.749	577.5
473.968	590.5
474.187	723.5
474.406	730.5
474.625	644.5
474.844	574.5
475.063	554.5
475.282	556.5
475.501	565.5
475.72	579.5
475.939	577.5
476.158	566.5
476.377	574.5
476.596	550.5
476.814	590.5
477.033	587.5
477.252	570.5
477.471	587.5
477.69	606.5
477.908	596.5
478.127	613.5
478.346	591.5
478.564	614.5
478.783	614.5
479.002	635.5
479.22	617.5
479.439	634.5
479.658	674.5
479.876	654.5
480.095	661.5
480.313	704.5
480.532	683.5
480.751	683.5
480.969	699.5
481.188	724.5
481.406	800.5
481.624	725.5
481.843	663.5
482.061	667.5
482.28	657.5
482.498	639.5
482.717	633.5
482.935	646.5
483.153	656.5
483.372	638.5
483.59	649.5
483.808	651.5
484.027	665.5
484.245	659.5
484.463	627.5
484.681	644.5
484.9	665.5
485.118	670.5
485.336	664.5
485.554	666.5
485.772	660.5
485.99	652.5
486.209	637.5
486.427	666.5
486.645	696.5
486.863	728.5
487.081	716.5
487.299	721.5
487.517	690.5
487.735	696.5
487.953	700.5
488.171	702.5
488.389	703.5
488.607	693.5
488.825	678.5
489.043	708.5
489.261	705.5
489.479	724.5
489.696	702.5
489.914	708.5
490.132	725.5
490.35	717.5
490.568	727.5
490.786	724.5
491.003	750.5
491.221	764.5
491.439	792.5
491.657	787.5
491.874	775.5
492.092	812.5
492.31	803.5
492.527	830.5
492.745	811.5
492.963	812.5
493.18	787.5
493.398	823.5
493.615	813.5
493.833	835.5
494.05	844.5
494.268	823.5
494.485	813.5
494.703	826.5
494.92	820.5
495.138	842.5
495.355	809.5
495.573	839.5
495.79	827.5
496.008	820.5
496.225	821.5
496.442	851.5
496.66	860.5
496.877	839.5
497.094	823.5
497.312	879.5
497.529	861.5
497.746	868.5
497.963	893.5
498.181	894.5
498.398	934.5
498.615	928.5
498.832	943.5
499.049	968.5
499.267	967.5
499.484	1037.5
499.701	1038.5
499.918	1114.5
500.135	1160.5
500.352	1190.5
500.569	1212.5
500.786	1219.5
501.003	1218.5
501.22	1157.5
501.437	1095.5
501.654	1081.5
501.871	1086.5
502.088	1040.5
502.305	996.5
502.522	955.5
502.739	937.5
502.956	904.5
503.172	907.5
503.389	867.5
503.606	892.5
503.823	874.5
504.04	859.5
504.256	855.5
504.473	830.5
504.69	855.5
504.907	848.5
505.123	859.5
505.34	842.5
505.557	793.5
505.773	801.5
505.99	822.5
506.207	782.5
506.423	787.5
506.64	797.5
506.856	785.5
507.073	742.5
507.289	745.5
507.506	768.5
507.722	779.5
507.939	775.5
508.155	784.5
508.372	740.5
508.588	744.5
508.805	735.5
509.021	750.5
509.238	752.5
509.454	788.5
509.67	731.5
509.887	755.5
510.103	742.5
510.319	749.5
510.536	874.5
510.752	1322.5
510.968	1088.5
511.184	766.5
511.401	736.5
511.617	713.5
511.833	717.5
512.049	698.5
512.265	724.5
512.481	708.5
512.698	714.5
512.914	694.5
513.13	708.5
513.346	713.5
513.562	708.5
513.778	708.5
513.994	702.5
514.21	721.5
514.426	738.5
514.642	774.5
514.858	797.5
515.074	811.5
515.29	971.5
515.506	1350.5
515.721	1114.5
515.937	839.5
516.153	798.5
516.369	757.5
516.585	732.5
516.801	738.5
517.016	734.5
517.232	724.5
517.448	731.5
517.664	738.5
517.879	734.5
518.095	741.5
518.311	765.5
518.527	721.5
518.742	723.5
518.958	739.5
519.173	725.5
519.389	690.5
