Data from 1966.PennyLincolnUp.Lamp.En5.5.200Scan.071719.P1.Scan2.head_HRD10591_14-17-10-087.txt Node
Date: Thu Jul 18 14:17:10 EDT 2019
User: cochatt
Spectrometer: HR+D1059
Trigger mode: 1
Integration Time (sec): 1.000000E-1
Scans to average: 1
Electric dark correction enabled: true
Nonlinearity correction enabled: false
Boxcar width: 0
XAxis mode: Wavelengths
Number of Pixels in Spectrum: 2048
>>>>>Begin Spectral Data<<<<<
223.165	-9.5
223.4	-9.5
223.635	-9.5
223.869	-26.5
224.104	-12.5
224.338	-11.5
224.573	-18.5
224.808	-8.5
225.042	-12.5
225.277	-5.5
225.511	-7.5
225.746	4.5
225.98	17.5
226.215	12.5
226.449	12.5
226.683	13.5
226.918	28.5
227.152	23.5
227.387	23.5
227.621	39.5
227.856	34.5
228.09	35.5
228.324	42.5
228.559	47.5
228.793	69.5
229.027	77.5
229.262	105.5
229.496	114.5
229.73	125.5
229.964	154.5
230.199	119.5
230.433	117.5
230.667	101.5
230.901	110.5
231.136	115.5
231.37	110.5
231.604	115.5
231.838	112.5
232.072	108.5
232.306	116.5
232.541	119.5
232.775	120.5
233.009	106.5
233.243	110.5
233.477	118.5
233.711	106.5
233.945	117.5
234.179	110.5
234.413	116.5
234.647	122.5
234.881	113.5
235.115	123.5
235.349	99.5
235.583	104.5
235.817	107.5
236.051	134.5
236.285	104.5
236.519	117.5
236.753	139.5
236.987	131.5
237.221	163.5
237.455	222.5
237.689	198.5
237.922	138.5
238.156	124.5
238.39	125.5
238.624	123.5
238.858	133.5
239.091	121.5
239.325	128.5
239.559	125.5
239.793	119.5
240.027	135.5
240.26	135.5
240.494	139.5
240.728	155.5
240.961	171.5
241.195	136.5
241.429	130.5
241.662	140.5
241.896	141.5
242.13	140.5
242.363	128.5
242.597	134.5
242.83	137.5
243.064	127.5
243.298	133.5
243.531	139.5
243.765	137.5
243.998	131.5
244.232	135.5
244.465	137.5
244.699	153.5
244.932	147.5
245.166	137.5
245.399	135.5
245.633	141.5
245.866	152.5
246.099	138.5
246.333	171.5
246.566	137.5
246.8	144.5
247.033	161.5
247.266	166.5
247.5	153.5
247.733	167.5
247.966	159.5
248.2	169.5
248.433	168.5
248.666	163.5
248.899	171.5
249.133	197.5
249.366	198.5
249.599	186.5
249.832	188.5
250.066	197.5
250.299	177.5
250.532	193.5
250.765	192.5
250.998	215.5
251.231	224.5
251.465	206.5
251.698	186.5
251.931	183.5
252.164	167.5
252.397	193.5
252.63	180.5
252.863	179.5
253.096	214.5
253.329	214.5
253.562	221.5
253.795	225.5
254.028	227.5
254.261	204.5
254.494	205.5
254.727	222.5
254.96	284.5
255.193	246.5
255.426	266.5
255.659	213.5
255.892	222.5
256.124	237.5
256.357	228.5
256.59	201.5
256.823	195.5
257.056	190.5
257.289	200.5
257.521	194.5
257.754	198.5
257.987	194.5
258.22	215.5
258.452	195.5
258.685	207.5
258.918	216.5
259.151	196.5
259.383	215.5
259.616	193.5
259.849	219.5
260.081	222.5
260.314	226.5
260.547	234.5
260.779	231.5
261.012	221.5
261.244	203.5
261.477	196.5
261.71	209.5
261.942	214.5
262.175	217.5
262.407	227.5
262.64	214.5
262.872	203.5
263.105	199.5
263.337	215.5
263.57	211.5
263.802	172.5
264.035	179.5
264.267	198.5
264.499	199.5
264.732	191.5
264.964	206.5
265.197	199.5
265.429	208.5
265.661	208.5
265.894	205.5
266.126	233.5
266.358	206.5
266.591	206.5
266.823	217.5
267.055	225.5
267.287	228.5
267.52	225.5
267.752	233.5
267.984	214.5
268.216	227.5
268.448	206.5
268.681	218.5
268.913	235.5
269.145	256.5
269.377	249.5
269.609	234.5
269.841	259.5
270.073	268.5
270.306	270.5
270.538	293.5
270.77	276.5
271.002	273.5
271.234	277.5
271.466	265.5
271.698	289.5
271.93	289.5
272.162	314.5
272.394	300.5
272.626	290.5
272.858	270.5
273.09	275.5
273.322	256.5
273.553	240.5
273.785	263.5
274.017	247.5
274.249	242.5
274.481	254.5
274.713	250.5
274.945	267.5
275.176	263.5
275.408	261.5
275.64	248.5
275.872	249.5
276.104	250.5
276.335	260.5
276.567	265.5
276.799	275.5
277.031	275.5
277.262	302.5
277.494	296.5
277.726	265.5
277.957	271.5
278.189	261.5
278.421	279.5
278.652	248.5
278.884	277.5
279.115	261.5
279.347	270.5
279.579	268.5
279.81	247.5
280.042	248.5
280.273	256.5
280.505	259.5
280.736	269.5
280.968	265.5
281.199	246.5
281.431	263.5
281.662	267.5
281.894	255.5
282.125	251.5
282.356	272.5
282.588	294.5
282.819	282.5
283.051	270.5
283.282	270.5
283.513	252.5
283.745	261.5
283.976	258.5
284.207	276.5
284.439	262.5
284.67	287.5
284.901	271.5
285.132	269.5
285.364	251.5
285.595	258.5
285.826	263.5
286.057	266.5
286.288	266.5
286.52	273.5
286.751	264.5
286.982	287.5
287.213	269.5
287.444	259.5
287.675	291.5
287.906	288.5
288.138	271.5
288.369	305.5
288.6	301.5
288.831	298.5
289.062	265.5
289.293	281.5
289.524	279.5
289.755	272.5
289.986	290.5
290.217	275.5
290.448	276.5
290.679	286.5
290.91	285.5
291.141	281.5
291.371	279.5
291.602	280.5
291.833	279.5
292.064	277.5
292.295	296.5
292.526	279.5
292.757	291.5
292.987	283.5
293.218	272.5
293.449	293.5
293.68	290.5
293.91	278.5
294.141	294.5
294.372	295.5
294.603	286.5
294.833	289.5
295.064	276.5
295.295	269.5
295.525	297.5
295.756	300.5
295.987	305.5
296.217	309.5
296.448	320.5
296.679	287.5
296.909	299.5
297.14	264.5
297.37	294.5
297.601	302.5
297.831	283.5
298.062	279.5
298.292	305.5
298.523	298.5
298.753	294.5
298.984	309.5
299.214	298.5
299.445	306.5
299.675	291.5
299.905	304.5
300.136	299.5
300.366	299.5
300.597	319.5
300.827	317.5
301.057	315.5
301.288	317.5
301.518	302.5
301.748	311.5
301.979	309.5
302.209	316.5
302.439	313.5
302.669	314.5
302.9	318.5
303.13	327.5
303.36	327.5
303.59	340.5
303.82	323.5
304.051	329.5
304.281	321.5
304.511	306.5
304.741	309.5
304.971	298.5
305.201	303.5
305.431	315.5
305.661	323.5
305.891	313.5
306.121	314.5
306.352	328.5
306.582	333.5
306.812	329.5
307.042	315.5
307.272	318.5
307.502	335.5
307.731	329.5
307.961	330.5
308.191	322.5
308.421	321.5
308.651	314.5
308.881	336.5
309.111	319.5
309.341	323.5
309.571	327.5
309.8	350.5
310.03	369.5
310.26	358.5
310.49	340.5
310.72	365.5
310.949	374.5
311.179	389.5
311.409	360.5
311.639	347.5
311.868	340.5
312.098	359.5
312.328	373.5
312.557	354.5
312.787	387.5
313.017	391.5
313.246	360.5
313.476	364.5
313.706	371.5
313.935	393.5
314.165	359.5
314.394	379.5
314.624	382.5
314.853	343.5
315.083	358.5
315.312	379.5
315.542	366.5
315.771	358.5
316.001	365.5
316.23	388.5
316.46	367.5
316.689	383.5
316.919	362.5
317.148	358.5
317.377	380.5
317.607	374.5
317.836	356.5
318.065	358.5
318.295	351.5
318.524	358.5
318.753	361.5
318.983	358.5
319.212	366.5
319.441	359.5
319.67	355.5
319.9	368.5
320.129	371.5
320.358	370.5
320.587	365.5
320.816	376.5
321.046	387.5
321.275	377.5
321.504	364.5
321.733	399.5
321.962	376.5
322.191	383.5
322.42	394.5
322.649	409.5
322.878	413.5
323.108	430.5
323.337	421.5
323.566	471.5
323.795	482.5
324.024	509.5
324.253	603.5
324.482	837.5
324.71	1277.5
324.939	1939.5
325.168	1685.5
325.397	844.5
325.626	592.5
325.855	490.5
326.084	462.5
326.313	454.5
326.542	468.5
326.77	497.5
326.999	579.5
327.228	754.5
327.457	1178.5
327.686	1498.5
327.914	973.5
328.143	623.5
328.372	562.5
328.6	525.5
328.829	515.5
329.058	531.5
329.287	539.5
329.515	500.5
329.744	477.5
329.972	469.5
330.201	480.5
330.43	500.5
330.658	529.5
330.887	541.5
331.115	547.5
331.344	491.5
331.572	462.5
331.801	455.5
332.03	470.5
332.258	458.5
332.486	456.5
332.715	433.5
332.943	419.5
333.172	440.5
333.4	452.5
333.629	459.5
333.857	457.5
334.085	466.5
334.314	479.5
334.542	492.5
334.771	513.5
334.999	473.5
335.227	474.5
335.455	452.5
335.684	445.5
335.912	457.5
336.14	454.5
336.369	456.5
336.597	426.5
336.825	427.5
337.053	467.5
337.281	442.5
337.51	440.5
337.738	433.5
337.966	428.5
338.194	437.5
338.422	441.5
338.65	424.5
338.878	431.5
339.106	424.5
339.334	409.5
339.562	407.5
339.79	399.5
340.018	411.5
340.246	422.5
340.474	433.5
340.702	421.5
340.93	445.5
341.158	422.5
341.386	428.5
341.614	438.5
341.842	437.5
342.07	416.5
342.298	421.5
342.526	413.5
342.754	422.5
342.981	410.5
343.209	403.5
343.437	414.5
343.665	423.5
343.893	443.5
344.12	448.5
344.348	439.5
344.576	438.5
344.804	430.5
345.031	456.5
345.259	441.5
345.487	434.5
345.714	425.5
345.942	424.5
346.17	419.5
346.397	425.5
346.625	402.5
346.853	415.5
347.08	430.5
347.308	412.5
347.535	414.5
347.763	419.5
347.99	436.5
348.218	423.5
348.445	423.5
348.673	421.5
348.9	427.5
349.128	427.5
349.355	410.5
349.583	406.5
349.81	382.5
350.037	399.5
350.265	410.5
350.492	396.5
350.72	407.5
350.947	404.5
351.174	419.5
351.402	428.5
351.629	413.5
351.856	395.5
352.083	408.5
352.311	429.5
352.538	438.5
352.765	422.5
352.992	412.5
353.22	404.5
353.447	404.5
353.674	393.5
353.901	396.5
354.128	406.5
354.355	404.5
354.583	388.5
354.81	406.5
355.037	393.5
355.264	379.5
355.491	412.5
355.718	401.5
355.945	392.5
356.172	401.5
356.399	392.5
356.626	407.5
356.853	395.5
357.08	391.5
357.307	397.5
357.534	393.5
357.761	394.5
357.988	385.5
358.215	394.5
358.441	387.5
358.668	392.5
358.895	401.5
359.122	394.5
359.349	405.5
359.576	412.5
359.802	443.5
360.029	464.5
360.256	459.5
360.483	460.5
360.709	409.5
360.936	424.5
361.163	412.5
361.39	423.5
361.616	415.5
361.843	417.5
362.07	405.5
362.296	399.5
362.523	406.5
362.749	422.5
362.976	386.5
363.203	388.5
363.429	393.5
363.656	404.5
363.882	390.5
364.109	400.5
364.335	403.5
364.562	409.5
364.788	410.5
365.015	410.5
365.241	395.5
365.468	403.5
365.694	421.5
365.92	421.5
366.147	410.5
366.373	389.5
366.599	410.5
366.826	397.5
367.052	398.5
367.278	421.5
367.505	407.5
367.731	407.5
367.957	395.5
368.184	412.5
368.41	409.5
368.636	430.5
368.862	409.5
369.089	423.5
369.315	418.5
369.541	419.5
369.767	425.5
369.993	412.5
370.219	417.5
370.445	429.5
370.672	411.5
370.898	420.5
371.124	417.5
371.35	410.5
371.576	415.5
371.802	418.5
372.028	413.5
372.254	432.5
372.48	417.5
372.706	420.5
372.932	435.5
373.158	421.5
373.384	426.5
373.61	422.5
373.835	426.5
374.061	419.5
374.287	425.5
374.513	405.5
374.739	413.5
374.965	423.5
375.191	428.5
375.416	425.5
375.642	432.5
375.868	433.5
376.094	427.5
376.319	439.5
376.545	410.5
376.771	421.5
376.997	410.5
377.222	418.5
377.448	426.5
377.674	413.5
377.899	414.5
378.125	401.5
378.35	413.5
378.576	419.5
378.802	401.5
379.027	399.5
379.253	408.5
379.478	399.5
379.704	405.5
379.929	417.5
380.155	427.5
380.38	417.5
380.606	435.5
380.831	415.5
381.057	428.5
381.282	428.5
381.507	440.5
381.733	413.5
381.958	411.5
382.184	422.5
382.409	421.5
382.634	433.5
382.86	423.5
383.085	434.5
383.31	423.5
383.535	439.5
383.761	453.5
383.986	445.5
384.211	443.5
384.436	447.5
384.662	454.5
384.887	453.5
385.112	460.5
385.337	455.5
385.562	447.5
385.787	449.5
386.013	447.5
386.238	463.5
386.463	461.5
386.688	470.5
386.913	453.5
387.138	458.5
387.363	454.5
387.588	447.5
387.813	435.5
388.038	447.5
388.263	458.5
388.488	485.5
388.713	460.5
388.938	472.5
389.163	447.5
389.387	471.5
389.612	458.5
389.837	437.5
390.062	467.5
390.287	446.5
390.512	463.5
390.736	476.5
390.961	463.5
391.186	457.5
391.411	478.5
391.636	478.5
391.86	475.5
392.085	513.5
392.31	459.5
392.534	483.5
392.759	484.5
392.984	467.5
393.208	475.5
393.433	497.5
393.658	497.5
393.882	475.5
394.107	465.5
394.331	473.5
394.556	472.5
394.78	454.5
395.005	467.5
395.229	471.5
395.454	478.5
395.678	471.5
395.903	494.5
396.127	526.5
396.352	526.5
396.576	476.5
396.801	492.5
397.025	519.5
397.249	505.5
397.474	493.5
397.698	490.5
397.922	510.5
398.147	489.5
398.371	529.5
398.595	525.5
398.82	531.5
399.044	550.5
399.268	558.5
399.492	599.5
399.717	623.5
399.941	644.5
400.165	659.5
400.389	693.5
400.613	633.5
400.837	571.5
401.062	579.5
401.286	562.5
401.51	549.5
401.734	549.5
401.958	554.5
402.182	552.5
402.406	579.5
402.63	558.5
402.854	542.5
403.078	568.5
403.302	572.5
403.526	569.5
403.75	570.5
403.974	559.5
404.198	549.5
404.422	565.5
404.645	569.5
404.869	580.5
405.093	616.5
405.317	630.5
405.541	663.5
405.765	618.5
405.988	618.5
406.212	622.5
406.436	636.5
406.66	629.5
406.883	593.5
407.107	638.5
407.331	678.5
407.555	743.5
407.778	748.5
408.002	672.5
408.226	649.5
408.449	645.5
408.673	616.5
408.896	635.5
409.12	683.5
409.344	654.5
409.567	577.5
409.791	555.5
410.014	572.5
410.238	550.5
410.461	551.5
410.685	576.5
410.908	563.5
411.132	625.5
411.355	651.5
411.578	630.5
411.802	570.5
412.025	537.5
412.249	555.5
412.472	587.5
412.695	618.5
412.919	609.5
413.142	579.5
413.365	557.5
413.589	543.5
413.812	543.5
414.035	557.5
414.258	531.5
414.482	526.5
414.705	537.5
414.928	536.5
415.151	536.5
415.374	525.5
415.597	552.5
415.821	535.5
416.044	539.5
416.267	534.5
416.49	530.5
416.713	541.5
416.936	509.5
417.159	533.5
417.382	533.5
417.605	539.5
417.828	526.5
418.051	540.5
418.274	527.5
418.497	523.5
418.72	543.5
418.943	533.5
419.166	547.5
419.389	579.5
419.611	556.5
419.834	569.5
420.057	580.5
420.28	572.5
420.503	555.5
420.726	565.5
420.948	588.5
421.171	606.5
421.394	643.5
421.617	592.5
421.839	559.5
422.062	549.5
422.285	547.5
422.507	621.5
422.73	717.5
422.953	685.5
423.175	593.5
423.398	585.5
423.621	593.5
423.843	581.5
424.066	591.5
424.288	593.5
424.511	614.5
424.733	662.5
424.956	740.5
425.178	717.5
425.401	700.5
425.623	746.5
425.846	642.5
426.068	585.5
426.291	571.5
426.513	569.5
426.735	578.5
426.958	635.5
427.18	723.5
427.402	853.5
427.625	924.5
427.847	782.5
428.069	706.5
428.292	615.5
428.514	579.5
428.736	560.5
428.958	554.5
429.181	548.5
429.403	530.5
429.625	521.5
429.847	591.5
430.069	629.5
430.292	666.5
430.514	573.5
430.736	569.5
430.958	552.5
431.18	531.5
431.402	533.5
431.624	519.5
431.846	527.5
432.068	515.5
432.29	546.5
432.512	513.5
432.734	542.5
432.956	540.5
433.178	546.5
433.4	547.5
433.622	518.5
433.844	524.5
434.066	526.5
434.287	507.5
434.509	529.5
434.731	542.5
434.953	556.5
435.175	552.5
435.397	586.5
435.618	604.5
435.84	642.5
436.062	729.5
436.284	805.5
436.505	666.5
436.727	586.5
436.949	562.5
437.17	557.5
437.392	565.5
437.614	569.5
437.835	578.5
438.057	689.5
438.278	796.5
438.5	789.5
438.721	829.5
438.943	835.5
439.165	661.5
439.386	586.5
439.608	606.5
439.829	595.5
440.05	632.5
440.272	652.5
440.493	613.5
440.715	588.5
440.936	572.5
441.158	542.5
441.379	563.5
441.6	569.5
441.822	605.5
442.043	615.5
442.264	705.5
442.486	777.5
442.707	644.5
442.928	613.5
443.149	620.5
443.371	629.5
443.592	652.5
443.813	775.5
444.034	862.5
444.255	711.5
444.476	632.5
444.698	612.5
444.919	595.5
445.14	703.5
445.361	629.5
445.582	628.5
445.803	692.5
446.024	798.5
446.245	834.5
446.466	734.5
446.687	639.5
446.908	580.5
447.129	574.5
447.35	544.5
447.571	547.5
447.792	522.5
448.013	542.5
448.234	567.5
448.455	613.5
448.675	723.5
448.896	821.5
449.117	689.5
449.338	671.5
449.559	784.5
449.779	871.5
450	719.5
450.221	607.5
450.442	539.5
450.662	522.5
450.883	534.5
451.104	556.5
451.324	547.5
451.545	542.5
451.766	515.5
451.986	485.5
452.207	486.5
452.428	472.5
452.648	480.5
452.869	491.5
453.089	486.5
453.31	501.5
453.53	505.5
453.751	463.5
453.971	493.5
454.192	506.5
454.412	476.5
454.633	493.5
454.853	504.5
455.073	470.5
455.294	531.5
455.514	574.5
455.734	557.5
455.955	487.5
456.175	467.5
456.395	449.5
456.616	453.5
456.836	454.5
457.056	461.5
457.276	451.5
457.497	477.5
457.717	464.5
457.937	463.5
458.157	497.5
458.377	499.5
458.598	524.5
458.818	566.5
459.038	638.5
459.258	646.5
459.478	573.5
459.698	538.5
459.918	525.5
460.138	518.5
460.358	543.5
460.578	531.5
460.798	532.5
461.018	551.5
461.238	556.5
461.458	523.5
461.678	520.5
461.898	525.5
462.118	530.5
462.338	550.5
462.558	564.5
462.777	566.5
462.997	589.5
463.217	607.5
463.437	603.5
463.657	584.5
463.876	572.5
464.096	571.5
464.316	576.5
464.536	584.5
464.755	570.5
464.975	575.5
465.195	609.5
465.414	658.5
465.634	602.5
465.854	567.5
466.073	539.5
466.293	518.5
466.512	489.5
466.732	513.5
466.951	508.5
467.171	504.5
467.391	514.5
467.61	492.5
467.829	542.5
468.049	517.5
468.268	506.5
468.488	492.5
468.707	493.5
468.927	473.5
469.146	498.5
469.365	498.5
469.585	511.5
469.804	510.5
470.023	504.5
470.243	506.5
470.462	531.5
470.681	545.5
470.901	534.5
471.12	519.5
471.339	505.5
471.558	505.5
471.777	514.5
471.997	506.5
472.216	520.5
472.435	541.5
472.654	518.5
472.873	506.5
473.092	514.5
473.311	496.5
473.53	517.5
473.749	503.5
473.968	571.5
474.187	651.5
474.406	672.5
474.625	577.5
474.844	513.5
475.063	516.5
475.282	520.5
475.501	536.5
475.72	536.5
475.939	537.5
476.158	513.5
476.377	548.5
476.596	537.5
476.814	539.5
477.033	533.5
477.252	539.5
477.471	538.5
477.69	565.5
477.908	567.5
478.127	561.5
478.346	567.5
478.564	579.5
478.783	580.5
479.002	571.5
479.22	600.5
479.439	620.5
479.658	615.5
479.876	618.5
480.095	620.5
480.313	653.5
480.532	645.5
480.751	644.5
480.969	662.5
481.188	684.5
481.406	707.5
481.624	675.5
481.843	616.5
482.061	609.5
482.28	603.5
482.498	615.5
482.717	597.5
482.935	622.5
483.153	613.5
483.372	601.5
483.59	604.5
483.808	598.5
484.027	604.5
484.245	621.5
484.463	613.5
484.681	634.5
484.9	633.5
485.118	588.5
485.336	629.5
485.554	633.5
485.772	614.5
485.99	649.5
486.209	638.5
486.427	603.5
486.645	643.5
486.863	634.5
487.081	646.5
487.299	632.5
487.517	641.5
487.735	649.5
487.953	651.5
488.171	660.5
488.389	656.5
488.607	635.5
488.825	652.5
489.043	635.5
489.261	662.5
489.479	648.5
489.696	633.5
489.914	669.5
490.132	668.5
490.35	677.5
490.568	698.5
490.786	693.5
491.003	706.5
491.221	723.5
491.439	737.5
491.657	733.5
491.874	759.5
492.092	741.5
492.31	736.5
492.527	723.5
492.745	733.5
492.963	762.5
493.18	748.5
493.398	747.5
493.615	734.5
493.833	759.5
494.05	774.5
494.268	774.5
494.485	783.5
494.703	749.5
494.92	747.5
495.138	767.5
495.355	765.5
495.573	775.5
495.79	759.5
496.008	774.5
496.225	753.5
496.442	765.5
496.66	780.5
496.877	787.5
497.094	787.5
497.312	790.5
497.529	797.5
497.746	802.5
497.963	795.5
498.181	831.5
498.398	875.5
498.615	887.5
498.832	907.5
499.049	874.5
499.267	945.5
499.484	977.5
499.701	1012.5
499.918	1011.5
500.135	1078.5
500.352	1131.5
500.569	1117.5
500.786	1118.5
501.003	1114.5
501.22	1098.5
501.437	1053.5
501.654	1034.5
501.871	1005.5
502.088	969.5
502.305	933.5
502.522	910.5
502.739	888.5
502.956	818.5
503.172	813.5
503.389	819.5
503.606	814.5
503.823	822.5
504.04	794.5
504.256	789.5
504.473	788.5
504.69	811.5
504.907	783.5
505.123	744.5
505.34	733.5
505.557	739.5
505.773	770.5
505.99	761.5
506.207	736.5
506.423	718.5
506.64	719.5
506.856	721.5
507.073	710.5
507.289	702.5
507.506	733.5
507.722	705.5
507.939	731.5
508.155	695.5
508.372	693.5
508.588	673.5
508.805	691.5
509.021	691.5
509.238	709.5
509.454	703.5
509.67	698.5
509.887	687.5
510.103	684.5
510.319	659.5
510.536	743.5
510.752	1121.5
510.968	939.5
511.184	663.5
511.401	661.5
511.617	650.5
511.833	659.5
512.049	652.5
512.265	647.5
512.481	645.5
512.698	628.5
512.914	636.5
513.13	638.5
513.346	631.5
513.562	633.5
513.778	641.5
513.994	654.5
514.21	666.5
514.426	669.5
514.642	717.5
514.858	717.5
515.074	754.5
515.29	842.5
515.506	1155.5
515.721	1015.5
515.937	767.5
516.153	704.5
516.369	669.5
516.585	664.5
516.801	681.5
517.016	678.5
517.232	670.5
517.448	707.5
517.664	692.5
517.879	677.5
518.095	690.5
518.311	691.5
518.527	674.5
518.742	653.5
518.958	653.5
519.173	663.5
519.389	659.5
519.605	644.5
