Data from 1966.PennyLincolnUp.Lamp.En5.5.200Scan.071719.P1.Scan2.head_HRD10591_14-16-37-043.txt Node
Date: Thu Jul 18 14:16:37 EDT 2019
User: cochatt
Spectrometer: HR+D1059
Trigger mode: 1
Integration Time (sec): 1.000000E-1
Scans to average: 1
Electric dark correction enabled: true
Nonlinearity correction enabled: false
Boxcar width: 0
XAxis mode: Wavelengths
Number of Pixels in Spectrum: 2048
>>>>>Begin Spectral Data<<<<<
223.165	-10.19
223.4	-10.19
223.635	-10.19
223.869	-15.19
224.104	-12.19
224.338	-6.19
224.573	-10.19
224.808	-19.19
225.042	-7.19
225.277	-12.19
225.511	-14.19
225.746	8.81
225.98	11.81
226.215	5.81
226.449	17.81
226.683	11.81
226.918	28.81
227.152	21.81
227.387	29.81
227.621	32.81
227.856	36.81
228.09	40.81
228.324	49.81
228.559	40.81
228.793	63.81
229.027	85.81
229.262	97.81
229.496	108.81
229.73	114.81
229.964	129.81
230.199	107.81
230.433	90.81
230.667	113.81
230.901	98.81
231.136	104.81
231.37	92.81
231.604	99.81
231.838	111.81
232.072	111.81
232.306	102.81
232.541	109.81
232.775	117.81
233.009	124.81
233.243	89.81
233.477	104.81
233.711	116.81
233.945	113.81
234.179	101.81
234.413	108.81
234.647	119.81
234.881	111.81
235.115	107.81
235.349	114.81
235.583	105.81
235.817	115.81
236.051	110.81
236.285	117.81
236.519	119.81
236.753	100.81
236.987	127.81
237.221	154.81
237.455	188.81
237.689	145.81
237.922	128.81
238.156	108.81
238.39	119.81
238.624	121.81
238.858	105.81
239.091	111.81
239.325	108.81
239.559	121.81
239.793	107.81
240.027	131.81
240.26	133.81
240.494	141.81
240.728	126.81
240.961	127.81
241.195	133.81
241.429	136.81
241.662	132.81
241.896	121.81
242.13	123.81
242.363	131.81
242.597	123.81
242.83	124.81
243.064	125.81
243.298	125.81
243.531	111.81
243.765	127.81
243.998	120.81
244.232	135.81
244.465	127.81
244.699	143.81
244.932	133.81
245.166	138.81
245.399	116.81
245.633	126.81
245.866	132.81
246.099	139.81
246.333	134.81
246.566	129.81
246.8	141.81
247.033	137.81
247.266	135.81
247.5	147.81
247.733	148.81
247.966	153.81
248.2	163.81
248.433	155.81
248.666	159.81
248.899	169.81
249.133	163.81
249.366	179.81
249.599	171.81
249.832	162.81
250.066	161.81
250.299	164.81
250.532	172.81
250.765	187.81
250.998	177.81
251.231	196.81
251.465	189.81
251.698	193.81
251.931	164.81
252.164	177.81
252.397	167.81
252.63	180.81
252.863	179.81
253.096	201.81
253.329	204.81
253.562	196.81
253.795	175.81
254.028	187.81
254.261	188.81
254.494	187.81
254.727	213.81
254.96	229.81
255.193	231.81
255.426	218.81
255.659	211.81
255.892	209.81
256.124	192.81
256.357	192.81
256.59	193.81
256.823	189.81
257.056	183.81
257.289	188.81
257.521	187.81
257.754	192.81
257.987	192.81
258.22	191.81
258.452	175.81
258.685	187.81
258.918	197.81
259.151	190.81
259.383	194.81
259.616	195.81
259.849	209.81
260.081	202.81
260.314	220.81
260.547	205.81
260.779	221.81
261.012	210.81
261.244	201.81
261.477	181.81
261.71	191.81
261.942	188.81
262.175	217.81
262.407	212.81
262.64	186.81
262.872	197.81
263.105	204.81
263.337	216.81
263.57	184.81
263.802	191.81
264.035	191.81
264.267	196.81
264.499	177.81
264.732	185.81
264.964	188.81
265.197	191.81
265.429	197.81
265.661	172.81
265.894	191.81
266.126	198.81
266.358	195.81
266.591	219.81
266.823	217.81
267.055	184.81
267.287	223.81
267.52	185.81
267.752	199.81
267.984	209.81
268.216	209.81
268.448	209.81
268.681	202.81
268.913	220.81
269.145	236.81
269.377	228.81
269.609	252.81
269.841	245.81
270.073	234.81
270.306	251.81
270.538	243.81
270.77	259.81
271.002	230.81
271.234	233.81
271.466	243.81
271.698	265.81
271.93	278.81
272.162	265.81
272.394	258.81
272.626	257.81
272.858	229.81
273.09	225.81
273.322	236.81
273.553	251.81
273.785	230.81
274.017	217.81
274.249	231.81
274.481	240.81
274.713	218.81
274.945	230.81
275.176	228.81
275.408	257.81
275.64	241.81
275.872	218.81
276.104	236.81
276.335	233.81
276.567	242.81
276.799	239.81
277.031	245.81
277.262	256.81
277.494	257.81
277.726	275.81
277.957	228.81
278.189	244.81
278.421	235.81
278.652	231.81
278.884	231.81
279.115	229.81
279.347	235.81
279.579	243.81
279.81	234.81
280.042	225.81
280.273	233.81
280.505	236.81
280.736	226.81
280.968	246.81
281.199	240.81
281.431	245.81
281.662	241.81
281.894	241.81
282.125	249.81
282.356	248.81
282.588	264.81
282.819	259.81
283.051	251.81
283.282	242.81
283.513	239.81
283.745	267.81
283.976	242.81
284.207	248.81
284.439	249.81
284.67	233.81
284.901	240.81
285.132	269.81
285.364	257.81
285.595	255.81
285.826	237.81
286.057	259.81
286.288	233.81
286.52	248.81
286.751	267.81
286.982	262.81
287.213	248.81
287.444	251.81
287.675	265.81
287.906	273.81
288.138	251.81
288.369	257.81
288.6	250.81
288.831	273.81
289.062	267.81
289.293	271.81
289.524	256.81
289.755	247.81
289.986	267.81
290.217	262.81
290.448	266.81
290.679	265.81
290.91	256.81
291.141	251.81
291.371	272.81
291.602	260.81
291.833	257.81
292.064	259.81
292.295	270.81
292.526	233.81
292.757	277.81
292.987	260.81
293.218	257.81
293.449	255.81
293.68	255.81
293.91	268.81
294.141	262.81
294.372	255.81
294.603	266.81
294.833	255.81
295.064	260.81
295.295	273.81
295.525	260.81
295.756	257.81
295.987	279.81
296.217	268.81
296.448	269.81
296.679	268.81
296.909	273.81
297.14	255.81
297.37	270.81
297.601	269.81
297.831	268.81
298.062	277.81
298.292	271.81
298.523	277.81
298.753	282.81
298.984	271.81
299.214	273.81
299.445	271.81
299.675	270.81
299.905	291.81
300.136	257.81
300.366	273.81
300.597	284.81
300.827	277.81
301.057	291.81
301.288	301.81
301.518	280.81
301.748	289.81
301.979	292.81
302.209	292.81
302.439	314.81
302.669	290.81
302.9	276.81
303.13	288.81
303.36	289.81
303.59	289.81
303.82	304.81
304.051	288.81
304.281	280.81
304.511	299.81
304.741	290.81
304.971	290.81
305.201	305.81
305.431	287.81
305.661	299.81
305.891	282.81
306.121	294.81
306.352	310.81
306.582	281.81
306.812	295.81
307.042	301.81
307.272	306.81
307.502	285.81
307.731	298.81
307.961	318.81
308.191	291.81
308.421	292.81
308.651	294.81
308.881	300.81
309.111	305.81
309.341	292.81
309.571	313.81
309.8	289.81
310.03	309.81
310.26	329.81
310.49	335.81
310.72	332.81
310.949	340.81
311.179	349.81
311.409	329.81
311.639	331.81
311.868	311.81
312.098	320.81
312.328	313.81
312.557	343.81
312.787	339.81
313.017	342.81
313.246	327.81
313.476	313.81
313.706	335.81
313.935	330.81
314.165	361.81
314.394	345.81
314.624	350.81
314.853	338.81
315.083	345.81
315.312	319.81
315.542	331.81
315.771	331.81
316.001	331.81
316.23	327.81
316.46	318.81
316.689	339.81
316.919	342.81
317.148	342.81
317.377	332.81
317.607	320.81
317.836	342.81
318.065	310.81
318.295	320.81
318.524	320.81
318.753	333.81
318.983	359.81
319.212	341.81
319.441	336.81
319.67	347.81
319.9	329.81
320.129	344.81
320.358	355.81
320.587	346.81
320.816	336.81
321.046	354.81
321.275	346.81
321.504	340.81
321.733	351.81
321.962	352.81
322.191	367.81
322.42	363.81
322.649	371.81
322.878	380.81
323.108	384.81
323.337	380.81
323.566	391.81
323.795	433.81
324.024	455.81
324.253	522.81
324.482	715.81
324.71	1108.81
324.939	1641.81
325.168	1413.81
325.397	684.81
325.626	470.81
325.855	426.81
326.084	392.81
326.313	411.81
326.542	425.81
326.77	442.81
326.999	490.81
327.228	675.81
327.457	1004.81
327.686	1246.81
327.914	813.81
328.143	556.81
328.372	470.81
328.6	482.81
328.829	448.81
329.058	451.81
329.287	462.81
329.515	458.81
329.744	396.81
329.972	391.81
330.201	431.81
330.43	465.81
330.658	483.81
330.887	489.81
331.115	459.81
331.344	411.81
331.572	413.81
331.801	418.81
332.03	412.81
332.258	405.81
332.486	416.81
332.715	405.81
332.943	404.81
333.172	389.81
333.4	412.81
333.629	412.81
333.857	420.81
334.085	413.81
334.314	422.81
334.542	447.81
334.771	469.81
334.999	425.81
335.227	425.81
335.455	412.81
335.684	413.81
335.912	386.81
336.14	405.81
336.369	410.81
336.597	408.81
336.825	407.81
337.053	407.81
337.281	405.81
337.51	390.81
337.738	413.81
337.966	396.81
338.194	391.81
338.422	404.81
338.65	383.81
338.878	401.81
339.106	401.81
339.334	408.81
339.562	397.81
339.79	381.81
340.018	370.81
340.246	383.81
340.474	372.81
340.702	386.81
340.93	391.81
341.158	391.81
341.386	390.81
341.614	387.81
341.842	379.81
342.07	367.81
342.298	389.81
342.526	390.81
342.754	407.81
342.981	372.81
343.209	382.81
343.437	403.81
343.665	381.81
343.893	398.81
344.12	397.81
344.348	408.81
344.576	421.81
344.804	411.81
345.031	402.81
345.259	416.81
345.487	389.81
345.714	409.81
345.942	389.81
346.17	375.81
346.397	360.81
346.625	387.81
346.853	373.81
347.08	376.81
347.308	376.81
347.535	387.81
347.763	383.81
347.99	387.81
348.218	406.81
348.445	391.81
348.673	389.81
348.9	379.81
349.128	380.81
349.355	375.81
349.583	370.81
349.81	375.81
350.037	366.81
350.265	362.81
350.492	351.81
350.72	380.81
350.947	385.81
351.174	390.81
351.402	376.81
351.629	380.81
351.856	372.81
352.083	388.81
352.311	395.81
352.538	393.81
352.765	381.81
352.992	372.81
353.22	368.81
353.447	377.81
353.674	382.81
353.901	372.81
354.128	348.81
354.355	357.81
354.583	364.81
354.81	370.81
355.037	357.81
355.264	377.81
355.491	355.81
355.718	369.81
355.945	375.81
356.172	362.81
356.399	361.81
356.626	371.81
356.853	369.81
357.08	364.81
357.307	367.81
357.534	358.81
357.761	356.81
357.988	356.81
358.215	354.81
358.441	375.81
358.668	367.81
358.895	360.81
359.122	383.81
359.349	381.81
359.576	379.81
359.802	397.81
360.029	433.81
360.256	422.81
360.483	407.81
360.709	373.81
360.936	379.81
361.163	396.81
361.39	382.81
361.616	394.81
361.843	386.81
362.07	365.81
362.296	383.81
362.523	386.81
362.749	389.81
362.976	387.81
363.203	380.81
363.429	383.81
363.656	375.81
363.882	376.81
364.109	397.81
364.335	341.81
364.562	371.81
364.788	351.81
365.015	372.81
365.241	379.81
365.468	393.81
365.694	384.81
365.92	361.81
366.147	392.81
366.373	369.81
366.599	354.81
366.826	383.81
367.052	378.81
367.278	369.81
367.505	391.81
367.731	374.81
367.957	380.81
368.184	370.81
368.41	384.81
368.636	391.81
368.862	394.81
369.089	381.81
369.315	360.81
369.541	364.81
369.767	380.81
369.993	397.81
370.219	390.81
370.445	384.81
370.672	395.81
370.898	379.81
371.124	377.81
371.35	366.81
371.576	380.81
371.802	404.81
372.028	393.81
372.254	397.81
372.48	405.81
372.706	393.81
372.932	377.81
373.158	386.81
373.384	407.81
373.61	385.81
373.835	401.81
374.061	394.81
374.287	388.81
374.513	399.81
374.739	401.81
374.965	393.81
375.191	379.81
375.416	415.81
375.642	393.81
375.868	398.81
376.094	395.81
376.319	383.81
376.545	388.81
376.771	380.81
376.997	391.81
377.222	385.81
377.448	386.81
377.674	391.81
377.899	401.81
378.125	395.81
378.35	376.81
378.576	381.81
378.802	377.81
379.027	387.81
379.253	385.81
379.478	379.81
379.704	389.81
379.929	386.81
380.155	373.81
380.38	405.81
380.606	398.81
380.831	393.81
381.057	419.81
381.282	415.81
381.507	388.81
381.733	385.81
381.958	409.81
382.184	417.81
382.409	402.81
382.634	395.81
382.86	422.81
383.085	404.81
383.31	400.81
383.535	435.81
383.761	420.81
383.986	413.81
384.211	398.81
384.436	429.81
384.662	434.81
384.887	421.81
385.112	439.81
385.337	410.81
385.562	420.81
385.787	432.81
386.013	456.81
386.238	447.81
386.463	452.81
386.688	437.81
386.913	432.81
387.138	419.81
387.363	439.81
387.588	426.81
387.813	422.81
388.038	435.81
388.263	437.81
388.488	436.81
388.713	455.81
388.938	423.81
389.163	433.81
389.387	414.81
389.612	437.81
389.837	418.81
390.062	437.81
390.287	423.81
390.512	415.81
390.736	428.81
390.961	440.81
391.186	456.81
391.411	443.81
391.636	450.81
391.86	437.81
392.085	437.81
392.31	460.81
392.534	438.81
392.759	447.81
392.984	447.81
393.208	459.81
393.433	484.81
393.658	469.81
393.882	456.81
394.107	455.81
394.331	446.81
394.556	443.81
394.78	440.81
395.005	452.81
395.229	466.81
395.454	453.81
395.678	459.81
395.903	460.81
396.127	500.81
396.352	489.81
396.576	475.81
396.801	474.81
397.025	466.81
397.249	480.81
397.474	467.81
397.698	478.81
397.922	479.81
398.147	486.81
398.371	500.81
398.595	484.81
398.82	515.81
399.044	505.81
399.268	521.81
399.492	549.81
399.717	602.81
399.941	600.81
400.165	616.81
400.389	617.81
400.613	582.81
400.837	552.81
401.062	528.81
401.286	511.81
401.51	495.81
401.734	513.81
401.958	510.81
402.182	525.81
402.406	519.81
402.63	517.81
402.854	512.81
403.078	517.81
403.302	499.81
403.526	520.81
403.75	516.81
403.974	549.81
404.198	521.81
404.422	545.81
404.645	523.81
404.869	535.81
405.093	562.81
405.317	571.81
405.541	623.81
405.765	591.81
405.988	531.81
406.212	563.81
406.436	565.81
406.66	572.81
406.883	567.81
407.107	589.81
407.331	625.81
407.555	682.81
407.778	698.81
408.002	638.81
408.226	595.81
408.449	573.81
408.673	569.81
408.896	592.81
409.12	623.81
409.344	603.81
409.567	543.81
409.791	550.81
410.014	537.81
410.238	527.81
410.461	517.81
410.685	526.81
410.908	537.81
411.132	602.81
411.355	605.81
411.578	577.81
411.802	553.81
412.025	516.81
412.249	550.81
412.472	555.81
412.695	594.81
412.919	545.81
413.142	515.81
413.365	513.81
413.589	516.81
413.812	518.81
414.035	500.81
414.258	505.81
414.482	511.81
414.705	500.81
414.928	491.81
415.151	481.81
415.374	505.81
415.597	511.81
415.821	512.81
416.044	501.81
416.267	499.81
416.49	519.81
416.713	489.81
416.936	507.81
417.159	502.81
417.382	507.81
417.605	498.81
417.828	505.81
418.051	516.81
418.274	504.81
418.497	485.81
418.72	487.81
418.943	483.81
419.166	512.81
419.389	539.81
419.611	539.81
419.834	535.81
420.057	522.81
420.28	509.81
420.503	496.81
420.726	491.81
420.948	514.81
421.171	562.81
421.394	578.81
421.617	532.81
421.839	531.81
422.062	515.81
422.285	517.81
422.507	597.81
422.73	660.81
422.953	633.81
423.175	548.81
423.398	531.81
423.621	552.81
423.843	565.81
424.066	553.81
424.288	529.81
424.511	552.81
424.733	604.81
424.956	662.81
425.178	652.81
425.401	655.81
425.623	675.81
425.846	587.81
426.068	560.81
426.291	533.81
426.513	550.81
426.735	553.81
426.958	607.81
427.18	656.81
427.402	798.81
427.625	852.81
427.847	737.81
428.069	651.81
428.292	597.81
428.514	527.81
428.736	516.81
428.958	532.81
429.181	506.81
429.403	515.81
429.625	496.81
429.847	528.81
430.069	592.81
430.292	596.81
430.514	514.81
430.736	492.81
430.958	509.81
431.18	471.81
431.402	477.81
431.624	475.81
431.846	469.81
432.068	479.81
432.29	503.81
432.512	492.81
432.734	491.81
432.956	487.81
433.178	483.81
433.4	511.81
433.622	487.81
433.844	499.81
434.066	484.81
434.287	499.81
434.509	505.81
434.731	515.81
434.953	514.81
435.175	507.81
435.397	551.81
435.618	561.81
435.84	587.81
436.062	662.81
436.284	726.81
436.505	610.81
436.727	562.81
436.949	514.81
437.17	530.81
437.392	518.81
437.614	539.81
437.835	514.81
438.057	620.81
438.278	696.81
438.5	707.81
438.721	769.81
438.943	775.81
439.165	594.81
439.386	561.81
439.608	567.81
439.829	540.81
440.05	569.81
440.272	607.81
440.493	587.81
440.715	528.81
440.936	480.81
441.158	522.81
441.379	509.81
441.6	537.81
441.822	547.81
442.043	541.81
442.264	679.81
442.486	686.81
442.707	599.81
442.928	571.81
443.149	572.81
443.371	559.81
443.592	598.81
443.813	713.81
444.034	777.81
444.255	614.81
444.476	582.81
444.698	575.81
444.919	570.81
445.14	643.81
445.361	625.81
445.582	606.81
445.803	639.81
446.024	731.81
446.245	731.81
446.466	653.81
446.687	581.81
446.908	536.81
447.129	492.81
447.35	526.81
447.571	499.81
447.792	495.81
448.013	519.81
448.234	523.81
448.455	552.81
448.675	665.81
448.896	761.81
449.117	641.81
449.338	612.81
449.559	715.81
449.779	831.81
450	653.81
450.221	535.81
450.442	516.81
450.662	488.81
450.883	497.81
451.104	497.81
451.324	483.81
451.545	461.81
451.766	468.81
451.986	443.81
452.207	471.81
452.428	434.81
452.648	441.81
452.869	433.81
453.089	456.81
453.31	455.81
453.53	458.81
453.751	446.81
453.971	451.81
454.192	485.81
454.412	459.81
454.633	455.81
454.853	457.81
455.073	439.81
455.294	453.81
455.514	514.81
455.734	523.81
455.955	443.81
456.175	426.81
456.395	428.81
456.616	457.81
456.836	436.81
457.056	424.81
457.276	445.81
457.497	456.81
457.717	416.81
457.937	442.81
458.157	444.81
458.377	445.81
458.598	461.81
458.818	490.81
459.038	564.81
459.258	608.81
459.478	525.81
459.698	473.81
459.918	483.81
460.138	479.81
460.358	497.81
460.578	514.81
460.798	499.81
461.018	500.81
461.238	501.81
461.458	499.81
461.678	478.81
461.898	511.81
462.118	525.81
462.338	537.81
462.558	526.81
462.777	541.81
462.997	568.81
463.217	566.81
463.437	553.81
463.657	549.81
463.876	534.81
464.096	532.81
464.316	540.81
464.536	534.81
464.755	557.81
464.975	545.81
465.195	560.81
465.414	589.81
465.634	575.81
465.854	510.81
466.073	519.81
466.293	476.81
466.512	493.81
466.732	460.81
466.951	476.81
467.171	468.81
467.391	458.81
467.61	492.81
467.829	499.81
468.049	473.81
468.268	466.81
468.488	455.81
468.707	459.81
468.927	454.81
469.146	461.81
469.365	460.81
469.585	451.81
469.804	471.81
470.023	467.81
470.243	479.81
470.462	477.81
470.681	486.81
470.901	487.81
471.12	473.81
471.339	482.81
471.558	485.81
471.777	479.81
471.997	466.81
472.216	481.81
472.435	533.81
472.654	465.81
472.873	470.81
473.092	473.81
473.311	478.81
473.53	459.81
473.749	478.81
473.968	518.81
474.187	598.81
474.406	639.81
474.625	492.81
474.844	474.81
475.063	481.81
475.282	495.81
475.501	492.81
475.72	504.81
475.939	487.81
476.158	481.81
476.377	507.81
476.596	483.81
476.814	509.81
477.033	526.81
477.252	521.81
477.471	535.81
477.69	525.81
477.908	539.81
478.127	521.81
478.346	523.81
478.564	548.81
478.783	531.81
479.002	569.81
479.22	533.81
479.439	581.81
479.658	555.81
479.876	593.81
480.095	562.81
480.313	600.81
480.532	617.81
480.751	590.81
480.969	611.81
481.188	638.81
481.406	639.81
481.624	600.81
481.843	582.81
482.061	571.81
482.28	567.81
482.498	587.81
482.717	583.81
482.935	569.81
483.153	560.81
483.372	554.81
483.59	556.81
483.808	561.81
484.027	553.81
484.245	568.81
484.463	564.81
484.681	566.81
484.9	553.81
485.118	596.81
485.336	587.81
485.554	574.81
485.772	598.81
485.99	583.81
486.209	580.81
486.427	605.81
486.645	604.81
486.863	627.81
487.081	623.81
487.299	587.81
487.517	594.81
487.735	575.81
487.953	601.81
488.171	613.81
488.389	603.81
488.607	645.81
488.825	598.81
489.043	603.81
489.261	594.81
489.479	615.81
489.696	623.81
489.914	618.81
490.132	614.81
490.35	624.81
490.568	610.81
490.786	645.81
491.003	666.81
491.221	658.81
491.439	664.81
491.657	673.81
491.874	692.81
492.092	665.81
492.31	652.81
492.527	676.81
492.745	687.81
492.963	675.81
493.18	704.81
493.398	707.81
493.615	716.81
493.833	681.81
494.05	690.81
494.268	680.81
494.485	693.81
494.703	689.81
494.92	681.81
495.138	688.81
495.355	709.81
495.573	688.81
495.79	707.81
496.008	743.81
496.225	731.81
496.442	708.81
496.66	725.81
496.877	723.81
497.094	722.81
497.312	728.81
497.529	728.81
497.746	740.81
497.963	773.81
498.181	775.81
498.398	791.81
498.615	799.81
498.832	795.81
499.049	843.81
499.267	857.81
499.484	924.81
499.701	891.81
499.918	954.81
500.135	1003.81
500.352	1053.81
500.569	1050.81
500.786	1084.81
501.003	1045.81
501.22	1007.81
501.437	964.81
501.654	927.81
501.871	939.81
