Data from 1966.PennyLincolnUp.Lamp.En5.5.200Scan.071719.P1._HRD10591_14-14-52-914.txt Node
Date: Thu Jul 18 14:14:52 EDT 2019
User: cochatt
Spectrometer: HR+D1059
Trigger mode: 1
Integration Time (sec): 1.000000E-1
Scans to average: 1
Electric dark correction enabled: true
Nonlinearity correction enabled: false
Boxcar width: 0
XAxis mode: Wavelengths
Number of Pixels in Spectrum: 2048
>>>>>Begin Spectral Data<<<<<
223.165	-22.69
223.4	-22.69
223.635	-22.69
223.869	-19.69
224.104	-20.69
224.338	-7.69
224.573	-11.69
224.808	-9.69
225.042	-6.69
225.277	-19.69
225.511	-10.69
225.746	-5.69
225.98	17.31
226.215	26.31
226.449	14.31
226.683	26.31
226.918	36.31
227.152	14.31
227.387	24.31
227.621	29.31
227.856	50.31
228.09	43.31
228.324	59.31
228.559	52.31
228.793	48.31
229.027	74.31
229.262	58.31
229.496	88.31
229.73	106.31
229.964	119.31
230.199	100.31
230.433	87.31
230.667	83.31
230.901	69.31
231.136	96.31
231.37	95.31
231.604	100.31
231.838	82.31
232.072	92.31
232.306	84.31
232.541	91.31
232.775	92.31
233.009	92.31
233.243	90.31
233.477	93.31
233.711	92.31
233.945	97.31
234.179	102.31
234.413	107.31
234.647	95.31
234.881	84.31
235.115	86.31
235.349	93.31
235.583	93.31
235.817	107.31
236.051	98.31
236.285	106.31
236.519	94.31
236.753	104.31
236.987	109.31
237.221	124.31
237.455	142.31
237.689	127.31
237.922	98.31
238.156	108.31
238.39	100.31
238.624	102.31
238.858	89.31
239.091	104.31
239.325	98.31
239.559	86.31
239.793	91.31
240.027	112.31
240.26	104.31
240.494	127.31
240.728	114.31
240.961	93.31
241.195	111.31
241.429	104.31
241.662	101.31
241.896	83.31
242.13	102.31
242.363	94.31
242.597	91.31
242.83	113.31
243.064	87.31
243.298	101.31
243.531	108.31
243.765	102.31
243.998	102.31
244.232	107.31
244.465	111.31
244.699	96.31
244.932	103.31
245.166	119.31
245.399	99.31
245.633	102.31
245.866	103.31
246.099	101.31
246.333	101.31
246.566	112.31
246.8	107.31
247.033	101.31
247.266	121.31
247.5	112.31
247.733	105.31
247.966	100.31
248.2	114.31
248.433	113.31
248.666	122.31
248.899	126.31
249.133	124.31
249.366	136.31
249.599	130.31
249.832	101.31
250.066	109.31
250.299	117.31
250.532	136.31
250.765	143.31
250.998	135.31
251.231	138.31
251.465	132.31
251.698	123.31
251.931	142.31
252.164	124.31
252.397	120.31
252.63	106.31
252.863	123.31
253.096	169.31
253.329	157.31
253.562	143.31
253.795	149.31
254.028	133.31
254.261	136.31
254.494	160.31
254.727	143.31
254.96	168.31
255.193	166.31
255.426	160.31
255.659	141.31
255.892	145.31
256.124	149.31
256.357	132.31
256.59	141.31
256.823	134.31
257.056	137.31
257.289	131.31
257.521	132.31
257.754	111.31
257.987	138.31
258.22	135.31
258.452	125.31
258.685	139.31
258.918	148.31
259.151	131.31
259.383	122.31
259.616	136.31
259.849	158.31
260.081	135.31
260.314	155.31
260.547	153.31
260.779	161.31
261.012	145.31
261.244	139.31
261.477	145.31
261.71	140.31
261.942	149.31
262.175	154.31
262.407	157.31
262.64	148.31
262.872	132.31
263.105	128.31
263.337	143.31
263.57	139.31
263.802	137.31
264.035	131.31
264.267	124.31
264.499	143.31
264.732	141.31
264.964	127.31
265.197	130.31
265.429	131.31
265.661	144.31
265.894	151.31
266.126	155.31
266.358	139.31
266.591	152.31
266.823	147.31
267.055	136.31
267.287	147.31
267.52	134.31
267.752	141.31
267.984	153.31
268.216	133.31
268.448	151.31
268.681	135.31
268.913	159.31
269.145	156.31
269.377	160.31
269.609	168.31
269.841	168.31
270.073	171.31
270.306	182.31
270.538	205.31
270.77	195.31
271.002	177.31
271.234	180.31
271.466	185.31
271.698	170.31
271.93	211.31
272.162	182.31
272.394	186.31
272.626	194.31
272.858	176.31
273.09	159.31
273.322	159.31
273.553	155.31
273.785	153.31
274.017	164.31
274.249	148.31
274.481	166.31
274.713	147.31
274.945	176.31
275.176	169.31
275.408	162.31
275.64	160.31
275.872	167.31
276.104	163.31
276.335	160.31
276.567	160.31
276.799	189.31
277.031	196.31
277.262	195.31
277.494	206.31
277.726	170.31
277.957	169.31
278.189	170.31
278.421	161.31
278.652	168.31
278.884	165.31
279.115	158.31
279.347	162.31
279.579	154.31
279.81	151.31
280.042	182.31
280.273	166.31
280.505	156.31
280.736	161.31
280.968	139.31
281.199	165.31
281.431	151.31
281.662	171.31
281.894	159.31
282.125	169.31
282.356	173.31
282.588	191.31
282.819	180.31
283.051	160.31
283.282	158.31
283.513	170.31
283.745	167.31
283.976	157.31
284.207	160.31
284.439	167.31
284.67	164.31
284.901	165.31
285.132	181.31
285.364	168.31
285.595	183.31
285.826	183.31
286.057	168.31
286.288	160.31
286.52	170.31
286.751	169.31
286.982	183.31
287.213	193.31
287.444	172.31
287.675	183.31
287.906	170.31
288.138	193.31
288.369	168.31
288.6	191.31
288.831	195.31
289.062	178.31
289.293	191.31
289.524	171.31
289.755	171.31
289.986	182.31
290.217	178.31
290.448	171.31
290.679	181.31
290.91	171.31
291.141	177.31
291.371	173.31
291.602	181.31
291.833	178.31
292.064	176.31
292.295	179.31
292.526	162.31
292.757	168.31
292.987	180.31
293.218	172.31
293.449	182.31
293.68	166.31
293.91	184.31
294.141	180.31
294.372	148.31
294.603	168.31
294.833	167.31
295.064	179.31
295.295	170.31
295.525	183.31
295.756	183.31
295.987	176.31
296.217	188.31
296.448	204.31
296.679	171.31
296.909	144.31
297.14	180.31
297.37	162.31
297.601	165.31
297.831	171.31
298.062	178.31
298.292	182.31
298.523	172.31
298.753	178.31
298.984	181.31
299.214	173.31
299.445	176.31
299.675	177.31
299.905	184.31
300.136	177.31
300.366	179.31
300.597	187.31
300.827	182.31
301.057	192.31
301.288	212.31
301.518	199.31
301.748	202.31
301.979	201.31
302.209	187.31
302.439	203.31
302.669	181.31
302.9	194.31
303.13	201.31
303.36	204.31
303.59	183.31
303.82	177.31
304.051	213.31
304.281	170.31
304.511	201.31
304.741	187.31
304.971	189.31
305.201	189.31
305.431	192.31
305.661	194.31
305.891	181.31
306.121	180.31
306.352	185.31
306.582	202.31
306.812	199.31
307.042	176.31
307.272	189.31
307.502	178.31
307.731	207.31
307.961	197.31
308.191	168.31
308.421	188.31
308.651	181.31
308.881	204.31
309.111	191.31
309.341	182.31
309.571	199.31
309.8	198.31
310.03	199.31
310.26	217.31
310.49	200.31
310.72	210.31
310.949	231.31
311.179	233.31
311.409	215.31
311.639	186.31
311.868	218.31
312.098	216.31
312.328	224.31
312.557	222.31
312.787	217.31
313.017	237.31
313.246	218.31
313.476	197.31
313.706	223.31
313.935	217.31
314.165	214.31
314.394	233.31
314.624	244.31
314.853	223.31
315.083	218.31
315.312	211.31
315.542	200.31
315.771	211.31
316.001	224.31
316.23	219.31
316.46	226.31
316.689	207.31
316.919	224.31
317.148	211.31
317.377	219.31
317.607	214.31
317.836	208.31
318.065	223.31
318.295	219.31
318.524	219.31
318.753	219.31
318.983	223.31
319.212	216.31
319.441	213.31
319.67	229.31
319.9	223.31
320.129	217.31
320.358	214.31
320.587	208.31
320.816	225.31
321.046	246.31
321.275	218.31
321.504	218.31
321.733	205.31
321.962	238.31
322.191	233.31
322.42	247.31
322.649	255.31
322.878	235.31
323.108	243.31
323.337	266.31
323.566	283.31
323.795	280.31
324.024	333.31
324.253	387.31
324.482	558.31
324.71	864.31
324.939	1143.31
325.168	935.31
325.397	465.31
325.626	323.31
325.855	261.31
326.084	269.31
326.313	273.31
326.542	293.31
326.77	293.31
326.999	352.31
327.228	492.31
327.457	755.31
327.686	858.31
327.914	557.31
328.143	403.31
328.372	342.31
328.6	327.31
328.829	305.31
329.058	318.31
329.287	321.31
329.515	309.31
329.744	282.31
329.972	269.31
330.201	273.31
330.43	328.31
330.658	344.31
330.887	357.31
331.115	328.31
331.344	290.31
331.572	273.31
331.801	283.31
332.03	273.31
332.258	283.31
332.486	255.31
332.715	252.31
332.943	255.31
333.172	256.31
333.4	260.31
333.629	246.31
333.857	283.31
334.085	279.31
334.314	316.31
334.542	325.31
334.771	339.31
334.999	307.31
335.227	272.31
335.455	261.31
335.684	235.31
335.912	242.31
336.14	241.31
336.369	252.31
336.597	249.31
336.825	267.31
337.053	241.31
337.281	241.31
337.51	243.31
337.738	245.31
337.966	239.31
338.194	238.31
338.422	229.31
338.65	232.31
338.878	235.31
339.106	237.31
339.334	233.31
339.562	231.31
339.79	227.31
340.018	241.31
340.246	237.31
340.474	251.31
340.702	237.31
340.93	243.31
341.158	236.31
341.386	233.31
341.614	231.31
341.842	232.31
342.07	225.31
342.298	230.31
342.526	229.31
342.754	235.31
342.981	219.31
343.209	251.31
343.437	233.31
343.665	233.31
343.893	250.31
344.12	247.31
344.348	242.31
344.576	239.31
344.804	242.31
345.031	248.31
345.259	250.31
345.487	236.31
345.714	246.31
345.942	223.31
346.17	215.31
346.397	209.31
346.625	220.31
346.853	227.31
347.08	209.31
347.308	261.31
347.535	225.31
347.763	234.31
347.99	237.31
348.218	242.31
348.445	236.31
348.673	227.31
348.9	232.31
349.128	241.31
349.355	223.31
349.583	210.31
349.81	200.31
350.037	229.31
350.265	219.31
350.492	239.31
350.72	214.31
350.947	232.31
351.174	231.31
351.402	251.31
351.629	239.31
351.856	218.31
352.083	235.31
352.311	243.31
352.538	235.31
352.765	233.31
352.992	225.31
353.22	243.31
353.447	225.31
353.674	222.31
353.901	219.31
354.128	208.31
354.355	210.31
354.583	214.31
354.81	202.31
355.037	213.31
355.264	199.31
355.491	208.31
355.718	212.31
355.945	211.31
356.172	212.31
356.399	203.31
356.626	206.31
356.853	219.31
357.08	202.31
357.307	193.31
357.534	221.31
357.761	215.31
357.988	204.31
358.215	214.31
358.441	199.31
358.668	220.31
358.895	238.31
359.122	206.31
359.349	226.31
359.576	229.31
359.802	255.31
360.029	261.31
360.256	273.31
360.483	243.31
360.709	235.31
360.936	233.31
361.163	222.31
361.39	226.31
361.616	236.31
361.843	240.31
362.07	212.31
362.296	241.31
362.523	220.31
362.749	240.31
362.976	228.31
363.203	220.31
363.429	212.31
363.656	224.31
363.882	205.31
364.109	236.31
364.335	210.31
364.562	214.31
364.788	227.31
365.015	205.31
365.241	214.31
365.468	221.31
365.694	212.31
365.92	231.31
366.147	219.31
366.373	207.31
366.599	208.31
366.826	215.31
367.052	217.31
367.278	212.31
367.505	213.31
367.731	215.31
367.957	208.31
368.184	211.31
368.41	231.31
368.636	241.31
368.862	227.31
369.089	196.31
369.315	213.31
369.541	212.31
369.767	222.31
369.993	211.31
370.219	199.31
370.445	204.31
370.672	206.31
370.898	208.31
371.124	216.31
371.35	225.31
371.576	193.31
371.802	215.31
372.028	209.31
372.254	216.31
372.48	227.31
372.706	215.31
372.932	217.31
373.158	219.31
373.384	218.31
373.61	212.31
373.835	215.31
374.061	218.31
374.287	211.31
374.513	230.31
374.739	218.31
374.965	218.31
375.191	223.31
375.416	220.31
375.642	214.31
375.868	211.31
376.094	219.31
376.319	188.31
376.545	208.31
376.771	205.31
376.997	202.31
377.222	201.31
377.448	204.31
377.674	204.31
377.899	193.31
378.125	201.31
378.35	216.31
378.576	193.31
378.802	210.31
379.027	205.31
379.253	199.31
379.478	195.31
379.704	202.31
379.929	203.31
380.155	200.31
380.38	212.31
380.606	208.31
380.831	207.31
381.057	213.31
381.282	204.31
381.507	186.31
381.733	215.31
381.958	217.31
382.184	209.31
382.409	228.31
382.634	220.31
382.86	215.31
383.085	213.31
383.31	242.31
383.535	227.31
383.761	228.31
383.986	226.31
384.211	223.31
384.436	200.31
384.662	204.31
384.887	217.31
385.112	229.31
385.337	225.31
385.562	226.31
385.787	211.31
386.013	242.31
386.238	243.31
386.463	240.31
386.688	227.31
386.913	232.31
387.138	220.31
387.363	217.31
387.588	233.31
387.813	231.31
388.038	231.31
388.263	213.31
388.488	210.31
388.713	228.31
388.938	224.31
389.163	238.31
389.387	223.31
389.612	223.31
389.837	217.31
390.062	219.31
390.287	222.31
390.512	219.31
390.736	249.31
390.961	221.31
391.186	231.31
391.411	232.31
391.636	233.31
391.86	241.31
392.085	230.31
392.31	244.31
392.534	242.31
392.759	237.31
392.984	229.31
393.208	221.31
393.433	239.31
393.658	243.31
393.882	234.31
394.107	239.31
394.331	227.31
394.556	219.31
394.78	233.31
395.005	218.31
395.229	226.31
395.454	247.31
395.678	237.31
395.903	242.31
396.127	239.31
396.352	233.31
396.576	232.31
396.801	224.31
397.025	240.31
397.249	248.31
397.474	253.31
397.698	256.31
397.922	261.31
398.147	253.31
398.371	267.31
398.595	251.31
398.82	267.31
399.044	261.31
399.268	259.31
399.492	275.31
399.717	288.31
399.941	309.31
400.165	307.31
400.389	289.31
400.613	273.31
400.837	251.31
401.062	261.31
401.286	257.31
401.51	240.31
401.734	259.31
401.958	251.31
402.182	268.31
402.406	281.31
402.63	263.31
402.854	268.31
403.078	253.31
403.302	282.31
403.526	284.31
403.75	290.31
403.974	287.31
404.198	271.31
404.422	270.31
404.645	273.31
404.869	268.31
405.093	285.31
405.317	317.31
405.541	325.31
405.765	307.31
405.988	273.31
406.212	273.31
406.436	329.31
406.66	313.31
406.883	296.31
407.107	308.31
407.331	324.31
407.555	349.31
407.778	321.31
408.002	319.31
408.226	297.31
408.449	276.31
408.673	279.31
408.896	302.31
409.12	320.31
409.344	295.31
409.567	266.31
409.791	269.31
410.014	279.31
410.238	260.31
410.461	271.31
410.685	270.31
410.908	283.31
411.132	316.31
411.355	309.31
411.578	287.31
411.802	262.31
412.025	257.31
412.249	283.31
412.472	277.31
412.695	305.31
412.919	292.31
413.142	280.31
413.365	243.31
413.589	247.31
413.812	267.31
414.035	259.31
414.258	242.31
414.482	242.31
414.705	272.31
414.928	259.31
415.151	261.31
415.374	248.31
415.597	247.31
415.821	252.31
416.044	254.31
416.267	253.31
416.49	264.31
416.713	236.31
416.936	241.31
417.159	239.31
417.382	257.31
417.605	262.31
417.828	265.31
418.051	264.31
418.274	275.31
418.497	277.31
418.72	256.31
418.943	257.31
419.166	265.31
419.389	275.31
419.611	261.31
419.834	274.31
420.057	291.31
420.28	260.31
420.503	261.31
420.726	265.31
420.948	259.31
421.171	291.31
421.394	298.31
421.617	269.31
421.839	258.31
422.062	279.31
422.285	268.31
422.507	291.31
422.73	333.31
422.953	331.31
423.175	285.31
423.398	285.31
423.621	277.31
423.843	277.31
424.066	285.31
424.288	275.31
424.511	285.31
424.733	316.31
424.956	340.31
425.178	339.31
425.401	337.31
425.623	337.31
425.846	293.31
426.068	292.31
426.291	265.31
426.513	287.31
426.735	295.31
426.958	298.31
427.18	333.31
427.402	395.31
427.625	438.31
427.847	387.31
428.069	321.31
428.292	301.31
428.514	276.31
428.736	278.31
428.958	264.31
429.181	275.31
429.403	251.31
429.625	259.31
429.847	266.31
430.069	319.31
430.292	301.31
430.514	258.31
430.736	247.31
430.958	255.31
431.18	245.31
431.402	255.31
431.624	246.31
431.846	244.31
432.068	249.31
432.29	253.31
432.512	256.31
432.734	261.31
432.956	255.31
433.178	270.31
433.4	218.31
433.622	262.31
433.844	258.31
434.066	240.31
434.287	269.31
434.509	250.31
434.731	264.31
434.953	266.31
435.175	265.31
435.397	284.31
435.618	310.31
435.84	296.31
436.062	329.31
436.284	343.31
436.505	299.31
436.727	289.31
436.949	265.31
437.17	260.31
437.392	271.31
437.614	269.31
437.835	279.31
438.057	338.31
438.278	362.31
438.5	375.31
438.721	403.31
438.943	352.31
439.165	326.31
439.386	270.31
439.608	294.31
439.829	299.31
440.05	291.31
440.272	333.31
440.493	289.31
440.715	284.31
440.936	281.31
441.158	276.31
441.379	268.31
441.6	274.31
441.822	299.31
442.043	303.31
442.264	329.31
442.486	349.31
442.707	304.31
442.928	277.31
443.149	303.31
443.371	336.31
443.592	316.31
443.813	363.31
444.034	394.31
444.255	299.31
444.476	298.31
444.698	294.31
444.919	282.31
445.14	386.31
445.361	337.31
445.582	303.31
445.803	330.31
446.024	403.31
446.245	381.31
446.466	353.31
446.687	319.31
446.908	290.31
447.129	267.31
447.35	263.31
447.571	274.31
447.792	265.31
448.013	248.31
448.234	235.31
448.455	303.31
448.675	345.31
448.896	388.31
449.117	349.31
449.338	309.31
449.559	368.31
449.779	404.31
450	312.31
450.221	283.31
450.442	264.31
450.662	262.31
450.883	280.31
451.104	279.31
451.324	287.31
451.545	260.31
451.766	236.31
451.986	236.31
452.207	219.31
452.428	257.31
452.648	232.31
452.869	248.31
453.089	267.31
453.31	274.31
453.53	245.31
453.751	243.31
453.971	246.31
454.192	261.31
454.412	256.31
454.633	248.31
454.853	241.31
455.073	233.31
455.294	255.31
455.514	293.31
455.734	285.31
455.955	232.31
456.175	225.31
456.395	212.31
456.616	212.31
456.836	242.31
457.056	226.31
457.276	226.31
457.497	230.31
457.717	229.31
457.937	213.31
458.157	228.31
458.377	246.31
458.598	255.31
458.818	296.31
459.038	353.31
459.258	332.31
459.478	292.31
459.698	277.31
459.918	266.31
460.138	243.31
460.358	252.31
460.578	271.31
460.798	259.31
461.018	252.31
461.238	231.31
461.458	227.31
461.678	242.31
461.898	264.31
462.118	249.31
462.338	252.31
462.558	263.31
462.777	272.31
462.997	255.31
463.217	276.31
463.437	277.31
463.657	256.31
463.876	265.31
464.096	281.31
464.316	260.31
464.536	263.31
464.755	263.31
464.975	297.31
465.195	306.31
465.414	367.31
465.634	308.31
465.854	259.31
466.073	257.31
466.293	250.31
466.512	227.31
466.732	234.31
466.951	219.31
467.171	254.31
467.391	248.31
467.61	256.31
467.829	264.31
468.049	253.31
468.268	265.31
468.488	248.31
468.707	263.31
468.927	248.31
469.146	231.31
469.365	242.31
469.585	247.31
469.804	259.31
470.023	261.31
470.243	236.31
470.462	263.31
470.681	274.31
470.901	268.31
471.12	254.31
471.339	245.31
471.558	251.31
471.777	244.31
471.997	260.31
472.216	257.31
472.435	292.31
472.654	275.31
472.873	260.31
473.092	248.31
473.311	239.31
473.53	251.31
473.749	254.31
473.968	273.31
474.187	313.31
474.406	325.31
474.625	267.31
474.844	262.31
475.063	241.31
475.282	252.31
475.501	233.31
475.72	263.31
475.939	246.31
476.158	251.31
476.377	248.31
476.596	244.31
476.814	241.31
477.033	269.31
477.252	268.31
477.471	261.31
477.69	256.31
477.908	261.31
478.127	257.31
478.346	269.31
478.564	277.31
478.783	267.31
479.002	264.31
479.22	279.31
479.439	299.31
479.658	293.31
479.876	314.31
480.095	300.31
480.313	311.31
480.532	314.31
480.751	292.31
480.969	330.31
481.188	372.31
481.406	429.31
481.624	328.31
481.843	298.31
482.061	291.31
482.28	277.31
482.498	301.31
482.717	287.31
482.935	271.31
483.153	308.31
483.372	296.31
483.59	297.31
483.808	281.31
484.027	291.31
484.245	289.31
484.463	274.31
484.681	281.31
484.9	301.31
485.118	290.31
485.336	288.31
485.554	293.31
485.772	285.31
485.99	294.31
486.209	297.31
486.427	295.31
486.645	303.31
486.863	306.31
487.081	323.31
487.299	304.31
487.517	307.31
487.735	299.31
487.953	317.31
488.171	295.31
488.389	327.31
488.607	300.31
488.825	313.31
489.043	303.31
489.261	318.31
489.479	323.31
489.696	325.31
489.914	296.31
490.132	293.31
490.35	326.31
490.568	339.31
490.786	340.31
491.003	324.31
491.221	339.31
491.439	350.31
491.657	343.31
491.874	388.31
492.092	360.31
492.31	361.31
492.527	348.31
492.745	355.31
492.963	380.31
493.18	387.31
493.398	372.31
493.615	387.31
493.833	360.31
494.05	358.31
494.268	352.31
494.485	363.31
494.703	356.31
494.92	359.31
495.138	376.31
495.355	390.31
495.573	364.31
495.79	344.31
496.008	367.31
496.225	371.31
496.442	341.31
496.66	379.31
496.877	375.31
497.094	367.31
497.312	371.31
497.529	349.31
497.746	361.31
497.963	384.31
498.181	383.31
498.398	398.31
498.615	391.31
498.832	377.31
499.049	398.31
499.267	404.31
499.484	415.31
499.701	417.31
499.918	440.31
500.135	453.31
500.352	468.31
500.569	491.31
500.786	489.31
501.003	486.31
501.22	467.31
501.437	475.31
501.654	466.31
501.871	443.31
502.088	416.31
502.305	416.31
502.522	379.31
