Data from 1966.PennyLincolnUp.Lamp.En5.5.200Scan.071719.P1.Scan2.head_HRD10591_14-16-59-071.txt Node
Date: Thu Jul 18 14:16:59 EDT 2019
User: cochatt
Spectrometer: HR+D1059
Trigger mode: 1
Integration Time (sec): 1.000000E-1
Scans to average: 1
Electric dark correction enabled: true
Nonlinearity correction enabled: false
Boxcar width: 0
XAxis mode: Wavelengths
Number of Pixels in Spectrum: 2048
>>>>>Begin Spectral Data<<<<<
223.165	-24.56
223.4	-24.56
223.635	-24.56
223.869	-9.56
224.104	-16.56
224.338	-15.56
224.573	-15.56
224.808	-19.56
225.042	-12.56
225.277	-12.56
225.511	-4.56
225.746	6.44
225.98	9.44
226.215	16.44
226.449	10.44
226.683	34.44
226.918	17.44
227.152	36.44
227.387	37.44
227.621	34.44
227.856	40.44
228.09	43.44
228.324	48.44
228.559	60.44
228.793	85.44
229.027	106.44
229.262	107.44
229.496	115.44
229.73	130.44
229.964	161.44
230.199	134.44
230.433	106.44
230.667	108.44
230.901	105.44
231.136	114.44
231.37	111.44
231.604	102.44
231.838	109.44
232.072	109.44
232.306	102.44
232.541	128.44
232.775	110.44
233.009	115.44
233.243	113.44
233.477	133.44
233.711	108.44
233.945	128.44
234.179	113.44
234.413	116.44
234.647	114.44
234.881	103.44
235.115	109.44
235.349	115.44
235.583	127.44
235.817	115.44
236.051	117.44
236.285	133.44
236.519	134.44
236.753	123.44
236.987	141.44
237.221	168.44
237.455	232.44
237.689	177.44
237.922	156.44
238.156	133.44
238.39	141.44
238.624	113.44
238.858	124.44
239.091	120.44
239.325	134.44
239.559	121.44
239.793	124.44
240.027	135.44
240.26	151.44
240.494	144.44
240.728	141.44
240.961	139.44
241.195	133.44
241.429	131.44
241.662	133.44
241.896	135.44
242.13	135.44
242.363	141.44
242.597	122.44
242.83	146.44
243.064	143.44
243.298	141.44
243.531	139.44
243.765	133.44
243.998	141.44
244.232	147.44
244.465	146.44
244.699	158.44
244.932	146.44
245.166	137.44
245.399	133.44
245.633	135.44
245.866	153.44
246.099	152.44
246.333	142.44
246.566	153.44
246.8	157.44
247.033	145.44
247.266	164.44
247.5	174.44
247.733	161.44
247.966	168.44
248.2	166.44
248.433	159.44
248.666	163.44
248.899	175.44
249.133	181.44
249.366	199.44
249.599	188.44
249.832	177.44
250.066	167.44
250.299	192.44
250.532	165.44
250.765	205.44
250.998	218.44
251.231	225.44
251.465	224.44
251.698	214.44
251.931	192.44
252.164	199.44
252.397	181.44
252.63	223.44
252.863	207.44
253.096	205.44
253.329	217.44
253.562	223.44
253.795	198.44
254.028	204.44
254.261	203.44
254.494	215.44
254.727	234.44
254.96	278.44
255.193	252.44
255.426	227.44
255.659	202.44
255.892	213.44
256.124	226.44
256.357	225.44
256.59	219.44
256.823	225.44
257.056	209.44
257.289	224.44
257.521	215.44
257.754	204.44
257.987	218.44
258.22	199.44
258.452	205.44
258.685	194.44
258.918	213.44
259.151	205.44
259.383	210.44
259.616	207.44
259.849	223.44
260.081	229.44
260.314	233.44
260.547	251.44
260.779	246.44
261.012	226.44
261.244	214.44
261.477	207.44
261.71	235.44
261.942	206.44
262.175	226.44
262.407	241.44
262.64	208.44
262.872	215.44
263.105	221.44
263.337	199.44
263.57	218.44
263.802	210.44
264.035	196.44
264.267	206.44
264.499	203.44
264.732	220.44
264.964	205.44
265.197	204.44
265.429	214.44
265.661	215.44
265.894	198.44
266.126	210.44
266.358	217.44
266.591	212.44
266.823	217.44
267.055	218.44
267.287	229.44
267.52	210.44
267.752	228.44
267.984	215.44
268.216	238.44
268.448	237.44
268.681	249.44
268.913	253.44
269.145	249.44
269.377	280.44
269.609	280.44
269.841	247.44
270.073	253.44
270.306	287.44
270.538	292.44
270.77	288.44
271.002	296.44
271.234	287.44
271.466	289.44
271.698	283.44
271.93	313.44
272.162	284.44
272.394	297.44
272.626	271.44
272.858	286.44
273.09	266.44
273.322	282.44
273.553	262.44
273.785	256.44
274.017	237.44
274.249	237.44
274.481	250.44
274.713	276.44
274.945	270.44
275.176	255.44
275.408	247.44
275.64	264.44
275.872	234.44
276.104	271.44
276.335	257.44
276.567	267.44
276.799	275.44
277.031	298.44
277.262	294.44
277.494	298.44
277.726	284.44
277.957	286.44
278.189	261.44
278.421	269.44
278.652	268.44
278.884	276.44
279.115	261.44
279.347	249.44
279.579	274.44
279.81	253.44
280.042	272.44
280.273	260.44
280.505	266.44
280.736	282.44
280.968	256.44
281.199	260.44
281.431	234.44
281.662	265.44
281.894	267.44
282.125	282.44
282.356	286.44
282.588	298.44
282.819	288.44
283.051	274.44
283.282	265.44
283.513	262.44
283.745	271.44
283.976	280.44
284.207	281.44
284.439	285.44
284.67	283.44
284.901	283.44
285.132	269.44
285.364	273.44
285.595	267.44
285.826	293.44
286.057	282.44
286.288	267.44
286.52	273.44
286.751	289.44
286.982	286.44
287.213	285.44
287.444	290.44
287.675	285.44
287.906	285.44
288.138	295.44
288.369	295.44
288.6	281.44
288.831	296.44
289.062	271.44
289.293	305.44
289.524	304.44
289.755	283.44
289.986	277.44
290.217	278.44
290.448	265.44
290.679	283.44
290.91	286.44
291.141	285.44
291.371	285.44
291.602	295.44
291.833	281.44
292.064	297.44
292.295	298.44
292.526	282.44
292.757	289.44
292.987	280.44
293.218	282.44
293.449	299.44
293.68	319.44
293.91	276.44
294.141	279.44
294.372	298.44
294.603	295.44
294.833	294.44
295.064	298.44
295.295	299.44
295.525	282.44
295.756	293.44
295.987	299.44
296.217	318.44
296.448	325.44
296.679	296.44
296.909	298.44
297.14	283.44
297.37	300.44
297.601	303.44
297.831	309.44
298.062	281.44
298.292	309.44
298.523	303.44
298.753	305.44
298.984	321.44
299.214	298.44
299.445	304.44
299.675	315.44
299.905	308.44
300.136	316.44
300.366	311.44
300.597	297.44
300.827	311.44
301.057	303.44
301.288	326.44
301.518	314.44
301.748	328.44
301.979	320.44
302.209	316.44
302.439	320.44
302.669	328.44
302.9	313.44
303.13	309.44
303.36	313.44
303.59	330.44
303.82	315.44
304.051	323.44
304.281	328.44
304.511	335.44
304.741	304.44
304.971	309.44
305.201	315.44
305.431	339.44
305.661	333.44
305.891	326.44
306.121	343.44
306.352	329.44
306.582	335.44
306.812	323.44
307.042	337.44
307.272	308.44
307.502	313.44
307.731	328.44
307.961	349.44
308.191	318.44
308.421	313.44
308.651	343.44
308.881	334.44
309.111	323.44
309.341	327.44
309.571	334.44
309.8	342.44
310.03	357.44
310.26	344.44
310.49	367.44
310.72	361.44
310.949	377.44
311.179	367.44
311.409	361.44
311.639	359.44
311.868	360.44
312.098	377.44
312.328	348.44
312.557	379.44
312.787	383.44
313.017	388.44
313.246	382.44
313.476	362.44
313.706	351.44
313.935	360.44
314.165	362.44
314.394	384.44
314.624	375.44
314.853	371.44
315.083	368.44
315.312	362.44
315.542	362.44
315.771	360.44
316.001	364.44
316.23	373.44
316.46	364.44
316.689	357.44
316.919	364.44
317.148	378.44
317.377	387.44
317.607	378.44
317.836	360.44
318.065	355.44
318.295	364.44
318.524	367.44
318.753	368.44
318.983	369.44
319.212	374.44
319.441	375.44
319.67	361.44
319.9	361.44
320.129	369.44
320.358	382.44
320.587	373.44
320.816	360.44
321.046	376.44
321.275	378.44
321.504	397.44
321.733	397.44
321.962	419.44
322.191	401.44
322.42	413.44
322.649	410.44
322.878	396.44
323.108	419.44
323.337	463.44
323.566	453.44
323.795	476.44
324.024	522.44
324.253	594.44
324.482	826.44
324.71	1272.44
324.939	1904.44
325.168	1632.44
325.397	827.44
325.626	577.44
325.855	495.44
326.084	469.44
326.313	453.44
326.542	467.44
326.77	502.44
326.999	563.44
327.228	775.44
327.457	1177.44
327.686	1488.44
327.914	959.44
328.143	629.44
328.372	547.44
328.6	543.44
328.829	500.44
329.058	508.44
329.287	537.44
329.515	502.44
329.744	484.44
329.972	471.44
330.201	481.44
330.43	512.44
330.658	524.44
330.887	562.44
331.115	555.44
331.344	483.44
331.572	471.44
331.801	458.44
332.03	474.44
332.258	437.44
332.486	423.44
332.715	447.44
332.943	438.44
333.172	430.44
333.4	427.44
333.629	451.44
333.857	461.44
334.085	463.44
334.314	474.44
334.542	525.44
334.771	519.44
334.999	493.44
335.227	459.44
335.455	448.44
335.684	458.44
335.912	459.44
336.14	447.44
336.369	428.44
336.597	441.44
336.825	448.44
337.053	445.44
337.281	423.44
337.51	432.44
337.738	454.44
337.966	427.44
338.194	463.44
338.422	442.44
338.65	443.44
338.878	429.44
339.106	409.44
339.334	442.44
339.562	421.44
339.79	431.44
340.018	435.44
340.246	455.44
340.474	441.44
340.702	454.44
340.93	425.44
341.158	444.44
341.386	437.44
341.614	433.44
341.842	419.44
342.07	426.44
342.298	426.44
342.526	428.44
342.754	419.44
342.981	413.44
343.209	437.44
343.437	431.44
343.665	434.44
343.893	431.44
344.12	456.44
344.348	439.44
344.576	431.44
344.804	427.44
345.031	442.44
345.259	447.44
345.487	445.44
345.714	431.44
345.942	407.44
346.17	399.44
346.397	421.44
346.625	412.44
346.853	414.44
347.08	413.44
347.308	434.44
347.535	435.44
347.763	419.44
347.99	409.44
348.218	421.44
348.445	434.44
348.673	439.44
348.9	413.44
349.128	412.44
349.355	383.44
349.583	401.44
349.81	409.44
350.037	409.44
350.265	407.44
350.492	414.44
350.72	422.44
350.947	395.44
351.174	425.44
351.402	441.44
351.629	430.44
351.856	415.44
352.083	423.44
352.311	442.44
352.538	432.44
352.765	422.44
352.992	442.44
353.22	417.44
353.447	419.44
353.674	415.44
353.901	413.44
354.128	414.44
354.355	400.44
354.583	411.44
354.81	385.44
355.037	403.44
355.264	382.44
355.491	398.44
355.718	397.44
355.945	395.44
356.172	391.44
356.399	391.44
356.626	416.44
356.853	405.44
357.08	409.44
357.307	390.44
357.534	401.44
357.761	401.44
357.988	386.44
358.215	391.44
358.441	407.44
358.668	397.44
358.895	415.44
359.122	416.44
359.349	404.44
359.576	422.44
359.802	426.44
360.029	446.44
360.256	468.44
360.483	460.44
360.709	433.44
360.936	441.44
361.163	422.44
361.39	407.44
361.616	438.44
361.843	426.44
362.07	416.44
362.296	432.44
362.523	417.44
362.749	422.44
362.976	413.44
363.203	424.44
363.429	411.44
363.656	419.44
363.882	407.44
364.109	428.44
364.335	401.44
364.562	413.44
364.788	412.44
365.015	412.44
365.241	421.44
365.468	422.44
365.694	410.44
365.92	436.44
366.147	416.44
366.373	427.44
366.599	418.44
366.826	407.44
367.052	403.44
367.278	401.44
367.505	421.44
367.731	429.44
367.957	402.44
368.184	422.44
368.41	428.44
368.636	408.44
368.862	431.44
369.089	421.44
369.315	408.44
369.541	414.44
369.767	423.44
369.993	421.44
370.219	401.44
370.445	418.44
370.672	401.44
370.898	413.44
371.124	412.44
371.35	430.44
371.576	441.44
371.802	383.44
372.028	429.44
372.254	414.44
372.48	408.44
372.706	442.44
372.932	444.44
373.158	409.44
373.384	428.44
373.61	456.44
373.835	416.44
374.061	437.44
374.287	440.44
374.513	398.44
374.739	424.44
374.965	442.44
375.191	441.44
375.416	433.44
375.642	413.44
375.868	440.44
376.094	422.44
376.319	438.44
376.545	423.44
376.771	405.44
376.997	431.44
377.222	427.44
377.448	400.44
377.674	423.44
377.899	415.44
378.125	412.44
378.35	416.44
378.576	432.44
378.802	414.44
379.027	411.44
379.253	430.44
379.478	429.44
379.704	418.44
379.929	438.44
380.155	439.44
380.38	430.44
380.606	423.44
380.831	425.44
381.057	413.44
381.282	417.44
381.507	441.44
381.733	446.44
381.958	421.44
382.184	429.44
382.409	422.44
382.634	424.44
382.86	418.44
383.085	444.44
383.31	445.44
383.535	450.44
383.761	443.44
383.986	437.44
384.211	446.44
384.436	462.44
384.662	450.44
384.887	462.44
385.112	453.44
385.337	470.44
385.562	477.44
385.787	465.44
386.013	460.44
386.238	474.44
386.463	453.44
386.688	478.44
386.913	479.44
387.138	465.44
387.363	470.44
387.588	492.44
387.813	461.44
388.038	470.44
388.263	455.44
388.488	467.44
388.713	456.44
388.938	473.44
389.163	466.44
389.387	470.44
389.612	466.44
389.837	480.44
390.062	470.44
390.287	467.44
390.512	446.44
390.736	453.44
390.961	473.44
391.186	464.44
391.411	463.44
391.636	463.44
391.86	488.44
392.085	477.44
392.31	491.44
392.534	497.44
392.759	490.44
392.984	488.44
393.208	480.44
393.433	483.44
393.658	494.44
393.882	467.44
394.107	505.44
394.331	457.44
394.556	490.44
394.78	498.44
395.005	500.44
395.229	503.44
395.454	484.44
395.678	511.44
395.903	506.44
396.127	521.44
396.352	529.44
396.576	534.44
396.801	493.44
397.025	503.44
397.249	513.44
397.474	512.44
397.698	526.44
397.922	525.44
398.147	544.44
398.371	531.44
398.595	548.44
398.82	543.44
399.044	565.44
399.268	573.44
399.492	592.44
399.717	658.44
399.941	676.44
400.165	673.44
400.389	695.44
400.613	655.44
400.837	573.44
401.062	578.44
401.286	573.44
401.51	557.44
401.734	561.44
401.958	538.44
402.182	556.44
402.406	545.44
402.63	555.44
402.854	534.44
403.078	552.44
403.302	570.44
403.526	565.44
403.75	565.44
403.974	565.44
404.198	566.44
404.422	574.44
404.645	584.44
404.869	581.44
405.093	610.44
405.317	632.44
405.541	678.44
405.765	639.44
405.988	618.44
406.212	625.44
406.436	612.44
406.66	616.44
406.883	621.44
407.107	655.44
407.331	688.44
407.555	754.44
407.778	738.44
408.002	686.44
408.226	638.44
408.449	637.44
408.673	636.44
408.896	648.44
409.12	690.44
409.344	633.44
409.567	593.44
409.791	600.44
410.014	584.44
410.238	573.44
410.461	576.44
410.685	567.44
410.908	567.44
411.132	640.44
411.355	653.44
411.578	619.44
411.802	565.44
412.025	571.44
412.249	588.44
412.472	610.44
412.695	623.44
412.919	606.44
413.142	594.44
413.365	551.44
413.589	560.44
413.812	543.44
414.035	559.44
414.258	547.44
414.482	572.44
414.705	575.44
414.928	545.44
415.151	553.44
415.374	559.44
415.597	543.44
415.821	550.44
416.044	562.44
416.267	544.44
416.49	547.44
416.713	505.44
416.936	553.44
417.159	519.44
417.382	535.44
417.605	535.44
417.828	538.44
418.051	553.44
418.274	558.44
418.497	531.44
418.72	544.44
418.943	544.44
419.166	556.44
419.389	593.44
419.611	565.44
419.834	579.44
420.057	569.44
420.28	585.44
420.503	554.44
420.726	558.44
420.948	589.44
421.171	624.44
421.394	657.44
421.617	566.44
421.839	565.44
422.062	569.44
422.285	592.44
422.507	644.44
422.73	695.44
422.953	699.44
423.175	599.44
423.398	587.44
423.621	573.44
423.843	612.44
424.066	599.44
424.288	605.44
424.511	587.44
424.733	675.44
424.956	763.44
425.178	711.44
425.401	715.44
425.623	749.44
425.846	659.44
426.068	598.44
426.291	578.44
426.513	595.44
426.735	597.44
426.958	632.44
427.18	711.44
427.402	857.44
427.625	947.44
427.847	773.44
428.069	710.44
428.292	640.44
428.514	593.44
428.736	599.44
428.958	565.44
429.181	568.44
429.403	550.44
429.625	578.44
429.847	595.44
430.069	673.44
430.292	663.44
430.514	605.44
430.736	555.44
430.958	563.44
431.18	510.44
431.402	556.44
431.624	543.44
431.846	557.44
432.068	531.44
432.29	547.44
432.512	536.44
432.734	545.44
432.956	525.44
433.178	548.44
433.4	537.44
433.622	545.44
433.844	515.44
434.066	531.44
434.287	521.44
434.509	544.44
434.731	550.44
434.953	562.44
435.175	561.44
435.397	601.44
435.618	583.44
435.84	622.44
436.062	736.44
436.284	843.44
436.505	673.44
436.727	614.44
436.949	569.44
437.17	553.44
437.392	562.44
437.614	573.44
437.835	591.44
438.057	672.44
438.278	795.44
438.5	787.44
438.721	863.44
438.943	827.44
439.165	667.44
439.386	601.44
439.608	587.44
439.829	593.44
440.05	630.44
440.272	660.44
440.493	645.44
440.715	574.44
440.936	588.44
441.158	574.44
441.379	548.44
441.6	573.44
441.822	607.44
442.043	634.44
442.264	721.44
442.486	773.44
442.707	667.44
442.928	608.44
443.149	631.44
443.371	643.44
443.592	690.44
443.813	752.44
444.034	827.44
444.255	687.44
444.476	630.44
444.698	619.44
444.919	613.44
445.14	721.44
445.361	666.44
445.582	665.44
445.803	689.44
446.024	820.44
446.245	784.44
446.466	731.44
446.687	625.44
446.908	614.44
447.129	592.44
447.35	566.44
447.571	569.44
447.792	541.44
448.013	547.44
448.234	562.44
448.455	623.44
448.675	732.44
448.896	874.44
449.117	732.44
449.338	665.44
449.559	770.44
449.779	876.44
450	705.44
450.221	598.44
450.442	543.44
450.662	547.44
450.883	544.44
451.104	547.44
451.324	545.44
451.545	542.44
451.766	498.44
451.986	496.44
452.207	503.44
452.428	487.44
452.648	485.44
452.869	482.44
453.089	498.44
453.31	498.44
453.53	507.44
453.751	479.44
453.971	480.44
454.192	480.44
454.412	512.44
454.633	497.44
454.853	496.44
455.073	465.44
455.294	508.44
455.514	577.44
455.734	570.44
455.955	511.44
456.175	465.44
456.395	480.44
456.616	476.44
456.836	463.44
457.056	468.44
457.276	469.44
457.497	476.44
457.717	469.44
457.937	484.44
458.157	475.44
458.377	497.44
458.598	535.44
458.818	545.44
459.038	633.44
459.258	633.44
459.478	556.44
459.698	535.44
459.918	525.44
460.138	507.44
460.358	525.44
460.578	528.44
460.798	567.44
461.018	554.44
461.238	545.44
461.458	541.44
461.678	547.44
461.898	546.44
462.118	576.44
462.338	561.44
462.558	554.44
462.777	573.44
462.997	607.44
463.217	606.44
463.437	602.44
463.657	578.44
463.876	591.44
464.096	573.44
464.316	567.44
464.536	605.44
464.755	568.44
464.975	583.44
465.195	589.44
465.414	646.44
465.634	618.44
465.854	558.44
466.073	540.44
466.293	523.44
466.512	531.44
466.732	524.44
466.951	506.44
467.171	503.44
467.391	518.44
467.61	522.44
467.829	520.44
468.049	520.44
468.268	523.44
468.488	498.44
468.707	523.44
468.927	528.44
469.146	495.44
469.365	496.44
469.585	497.44
469.804	506.44
470.023	498.44
470.243	518.44
470.462	535.44
470.681	517.44
470.901	545.44
471.12	517.44
471.339	535.44
471.558	535.44
471.777	519.44
471.997	513.44
472.216	533.44
472.435	539.44
472.654	547.44
472.873	517.44
473.092	502.44
473.311	518.44
473.53	536.44
473.749	523.44
473.968	561.44
474.187	648.44
474.406	694.44
474.625	566.44
474.844	537.44
475.063	526.44
475.282	517.44
475.501	541.44
475.72	555.44
475.939	526.44
476.158	520.44
476.377	534.44
476.596	552.44
476.814	567.44
477.033	551.44
477.252	555.44
477.471	555.44
477.69	596.44
477.908	573.44
478.127	583.44
478.346	563.44
478.564	567.44
478.783	593.44
479.002	589.44
479.22	600.44
479.439	620.44
479.658	618.44
479.876	637.44
480.095	642.44
480.313	665.44
480.532	634.44
480.751	639.44
480.969	648.44
481.188	697.44
481.406	713.44
481.624	657.44
481.843	631.44
482.061	624.44
482.28	645.44
482.498	629.44
482.717	592.44
482.935	659.44
483.153	617.44
483.372	594.44
483.59	604.44
483.808	598.44
484.027	588.44
484.245	610.44
484.463	620.44
484.681	637.44
484.9	634.44
485.118	606.44
485.336	619.44
485.554	622.44
485.772	643.44
485.99	624.44
486.209	639.44
486.427	643.44
486.645	638.44
486.863	672.44
487.081	659.44
487.299	663.44
487.517	660.44
487.735	656.44
487.953	660.44
488.171	645.44
488.389	670.44
488.607	649.44
488.825	642.44
489.043	649.44
489.261	654.44
489.479	642.44
489.696	660.44
489.914	701.44
490.132	677.44
490.35	704.44
490.568	681.44
490.786	677.44
491.003	699.44
491.221	719.44
491.439	726.44
491.657	734.44
491.874	711.44
492.092	750.44
492.31	731.44
492.527	758.44
492.745	737.44
492.963	742.44
493.18	743.44
493.398	792.44
493.615	783.44
493.833	762.44
494.05	743.44
494.268	762.44
494.485	771.44
494.703	751.44
494.92	791.44
495.138	758.44
495.355	797.44
495.573	768.44
495.79	774.44
496.008	780.44
496.225	790.44
496.442	757.44
496.66	781.44
496.877	772.44
497.094	791.44
497.312	796.44
497.529	800.44
497.746	813.44
497.963	818.44
498.181	854.44
498.398	875.44
498.615	875.44
498.832	891.44
499.049	905.44
499.267	933.44
499.484	982.44
499.701	1004.44
499.918	1041.44
500.135	1090.44
500.352	1143.44
500.569	1141.44
500.786	1161.44
501.003	1128.44
501.22	1112.44
501.437	1058.44
501.654	1055.44
