Data from 1966.PennyLincolnUp.Lamp.En5.5.200Scan.071719.P1.Scan2.head_HRD10591_14-18-57-230.txt Node
Date: Thu Jul 18 14:18:57 EDT 2019
User: cochatt
Spectrometer: HR+D1059
Trigger mode: 1
Integration Time (sec): 1.000000E-1
Scans to average: 1
Electric dark correction enabled: true
Nonlinearity correction enabled: false
Boxcar width: 0
XAxis mode: Wavelengths
Number of Pixels in Spectrum: 2048
>>>>>Begin Spectral Data<<<<<
223.165	-24.56
223.4	-24.56
223.635	-24.56
223.869	-15.56
224.104	-18.56
224.338	-10.56
224.573	-26.56
224.808	-7.56
225.042	-13.56
225.277	-5.56
225.511	5.44
225.746	7.44
225.98	8.44
226.215	16.44
226.449	29.44
226.683	18.44
226.918	10.44
227.152	26.44
227.387	22.44
227.621	31.44
227.856	48.44
228.09	56.44
228.324	43.44
228.559	55.44
228.793	76.44
229.027	95.44
229.262	112.44
229.496	118.44
229.73	132.44
229.964	170.44
230.199	132.44
230.433	129.44
230.667	126.44
230.901	113.44
231.136	126.44
231.37	112.44
231.604	108.44
231.838	113.44
232.072	108.44
232.306	116.44
232.541	129.44
232.775	105.44
233.009	120.44
233.243	112.44
233.477	103.44
233.711	115.44
233.945	116.44
234.179	123.44
234.413	118.44
234.647	112.44
234.881	116.44
235.115	128.44
235.349	144.44
235.583	129.44
235.817	120.44
236.051	109.44
236.285	130.44
236.519	138.44
236.753	137.44
236.987	145.44
237.221	178.44
237.455	264.44
237.689	197.44
237.922	155.44
238.156	142.44
238.39	116.44
238.624	137.44
238.858	125.44
239.091	128.44
239.325	124.44
239.559	124.44
239.793	125.44
240.027	137.44
240.26	144.44
240.494	164.44
240.728	156.44
240.961	146.44
241.195	151.44
241.429	152.44
241.662	143.44
241.896	142.44
242.13	137.44
242.363	135.44
242.597	136.44
242.83	142.44
243.064	154.44
243.298	140.44
243.531	138.44
243.765	142.44
243.998	158.44
244.232	147.44
244.465	130.44
244.699	146.44
244.932	146.44
245.166	141.44
245.399	145.44
245.633	153.44
245.866	138.44
246.099	159.44
246.333	173.44
246.566	144.44
246.8	144.44
247.033	163.44
247.266	165.44
247.5	146.44
247.733	170.44
247.966	186.44
248.2	188.44
248.433	184.44
248.666	193.44
248.899	191.44
249.133	197.44
249.366	226.44
249.599	205.44
249.832	198.44
250.066	203.44
250.299	203.44
250.532	200.44
250.765	222.44
250.998	224.44
251.231	242.44
251.465	228.44
251.698	212.44
251.931	205.44
252.164	214.44
252.397	201.44
252.63	207.44
252.863	223.44
253.096	216.44
253.329	230.44
253.562	239.44
253.795	240.44
254.028	242.44
254.261	233.44
254.494	221.44
254.727	248.44
254.96	298.44
255.193	292.44
255.426	255.44
255.659	237.44
255.892	248.44
256.124	236.44
256.357	248.44
256.59	223.44
256.823	227.44
257.056	207.44
257.289	223.44
257.521	208.44
257.754	212.44
257.987	209.44
258.22	210.44
258.452	216.44
258.685	210.44
258.918	210.44
259.151	228.44
259.383	242.44
259.616	248.44
259.849	248.44
260.081	253.44
260.314	268.44
260.547	262.44
260.779	268.44
261.012	232.44
261.244	225.44
261.477	244.44
261.71	234.44
261.942	242.44
262.175	234.44
262.407	244.44
262.64	230.44
262.872	233.44
263.105	219.44
263.337	211.44
263.57	225.44
263.802	202.44
264.035	238.44
264.267	213.44
264.499	206.44
264.732	232.44
264.964	221.44
265.197	233.44
265.429	227.44
265.661	235.44
265.894	235.44
266.126	229.44
266.358	220.44
266.591	218.44
266.823	216.44
267.055	228.44
267.287	253.44
267.52	242.44
267.752	231.44
267.984	231.44
268.216	233.44
268.448	232.44
268.681	259.44
268.913	253.44
269.145	270.44
269.377	281.44
269.609	280.44
269.841	270.44
270.073	302.44
270.306	288.44
270.538	312.44
270.77	329.44
271.002	303.44
271.234	328.44
271.466	310.44
271.698	310.44
271.93	320.44
272.162	330.44
272.394	327.44
272.626	324.44
272.858	319.44
273.09	268.44
273.322	275.44
273.553	285.44
273.785	254.44
274.017	278.44
274.249	274.44
274.481	261.44
274.713	264.44
274.945	264.44
275.176	275.44
275.408	281.44
275.64	269.44
275.872	264.44
276.104	295.44
276.335	285.44
276.567	280.44
276.799	312.44
277.031	327.44
277.262	334.44
277.494	333.44
277.726	303.44
277.957	319.44
278.189	279.44
278.421	287.44
278.652	276.44
278.884	282.44
279.115	271.44
279.347	285.44
279.579	278.44
279.81	269.44
280.042	287.44
280.273	281.44
280.505	278.44
280.736	295.44
280.968	290.44
281.199	272.44
281.431	279.44
281.662	297.44
281.894	271.44
282.125	301.44
282.356	315.44
282.588	320.44
282.819	315.44
283.051	308.44
283.282	274.44
283.513	275.44
283.745	281.44
283.976	302.44
284.207	274.44
284.439	290.44
284.67	301.44
284.901	279.44
285.132	283.44
285.364	301.44
285.595	298.44
285.826	298.44
286.057	301.44
286.288	277.44
286.52	299.44
286.751	305.44
286.982	279.44
287.213	293.44
287.444	299.44
287.675	303.44
287.906	312.44
288.138	320.44
288.369	321.44
288.6	324.44
288.831	317.44
289.062	298.44
289.293	302.44
289.524	308.44
289.755	322.44
289.986	314.44
290.217	314.44
290.448	298.44
290.679	299.44
290.91	308.44
291.141	297.44
291.371	301.44
291.602	292.44
291.833	293.44
292.064	297.44
292.295	301.44
292.526	306.44
292.757	312.44
292.987	290.44
293.218	295.44
293.449	318.44
293.68	312.44
293.91	316.44
294.141	314.44
294.372	306.44
294.603	308.44
294.833	296.44
295.064	300.44
295.295	309.44
295.525	303.44
295.756	314.44
295.987	312.44
296.217	333.44
296.448	339.44
296.679	319.44
296.909	312.44
297.14	318.44
297.37	325.44
297.601	310.44
297.831	328.44
298.062	347.44
298.292	322.44
298.523	340.44
298.753	321.44
298.984	316.44
299.214	317.44
299.445	308.44
299.675	314.44
299.905	333.44
300.136	340.44
300.366	325.44
300.597	330.44
300.827	334.44
301.057	346.44
301.288	347.44
301.518	347.44
301.748	331.44
301.979	349.44
302.209	342.44
302.439	345.44
302.669	346.44
302.9	330.44
303.13	322.44
303.36	357.44
303.59	349.44
303.82	364.44
304.051	342.44
304.281	334.44
304.511	349.44
304.741	329.44
304.971	356.44
305.201	341.44
305.431	352.44
305.661	331.44
305.891	336.44
306.121	334.44
306.352	349.44
306.582	349.44
306.812	340.44
307.042	344.44
307.272	351.44
307.502	344.44
307.731	336.44
307.961	356.44
308.191	345.44
308.421	345.44
308.651	344.44
308.881	345.44
309.111	334.44
309.341	360.44
309.571	362.44
309.8	378.44
310.03	384.44
310.26	390.44
310.49	376.44
310.72	378.44
310.949	417.44
311.179	438.44
311.409	399.44
311.639	379.44
311.868	398.44
312.098	390.44
312.328	400.44
312.557	403.44
312.787	427.44
313.017	434.44
313.246	416.44
313.476	388.44
313.706	392.44
313.935	399.44
314.165	380.44
314.394	404.44
314.624	428.44
314.853	407.44
315.083	412.44
315.312	395.44
315.542	377.44
315.771	390.44
316.001	383.44
316.23	380.44
316.46	401.44
316.689	390.44
316.919	388.44
317.148	406.44
317.377	393.44
317.607	407.44
317.836	410.44
318.065	396.44
318.295	381.44
318.524	398.44
318.753	407.44
318.983	420.44
319.212	392.44
319.441	391.44
319.67	393.44
319.9	398.44
320.129	396.44
320.358	403.44
320.587	386.44
320.816	405.44
321.046	413.44
321.275	408.44
321.504	420.44
321.733	418.44
321.962	434.44
322.191	420.44
322.42	450.44
322.649	438.44
322.878	481.44
323.108	459.44
323.337	480.44
323.566	531.44
323.795	524.44
324.024	585.44
324.253	692.44
324.482	975.44
324.71	1529.44
324.939	2292.44
325.168	1982.44
325.397	969.44
325.626	682.44
325.855	581.44
326.084	522.44
326.313	525.44
326.542	505.44
326.77	576.44
326.999	664.44
327.228	894.44
327.457	1411.44
327.686	1754.44
327.914	1115.44
328.143	724.44
328.372	652.44
328.6	605.44
328.829	560.44
329.058	598.44
329.287	604.44
329.515	583.44
329.744	536.44
329.972	544.44
330.201	557.44
330.43	582.44
330.658	618.44
330.887	615.44
331.115	625.44
331.344	554.44
331.572	507.44
331.801	523.44
332.03	511.44
332.258	503.44
332.486	477.44
332.715	462.44
332.943	471.44
333.172	505.44
333.4	485.44
333.629	495.44
333.857	516.44
334.085	518.44
334.314	551.44
334.542	570.44
334.771	606.44
334.999	538.44
335.227	518.44
335.455	516.44
335.684	470.44
335.912	468.44
336.14	476.44
336.369	477.44
336.597	485.44
336.825	489.44
337.053	462.44
337.281	482.44
337.51	476.44
337.738	487.44
337.966	485.44
338.194	502.44
338.422	487.44
338.65	468.44
338.878	466.44
339.106	434.44
339.334	472.44
339.562	460.44
339.79	463.44
340.018	433.44
340.246	464.44
340.474	465.44
340.702	468.44
340.93	448.44
341.158	448.44
341.386	451.44
341.614	440.44
341.842	447.44
342.07	454.44
342.298	458.44
342.526	453.44
342.754	447.44
342.981	420.44
343.209	432.44
343.437	449.44
343.665	461.44
343.893	475.44
344.12	479.44
344.348	477.44
344.576	462.44
344.804	459.44
345.031	480.44
345.259	470.44
345.487	466.44
345.714	449.44
345.942	447.44
346.17	452.44
346.397	457.44
346.625	455.44
346.853	421.44
347.08	420.44
347.308	454.44
347.535	464.44
347.763	468.44
347.99	469.44
348.218	452.44
348.445	463.44
348.673	462.44
348.9	453.44
349.128	435.44
349.355	425.44
349.583	436.44
349.81	452.44
350.037	431.44
350.265	442.44
350.492	436.44
350.72	444.44
350.947	448.44
351.174	451.44
351.402	490.44
351.629	475.44
351.856	442.44
352.083	440.44
352.311	462.44
352.538	472.44
352.765	472.44
352.992	446.44
353.22	452.44
353.447	453.44
353.674	441.44
353.901	452.44
354.128	448.44
354.355	431.44
354.583	426.44
354.81	429.44
355.037	433.44
355.264	404.44
355.491	420.44
355.718	427.44
355.945	429.44
356.172	414.44
356.399	426.44
356.626	448.44
356.853	410.44
357.08	415.44
357.307	417.44
357.534	431.44
357.761	411.44
357.988	418.44
358.215	422.44
358.441	429.44
358.668	435.44
358.895	423.44
359.122	425.44
359.349	430.44
359.576	465.44
359.802	469.44
360.029	509.44
360.256	500.44
360.483	479.44
360.709	459.44
360.936	449.44
361.163	459.44
361.39	471.44
361.616	480.44
361.843	427.44
362.07	446.44
362.296	461.44
362.523	440.44
362.749	444.44
362.976	436.44
363.203	432.44
363.429	443.44
363.656	441.44
363.882	441.44
364.109	450.44
364.335	431.44
364.562	451.44
364.788	437.44
365.015	437.44
365.241	441.44
365.468	453.44
365.694	458.44
365.92	450.44
366.147	431.44
366.373	402.44
366.599	440.44
366.826	426.44
367.052	442.44
367.278	425.44
367.505	448.44
367.731	452.44
367.957	426.44
368.184	431.44
368.41	448.44
368.636	437.44
368.862	467.44
369.089	460.44
369.315	433.44
369.541	460.44
369.767	433.44
369.993	452.44
370.219	449.44
370.445	439.44
370.672	432.44
370.898	418.44
371.124	457.44
371.35	434.44
371.576	424.44
371.802	436.44
372.028	442.44
372.254	442.44
372.48	443.44
372.706	466.44
372.932	441.44
373.158	427.44
373.384	451.44
373.61	460.44
373.835	465.44
374.061	439.44
374.287	430.44
374.513	434.44
374.739	463.44
374.965	465.44
375.191	460.44
375.416	448.44
375.642	461.44
375.868	445.44
376.094	438.44
376.319	449.44
376.545	448.44
376.771	466.44
376.997	424.44
377.222	433.44
377.448	438.44
377.674	442.44
377.899	445.44
378.125	433.44
378.35	445.44
378.576	467.44
378.802	448.44
379.027	450.44
379.253	442.44
379.478	429.44
379.704	448.44
379.929	451.44
380.155	439.44
380.38	451.44
380.606	426.44
380.831	444.44
381.057	443.44
381.282	445.44
381.507	444.44
381.733	432.44
381.958	429.44
382.184	448.44
382.409	454.44
382.634	486.44
382.86	464.44
383.085	449.44
383.31	470.44
383.535	452.44
383.761	470.44
383.986	466.44
384.211	452.44
384.436	476.44
384.662	468.44
384.887	479.44
385.112	490.44
385.337	500.44
385.562	479.44
385.787	481.44
386.013	508.44
386.238	523.44
386.463	505.44
386.688	497.44
386.913	489.44
387.138	476.44
387.363	492.44
387.588	499.44
387.813	486.44
388.038	498.44
388.263	505.44
388.488	496.44
388.713	507.44
388.938	491.44
389.163	494.44
389.387	491.44
389.612	494.44
389.837	496.44
390.062	498.44
390.287	516.44
390.512	498.44
390.736	497.44
390.961	495.44
391.186	500.44
391.411	516.44
391.636	530.44
391.86	498.44
392.085	501.44
392.31	528.44
392.534	516.44
392.759	507.44
392.984	522.44
393.208	516.44
393.433	523.44
393.658	513.44
393.882	506.44
394.107	502.44
394.331	501.44
394.556	501.44
394.78	503.44
395.005	509.44
395.229	514.44
395.454	522.44
395.678	528.44
395.903	524.44
396.127	559.44
396.352	557.44
396.576	539.44
396.801	537.44
397.025	551.44
397.249	536.44
397.474	539.44
397.698	560.44
397.922	567.44
398.147	564.44
398.371	570.44
398.595	586.44
398.82	575.44
399.044	587.44
399.268	597.44
399.492	646.44
399.717	644.44
399.941	693.44
400.165	727.44
400.389	731.44
400.613	662.44
400.837	608.44
401.062	590.44
401.286	586.44
401.51	589.44
401.734	556.44
401.958	584.44
402.182	564.44
402.406	600.44
402.63	581.44
402.854	584.44
403.078	591.44
403.302	621.44
403.526	605.44
403.75	610.44
403.974	590.44
404.198	586.44
404.422	607.44
404.645	622.44
404.869	624.44
405.093	653.44
405.317	702.44
405.541	753.44
405.765	662.44
405.988	628.44
406.212	625.44
406.436	644.44
406.66	666.44
406.883	641.44
407.107	677.44
407.331	735.44
407.555	794.44
407.778	814.44
408.002	732.44
408.226	689.44
408.449	661.44
408.673	647.44
408.896	692.44
409.12	736.44
409.344	694.44
409.567	642.44
409.791	610.44
410.014	614.44
410.238	604.44
410.461	605.44
410.685	645.44
410.908	662.44
411.132	671.44
411.355	720.44
411.578	669.44
411.802	628.44
412.025	622.44
412.249	617.44
412.472	646.44
412.695	701.44
412.919	688.44
413.142	621.44
413.365	617.44
413.589	592.44
413.812	591.44
414.035	557.44
414.258	578.44
414.482	559.44
414.705	568.44
414.928	574.44
415.151	582.44
415.374	578.44
415.597	566.44
415.821	555.44
416.044	578.44
416.267	565.44
416.49	587.44
416.713	568.44
416.936	565.44
417.159	561.44
417.382	568.44
417.605	574.44
417.828	594.44
418.051	598.44
418.274	584.44
418.497	577.44
418.72	581.44
418.943	560.44
419.166	604.44
419.389	618.44
419.611	603.44
419.834	605.44
420.057	624.44
420.28	614.44
420.503	634.44
420.726	613.44
420.948	605.44
421.171	661.44
421.394	708.44
421.617	631.44
421.839	598.44
422.062	576.44
422.285	615.44
422.507	664.44
422.73	763.44
422.953	738.44
423.175	640.44
423.398	583.44
423.621	628.44
423.843	637.44
424.066	642.44
424.288	644.44
424.511	660.44
424.733	715.44
424.956	801.44
425.178	794.44
425.401	793.44
425.623	817.44
425.846	703.44
426.068	632.44
426.291	629.44
426.513	635.44
426.735	654.44
426.958	673.44
427.18	768.44
427.402	941.44
427.625	1030.44
427.847	872.44
428.069	794.44
428.292	681.44
428.514	640.44
428.736	640.44
428.958	602.44
429.181	582.44
429.403	593.44
429.625	610.44
429.847	645.44
430.069	698.44
430.292	697.44
430.514	617.44
430.736	605.44
430.958	594.44
431.18	578.44
431.402	567.44
431.624	552.44
431.846	570.44
432.068	587.44
432.29	552.44
432.512	560.44
432.734	568.44
432.956	597.44
433.178	572.44
433.4	555.44
433.622	581.44
433.844	556.44
434.066	564.44
434.287	565.44
434.509	563.44
434.731	564.44
434.953	585.44
435.175	575.44
435.397	634.44
435.618	652.44
435.84	677.44
436.062	765.44
436.284	894.44
436.505	730.44
436.727	646.44
436.949	609.44
437.17	584.44
437.392	586.44
437.614	605.44
437.835	644.44
438.057	760.44
438.278	870.44
438.5	855.44
438.721	932.44
438.943	914.44
439.165	689.44
439.386	670.44
439.608	637.44
439.829	661.44
440.05	678.44
440.272	746.44
440.493	689.44
440.715	642.44
440.936	609.44
441.158	594.44
441.379	600.44
441.6	608.44
441.822	645.44
442.043	696.44
442.264	788.44
442.486	838.44
442.707	698.44
442.928	653.44
443.149	654.44
443.371	675.44
443.592	732.44
443.813	858.44
444.034	908.44
444.255	747.44
444.476	681.44
444.698	675.44
444.919	650.44
445.14	739.44
445.361	690.44
445.582	711.44
445.803	760.44
446.024	912.44
446.245	909.44
446.466	825.44
446.687	687.44
446.908	629.44
447.129	612.44
447.35	594.44
447.571	589.44
447.792	583.44
448.013	602.44
448.234	609.44
448.455	652.44
448.675	830.44
448.896	937.44
449.117	790.44
449.338	726.44
449.559	857.44
449.779	1008.44
450	784.44
450.221	646.44
450.442	586.44
450.662	583.44
450.883	608.44
451.104	589.44
451.324	578.44
451.545	579.44
451.766	561.44
451.986	518.44
452.207	530.44
452.428	495.44
452.648	522.44
452.869	529.44
453.089	533.44
453.31	566.44
453.53	552.44
453.751	526.44
453.971	537.44
454.192	566.44
454.412	539.44
454.633	521.44
454.853	534.44
455.073	520.44
455.294	553.44
455.514	635.44
455.734	638.44
455.955	533.44
456.175	488.44
456.395	518.44
456.616	513.44
456.836	497.44
457.056	502.44
457.276	498.44
457.497	523.44
457.717	500.44
457.937	506.44
458.157	514.44
458.377	510.44
458.598	536.44
458.818	611.44
459.038	681.44
459.258	728.44
459.478	614.44
459.698	585.44
459.918	562.44
460.138	553.44
460.358	557.44
460.578	579.44
460.798	573.44
461.018	577.44
461.238	567.44
461.458	573.44
461.678	569.44
461.898	581.44
462.118	598.44
462.338	597.44
462.558	591.44
462.777	606.44
462.997	626.44
463.217	648.44
463.437	639.44
463.657	628.44
463.876	600.44
464.096	604.44
464.316	637.44
464.536	623.44
464.755	644.44
464.975	629.44
465.195	660.44
465.414	734.44
465.634	655.44
465.854	595.44
466.073	609.44
466.293	583.44
466.512	561.44
466.732	529.44
466.951	544.44
467.171	566.44
467.391	548.44
467.61	536.44
467.829	556.44
468.049	541.44
468.268	582.44
468.488	564.44
468.707	543.44
468.927	545.44
469.146	524.44
469.365	539.44
469.585	526.44
469.804	532.44
470.023	554.44
470.243	555.44
470.462	561.44
470.681	591.44
470.901	567.44
471.12	560.44
471.339	558.44
471.558	562.44
471.777	559.44
471.997	557.44
472.216	562.44
472.435	588.44
472.654	577.44
472.873	566.44
473.092	554.44
473.311	554.44
473.53	547.44
473.749	548.44
473.968	580.44
474.187	725.44
474.406	734.44
474.625	630.44
474.844	590.44
475.063	544.44
475.282	558.44
475.501	548.44
475.72	562.44
475.939	585.44
476.158	577.44
476.377	577.44
476.596	590.44
476.814	578.44
477.033	601.44
477.252	582.44
477.471	602.44
477.69	589.44
477.908	587.44
478.127	570.44
478.346	598.44
478.564	615.44
478.783	628.44
479.002	638.44
479.22	632.44
479.439	628.44
479.658	659.44
479.876	659.44
480.095	673.44
480.313	698.44
480.532	696.44
480.751	693.44
480.969	716.44
481.188	761.44
481.406	808.44
481.624	706.44
481.843	704.44
482.061	654.44
482.28	654.44
482.498	650.44
482.717	670.44
482.935	634.44
483.153	652.44
483.372	669.44
483.59	652.44
483.808	646.44
484.027	654.44
484.245	634.44
484.463	666.44
484.681	672.44
484.9	666.44
485.118	656.44
485.336	677.44
485.554	680.44
485.772	688.44
485.99	662.44
486.209	700.44
486.427	661.44
486.645	670.44
486.863	724.44
487.081	701.44
487.299	722.44
487.517	699.44
487.735	684.44
487.953	692.44
488.171	713.44
488.389	700.44
488.607	720.44
488.825	718.44
489.043	699.44
489.261	689.44
489.479	706.44
489.696	706.44
489.914	716.44
490.132	714.44
490.35	752.44
490.568	735.44
490.786	730.44
491.003	762.44
491.221	777.44
491.439	770.44
491.657	787.44
491.874	797.44
492.092	813.44
492.31	801.44
492.527	793.44
492.745	836.44
492.963	823.44
493.18	804.44
493.398	839.44
493.615	820.44
493.833	842.44
494.05	834.44
494.268	853.44
494.485	841.44
494.703	831.44
494.92	829.44
495.138	815.44
495.355	833.44
495.573	880.44
495.79	837.44
496.008	846.44
496.225	863.44
496.442	829.44
496.66	868.44
496.877	843.44
497.094	854.44
497.312	845.44
497.529	846.44
497.746	857.44
497.963	859.44
498.181	904.44
498.398	916.44
498.615	922.44
498.832	953.44
499.049	989.44
499.267	991.44
499.484	1039.44
499.701	1076.44
499.918	1111.44
500.135	1150.44
500.352	1175.44
500.569	1247.44
500.786	1253.44
501.003	1212.44
501.22	1213.44
501.437	1145.44
501.654	1101.44
