Data from 1966.PennyLincolnUp.Lamp.En5.5.200Scan.071719.P1.Scan2.head_HRD10591_14-19-21-260.txt Node
Date: Thu Jul 18 14:19:21 EDT 2019
User: cochatt
Spectrometer: HR+D1059
Trigger mode: 1
Integration Time (sec): 1.000000E-1
Scans to average: 1
Electric dark correction enabled: true
Nonlinearity correction enabled: false
Boxcar width: 0
XAxis mode: Wavelengths
Number of Pixels in Spectrum: 2048
>>>>>Begin Spectral Data<<<<<
223.165	-3.06
223.4	-3.06
223.635	-3.06
223.869	-25.06
224.104	-9.06
224.338	-10.06
224.573	-18.06
224.808	-16.06
225.042	-11.06
225.277	-14.06
225.511	9.94
225.746	-0.06
225.98	15.94
226.215	10.94
226.449	11.94
226.683	22.94
226.918	21.94
227.152	12.94
227.387	11.94
227.621	21.94
227.856	38.94
228.09	45.94
228.324	35.94
228.559	49.94
228.793	63.94
229.027	73.94
229.262	103.94
229.496	127.94
229.73	129.94
229.964	155.94
230.199	135.94
230.433	123.94
230.667	126.94
230.901	119.94
231.136	122.94
231.37	116.94
231.604	120.94
231.838	114.94
232.072	112.94
232.306	120.94
232.541	121.94
232.775	107.94
233.009	103.94
233.243	124.94
233.477	115.94
233.711	121.94
233.945	108.94
234.179	105.94
234.413	119.94
234.647	113.94
234.881	118.94
235.115	118.94
235.349	125.94
235.583	130.94
235.817	137.94
236.051	108.94
236.285	122.94
236.519	127.94
236.753	127.94
236.987	138.94
237.221	177.94
237.455	230.94
237.689	181.94
237.922	149.94
238.156	149.94
238.39	131.94
238.624	146.94
238.858	137.94
239.091	131.94
239.325	134.94
239.559	116.94
239.793	124.94
240.027	145.94
240.26	143.94
240.494	162.94
240.728	161.94
240.961	149.94
241.195	139.94
241.429	157.94
241.662	131.94
241.896	130.94
242.13	131.94
242.363	138.94
242.597	146.94
242.83	149.94
243.064	137.94
243.298	128.94
243.531	163.94
243.765	149.94
243.998	148.94
244.232	131.94
244.465	135.94
244.699	149.94
244.932	147.94
245.166	158.94
245.399	148.94
245.633	170.94
245.866	153.94
246.099	136.94
246.333	148.94
246.566	141.94
246.8	145.94
247.033	164.94
247.266	159.94
247.5	139.94
247.733	178.94
247.966	173.94
248.2	166.94
248.433	177.94
248.666	189.94
248.899	182.94
249.133	204.94
249.366	199.94
249.599	197.94
249.832	177.94
250.066	181.94
250.299	200.94
250.532	204.94
250.765	203.94
250.998	223.94
251.231	216.94
251.465	207.94
251.698	203.94
251.931	210.94
252.164	187.94
252.397	202.94
252.63	189.94
252.863	199.94
253.096	212.94
253.329	225.94
253.562	221.94
253.795	234.94
254.028	226.94
254.261	211.94
254.494	234.94
254.727	265.94
254.96	267.94
255.193	279.94
255.426	240.94
255.659	235.94
255.892	243.94
256.124	245.94
256.357	258.94
256.59	241.94
256.823	217.94
257.056	221.94
257.289	208.94
257.521	211.94
257.754	218.94
257.987	212.94
258.22	204.94
258.452	219.94
258.685	203.94
258.918	202.94
259.151	230.94
259.383	233.94
259.616	215.94
259.849	227.94
260.081	241.94
260.314	263.94
260.547	272.94
260.779	250.94
261.012	245.94
261.244	236.94
261.477	234.94
261.71	232.94
261.942	223.94
262.175	242.94
262.407	224.94
262.64	230.94
262.872	226.94
263.105	235.94
263.337	232.94
263.57	209.94
263.802	228.94
264.035	221.94
264.267	228.94
264.499	211.94
264.732	220.94
264.964	222.94
265.197	231.94
265.429	232.94
265.661	219.94
265.894	226.94
266.126	200.94
266.358	217.94
266.591	223.94
266.823	223.94
267.055	223.94
267.287	231.94
267.52	221.94
267.752	213.94
267.984	225.94
268.216	224.94
268.448	219.94
268.681	234.94
268.913	236.94
269.145	277.94
269.377	273.94
269.609	281.94
269.841	268.94
270.073	273.94
270.306	294.94
270.538	321.94
270.77	305.94
271.002	309.94
271.234	300.94
271.466	282.94
271.698	332.94
271.93	324.94
272.162	315.94
272.394	311.94
272.626	308.94
272.858	293.94
273.09	290.94
273.322	267.94
273.553	266.94
273.785	280.94
274.017	263.94
274.249	251.94
274.481	266.94
274.713	264.94
274.945	280.94
275.176	275.94
275.408	261.94
275.64	261.94
275.872	258.94
276.104	282.94
276.335	276.94
276.567	289.94
276.799	289.94
277.031	306.94
277.262	344.94
277.494	326.94
277.726	313.94
277.957	293.94
278.189	276.94
278.421	271.94
278.652	282.94
278.884	275.94
279.115	266.94
279.347	283.94
279.579	257.94
279.81	274.94
280.042	289.94
280.273	291.94
280.505	263.94
280.736	283.94
280.968	279.94
281.199	292.94
281.431	267.94
281.662	294.94
281.894	275.94
282.125	291.94
282.356	295.94
282.588	306.94
282.819	303.94
283.051	299.94
283.282	279.94
283.513	291.94
283.745	292.94
283.976	300.94
284.207	284.94
284.439	292.94
284.67	284.94
284.901	264.94
285.132	291.94
285.364	308.94
285.595	284.94
285.826	276.94
286.057	304.94
286.288	289.94
286.52	286.94
286.751	272.94
286.982	294.94
287.213	307.94
287.444	299.94
287.675	309.94
287.906	294.94
288.138	314.94
288.369	300.94
288.6	308.94
288.831	318.94
289.062	336.94
289.293	295.94
289.524	297.94
289.755	289.94
289.986	288.94
290.217	275.94
290.448	306.94
290.679	295.94
290.91	277.94
291.141	324.94
291.371	293.94
291.602	307.94
291.833	296.94
292.064	317.94
292.295	307.94
292.526	298.94
292.757	295.94
292.987	294.94
293.218	299.94
293.449	290.94
293.68	306.94
293.91	299.94
294.141	294.94
294.372	292.94
294.603	307.94
294.833	307.94
295.064	298.94
295.295	324.94
295.525	311.94
295.756	298.94
295.987	325.94
296.217	319.94
296.448	344.94
296.679	317.94
296.909	308.94
297.14	317.94
297.37	312.94
297.601	320.94
297.831	314.94
298.062	304.94
298.292	314.94
298.523	320.94
298.753	302.94
298.984	307.94
299.214	323.94
299.445	300.94
299.675	310.94
299.905	325.94
300.136	323.94
300.366	308.94
300.597	320.94
300.827	331.94
301.057	339.94
301.288	328.94
301.518	347.94
301.748	341.94
301.979	345.94
302.209	331.94
302.439	336.94
302.669	337.94
302.9	337.94
303.13	347.94
303.36	352.94
303.59	333.94
303.82	331.94
304.051	359.94
304.281	355.94
304.511	329.94
304.741	341.94
304.971	332.94
305.201	339.94
305.431	341.94
305.661	340.94
305.891	353.94
306.121	338.94
306.352	335.94
306.582	348.94
306.812	348.94
307.042	348.94
307.272	343.94
307.502	318.94
307.731	331.94
307.961	346.94
308.191	332.94
308.421	359.94
308.651	343.94
308.881	344.94
309.111	345.94
309.341	356.94
309.571	334.94
309.8	368.94
310.03	379.94
310.26	384.94
310.49	377.94
310.72	388.94
310.949	389.94
311.179	388.94
311.409	362.94
311.639	387.94
311.868	401.94
312.098	394.94
312.328	403.94
312.557	414.94
312.787	414.94
313.017	423.94
313.246	407.94
313.476	389.94
313.706	389.94
313.935	395.94
314.165	412.94
314.394	412.94
314.624	399.94
314.853	393.94
315.083	389.94
315.312	404.94
315.542	397.94
315.771	376.94
316.001	395.94
316.23	381.94
316.46	374.94
316.689	380.94
316.919	380.94
317.148	413.94
317.377	408.94
317.607	389.94
317.836	391.94
318.065	390.94
318.295	407.94
318.524	403.94
318.753	362.94
318.983	375.94
319.212	399.94
319.441	397.94
319.67	419.94
319.9	386.94
320.129	374.94
320.358	396.94
320.587	388.94
320.816	401.94
321.046	418.94
321.275	420.94
321.504	428.94
321.733	419.94
321.962	413.94
322.191	426.94
322.42	419.94
322.649	454.94
322.878	451.94
323.108	455.94
323.337	486.94
323.566	498.94
323.795	521.94
324.024	575.94
324.253	695.94
324.482	1011.94
324.71	1541.94
324.939	2314.94
325.168	1993.94
325.397	996.94
325.626	643.94
325.855	556.94
326.084	541.94
326.313	519.94
326.542	535.94
326.77	571.94
326.999	675.94
327.228	905.94
327.457	1409.94
327.686	1736.94
327.914	1141.94
328.143	740.94
328.372	647.94
328.6	597.94
328.829	594.94
329.058	579.94
329.287	596.94
329.515	559.94
329.744	539.94
329.972	526.94
330.201	562.94
330.43	571.94
330.658	596.94
330.887	643.94
331.115	620.94
331.344	549.94
331.572	516.94
331.801	518.94
332.03	526.94
332.258	497.94
332.486	493.94
332.715	473.94
332.943	475.94
333.172	474.94
333.4	483.94
333.629	493.94
333.857	500.94
334.085	527.94
334.314	534.94
334.542	582.94
334.771	590.94
334.999	533.94
335.227	520.94
335.455	493.94
335.684	487.94
335.912	462.94
336.14	462.94
336.369	447.94
336.597	477.94
336.825	480.94
337.053	482.94
337.281	468.94
337.51	464.94
337.738	455.94
337.966	468.94
338.194	465.94
338.422	483.94
338.65	468.94
338.878	458.94
339.106	448.94
339.334	452.94
339.562	465.94
339.79	466.94
340.018	466.94
340.246	436.94
340.474	453.94
340.702	479.94
340.93	454.94
341.158	456.94
341.386	438.94
341.614	451.94
341.842	448.94
342.07	449.94
342.298	453.94
342.526	437.94
342.754	429.94
342.981	419.94
343.209	451.94
343.437	431.94
343.665	443.94
343.893	469.94
344.12	461.94
344.348	460.94
344.576	479.94
344.804	458.94
345.031	479.94
345.259	479.94
345.487	464.94
345.714	467.94
345.942	466.94
346.17	453.94
346.397	440.94
346.625	436.94
346.853	453.94
347.08	458.94
347.308	438.94
347.535	456.94
347.763	464.94
347.99	440.94
348.218	443.94
348.445	464.94
348.673	428.94
348.9	459.94
349.128	421.94
349.355	415.94
349.583	436.94
349.81	419.94
350.037	421.94
350.265	418.94
350.492	426.94
350.72	431.94
350.947	443.94
351.174	437.94
351.402	439.94
351.629	474.94
351.856	446.94
352.083	453.94
352.311	461.94
352.538	462.94
352.765	455.94
352.992	445.94
353.22	429.94
353.447	447.94
353.674	428.94
353.901	438.94
354.128	421.94
354.355	422.94
354.583	429.94
354.81	422.94
355.037	432.94
355.264	406.94
355.491	423.94
355.718	412.94
355.945	409.94
356.172	428.94
356.399	407.94
356.626	411.94
356.853	447.94
357.08	419.94
357.307	416.94
357.534	412.94
357.761	426.94
357.988	437.94
358.215	417.94
358.441	398.94
358.668	433.94
358.895	428.94
359.122	431.94
359.349	428.94
359.576	439.94
359.802	449.94
360.029	483.94
360.256	509.94
360.483	523.94
360.709	458.94
360.936	431.94
361.163	441.94
361.39	442.94
361.616	449.94
361.843	444.94
362.07	453.94
362.296	458.94
362.523	435.94
362.749	455.94
362.976	444.94
363.203	427.94
363.429	415.94
363.656	431.94
363.882	444.94
364.109	437.94
364.335	421.94
364.562	428.94
364.788	445.94
365.015	418.94
365.241	431.94
365.468	436.94
365.694	441.94
365.92	452.94
366.147	437.94
366.373	433.94
366.599	436.94
366.826	459.94
367.052	420.94
367.278	438.94
367.505	444.94
367.731	452.94
367.957	434.94
368.184	435.94
368.41	452.94
368.636	442.94
368.862	443.94
369.089	444.94
369.315	429.94
369.541	423.94
369.767	434.94
369.993	448.94
370.219	427.94
370.445	451.94
370.672	420.94
370.898	436.94
371.124	437.94
371.35	429.94
371.576	428.94
371.802	446.94
372.028	443.94
372.254	425.94
372.48	439.94
372.706	433.94
372.932	445.94
373.158	432.94
373.384	429.94
373.61	444.94
373.835	453.94
374.061	433.94
374.287	444.94
374.513	452.94
374.739	434.94
374.965	447.94
375.191	464.94
375.416	460.94
375.642	447.94
375.868	442.94
376.094	442.94
376.319	447.94
376.545	427.94
376.771	439.94
376.997	437.94
377.222	445.94
377.448	432.94
377.674	443.94
377.899	424.94
378.125	431.94
378.35	411.94
378.576	434.94
378.802	439.94
379.027	417.94
379.253	422.94
379.478	427.94
379.704	439.94
379.929	449.94
380.155	439.94
380.38	445.94
380.606	441.94
380.831	441.94
381.057	434.94
381.282	448.94
381.507	438.94
381.733	442.94
381.958	434.94
382.184	455.94
382.409	464.94
382.634	459.94
382.86	431.94
383.085	467.94
383.31	456.94
383.535	471.94
383.761	486.94
383.986	470.94
384.211	465.94
384.436	465.94
384.662	472.94
384.887	483.94
385.112	479.94
385.337	482.94
385.562	484.94
385.787	480.94
386.013	485.94
386.238	504.94
386.463	489.94
386.688	495.94
386.913	489.94
387.138	479.94
387.363	481.94
387.588	508.94
387.813	501.94
388.038	499.94
388.263	485.94
388.488	474.94
388.713	490.94
388.938	506.94
389.163	501.94
389.387	509.94
389.612	479.94
389.837	478.94
390.062	482.94
390.287	473.94
390.512	480.94
390.736	493.94
390.961	477.94
391.186	479.94
391.411	501.94
391.636	494.94
391.86	482.94
392.085	504.94
392.31	507.94
392.534	503.94
392.759	511.94
392.984	528.94
393.208	518.94
393.433	523.94
393.658	511.94
393.882	475.94
394.107	505.94
394.331	487.94
394.556	495.94
394.78	514.94
395.005	496.94
395.229	499.94
395.454	520.94
395.678	518.94
395.903	518.94
396.127	541.94
396.352	547.94
396.576	521.94
396.801	524.94
397.025	538.94
397.249	497.94
397.474	532.94
397.698	526.94
397.922	542.94
398.147	573.94
398.371	571.94
398.595	562.94
398.82	565.94
399.044	549.94
399.268	590.94
399.492	611.94
399.717	669.94
399.941	712.94
400.165	741.94
400.389	734.94
400.613	666.94
400.837	647.94
401.062	597.94
401.286	571.94
401.51	573.94
401.734	573.94
401.958	571.94
402.182	577.94
402.406	604.94
402.63	574.94
402.854	585.94
403.078	588.94
403.302	589.94
403.526	617.94
403.75	601.94
403.974	606.94
404.198	598.94
404.422	602.94
404.645	602.94
404.869	609.94
405.093	651.94
405.317	685.94
405.541	757.94
405.765	679.94
405.988	625.94
406.212	619.94
406.436	649.94
406.66	653.94
406.883	636.94
407.107	666.94
407.331	711.94
407.555	803.94
407.778	784.94
408.002	713.94
408.226	663.94
408.449	660.94
408.673	654.94
408.896	673.94
409.12	736.94
409.344	687.94
409.567	625.94
409.791	612.94
410.014	606.94
410.238	599.94
410.461	602.94
410.685	598.94
410.908	610.94
411.132	683.94
411.355	703.94
411.578	653.94
411.802	628.94
412.025	599.94
412.249	619.94
412.472	657.94
412.695	674.94
412.919	666.94
413.142	610.94
413.365	593.94
413.589	586.94
413.812	571.94
414.035	565.94
414.258	575.94
414.482	568.94
414.705	571.94
414.928	575.94
415.151	562.94
415.374	565.94
415.597	582.94
415.821	579.94
416.044	574.94
416.267	568.94
416.49	559.94
416.713	558.94
416.936	551.94
417.159	567.94
417.382	582.94
417.605	601.94
417.828	572.94
418.051	583.94
418.274	586.94
418.497	580.94
418.72	595.94
418.943	568.94
419.166	571.94
419.389	613.94
419.611	621.94
419.834	576.94
420.057	631.94
420.28	585.94
420.503	595.94
420.726	593.94
420.948	612.94
421.171	654.94
421.394	697.94
421.617	618.94
421.839	594.94
422.062	593.94
422.285	603.94
422.507	662.94
422.73	787.94
422.953	721.94
423.175	650.94
423.398	629.94
423.621	633.94
423.843	632.94
424.066	634.94
424.288	627.94
424.511	652.94
424.733	711.94
424.956	830.94
425.178	779.94
425.401	764.94
425.623	805.94
425.846	684.94
426.068	611.94
426.291	633.94
426.513	637.94
426.735	631.94
426.958	662.94
427.18	784.94
427.402	943.94
427.625	1023.94
427.847	869.94
428.069	795.94
428.292	701.94
428.514	620.94
428.736	616.94
428.958	599.94
429.181	617.94
429.403	597.94
429.625	611.94
429.847	643.94
430.069	709.94
430.292	706.94
430.514	604.94
430.736	604.94
430.958	588.94
431.18	583.94
431.402	577.94
431.624	581.94
431.846	563.94
432.068	570.94
432.29	563.94
432.512	575.94
432.734	582.94
432.956	559.94
433.178	574.94
433.4	589.94
433.622	565.94
433.844	565.94
434.066	551.94
434.287	559.94
434.509	571.94
434.731	613.94
434.953	610.94
435.175	597.94
435.397	616.94
435.618	661.94
435.84	680.94
436.062	797.94
436.284	891.94
436.505	716.94
436.727	636.94
436.949	621.94
437.17	601.94
437.392	596.94
437.614	576.94
437.835	640.94
438.057	741.94
438.278	876.94
438.5	871.94
438.721	964.94
438.943	873.94
439.165	716.94
439.386	657.94
439.608	647.94
439.829	630.94
440.05	684.94
440.272	729.94
440.493	668.94
440.715	615.94
440.936	600.94
441.158	593.94
441.379	612.94
441.6	597.94
441.822	618.94
442.043	679.94
442.264	809.94
442.486	828.94
442.707	704.94
442.928	659.94
443.149	678.94
443.371	673.94
443.592	763.94
443.813	843.94
444.034	911.94
444.255	764.94
444.476	679.94
444.698	666.94
444.919	647.94
445.14	746.94
445.361	690.94
445.582	716.94
445.803	754.94
446.024	892.94
446.245	907.94
446.466	811.94
446.687	679.94
446.908	630.94
447.129	615.94
447.35	567.94
447.571	588.94
447.792	583.94
448.013	584.94
448.234	614.94
448.455	668.94
448.675	820.94
448.896	905.94
449.117	780.94
449.338	720.94
449.559	875.94
449.779	969.94
450	778.94
450.221	631.94
450.442	583.94
450.662	586.94
450.883	581.94
451.104	588.94
451.324	570.94
451.545	548.94
451.766	516.94
451.986	522.94
452.207	512.94
452.428	527.94
452.648	514.94
452.869	527.94
453.089	515.94
453.31	545.94
453.53	531.94
453.751	526.94
453.971	541.94
454.192	531.94
454.412	545.94
454.633	516.94
454.853	507.94
455.073	500.94
455.294	557.94
455.514	629.94
455.734	603.94
455.955	523.94
456.175	501.94
456.395	513.94
456.616	492.94
456.836	488.94
457.056	464.94
457.276	471.94
457.497	497.94
457.717	499.94
457.937	499.94
458.157	516.94
458.377	522.94
458.598	538.94
458.818	612.94
459.038	676.94
459.258	699.94
459.478	610.94
459.698	547.94
459.918	547.94
460.138	582.94
460.358	556.94
460.578	570.94
460.798	584.94
461.018	576.94
461.238	590.94
461.458	583.94
461.678	539.94
461.898	566.94
462.118	586.94
462.338	582.94
462.558	569.94
462.777	639.94
462.997	617.94
463.217	603.94
463.437	648.94
463.657	615.94
463.876	613.94
464.096	605.94
464.316	614.94
464.536	607.94
464.755	614.94
464.975	584.94
465.195	639.94
465.414	707.94
465.634	673.94
465.854	601.94
466.073	569.94
466.293	559.94
466.512	555.94
466.732	561.94
466.951	561.94
467.171	528.94
467.391	537.94
467.61	546.94
467.829	544.94
468.049	539.94
468.268	538.94
468.488	558.94
468.707	536.94
468.927	541.94
469.146	537.94
469.365	552.94
469.585	521.94
469.804	571.94
470.023	542.94
470.243	581.94
470.462	552.94
470.681	562.94
470.901	564.94
471.12	539.94
471.339	538.94
471.558	549.94
471.777	547.94
471.997	544.94
472.216	553.94
472.435	575.94
472.654	587.94
472.873	545.94
473.092	555.94
473.311	552.94
473.53	527.94
473.749	562.94
473.968	601.94
474.187	712.94
474.406	757.94
474.625	623.94
474.844	552.94
475.063	547.94
475.282	550.94
475.501	537.94
475.72	557.94
475.939	573.94
476.158	560.94
476.377	561.94
476.596	537.94
476.814	563.94
477.033	577.94
477.252	588.94
477.471	570.94
477.69	593.94
477.908	597.94
478.127	587.94
478.346	601.94
478.564	604.94
478.783	623.94
479.002	623.94
479.22	652.94
479.439	651.94
479.658	663.94
479.876	671.94
480.095	654.94
480.313	681.94
480.532	697.94
480.751	685.94
480.969	696.94
481.188	735.94
481.406	789.94
481.624	717.94
481.843	699.94
482.061	681.94
482.28	667.94
482.498	650.94
482.717	649.94
482.935	651.94
483.153	633.94
483.372	637.94
483.59	644.94
483.808	637.94
484.027	653.94
484.245	651.94
484.463	643.94
484.681	686.94
484.9	653.94
485.118	647.94
485.336	680.94
485.554	668.94
485.772	696.94
485.99	659.94
486.209	664.94
486.427	672.94
486.645	691.94
486.863	719.94
487.081	707.94
487.299	711.94
487.517	688.94
487.735	694.94
487.953	699.94
488.171	692.94
488.389	684.94
488.607	684.94
488.825	705.94
489.043	714.94
489.261	693.94
489.479	708.94
489.696	699.94
489.914	722.94
490.132	740.94
490.35	723.94
490.568	727.94
490.786	733.94
491.003	755.94
491.221	799.94
491.439	758.94
491.657	769.94
491.874	780.94
492.092	800.94
492.31	806.94
492.527	817.94
492.745	818.94
492.963	832.94
493.18	843.94
493.398	814.94
493.615	854.94
493.833	836.94
494.05	853.94
494.268	819.94
494.485	819.94
494.703	825.94
494.92	828.94
495.138	799.94
495.355	832.94
495.573	841.94
495.79	833.94
496.008	842.94
496.225	814.94
496.442	817.94
496.66	832.94
496.877	827.94
497.094	849.94
497.312	841.94
497.529	866.94
497.746	885.94
497.963	873.94
498.181	914.94
498.398	923.94
498.615	915.94
498.832	920.94
499.049	961.94
499.267	981.94
499.484	1042.94
499.701	1058.94
499.918	1061.94
500.135	1162.94
500.352	1201.94
500.569	1202.94
500.786	1215.94
501.003	1191.94
501.22	1173.94
501.437	1114.94
501.654	1111.94
