Data from 1966.PennyLincolnUp.Lamp.En5.5.200Scan.071719.P1.Scan2.head_HRD10591_14-19-38-283.txt Node
Date: Thu Jul 18 14:19:38 EDT 2019
User: cochatt
Spectrometer: HR+D1059
Trigger mode: 1
Integration Time (sec): 1.000000E-1
Scans to average: 1
Electric dark correction enabled: true
Nonlinearity correction enabled: false
Boxcar width: 0
XAxis mode: Wavelengths
Number of Pixels in Spectrum: 2048
>>>>>Begin Spectral Data<<<<<
223.165	-21.25
223.4	-21.25
223.635	-21.25
223.869	-4.25
224.104	-20.25
224.338	-20.25
224.573	-21.25
224.808	-14.25
225.042	-2.25
225.277	9.75
225.511	9.75
225.746	5.75
225.98	6.75
226.215	1.75
226.449	-9.25
226.683	18.75
226.918	13.75
227.152	46.75
227.387	33.75
227.621	21.75
227.856	31.75
228.09	46.75
228.324	44.75
228.559	63.75
228.793	65.75
229.027	117.75
229.262	117.75
229.496	105.75
229.73	137.75
229.964	167.75
230.199	130.75
230.433	101.75
230.667	123.75
230.901	97.75
231.136	121.75
231.37	119.75
231.604	116.75
231.838	106.75
232.072	117.75
232.306	106.75
232.541	104.75
232.775	125.75
233.009	118.75
233.243	119.75
233.477	126.75
233.711	127.75
233.945	119.75
234.179	117.75
234.413	106.75
234.647	121.75
234.881	124.75
235.115	114.75
235.349	127.75
235.583	128.75
235.817	119.75
236.051	136.75
236.285	132.75
236.519	139.75
236.753	127.75
236.987	156.75
237.221	189.75
237.455	252.75
237.689	179.75
237.922	149.75
238.156	133.75
238.39	119.75
238.624	107.75
238.858	133.75
239.091	132.75
239.325	132.75
239.559	137.75
239.793	127.75
240.027	145.75
240.26	143.75
240.494	158.75
240.728	160.75
240.961	153.75
241.195	133.75
241.429	152.75
241.662	133.75
241.896	141.75
242.13	147.75
242.363	134.75
242.597	141.75
242.83	132.75
243.064	150.75
243.298	139.75
243.531	133.75
243.765	135.75
243.998	131.75
244.232	143.75
244.465	136.75
244.699	142.75
244.932	148.75
245.166	156.75
245.399	163.75
245.633	142.75
245.866	149.75
246.099	148.75
246.333	151.75
246.566	149.75
246.8	171.75
247.033	142.75
247.266	178.75
247.5	163.75
247.733	164.75
247.966	182.75
248.2	191.75
248.433	179.75
248.666	174.75
248.899	179.75
249.133	203.75
249.366	219.75
249.599	192.75
249.832	195.75
250.066	186.75
250.299	187.75
250.532	196.75
250.765	191.75
250.998	223.75
251.231	241.75
251.465	228.75
251.698	194.75
251.931	204.75
252.164	202.75
252.397	203.75
252.63	203.75
252.863	213.75
253.096	219.75
253.329	246.75
253.562	220.75
253.795	218.75
254.028	224.75
254.261	230.75
254.494	238.75
254.727	253.75
254.96	297.75
255.193	271.75
255.426	268.75
255.659	248.75
255.892	246.75
256.124	239.75
256.357	231.75
256.59	241.75
256.823	238.75
257.056	229.75
257.289	217.75
257.521	232.75
257.754	228.75
257.987	223.75
258.22	217.75
258.452	206.75
258.685	219.75
258.918	211.75
259.151	216.75
259.383	214.75
259.616	215.75
259.849	236.75
260.081	237.75
260.314	257.75
260.547	254.75
260.779	261.75
261.012	246.75
261.244	221.75
261.477	239.75
261.71	218.75
261.942	233.75
262.175	228.75
262.407	246.75
262.64	220.75
262.872	222.75
263.105	229.75
263.337	224.75
263.57	229.75
263.802	229.75
264.035	228.75
264.267	216.75
264.499	204.75
264.732	228.75
264.964	225.75
265.197	228.75
265.429	220.75
265.661	218.75
265.894	210.75
266.126	210.75
266.358	211.75
266.591	223.75
266.823	262.75
267.055	230.75
267.287	226.75
267.52	231.75
267.752	218.75
267.984	236.75
268.216	222.75
268.448	237.75
268.681	253.75
268.913	258.75
269.145	272.75
269.377	271.75
269.609	286.75
269.841	281.75
270.073	269.75
270.306	319.75
270.538	312.75
270.77	318.75
271.002	308.75
271.234	296.75
271.466	311.75
271.698	333.75
271.93	328.75
272.162	314.75
272.394	313.75
272.626	317.75
272.858	295.75
273.09	274.75
273.322	286.75
273.553	279.75
273.785	275.75
274.017	268.75
274.249	271.75
274.481	262.75
274.713	265.75
274.945	264.75
275.176	273.75
275.408	269.75
275.64	274.75
275.872	282.75
276.104	271.75
276.335	272.75
276.567	269.75
276.799	292.75
277.031	311.75
277.262	341.75
277.494	352.75
277.726	314.75
277.957	292.75
278.189	277.75
278.421	287.75
278.652	278.75
278.884	292.75
279.115	290.75
279.347	303.75
279.579	279.75
279.81	276.75
280.042	275.75
280.273	284.75
280.505	270.75
280.736	282.75
280.968	278.75
281.199	261.75
281.431	286.75
281.662	286.75
281.894	270.75
282.125	290.75
282.356	279.75
282.588	321.75
282.819	309.75
283.051	284.75
283.282	278.75
283.513	295.75
283.745	274.75
283.976	277.75
284.207	283.75
284.439	281.75
284.67	285.75
284.901	281.75
285.132	284.75
285.364	280.75
285.595	279.75
285.826	303.75
286.057	293.75
286.288	285.75
286.52	282.75
286.751	295.75
286.982	292.75
287.213	298.75
287.444	301.75
287.675	289.75
287.906	301.75
288.138	321.75
288.369	305.75
288.6	294.75
288.831	311.75
289.062	300.75
289.293	305.75
289.524	321.75
289.755	305.75
289.986	301.75
290.217	298.75
290.448	265.75
290.679	312.75
290.91	298.75
291.141	297.75
291.371	301.75
291.602	302.75
291.833	307.75
292.064	287.75
292.295	318.75
292.526	307.75
292.757	310.75
292.987	289.75
293.218	311.75
293.449	322.75
293.68	314.75
293.91	307.75
294.141	311.75
294.372	299.75
294.603	304.75
294.833	289.75
295.064	297.75
295.295	301.75
295.525	318.75
295.756	314.75
295.987	322.75
296.217	339.75
296.448	331.75
296.679	316.75
296.909	305.75
297.14	311.75
297.37	297.75
297.601	300.75
297.831	298.75
298.062	316.75
298.292	311.75
298.523	318.75
298.753	322.75
298.984	314.75
299.214	333.75
299.445	325.75
299.675	306.75
299.905	338.75
300.136	311.75
300.366	333.75
300.597	317.75
300.827	339.75
301.057	318.75
301.288	345.75
301.518	338.75
301.748	332.75
301.979	333.75
302.209	345.75
302.439	345.75
302.669	331.75
302.9	326.75
303.13	345.75
303.36	319.75
303.59	341.75
303.82	339.75
304.051	362.75
304.281	353.75
304.511	354.75
304.741	339.75
304.971	350.75
305.201	334.75
305.431	352.75
305.661	348.75
305.891	351.75
306.121	329.75
306.352	349.75
306.582	338.75
306.812	341.75
307.042	353.75
307.272	369.75
307.502	346.75
307.731	350.75
307.961	351.75
308.191	362.75
308.421	341.75
308.651	332.75
308.881	339.75
309.111	371.75
309.341	356.75
309.571	353.75
309.8	361.75
310.03	373.75
310.26	379.75
310.49	373.75
310.72	372.75
310.949	412.75
311.179	425.75
311.409	396.75
311.639	381.75
311.868	381.75
312.098	409.75
312.328	400.75
312.557	416.75
312.787	433.75
313.017	433.75
313.246	402.75
313.476	389.75
313.706	374.75
313.935	424.75
314.165	393.75
314.394	409.75
314.624	419.75
314.853	407.75
315.083	392.75
315.312	381.75
315.542	393.75
315.771	373.75
316.001	391.75
316.23	379.75
316.46	401.75
316.689	394.75
316.919	398.75
317.148	388.75
317.377	400.75
317.607	394.75
317.836	400.75
318.065	391.75
318.295	399.75
318.524	397.75
318.753	382.75
318.983	411.75
319.212	417.75
319.441	397.75
319.67	402.75
319.9	392.75
320.129	395.75
320.358	413.75
320.587	400.75
320.816	392.75
321.046	395.75
321.275	433.75
321.504	420.75
321.733	430.75
321.962	414.75
322.191	421.75
322.42	439.75
322.649	447.75
322.878	477.75
323.108	487.75
323.337	494.75
323.566	504.75
323.795	565.75
324.024	587.75
324.253	716.75
324.482	994.75
324.71	1554.75
324.939	2309.75
325.168	1973.75
325.397	999.75
325.626	675.75
325.855	564.75
326.084	527.75
326.313	491.75
326.542	527.75
326.77	558.75
326.999	674.75
327.228	925.75
327.457	1380.75
327.686	1762.75
327.914	1102.75
328.143	714.75
328.372	672.75
328.6	613.75
328.829	614.75
329.058	594.75
329.287	593.75
329.515	580.75
329.744	539.75
329.972	523.75
330.201	559.75
330.43	605.75
330.658	595.75
330.887	642.75
331.115	618.75
331.344	546.75
331.572	526.75
331.801	519.75
332.03	525.75
332.258	493.75
332.486	490.75
332.715	458.75
332.943	471.75
333.172	469.75
333.4	478.75
333.629	497.75
333.857	521.75
334.085	515.75
334.314	520.75
334.542	590.75
334.771	584.75
334.999	539.75
335.227	497.75
335.455	493.75
335.684	473.75
335.912	471.75
336.14	496.75
336.369	452.75
336.597	478.75
336.825	491.75
337.053	470.75
337.281	446.75
337.51	477.75
337.738	459.75
337.966	469.75
338.194	466.75
338.422	473.75
338.65	481.75
338.878	482.75
339.106	461.75
339.334	455.75
339.562	444.75
339.79	453.75
340.018	460.75
340.246	462.75
340.474	459.75
340.702	442.75
340.93	477.75
341.158	470.75
341.386	445.75
341.614	442.75
341.842	471.75
342.07	451.75
342.298	455.75
342.526	437.75
342.754	441.75
342.981	422.75
343.209	420.75
343.437	453.75
343.665	435.75
343.893	461.75
344.12	456.75
344.348	465.75
344.576	482.75
344.804	471.75
345.031	470.75
345.259	477.75
345.487	479.75
345.714	455.75
345.942	459.75
346.17	449.75
346.397	446.75
346.625	461.75
346.853	460.75
347.08	441.75
347.308	441.75
347.535	451.75
347.763	466.75
347.99	453.75
348.218	475.75
348.445	461.75
348.673	453.75
348.9	458.75
349.128	439.75
349.355	419.75
349.583	425.75
349.81	439.75
350.037	426.75
350.265	444.75
350.492	445.75
350.72	440.75
350.947	447.75
351.174	435.75
351.402	442.75
351.629	459.75
351.856	447.75
352.083	451.75
352.311	454.75
352.538	469.75
352.765	468.75
352.992	457.75
353.22	459.75
353.447	441.75
353.674	443.75
353.901	449.75
354.128	436.75
354.355	423.75
354.583	419.75
354.81	413.75
355.037	429.75
355.264	419.75
355.491	422.75
355.718	415.75
355.945	421.75
356.172	409.75
356.399	415.75
356.626	424.75
356.853	439.75
357.08	421.75
357.307	420.75
357.534	421.75
357.761	431.75
357.988	434.75
358.215	440.75
358.441	428.75
358.668	406.75
358.895	417.75
359.122	437.75
359.349	423.75
359.576	473.75
359.802	469.75
360.029	505.75
360.256	532.75
360.483	512.75
360.709	462.75
360.936	447.75
361.163	447.75
361.39	451.75
361.616	445.75
361.843	446.75
362.07	445.75
362.296	459.75
362.523	456.75
362.749	436.75
362.976	438.75
363.203	449.75
363.429	434.75
363.656	444.75
363.882	419.75
364.109	440.75
364.335	422.75
364.562	432.75
364.788	431.75
365.015	449.75
365.241	427.75
365.468	430.75
365.694	445.75
365.92	437.75
366.147	439.75
366.373	427.75
366.599	450.75
366.826	430.75
367.052	442.75
367.278	427.75
367.505	409.75
367.731	424.75
367.957	452.75
368.184	430.75
368.41	449.75
368.636	443.75
368.862	448.75
369.089	437.75
369.315	423.75
369.541	444.75
369.767	446.75
369.993	439.75
370.219	447.75
370.445	449.75
370.672	456.75
370.898	461.75
371.124	446.75
371.35	439.75
371.576	428.75
371.802	447.75
372.028	433.75
372.254	462.75
372.48	438.75
372.706	435.75
372.932	430.75
373.158	445.75
373.384	440.75
373.61	436.75
373.835	439.75
374.061	441.75
374.287	427.75
374.513	443.75
374.739	452.75
374.965	457.75
375.191	452.75
375.416	469.75
375.642	456.75
375.868	458.75
376.094	442.75
376.319	438.75
376.545	430.75
376.771	447.75
376.997	445.75
377.222	457.75
377.448	439.75
377.674	449.75
377.899	435.75
378.125	430.75
378.35	434.75
378.576	413.75
378.802	450.75
379.027	452.75
379.253	449.75
379.478	437.75
379.704	435.75
379.929	468.75
380.155	440.75
380.38	461.75
380.606	430.75
380.831	436.75
381.057	447.75
381.282	426.75
381.507	442.75
381.733	471.75
381.958	459.75
382.184	439.75
382.409	458.75
382.634	480.75
382.86	454.75
383.085	440.75
383.31	458.75
383.535	465.75
383.761	448.75
383.986	461.75
384.211	473.75
384.436	465.75
384.662	477.75
384.887	488.75
385.112	492.75
385.337	486.75
385.562	479.75
385.787	478.75
386.013	497.75
386.238	483.75
386.463	497.75
386.688	496.75
386.913	510.75
387.138	482.75
387.363	495.75
387.588	494.75
387.813	503.75
388.038	477.75
388.263	479.75
388.488	496.75
388.713	497.75
388.938	492.75
389.163	487.75
389.387	500.75
389.612	500.75
389.837	498.75
390.062	485.75
390.287	510.75
390.512	504.75
390.736	498.75
390.961	482.75
391.186	488.75
391.411	511.75
391.636	510.75
391.86	509.75
392.085	514.75
392.31	506.75
392.534	511.75
392.759	495.75
392.984	519.75
393.208	495.75
393.433	514.75
393.658	510.75
393.882	506.75
394.107	502.75
394.331	502.75
394.556	518.75
394.78	509.75
395.005	494.75
395.229	500.75
395.454	497.75
395.678	527.75
395.903	530.75
396.127	554.75
396.352	534.75
396.576	528.75
396.801	509.75
397.025	535.75
397.249	538.75
397.474	511.75
397.698	528.75
397.922	549.75
398.147	575.75
398.371	578.75
398.595	557.75
398.82	573.75
399.044	562.75
399.268	577.75
399.492	619.75
399.717	646.75
399.941	685.75
400.165	709.75
400.389	728.75
400.613	656.75
400.837	633.75
401.062	585.75
401.286	591.75
401.51	582.75
401.734	584.75
401.958	572.75
402.182	584.75
402.406	583.75
402.63	587.75
402.854	582.75
403.078	603.75
403.302	591.75
403.526	608.75
403.75	604.75
403.974	604.75
404.198	591.75
404.422	602.75
404.645	619.75
404.869	600.75
405.093	654.75
405.317	697.75
405.541	757.75
405.765	687.75
405.988	622.75
406.212	633.75
406.436	670.75
406.66	671.75
406.883	651.75
407.107	684.75
407.331	727.75
407.555	785.75
407.778	801.75
408.002	739.75
408.226	652.75
408.449	663.75
408.673	657.75
408.896	681.75
409.12	746.75
409.344	710.75
409.567	621.75
409.791	608.75
410.014	617.75
410.238	608.75
410.461	603.75
410.685	619.75
410.908	646.75
411.132	677.75
411.355	726.75
411.578	673.75
411.802	621.75
412.025	587.75
412.249	613.75
412.472	642.75
412.695	691.75
412.919	668.75
413.142	593.75
413.365	585.75
413.589	598.75
413.812	578.75
414.035	581.75
414.258	575.75
414.482	586.75
414.705	565.75
414.928	575.75
415.151	573.75
415.374	567.75
415.597	561.75
415.821	558.75
416.044	570.75
416.267	562.75
416.49	585.75
416.713	553.75
416.936	567.75
417.159	554.75
417.382	558.75
417.605	590.75
417.828	601.75
418.051	613.75
418.274	585.75
418.497	578.75
418.72	553.75
418.943	572.75
419.166	601.75
419.389	631.75
419.611	616.75
419.834	602.75
420.057	627.75
420.28	609.75
420.503	611.75
420.726	599.75
420.948	611.75
421.171	672.75
421.394	689.75
421.617	638.75
421.839	599.75
422.062	591.75
422.285	621.75
422.507	673.75
422.73	767.75
422.953	709.75
423.175	655.75
423.398	637.75
423.621	612.75
423.843	633.75
424.066	653.75
424.288	637.75
424.511	662.75
424.733	714.75
424.956	814.75
425.178	763.75
425.401	777.75
425.623	807.75
425.846	693.75
426.068	661.75
426.291	629.75
426.513	635.75
426.735	651.75
426.958	666.75
427.18	762.75
427.402	923.75
427.625	1010.75
427.847	846.75
428.069	748.75
428.292	702.75
428.514	647.75
428.736	601.75
428.958	611.75
429.181	581.75
429.403	593.75
429.625	609.75
429.847	646.75
430.069	702.75
430.292	728.75
430.514	634.75
430.736	595.75
430.958	584.75
431.18	573.75
431.402	566.75
431.624	531.75
431.846	548.75
432.068	555.75
432.29	572.75
432.512	556.75
432.734	590.75
432.956	573.75
433.178	590.75
433.4	555.75
433.622	582.75
433.844	538.75
434.066	552.75
434.287	569.75
434.509	564.75
434.731	585.75
434.953	575.75
435.175	611.75
435.397	633.75
435.618	669.75
435.84	679.75
436.062	784.75
436.284	870.75
436.505	712.75
436.727	657.75
436.949	619.75
437.17	594.75
437.392	597.75
437.614	598.75
437.835	643.75
438.057	746.75
438.278	874.75
438.5	872.75
438.721	976.75
438.943	905.75
439.165	724.75
439.386	629.75
439.608	653.75
439.829	664.75
440.05	691.75
440.272	722.75
440.493	678.75
440.715	650.75
440.936	596.75
441.158	610.75
441.379	612.75
441.6	594.75
441.822	655.75
442.043	707.75
442.264	772.75
442.486	798.75
442.707	695.75
442.928	674.75
443.149	668.75
443.371	669.75
443.592	758.75
443.813	865.75
444.034	890.75
444.255	747.75
444.476	679.75
444.698	652.75
444.919	634.75
445.14	773.75
445.361	697.75
445.582	677.75
445.803	750.75
446.024	866.75
446.245	894.75
446.466	805.75
446.687	687.75
446.908	645.75
447.129	601.75
447.35	605.75
447.571	582.75
447.792	579.75
448.013	594.75
448.234	596.75
448.455	664.75
448.675	775.75
448.896	939.75
449.117	775.75
449.338	745.75
449.559	853.75
449.779	1009.75
450	789.75
450.221	660.75
450.442	590.75
450.662	558.75
450.883	598.75
451.104	599.75
451.324	594.75
451.545	561.75
451.766	535.75
451.986	549.75
452.207	545.75
452.428	523.75
452.648	517.75
452.869	533.75
453.089	546.75
453.31	554.75
453.53	545.75
453.751	517.75
453.971	534.75
454.192	530.75
454.412	534.75
454.633	530.75
454.853	526.75
455.073	535.75
455.294	562.75
455.514	629.75
455.734	601.75
455.955	523.75
456.175	527.75
456.395	497.75
456.616	501.75
456.836	513.75
457.056	490.75
457.276	492.75
457.497	501.75
457.717	491.75
457.937	505.75
458.157	502.75
458.377	513.75
458.598	553.75
458.818	610.75
459.038	697.75
459.258	695.75
459.478	597.75
459.698	601.75
459.918	556.75
460.138	581.75
460.358	547.75
460.578	564.75
460.798	569.75
461.018	565.75
461.238	556.75
461.458	563.75
461.678	569.75
461.898	557.75
462.118	607.75
462.338	608.75
462.558	579.75
462.777	616.75
462.997	628.75
463.217	655.75
463.437	658.75
463.657	641.75
463.876	624.75
464.096	603.75
464.316	603.75
464.536	601.75
464.755	622.75
464.975	614.75
465.195	645.75
465.414	731.75
465.634	643.75
465.854	605.75
466.073	592.75
466.293	558.75
466.512	531.75
466.732	555.75
466.951	541.75
467.171	530.75
467.391	534.75
467.61	548.75
467.829	574.75
468.049	561.75
468.268	583.75
468.488	537.75
468.707	515.75
468.927	524.75
469.146	526.75
469.365	546.75
469.585	529.75
469.804	541.75
470.023	558.75
470.243	541.75
470.462	582.75
470.681	584.75
470.901	572.75
471.12	552.75
471.339	558.75
471.558	553.75
471.777	565.75
471.997	565.75
472.216	551.75
472.435	578.75
472.654	589.75
472.873	556.75
473.092	553.75
473.311	539.75
473.53	568.75
473.749	570.75
473.968	588.75
474.187	735.75
474.406	739.75
474.625	631.75
474.844	586.75
475.063	567.75
475.282	553.75
475.501	570.75
475.72	573.75
475.939	554.75
476.158	574.75
476.377	585.75
476.596	567.75
476.814	577.75
477.033	593.75
477.252	569.75
477.471	581.75
477.69	605.75
477.908	589.75
478.127	620.75
478.346	611.75
478.564	629.75
478.783	612.75
479.002	629.75
479.22	625.75
479.439	666.75
479.658	675.75
479.876	677.75
480.095	678.75
480.313	719.75
480.532	700.75
480.751	701.75
480.969	681.75
481.188	779.75
481.406	804.75
481.624	720.75
481.843	673.75
482.061	666.75
482.28	653.75
482.498	641.75
482.717	649.75
482.935	631.75
483.153	678.75
483.372	665.75
483.59	637.75
483.808	632.75
484.027	629.75
484.245	673.75
484.463	675.75
484.681	666.75
484.9	667.75
485.118	685.75
485.336	664.75
485.554	671.75
485.772	668.75
485.99	651.75
486.209	659.75
486.427	659.75
486.645	693.75
486.863	700.75
487.081	702.75
487.299	685.75
487.517	696.75
487.735	701.75
487.953	664.75
488.171	705.75
488.389	701.75
488.607	718.75
488.825	722.75
489.043	696.75
489.261	697.75
489.479	707.75
489.696	710.75
489.914	725.75
490.132	709.75
490.35	737.75
490.568	759.75
490.786	733.75
491.003	767.75
491.221	757.75
491.439	789.75
491.657	802.75
491.874	758.75
492.092	787.75
492.31	828.75
492.527	799.75
492.745	801.75
492.963	806.75
493.18	815.75
493.398	836.75
493.615	840.75
493.833	791.75
494.05	789.75
494.268	844.75
494.485	844.75
494.703	825.75
494.92	827.75
495.138	832.75
495.355	831.75
495.573	827.75
495.79	839.75
496.008	835.75
496.225	837.75
496.442	836.75
496.66	827.75
496.877	834.75
497.094	849.75
497.312	835.75
497.529	844.75
497.746	877.75
497.963	874.75
498.181	903.75
498.398	903.75
498.615	902.75
498.832	969.75
499.049	955.75
499.267	982.75
499.484	1009.75
499.701	1039.75
499.918	1074.75
500.135	1098.75
500.352	1192.75
500.569	1212.75
500.786	1201.75
501.003	1186.75
501.22	1180.75
501.437	1134.75
501.654	1083.75
