Data from 1966.PennyLincolnUp.Lamp.En5.5.200Scan.071719.P1._HRD10591_14-14-39-914.txt Node
Date: Thu Jul 18 14:14:39 EDT 2019
User: cochatt
Spectrometer: HR+D1059
Trigger mode: 1
Integration Time (sec): 1.000000E-1
Scans to average: 1
Electric dark correction enabled: true
Nonlinearity correction enabled: false
Boxcar width: 0
XAxis mode: Wavelengths
Number of Pixels in Spectrum: 2048
>>>>>Begin Spectral Data<<<<<
223.165	-9.31
223.4	-9.31
223.635	-9.31
223.869	-22.31
224.104	-0.31
224.338	-18.31
224.573	-22.31
224.808	-9.31
225.042	-6.31
225.277	-10.31
225.511	3.69
225.746	5.69
225.98	4.69
226.215	4.69
226.449	28.69
226.683	9.69
226.918	19.69
227.152	21.69
227.387	35.69
227.621	28.69
227.856	35.69
228.09	42.69
228.324	53.69
228.559	51.69
228.793	62.69
229.027	79.69
229.262	86.69
229.496	94.69
229.73	95.69
229.964	102.69
230.199	93.69
230.433	79.69
230.667	98.69
230.901	92.69
231.136	81.69
231.37	85.69
231.604	93.69
231.838	98.69
232.072	98.69
232.306	91.69
232.541	97.69
232.775	75.69
233.009	91.69
233.243	106.69
233.477	97.69
233.711	101.69
233.945	87.69
234.179	90.69
234.413	89.69
234.647	97.69
234.881	85.69
235.115	102.69
235.349	90.69
235.583	85.69
235.817	94.69
236.051	69.69
236.285	86.69
236.519	85.69
236.753	101.69
236.987	89.69
237.221	114.69
237.455	148.69
237.689	112.69
237.922	90.69
238.156	98.69
238.39	103.69
238.624	90.69
238.858	113.69
239.091	89.69
239.325	86.69
239.559	103.69
239.793	104.69
240.027	87.69
240.26	125.69
240.494	116.69
240.728	101.69
240.961	106.69
241.195	104.69
241.429	102.69
241.662	108.69
241.896	118.69
242.13	91.69
242.363	86.69
242.597	98.69
242.83	111.69
243.064	101.69
243.298	91.69
243.531	99.69
243.765	91.69
243.998	116.69
244.232	92.69
244.465	113.69
244.699	96.69
244.932	108.69
245.166	98.69
245.399	101.69
245.633	117.69
245.866	118.69
246.099	100.69
246.333	111.69
246.566	104.69
246.8	95.69
247.033	105.69
247.266	101.69
247.5	118.69
247.733	125.69
247.966	127.69
248.2	121.69
248.433	129.69
248.666	126.69
248.899	133.69
249.133	133.69
249.366	135.69
249.599	126.69
249.832	119.69
250.066	122.69
250.299	124.69
250.532	123.69
250.765	127.69
250.998	140.69
251.231	147.69
251.465	131.69
251.698	138.69
251.931	120.69
252.164	123.69
252.397	127.69
252.63	121.69
252.863	137.69
253.096	134.69
253.329	138.69
253.562	151.69
253.795	140.69
254.028	123.69
254.261	137.69
254.494	155.69
254.727	167.69
254.96	170.69
255.193	166.69
255.426	150.69
255.659	132.69
255.892	139.69
256.124	145.69
256.357	142.69
256.59	134.69
256.823	145.69
257.056	138.69
257.289	130.69
257.521	131.69
257.754	127.69
257.987	125.69
258.22	146.69
258.452	129.69
258.685	135.69
258.918	133.69
259.151	136.69
259.383	126.69
259.616	143.69
259.849	147.69
260.081	145.69
260.314	166.69
260.547	152.69
260.779	145.69
261.012	130.69
261.244	140.69
261.477	143.69
261.71	155.69
261.942	140.69
262.175	131.69
262.407	163.69
262.64	140.69
262.872	127.69
263.105	141.69
263.337	133.69
263.57	139.69
263.802	139.69
264.035	143.69
264.267	141.69
264.499	136.69
264.732	135.69
264.964	153.69
265.197	131.69
265.429	136.69
265.661	139.69
265.894	130.69
266.126	130.69
266.358	134.69
266.591	135.69
266.823	140.69
267.055	150.69
267.287	150.69
267.52	142.69
267.752	129.69
267.984	149.69
268.216	140.69
268.448	142.69
268.681	122.69
268.913	125.69
269.145	150.69
269.377	170.69
269.609	168.69
269.841	161.69
270.073	158.69
270.306	180.69
270.538	196.69
270.77	190.69
271.002	178.69
271.234	179.69
271.466	174.69
271.698	177.69
271.93	187.69
272.162	169.69
272.394	189.69
272.626	179.69
272.858	169.69
273.09	151.69
273.322	157.69
273.553	158.69
273.785	168.69
274.017	147.69
274.249	148.69
274.481	155.69
274.713	143.69
274.945	154.69
275.176	152.69
275.408	152.69
275.64	150.69
275.872	142.69
276.104	141.69
276.335	152.69
276.567	158.69
276.799	183.69
277.031	181.69
277.262	181.69
277.494	201.69
277.726	157.69
277.957	163.69
278.189	184.69
278.421	171.69
278.652	154.69
278.884	175.69
279.115	141.69
279.347	158.69
279.579	142.69
279.81	149.69
280.042	166.69
280.273	149.69
280.505	151.69
280.736	159.69
280.968	152.69
281.199	149.69
281.431	166.69
281.662	159.69
281.894	155.69
282.125	158.69
282.356	155.69
282.588	189.69
282.819	180.69
283.051	153.69
283.282	158.69
283.513	168.69
283.745	178.69
283.976	178.69
284.207	177.69
284.439	157.69
284.67	154.69
284.901	160.69
285.132	170.69
285.364	168.69
285.595	171.69
285.826	160.69
286.057	172.69
286.288	151.69
286.52	142.69
286.751	162.69
286.982	160.69
287.213	159.69
287.444	187.69
287.675	173.69
287.906	170.69
288.138	160.69
288.369	188.69
288.6	172.69
288.831	179.69
289.062	183.69
289.293	174.69
289.524	165.69
289.755	159.69
289.986	155.69
290.217	181.69
290.448	170.69
290.679	185.69
290.91	172.69
291.141	157.69
291.371	160.69
291.602	163.69
291.833	162.69
292.064	174.69
292.295	181.69
292.526	154.69
292.757	173.69
292.987	170.69
293.218	180.69
293.449	180.69
293.68	176.69
293.91	158.69
294.141	170.69
294.372	177.69
294.603	163.69
294.833	171.69
295.064	165.69
295.295	172.69
295.525	184.69
295.756	179.69
295.987	183.69
296.217	202.69
296.448	211.69
296.679	188.69
296.909	185.69
297.14	156.69
297.37	170.69
297.601	177.69
297.831	179.69
298.062	177.69
298.292	170.69
298.523	173.69
298.753	169.69
298.984	184.69
299.214	184.69
299.445	175.69
299.675	189.69
299.905	180.69
300.136	183.69
300.366	173.69
300.597	182.69
300.827	168.69
301.057	185.69
301.288	185.69
301.518	174.69
301.748	197.69
301.979	175.69
302.209	179.69
302.439	185.69
302.669	187.69
302.9	165.69
303.13	176.69
303.36	196.69
303.59	182.69
303.82	185.69
304.051	183.69
304.281	176.69
304.511	193.69
304.741	167.69
304.971	181.69
305.201	166.69
305.431	175.69
305.661	195.69
305.891	180.69
306.121	200.69
306.352	203.69
306.582	197.69
306.812	199.69
307.042	183.69
307.272	181.69
307.502	182.69
307.731	190.69
307.961	202.69
308.191	189.69
308.421	170.69
308.651	200.69
308.881	195.69
309.111	191.69
309.341	194.69
309.571	185.69
309.8	192.69
310.03	208.69
310.26	215.69
310.49	194.69
310.72	197.69
310.949	207.69
311.179	236.69
311.409	217.69
311.639	193.69
311.868	214.69
312.098	219.69
312.328	217.69
312.557	211.69
312.787	235.69
313.017	218.69
313.246	188.69
313.476	212.69
313.706	194.69
313.935	189.69
314.165	196.69
314.394	234.69
314.624	222.69
314.853	208.69
315.083	218.69
315.312	215.69
315.542	181.69
315.771	190.69
316.001	194.69
316.23	196.69
316.46	201.69
316.689	202.69
316.919	186.69
317.148	218.69
317.377	214.69
317.607	223.69
317.836	201.69
318.065	201.69
318.295	206.69
318.524	199.69
318.753	193.69
318.983	207.69
319.212	209.69
319.441	215.69
319.67	219.69
319.9	210.69
320.129	190.69
320.358	215.69
320.587	221.69
320.816	225.69
321.046	210.69
321.275	198.69
321.504	212.69
321.733	191.69
321.962	223.69
322.191	230.69
322.42	238.69
322.649	228.69
322.878	234.69
323.108	236.69
323.337	235.69
323.566	268.69
323.795	275.69
324.024	299.69
324.253	366.69
324.482	501.69
324.71	783.69
324.939	1046.69
325.168	850.69
325.397	437.69
325.626	316.69
325.855	266.69
326.084	251.69
326.313	244.69
326.542	260.69
326.77	310.69
326.999	339.69
327.228	485.69
327.457	677.69
327.686	812.69
327.914	521.69
328.143	337.69
328.372	338.69
328.6	323.69
328.829	314.69
329.058	327.69
329.287	327.69
329.515	295.69
329.744	286.69
329.972	270.69
330.201	294.69
330.43	327.69
330.658	341.69
330.887	327.69
331.115	345.69
331.344	283.69
331.572	257.69
331.801	262.69
332.03	254.69
332.258	237.69
332.486	238.69
332.715	219.69
332.943	247.69
333.172	229.69
333.4	235.69
333.629	226.69
333.857	244.69
334.085	272.69
334.314	285.69
334.542	289.69
334.771	315.69
334.999	283.69
335.227	261.69
335.455	237.69
335.684	228.69
335.912	222.69
336.14	222.69
336.369	229.69
336.597	225.69
336.825	237.69
337.053	213.69
337.281	230.69
337.51	221.69
337.738	228.69
337.966	227.69
338.194	240.69
338.422	238.69
338.65	223.69
338.878	228.69
339.106	231.69
339.334	231.69
339.562	219.69
339.79	226.69
340.018	236.69
340.246	217.69
340.474	236.69
340.702	225.69
340.93	225.69
341.158	222.69
341.386	235.69
341.614	229.69
341.842	234.69
342.07	226.69
342.298	219.69
342.526	219.69
342.754	205.69
342.981	209.69
343.209	214.69
343.437	218.69
343.665	221.69
343.893	216.69
344.12	221.69
344.348	238.69
344.576	226.69
344.804	232.69
345.031	219.69
345.259	241.69
345.487	241.69
345.714	225.69
345.942	224.69
346.17	212.69
346.397	217.69
346.625	220.69
346.853	215.69
347.08	215.69
347.308	233.69
347.535	211.69
347.763	235.69
347.99	218.69
348.218	207.69
348.445	214.69
348.673	219.69
348.9	240.69
349.128	223.69
349.355	207.69
349.583	207.69
349.81	225.69
350.037	212.69
350.265	212.69
350.492	211.69
350.72	212.69
350.947	214.69
351.174	232.69
351.402	234.69
351.629	226.69
351.856	227.69
352.083	243.69
352.311	238.69
352.538	226.69
352.765	219.69
352.992	222.69
353.22	208.69
353.447	214.69
353.674	220.69
353.901	222.69
354.128	219.69
354.355	220.69
354.583	205.69
354.81	204.69
355.037	219.69
355.264	207.69
355.491	206.69
355.718	210.69
355.945	210.69
356.172	202.69
356.399	212.69
356.626	197.69
356.853	202.69
357.08	199.69
357.307	188.69
357.534	207.69
357.761	228.69
357.988	210.69
358.215	204.69
358.441	213.69
358.668	207.69
358.895	205.69
359.122	216.69
359.349	209.69
359.576	202.69
359.802	228.69
360.029	214.69
360.256	267.69
360.483	234.69
360.709	225.69
360.936	220.69
361.163	209.69
361.39	205.69
361.616	237.69
361.843	226.69
362.07	219.69
362.296	225.69
362.523	237.69
362.749	207.69
362.976	218.69
363.203	219.69
363.429	198.69
363.656	212.69
363.882	214.69
364.109	205.69
364.335	200.69
364.562	207.69
364.788	207.69
365.015	208.69
365.241	231.69
365.468	218.69
365.694	218.69
365.92	218.69
366.147	201.69
366.373	214.69
366.599	189.69
366.826	193.69
367.052	203.69
367.278	200.69
367.505	207.69
367.731	192.69
367.957	200.69
368.184	212.69
368.41	217.69
368.636	225.69
368.862	203.69
369.089	200.69
369.315	221.69
369.541	202.69
369.767	217.69
369.993	198.69
370.219	224.69
370.445	218.69
370.672	191.69
370.898	196.69
371.124	205.69
371.35	209.69
371.576	220.69
371.802	215.69
372.028	204.69
372.254	216.69
372.48	220.69
372.706	222.69
372.932	217.69
373.158	205.69
373.384	209.69
373.61	212.69
373.835	218.69
374.061	209.69
374.287	226.69
374.513	221.69
374.739	212.69
374.965	195.69
375.191	201.69
375.416	228.69
375.642	188.69
375.868	213.69
376.094	214.69
376.319	199.69
376.545	202.69
376.771	205.69
376.997	194.69
377.222	215.69
377.448	218.69
377.674	206.69
377.899	202.69
378.125	207.69
378.35	209.69
378.576	222.69
378.802	201.69
379.027	199.69
379.253	199.69
379.478	217.69
379.704	207.69
379.929	207.69
380.155	207.69
380.38	210.69
380.606	211.69
380.831	207.69
381.057	215.69
381.282	204.69
381.507	213.69
381.733	194.69
381.958	225.69
382.184	204.69
382.409	212.69
382.634	205.69
382.86	199.69
383.085	214.69
383.31	222.69
383.535	207.69
383.761	218.69
383.986	212.69
384.211	203.69
384.436	207.69
384.662	217.69
384.887	216.69
385.112	220.69
385.337	221.69
385.562	190.69
385.787	214.69
386.013	209.69
386.238	207.69
386.463	217.69
386.688	227.69
386.913	219.69
387.138	212.69
387.363	220.69
387.588	205.69
387.813	211.69
388.038	211.69
388.263	226.69
388.488	219.69
388.713	220.69
388.938	200.69
389.163	215.69
389.387	234.69
389.612	228.69
389.837	218.69
390.062	213.69
390.287	223.69
390.512	206.69
390.736	211.69
390.961	212.69
391.186	229.69
391.411	218.69
391.636	223.69
391.86	239.69
392.085	221.69
392.31	216.69
392.534	234.69
392.759	210.69
392.984	225.69
393.208	224.69
393.433	217.69
393.658	225.69
393.882	215.69
394.107	223.69
394.331	204.69
394.556	219.69
394.78	219.69
395.005	205.69
395.229	221.69
395.454	247.69
395.678	218.69
395.903	231.69
396.127	223.69
396.352	254.69
396.576	244.69
396.801	233.69
397.025	215.69
397.249	229.69
397.474	229.69
397.698	226.69
397.922	245.69
398.147	260.69
398.371	239.69
398.595	248.69
398.82	222.69
399.044	259.69
399.268	259.69
399.492	274.69
399.717	290.69
399.941	278.69
400.165	305.69
400.389	311.69
400.613	274.69
400.837	267.69
401.062	243.69
401.286	251.69
401.51	245.69
401.734	243.69
401.958	234.69
402.182	243.69
402.406	267.69
402.63	263.69
402.854	249.69
403.078	263.69
403.302	282.69
403.526	243.69
403.75	243.69
403.974	264.69
404.198	259.69
404.422	262.69
404.645	257.69
404.869	269.69
405.093	267.69
405.317	288.69
405.541	315.69
405.765	285.69
405.988	275.69
406.212	287.69
406.436	286.69
406.66	308.69
406.883	287.69
407.107	285.69
407.331	319.69
407.555	311.69
407.778	324.69
408.002	303.69
408.226	267.69
408.449	279.69
408.673	262.69
408.896	282.69
409.12	298.69
409.344	298.69
409.567	259.69
409.791	254.69
410.014	256.69
410.238	261.69
410.461	241.69
410.685	266.69
410.908	271.69
411.132	284.69
411.355	275.69
411.578	265.69
411.802	265.69
412.025	248.69
412.249	260.69
412.472	264.69
412.695	284.69
412.919	265.69
413.142	246.69
413.365	245.69
413.589	257.69
413.812	246.69
414.035	238.69
414.258	250.69
414.482	240.69
414.705	231.69
414.928	267.69
415.151	217.69
415.374	223.69
415.597	250.69
415.821	259.69
416.044	251.69
416.267	245.69
416.49	242.69
416.713	255.69
416.936	247.69
417.159	239.69
417.382	247.69
417.605	251.69
417.828	247.69
418.051	262.69
418.274	243.69
418.497	246.69
418.72	256.69
418.943	241.69
419.166	268.69
419.389	268.69
419.611	253.69
419.834	273.69
420.057	272.69
420.28	268.69
420.503	253.69
420.726	244.69
420.948	270.69
421.171	294.69
421.394	287.69
421.617	256.69
421.839	250.69
422.062	260.69
422.285	253.69
422.507	285.69
422.73	306.69
422.953	302.69
423.175	257.69
423.398	257.69
423.621	268.69
423.843	281.69
424.066	270.69
424.288	273.69
424.511	293.69
424.733	308.69
424.956	318.69
425.178	327.69
425.401	317.69
425.623	324.69
425.846	295.69
426.068	265.69
426.291	267.69
426.513	270.69
426.735	277.69
426.958	283.69
427.18	316.69
427.402	380.69
427.625	425.69
427.847	371.69
428.069	332.69
428.292	290.69
428.514	266.69
428.736	258.69
428.958	261.69
429.181	232.69
429.403	247.69
429.625	243.69
429.847	279.69
430.069	309.69
430.292	297.69
430.514	253.69
430.736	263.69
430.958	248.69
431.18	257.69
431.402	257.69
431.624	257.69
431.846	232.69
432.068	237.69
432.29	243.69
432.512	247.69
432.734	245.69
432.956	249.69
433.178	247.69
433.4	237.69
433.622	247.69
433.844	242.69
434.066	256.69
434.287	252.69
434.509	241.69
434.731	239.69
434.953	241.69
435.175	261.69
435.397	283.69
435.618	267.69
435.84	295.69
436.062	323.69
436.284	344.69
436.505	286.69
436.727	289.69
436.949	253.69
437.17	253.69
437.392	243.69
437.614	267.69
437.835	276.69
438.057	325.69
438.278	358.69
438.5	350.69
438.721	394.69
438.943	353.69
439.165	276.69
439.386	267.69
439.608	265.69
439.829	284.69
440.05	298.69
440.272	317.69
440.493	289.69
440.715	273.69
440.936	263.69
441.158	253.69
441.379	255.69
441.6	284.69
441.822	264.69
442.043	295.69
442.264	340.69
442.486	344.69
442.707	298.69
442.928	275.69
443.149	272.69
443.371	293.69
443.592	321.69
443.813	349.69
444.034	361.69
444.255	311.69
444.476	294.69
444.698	271.69
444.919	269.69
445.14	365.69
445.361	329.69
445.582	307.69
445.803	325.69
446.024	360.69
446.245	359.69
446.466	334.69
446.687	296.69
446.908	265.69
447.129	243.69
447.35	259.69
447.571	243.69
447.792	232.69
448.013	261.69
448.234	266.69
448.455	305.69
448.675	340.69
448.896	379.69
449.117	323.69
449.338	303.69
449.559	346.69
449.779	400.69
450	313.69
450.221	243.69
450.442	261.69
450.662	257.69
450.883	267.69
451.104	259.69
451.324	263.69
451.545	241.69
451.766	245.69
451.986	212.69
452.207	223.69
452.428	229.69
452.648	229.69
452.869	244.69
453.089	246.69
453.31	234.69
453.53	223.69
453.751	231.69
453.971	243.69
454.192	246.69
454.412	255.69
454.633	221.69
454.853	229.69
455.073	211.69
455.294	261.69
455.514	272.69
455.734	250.69
455.955	227.69
456.175	228.69
456.395	221.69
456.616	230.69
456.836	201.69
457.056	218.69
457.276	216.69
457.497	208.69
457.717	228.69
457.937	224.69
458.157	227.69
458.377	242.69
458.598	252.69
458.818	270.69
459.038	308.69
459.258	326.69
459.478	275.69
459.698	241.69
459.918	227.69
460.138	241.69
460.358	249.69
460.578	253.69
460.798	254.69
461.018	257.69
461.238	244.69
461.458	226.69
461.678	241.69
461.898	249.69
462.118	231.69
462.338	257.69
462.558	258.69
462.777	266.69
462.997	265.69
463.217	257.69
463.437	279.69
463.657	269.69
463.876	268.69
464.096	262.69
464.316	274.69
464.536	284.69
464.755	266.69
464.975	279.69
465.195	301.69
465.414	341.69
465.634	299.69
465.854	270.69
466.073	250.69
466.293	265.69
466.512	215.69
466.732	233.69
466.951	238.69
467.171	242.69
467.391	230.69
467.61	246.69
467.829	270.69
468.049	241.69
468.268	245.69
468.488	241.69
468.707	218.69
468.927	225.69
469.146	235.69
469.365	219.69
469.585	212.69
469.804	243.69
470.023	242.69
470.243	234.69
470.462	249.69
470.681	267.69
470.901	245.69
471.12	220.69
471.339	229.69
471.558	223.69
471.777	234.69
471.997	235.69
472.216	246.69
472.435	281.69
472.654	267.69
472.873	254.69
473.092	243.69
473.311	234.69
473.53	224.69
473.749	231.69
473.968	258.69
474.187	313.69
474.406	319.69
474.625	283.69
474.844	247.69
475.063	252.69
475.282	230.69
475.501	248.69
475.72	251.69
475.939	244.69
476.158	242.69
476.377	237.69
476.596	238.69
476.814	241.69
477.033	248.69
477.252	254.69
477.471	238.69
477.69	256.69
477.908	245.69
478.127	263.69
478.346	257.69
478.564	266.69
478.783	260.69
479.002	275.69
479.22	270.69
479.439	284.69
479.658	299.69
479.876	276.69
480.095	289.69
480.313	309.69
480.532	289.69
480.751	292.69
480.969	314.69
481.188	350.69
481.406	398.69
481.624	306.69
481.843	318.69
482.061	289.69
482.28	292.69
482.498	277.69
482.717	274.69
482.935	265.69
483.153	265.69
483.372	272.69
483.59	272.69
483.808	293.69
484.027	274.69
484.245	261.69
484.463	260.69
484.681	294.69
484.9	274.69
485.118	272.69
485.336	278.69
485.554	292.69
485.772	287.69
485.99	282.69
486.209	266.69
486.427	296.69
486.645	296.69
486.863	302.69
487.081	291.69
487.299	300.69
487.517	302.69
487.735	307.69
487.953	281.69
488.171	295.69
488.389	293.69
488.607	303.69
488.825	315.69
489.043	298.69
489.261	291.69
489.479	278.69
489.696	307.69
489.914	289.69
490.132	341.69
490.35	311.69
490.568	320.69
490.786	308.69
491.003	330.69
491.221	332.69
491.439	361.69
491.657	337.69
491.874	355.69
492.092	350.69
492.31	339.69
492.527	354.69
492.745	341.69
492.963	356.69
493.18	339.69
493.398	342.69
493.615	353.69
493.833	349.69
494.05	327.69
494.268	361.69
494.485	339.69
494.703	347.69
494.92	356.69
495.138	361.69
495.355	348.69
495.573	342.69
495.79	353.69
496.008	339.69
496.225	346.69
496.442	357.69
496.66	344.69
496.877	332.69
497.094	346.69
497.312	330.69
497.529	353.69
497.746	370.69
497.963	347.69
498.181	396.69
498.398	353.69
498.615	369.69
498.832	355.69
499.049	377.69
499.267	370.69
499.484	399.69
499.701	397.69
499.918	391.69
500.135	436.69
500.352	432.69
500.569	442.69
500.786	457.69
501.003	466.69
501.22	450.69
501.437	440.69
501.654	420.69
501.871	429.69
502.088	396.69
502.305	402.69
502.522	363.69
502.739	369.69
