Data from 1966.PennyLincolnUp.Lamp.En5.5.200Scan.071719.P1._HRD10591_14-12-52-914.txt Node
Date: Thu Jul 18 14:12:52 EDT 2019
User: cochatt
Spectrometer: HR+D1059
Trigger mode: 1
Integration Time (sec): 1.000000E-1
Scans to average: 1
Electric dark correction enabled: true
Nonlinearity correction enabled: false
Boxcar width: 0
XAxis mode: Wavelengths
Number of Pixels in Spectrum: 2048
>>>>>Begin Spectral Data<<<<<
223.165	-12.88
223.4	-12.88
223.635	-12.88
223.869	-17.88
224.104	-19.88
224.338	-6.88
224.573	-14.88
224.808	-11.88
225.042	-9.88
225.277	6.12
225.511	-8.88
225.746	12.12
225.98	8.12
226.215	2.12
226.449	6.12
226.683	11.12
226.918	36.12
227.152	21.12
227.387	36.12
227.621	44.12
227.856	58.12
228.09	42.12
228.324	58.12
228.559	58.12
228.793	58.12
229.027	70.12
229.262	78.12
229.496	88.12
229.73	88.12
229.964	112.12
230.199	89.12
230.433	90.12
230.667	100.12
230.901	87.12
231.136	86.12
231.37	103.12
231.604	88.12
231.838	93.12
232.072	93.12
232.306	96.12
232.541	97.12
232.775	91.12
233.009	87.12
233.243	89.12
233.477	95.12
233.711	100.12
233.945	102.12
234.179	96.12
234.413	80.12
234.647	97.12
234.881	93.12
235.115	89.12
235.349	94.12
235.583	109.12
235.817	97.12
236.051	95.12
236.285	101.12
236.519	99.12
236.753	98.12
236.987	114.12
237.221	125.12
237.455	137.12
237.689	124.12
237.922	110.12
238.156	101.12
238.39	83.12
238.624	99.12
238.858	81.12
239.091	93.12
239.325	96.12
239.559	92.12
239.793	101.12
240.027	91.12
240.26	103.12
240.494	124.12
240.728	110.12
240.961	110.12
241.195	110.12
241.429	101.12
241.662	102.12
241.896	101.12
242.13	108.12
242.363	86.12
242.597	101.12
242.83	100.12
243.064	102.12
243.298	92.12
243.531	94.12
243.765	104.12
243.998	98.12
244.232	102.12
244.465	107.12
244.699	112.12
244.932	103.12
245.166	109.12
245.399	113.12
245.633	116.12
245.866	97.12
246.099	97.12
246.333	103.12
246.566	110.12
246.8	111.12
247.033	105.12
247.266	109.12
247.5	118.12
247.733	118.12
247.966	127.12
248.2	109.12
248.433	121.12
248.666	111.12
248.899	126.12
249.133	122.12
249.366	130.12
249.599	99.12
249.832	125.12
250.066	120.12
250.299	123.12
250.532	124.12
250.765	138.12
250.998	150.12
251.231	132.12
251.465	135.12
251.698	116.12
251.931	119.12
252.164	113.12
252.397	134.12
252.63	132.12
252.863	145.12
253.096	121.12
253.329	136.12
253.562	133.12
253.795	138.12
254.028	118.12
254.261	120.12
254.494	149.12
254.727	138.12
254.96	161.12
255.193	146.12
255.426	150.12
255.659	133.12
255.892	143.12
256.124	141.12
256.357	137.12
256.59	137.12
256.823	138.12
257.056	130.12
257.289	131.12
257.521	123.12
257.754	122.12
257.987	123.12
258.22	142.12
258.452	132.12
258.685	133.12
258.918	133.12
259.151	130.12
259.383	126.12
259.616	140.12
259.849	133.12
260.081	125.12
260.314	159.12
260.547	159.12
260.779	145.12
261.012	138.12
261.244	146.12
261.477	126.12
261.71	136.12
261.942	151.12
262.175	147.12
262.407	144.12
262.64	124.12
262.872	141.12
263.105	134.12
263.337	134.12
263.57	122.12
263.802	128.12
264.035	134.12
264.267	142.12
264.499	125.12
264.732	130.12
264.964	140.12
265.197	134.12
265.429	132.12
265.661	136.12
265.894	127.12
266.126	128.12
266.358	128.12
266.591	144.12
266.823	132.12
267.055	113.12
267.287	136.12
267.52	135.12
267.752	118.12
267.984	137.12
268.216	127.12
268.448	145.12
268.681	140.12
268.913	132.12
269.145	159.12
269.377	158.12
269.609	157.12
269.841	158.12
270.073	153.12
270.306	166.12
270.538	173.12
270.77	167.12
271.002	177.12
271.234	154.12
271.466	172.12
271.698	175.12
271.93	168.12
272.162	181.12
272.394	174.12
272.626	177.12
272.858	151.12
273.09	154.12
273.322	159.12
273.553	157.12
273.785	146.12
274.017	156.12
274.249	156.12
274.481	170.12
274.713	152.12
274.945	142.12
275.176	138.12
275.408	146.12
275.64	153.12
275.872	146.12
276.104	141.12
276.335	168.12
276.567	161.12
276.799	171.12
277.031	174.12
277.262	173.12
277.494	170.12
277.726	163.12
277.957	168.12
278.189	157.12
278.421	146.12
278.652	168.12
278.884	159.12
279.115	142.12
279.347	148.12
279.579	151.12
279.81	156.12
280.042	147.12
280.273	162.12
280.505	163.12
280.736	150.12
280.968	155.12
281.199	160.12
281.431	150.12
281.662	148.12
281.894	157.12
282.125	164.12
282.356	139.12
282.588	156.12
282.819	170.12
283.051	164.12
283.282	135.12
283.513	146.12
283.745	161.12
283.976	165.12
284.207	160.12
284.439	158.12
284.67	168.12
284.901	161.12
285.132	160.12
285.364	166.12
285.595	171.12
285.826	153.12
286.057	172.12
286.288	171.12
286.52	172.12
286.751	159.12
286.982	157.12
287.213	164.12
287.444	173.12
287.675	157.12
287.906	153.12
288.138	181.12
288.369	173.12
288.6	156.12
288.831	162.12
289.062	174.12
289.293	172.12
289.524	160.12
289.755	163.12
289.986	158.12
290.217	167.12
290.448	145.12
290.679	161.12
290.91	165.12
291.141	160.12
291.371	158.12
291.602	159.12
291.833	160.12
292.064	172.12
292.295	174.12
292.526	177.12
292.757	169.12
292.987	183.12
293.218	162.12
293.449	162.12
293.68	165.12
293.91	172.12
294.141	177.12
294.372	162.12
294.603	176.12
294.833	162.12
295.064	165.12
295.295	169.12
295.525	149.12
295.756	175.12
295.987	186.12
296.217	192.12
296.448	184.12
296.679	167.12
296.909	160.12
297.14	170.12
297.37	171.12
297.601	176.12
297.831	160.12
298.062	181.12
298.292	174.12
298.523	170.12
298.753	170.12
298.984	171.12
299.214	168.12
299.445	175.12
299.675	157.12
299.905	193.12
300.136	171.12
300.366	168.12
300.597	185.12
300.827	186.12
301.057	171.12
301.288	196.12
301.518	181.12
301.748	184.12
301.979	192.12
302.209	175.12
302.439	184.12
302.669	175.12
302.9	168.12
303.13	173.12
303.36	175.12
303.59	166.12
303.82	204.12
304.051	202.12
304.281	192.12
304.511	167.12
304.741	180.12
304.971	164.12
305.201	187.12
305.431	178.12
305.661	162.12
305.891	154.12
306.121	174.12
306.352	190.12
306.582	185.12
306.812	170.12
307.042	172.12
307.272	176.12
307.502	178.12
307.731	181.12
307.961	168.12
308.191	186.12
308.421	167.12
308.651	181.12
308.881	184.12
309.111	180.12
309.341	180.12
309.571	176.12
309.8	186.12
310.03	196.12
310.26	196.12
310.49	204.12
310.72	197.12
310.949	189.12
311.179	217.12
311.409	198.12
311.639	201.12
311.868	189.12
312.098	189.12
312.328	173.12
312.557	207.12
312.787	214.12
313.017	206.12
313.246	196.12
313.476	195.12
313.706	191.12
313.935	198.12
314.165	217.12
314.394	202.12
314.624	193.12
314.853	205.12
315.083	197.12
315.312	201.12
315.542	189.12
315.771	204.12
316.001	199.12
316.23	191.12
316.46	198.12
316.689	195.12
316.919	196.12
317.148	205.12
317.377	212.12
317.607	194.12
317.836	212.12
318.065	189.12
318.295	209.12
318.524	185.12
318.753	193.12
318.983	193.12
319.212	195.12
319.441	194.12
319.67	173.12
319.9	188.12
320.129	190.12
320.358	193.12
320.587	191.12
320.816	205.12
321.046	208.12
321.275	205.12
321.504	185.12
321.733	201.12
321.962	208.12
322.191	221.12
322.42	224.12
322.649	240.12
322.878	218.12
323.108	230.12
323.337	251.12
323.566	220.12
323.795	261.12
324.024	279.12
324.253	317.12
324.482	476.12
324.71	686.12
324.939	913.12
325.168	749.12
325.397	390.12
325.626	281.12
325.855	252.12
326.084	220.12
326.313	237.12
326.542	253.12
326.77	261.12
326.999	328.12
327.228	423.12
327.457	630.12
327.686	704.12
327.914	459.12
328.143	316.12
328.372	292.12
328.6	279.12
328.829	274.12
329.058	291.12
329.287	280.12
329.515	252.12
329.744	246.12
329.972	245.12
330.201	250.12
330.43	294.12
330.658	314.12
330.887	314.12
331.115	309.12
331.344	245.12
331.572	252.12
331.801	240.12
332.03	220.12
332.258	236.12
332.486	214.12
332.715	220.12
332.943	228.12
333.172	214.12
333.4	220.12
333.629	225.12
333.857	231.12
334.085	244.12
334.314	266.12
334.542	267.12
334.771	288.12
334.999	264.12
335.227	241.12
335.455	253.12
335.684	221.12
335.912	230.12
336.14	221.12
336.369	226.12
336.597	223.12
336.825	244.12
337.053	218.12
337.281	230.12
337.51	224.12
337.738	232.12
337.966	225.12
338.194	224.12
338.422	210.12
338.65	220.12
338.878	231.12
339.106	221.12
339.334	196.12
339.562	219.12
339.79	221.12
340.018	214.12
340.246	215.12
340.474	229.12
340.702	224.12
340.93	221.12
341.158	225.12
341.386	207.12
341.614	217.12
341.842	192.12
342.07	217.12
342.298	219.12
342.526	204.12
342.754	218.12
342.981	209.12
343.209	188.12
343.437	222.12
343.665	216.12
343.893	214.12
344.12	228.12
344.348	215.12
344.576	230.12
344.804	213.12
345.031	232.12
345.259	232.12
345.487	219.12
345.714	232.12
345.942	218.12
346.17	227.12
346.397	227.12
346.625	229.12
346.853	214.12
347.08	199.12
347.308	204.12
347.535	205.12
347.763	229.12
347.99	222.12
348.218	218.12
348.445	211.12
348.673	231.12
348.9	213.12
349.128	210.12
349.355	205.12
349.583	208.12
349.81	183.12
350.037	210.12
350.265	193.12
350.492	190.12
350.72	194.12
350.947	226.12
351.174	205.12
351.402	217.12
351.629	209.12
351.856	221.12
352.083	206.12
352.311	196.12
352.538	228.12
352.765	242.12
352.992	222.12
353.22	207.12
353.447	209.12
353.674	206.12
353.901	194.12
354.128	202.12
354.355	190.12
354.583	209.12
354.81	209.12
355.037	205.12
355.264	208.12
355.491	192.12
355.718	208.12
355.945	210.12
356.172	184.12
356.399	182.12
356.626	190.12
356.853	194.12
357.08	211.12
357.307	193.12
357.534	203.12
357.761	194.12
357.988	199.12
358.215	202.12
358.441	203.12
358.668	205.12
358.895	196.12
359.122	211.12
359.349	201.12
359.576	198.12
359.802	220.12
360.029	230.12
360.256	251.12
360.483	231.12
360.709	201.12
360.936	226.12
361.163	200.12
361.39	210.12
361.616	224.12
361.843	214.12
362.07	220.12
362.296	222.12
362.523	203.12
362.749	206.12
362.976	225.12
363.203	202.12
363.429	209.12
363.656	216.12
363.882	202.12
364.109	186.12
364.335	200.12
364.562	192.12
364.788	210.12
365.015	204.12
365.241	186.12
365.468	199.12
365.694	216.12
365.92	222.12
366.147	211.12
366.373	208.12
366.599	191.12
366.826	185.12
367.052	202.12
367.278	200.12
367.505	201.12
367.731	204.12
367.957	206.12
368.184	207.12
368.41	201.12
368.636	210.12
368.862	211.12
369.089	213.12
369.315	209.12
369.541	192.12
369.767	184.12
369.993	184.12
370.219	196.12
370.445	199.12
370.672	190.12
370.898	191.12
371.124	207.12
371.35	200.12
371.576	200.12
371.802	197.12
372.028	194.12
372.254	180.12
372.48	203.12
372.706	204.12
372.932	210.12
373.158	194.12
373.384	207.12
373.61	208.12
373.835	194.12
374.061	186.12
374.287	206.12
374.513	188.12
374.739	197.12
374.965	202.12
375.191	204.12
375.416	201.12
375.642	211.12
375.868	213.12
376.094	198.12
376.319	188.12
376.545	189.12
376.771	200.12
376.997	190.12
377.222	207.12
377.448	219.12
377.674	197.12
377.899	184.12
378.125	197.12
378.35	207.12
378.576	196.12
378.802	195.12
379.027	201.12
379.253	190.12
379.478	196.12
379.704	199.12
379.929	201.12
380.155	196.12
380.38	204.12
380.606	202.12
380.831	182.12
381.057	201.12
381.282	194.12
381.507	206.12
381.733	211.12
381.958	206.12
382.184	208.12
382.409	206.12
382.634	209.12
382.86	200.12
383.085	209.12
383.31	200.12
383.535	208.12
383.761	208.12
383.986	206.12
384.211	201.12
384.436	219.12
384.662	228.12
384.887	208.12
385.112	197.12
385.337	214.12
385.562	217.12
385.787	212.12
386.013	221.12
386.238	237.12
386.463	213.12
386.688	225.12
386.913	219.12
387.138	205.12
387.363	189.12
387.588	220.12
387.813	203.12
388.038	217.12
388.263	216.12
388.488	206.12
388.713	208.12
388.938	210.12
389.163	211.12
389.387	222.12
389.612	204.12
389.837	212.12
390.062	216.12
390.287	219.12
390.512	205.12
390.736	208.12
390.961	215.12
391.186	219.12
391.411	207.12
391.636	226.12
391.86	210.12
392.085	222.12
392.31	223.12
392.534	199.12
392.759	224.12
392.984	229.12
393.208	222.12
393.433	210.12
393.658	219.12
393.882	221.12
394.107	204.12
394.331	197.12
394.556	222.12
394.78	219.12
395.005	221.12
395.229	216.12
395.454	207.12
395.678	230.12
395.903	225.12
396.127	244.12
396.352	230.12
396.576	221.12
396.801	223.12
397.025	231.12
397.249	223.12
397.474	221.12
397.698	225.12
397.922	244.12
398.147	228.12
398.371	232.12
398.595	229.12
398.82	230.12
399.044	251.12
399.268	242.12
399.492	266.12
399.717	285.12
399.941	278.12
400.165	280.12
400.389	282.12
400.613	274.12
400.837	253.12
401.062	237.12
401.286	215.12
401.51	237.12
401.734	232.12
401.958	230.12
402.182	246.12
402.406	254.12
402.63	261.12
402.854	238.12
403.078	230.12
403.302	237.12
403.526	279.12
403.75	245.12
403.974	239.12
404.198	248.12
404.422	263.12
404.645	254.12
404.869	247.12
405.093	242.12
405.317	281.12
405.541	299.12
405.765	271.12
405.988	264.12
406.212	260.12
406.436	287.12
406.66	284.12
406.883	273.12
407.107	295.12
407.331	272.12
407.555	319.12
407.778	328.12
408.002	289.12
408.226	286.12
408.449	258.12
408.673	260.12
408.896	294.12
409.12	291.12
409.344	272.12
409.567	251.12
409.791	252.12
410.014	234.12
410.238	228.12
410.461	248.12
410.685	239.12
410.908	253.12
411.132	273.12
411.355	280.12
411.578	268.12
411.802	241.12
412.025	257.12
412.249	231.12
412.472	262.12
412.695	272.12
412.919	268.12
413.142	256.12
413.365	239.12
413.589	265.12
413.812	245.12
414.035	227.12
414.258	258.12
414.482	230.12
414.705	234.12
414.928	240.12
415.151	238.12
415.374	257.12
415.597	226.12
415.821	219.12
416.044	235.12
416.267	251.12
416.49	227.12
416.713	245.12
416.936	232.12
417.159	231.12
417.382	237.12
417.605	250.12
417.828	262.12
418.051	258.12
418.274	251.12
418.497	238.12
418.72	232.12
418.943	232.12
419.166	241.12
419.389	252.12
419.611	252.12
419.834	247.12
420.057	263.12
420.28	256.12
420.503	256.12
420.726	238.12
420.948	260.12
421.171	272.12
421.394	282.12
421.617	270.12
421.839	238.12
422.062	252.12
422.285	249.12
422.507	285.12
422.73	310.12
422.953	300.12
423.175	261.12
423.398	264.12
423.621	252.12
423.843	280.12
424.066	272.12
424.288	280.12
424.511	281.12
424.733	286.12
424.956	314.12
425.178	302.12
425.401	301.12
425.623	298.12
425.846	269.12
426.068	262.12
426.291	273.12
426.513	263.12
426.735	259.12
426.958	286.12
427.18	312.12
427.402	352.12
427.625	406.12
427.847	341.12
428.069	298.12
428.292	277.12
428.514	245.12
428.736	250.12
428.958	237.12
429.181	234.12
429.403	251.12
429.625	240.12
429.847	252.12
430.069	273.12
430.292	290.12
430.514	248.12
430.736	250.12
430.958	233.12
431.18	239.12
431.402	245.12
431.624	231.12
431.846	226.12
432.068	232.12
432.29	222.12
432.512	241.12
432.734	246.12
432.956	225.12
433.178	236.12
433.4	257.12
433.622	247.12
433.844	258.12
434.066	233.12
434.287	238.12
434.509	236.12
434.731	247.12
434.953	256.12
435.175	257.12
435.397	256.12
435.618	254.12
435.84	265.12
436.062	294.12
436.284	336.12
436.505	280.12
436.727	265.12
436.949	275.12
437.17	257.12
437.392	240.12
437.614	262.12
437.835	269.12
438.057	304.12
438.278	359.12
438.5	335.12
438.721	386.12
438.943	355.12
439.165	269.12
439.386	270.12
439.608	262.12
439.829	278.12
440.05	281.12
440.272	309.12
440.493	250.12
440.715	260.12
440.936	252.12
441.158	250.12
441.379	228.12
441.6	246.12
441.822	250.12
442.043	283.12
442.264	320.12
442.486	331.12
442.707	296.12
442.928	289.12
443.149	278.12
443.371	268.12
443.592	280.12
443.813	323.12
444.034	351.12
444.255	301.12
444.476	280.12
444.698	260.12
444.919	276.12
445.14	346.12
445.361	327.12
445.582	277.12
445.803	322.12
446.024	354.12
446.245	344.12
446.466	322.12
446.687	272.12
446.908	268.12
447.129	279.12
447.35	228.12
447.571	249.12
447.792	249.12
448.013	235.12
448.234	268.12
448.455	277.12
448.675	319.12
448.896	358.12
449.117	321.12
449.338	274.12
449.559	330.12
449.779	375.12
450	296.12
450.221	256.12
450.442	242.12
450.662	270.12
450.883	282.12
451.104	266.12
451.324	254.12
451.545	230.12
451.766	216.12
451.986	224.12
452.207	222.12
452.428	209.12
452.648	216.12
452.869	221.12
453.089	240.12
453.31	230.12
453.53	239.12
453.751	214.12
453.971	225.12
454.192	238.12
454.412	232.12
454.633	198.12
454.853	216.12
455.073	228.12
455.294	249.12
455.514	268.12
455.734	258.12
455.955	228.12
456.175	208.12
456.395	224.12
456.616	210.12
456.836	207.12
457.056	214.12
457.276	227.12
457.497	213.12
457.717	217.12
457.937	220.12
458.157	219.12
458.377	231.12
458.598	235.12
458.818	281.12
459.038	300.12
459.258	289.12
459.478	252.12
459.698	222.12
459.918	225.12
460.138	210.12
460.358	233.12
460.578	244.12
460.798	230.12
461.018	237.12
461.238	221.12
461.458	240.12
461.678	242.12
461.898	234.12
462.118	219.12
462.338	252.12
462.558	257.12
462.777	257.12
462.997	267.12
463.217	248.12
463.437	240.12
463.657	255.12
463.876	248.12
464.096	237.12
464.316	251.12
464.536	252.12
464.755	249.12
464.975	254.12
465.195	285.12
465.414	309.12
465.634	293.12
465.854	271.12
466.073	248.12
466.293	233.12
466.512	239.12
466.732	224.12
466.951	239.12
467.171	227.12
467.391	241.12
467.61	234.12
467.829	233.12
468.049	242.12
468.268	238.12
468.488	222.12
468.707	237.12
468.927	216.12
469.146	215.12
469.365	214.12
469.585	223.12
469.804	228.12
470.023	233.12
470.243	231.12
470.462	234.12
470.681	248.12
470.901	229.12
471.12	222.12
471.339	218.12
471.558	241.12
471.777	237.12
471.997	236.12
472.216	245.12
472.435	261.12
472.654	221.12
472.873	234.12
473.092	223.12
473.311	213.12
473.53	233.12
473.749	234.12
473.968	262.12
474.187	292.12
474.406	321.12
474.625	268.12
474.844	226.12
475.063	229.12
475.282	220.12
475.501	226.12
475.72	244.12
475.939	214.12
476.158	245.12
476.377	242.12
476.596	224.12
476.814	239.12
477.033	236.12
477.252	268.12
477.471	250.12
477.69	237.12
477.908	252.12
478.127	250.12
478.346	254.12
478.564	234.12
478.783	258.12
479.002	264.12
479.22	253.12
479.439	268.12
479.658	275.12
479.876	273.12
480.095	274.12
480.313	297.12
480.532	294.12
480.751	277.12
480.969	282.12
481.188	347.12
481.406	348.12
481.624	297.12
481.843	273.12
482.061	265.12
482.28	257.12
482.498	254.12
482.717	247.12
482.935	277.12
483.153	267.12
483.372	273.12
483.59	266.12
483.808	273.12
484.027	264.12
484.245	271.12
484.463	253.12
484.681	269.12
484.9	270.12
485.118	282.12
485.336	253.12
485.554	272.12
485.772	280.12
485.99	286.12
486.209	279.12
486.427	286.12
486.645	272.12
486.863	310.12
487.081	285.12
487.299	288.12
487.517	292.12
487.735	293.12
487.953	294.12
488.171	292.12
488.389	312.12
488.607	292.12
488.825	276.12
489.043	290.12
489.261	275.12
489.479	287.12
489.696	284.12
489.914	282.12
490.132	289.12
490.35	286.12
490.568	288.12
490.786	301.12
491.003	290.12
491.221	325.12
491.439	315.12
491.657	308.12
491.874	321.12
492.092	320.12
492.31	327.12
492.527	343.12
492.745	329.12
492.963	328.12
493.18	332.12
493.398	336.12
493.615	348.12
493.833	343.12
494.05	350.12
494.268	325.12
494.485	336.12
494.703	334.12
494.92	345.12
495.138	342.12
495.355	332.12
495.573	329.12
495.79	333.12
496.008	333.12
496.225	329.12
496.442	328.12
496.66	342.12
496.877	322.12
497.094	353.12
497.312	327.12
497.529	325.12
497.746	335.12
497.963	339.12
498.181	338.12
498.398	334.12
498.615	350.12
498.832	346.12
499.049	351.12
499.267	337.12
499.484	370.12
499.701	395.12
499.918	405.12
500.135	418.12
500.352	446.12
500.569	439.12
500.786	450.12
501.003	442.12
501.22	410.12
501.437	402.12
501.654	393.12
501.871	376.12
502.088	377.12
502.305	363.12
502.522	358.12
