Data from 1966.PennyLincolnUp.Lamp.En5.5.200Scan.071719.P1.Scan2.head_HRD10591_14-16-36-041.txt Node
Date: Thu Jul 18 14:16:36 EDT 2019
User: cochatt
Spectrometer: HR+D1059
Trigger mode: 1
Integration Time (sec): 1.000000E-1
Scans to average: 1
Electric dark correction enabled: true
Nonlinearity correction enabled: false
Boxcar width: 0
XAxis mode: Wavelengths
Number of Pixels in Spectrum: 2048
>>>>>Begin Spectral Data<<<<<
223.165	-21.38
223.4	-21.38
223.635	-21.38
223.869	-14.38
224.104	-29.38
224.338	-12.38
224.573	-7.38
224.808	-6.38
225.042	-3.38
225.277	-9.38
225.511	-13.38
225.746	2.62
225.98	0.62
226.215	6.62
226.449	17.62
226.683	9.62
226.918	37.62
227.152	42.62
227.387	25.62
227.621	27.62
227.856	44.62
228.09	47.62
228.324	45.62
228.559	59.62
228.793	58.62
229.027	91.62
229.262	95.62
229.496	99.62
229.73	112.62
229.964	138.62
230.199	119.62
230.433	97.62
230.667	108.62
230.901	109.62
231.136	109.62
231.37	116.62
231.604	96.62
231.838	105.62
232.072	106.62
232.306	102.62
232.541	123.62
232.775	119.62
233.009	122.62
233.243	110.62
233.477	118.62
233.711	104.62
233.945	120.62
234.179	113.62
234.413	107.62
234.647	102.62
234.881	102.62
235.115	102.62
235.349	108.62
235.583	112.62
235.817	103.62
236.051	119.62
236.285	122.62
236.519	120.62
236.753	125.62
236.987	118.62
237.221	155.62
237.455	184.62
237.689	143.62
237.922	121.62
238.156	129.62
238.39	113.62
238.624	124.62
238.858	113.62
239.091	113.62
239.325	120.62
239.559	113.62
239.793	117.62
240.027	125.62
240.26	133.62
240.494	127.62
240.728	131.62
240.961	126.62
241.195	125.62
241.429	125.62
241.662	115.62
241.896	121.62
242.13	131.62
242.363	117.62
242.597	120.62
242.83	121.62
243.064	134.62
243.298	118.62
243.531	133.62
243.765	122.62
243.998	135.62
244.232	147.62
244.465	126.62
244.699	129.62
244.932	137.62
245.166	125.62
245.399	122.62
245.633	133.62
245.866	149.62
246.099	137.62
246.333	145.62
246.566	137.62
246.8	129.62
247.033	146.62
247.266	132.62
247.5	139.62
247.733	133.62
247.966	146.62
248.2	165.62
248.433	164.62
248.666	161.62
248.899	170.62
249.133	155.62
249.366	184.62
249.599	168.62
249.832	178.62
250.066	165.62
250.299	163.62
250.532	184.62
250.765	166.62
250.998	185.62
251.231	185.62
251.465	196.62
251.698	181.62
251.931	166.62
252.164	184.62
252.397	188.62
252.63	170.62
252.863	194.62
253.096	174.62
253.329	198.62
253.562	209.62
253.795	193.62
254.028	189.62
254.261	203.62
254.494	186.62
254.727	206.62
254.96	236.62
255.193	230.62
255.426	204.62
255.659	196.62
255.892	200.62
256.124	202.62
256.357	206.62
256.59	184.62
256.823	187.62
257.056	184.62
257.289	196.62
257.521	171.62
257.754	190.62
257.987	181.62
258.22	194.62
258.452	195.62
258.685	191.62
258.918	194.62
259.151	201.62
259.383	211.62
259.616	198.62
259.849	209.62
260.081	202.62
260.314	216.62
260.547	215.62
260.779	208.62
261.012	187.62
261.244	186.62
261.477	190.62
261.71	204.62
261.942	213.62
262.175	213.62
262.407	198.62
262.64	194.62
262.872	198.62
263.105	187.62
263.337	181.62
263.57	187.62
263.802	187.62
264.035	194.62
264.267	197.62
264.499	189.62
264.732	201.62
264.964	199.62
265.197	189.62
265.429	206.62
265.661	191.62
265.894	203.62
266.126	185.62
266.358	197.62
266.591	204.62
266.823	185.62
267.055	210.62
267.287	221.62
267.52	202.62
267.752	214.62
267.984	184.62
268.216	200.62
268.448	210.62
268.681	216.62
268.913	210.62
269.145	222.62
269.377	252.62
269.609	263.62
269.841	239.62
270.073	235.62
270.306	248.62
270.538	261.62
270.77	267.62
271.002	250.62
271.234	251.62
271.466	243.62
271.698	255.62
271.93	261.62
272.162	262.62
272.394	279.62
272.626	253.62
272.858	257.62
273.09	244.62
273.322	230.62
273.553	226.62
273.785	210.62
274.017	225.62
274.249	241.62
274.481	235.62
274.713	237.62
274.945	234.62
275.176	237.62
275.408	232.62
275.64	227.62
275.872	251.62
276.104	226.62
276.335	206.62
276.567	251.62
276.799	263.62
277.031	257.62
277.262	270.62
277.494	284.62
277.726	264.62
277.957	243.62
278.189	244.62
278.421	236.62
278.652	258.62
278.884	247.62
279.115	233.62
279.347	236.62
279.579	242.62
279.81	239.62
280.042	235.62
280.273	266.62
280.505	238.62
280.736	231.62
280.968	250.62
281.199	236.62
281.431	248.62
281.662	245.62
281.894	241.62
282.125	235.62
282.356	254.62
282.588	247.62
282.819	283.62
283.051	237.62
283.282	245.62
283.513	223.62
283.745	259.62
283.976	246.62
284.207	230.62
284.439	246.62
284.67	248.62
284.901	251.62
285.132	247.62
285.364	262.62
285.595	238.62
285.826	253.62
286.057	280.62
286.288	254.62
286.52	243.62
286.751	235.62
286.982	261.62
287.213	264.62
287.444	258.62
287.675	258.62
287.906	251.62
288.138	261.62
288.369	278.62
288.6	290.62
288.831	278.62
289.062	255.62
289.293	263.62
289.524	268.62
289.755	259.62
289.986	268.62
290.217	266.62
290.448	259.62
290.679	257.62
290.91	243.62
291.141	257.62
291.371	259.62
291.602	270.62
291.833	250.62
292.064	250.62
292.295	265.62
292.526	263.62
292.757	266.62
292.987	259.62
293.218	269.62
293.449	257.62
293.68	267.62
293.91	249.62
294.141	246.62
294.372	244.62
294.603	263.62
294.833	275.62
295.064	261.62
295.295	283.62
295.525	275.62
295.756	281.62
295.987	283.62
296.217	263.62
296.448	277.62
296.679	274.62
296.909	268.62
297.14	274.62
297.37	276.62
297.601	281.62
297.831	280.62
298.062	276.62
298.292	263.62
298.523	278.62
298.753	298.62
298.984	285.62
299.214	277.62
299.445	269.62
299.675	269.62
299.905	281.62
300.136	279.62
300.366	279.62
300.597	281.62
300.827	290.62
301.057	289.62
301.288	291.62
301.518	290.62
301.748	268.62
301.979	300.62
302.209	288.62
302.439	292.62
302.669	292.62
302.9	271.62
303.13	286.62
303.36	295.62
303.59	304.62
303.82	301.62
304.051	303.62
304.281	303.62
304.511	318.62
304.741	310.62
304.971	287.62
305.201	273.62
305.431	298.62
305.661	296.62
305.891	294.62
306.121	283.62
306.352	288.62
306.582	309.62
306.812	301.62
307.042	315.62
307.272	300.62
307.502	299.62
307.731	295.62
307.961	315.62
308.191	298.62
308.421	311.62
308.651	301.62
308.881	307.62
309.111	324.62
309.341	285.62
309.571	315.62
309.8	313.62
310.03	314.62
310.26	302.62
310.49	316.62
310.72	329.62
310.949	334.62
311.179	335.62
311.409	342.62
311.639	323.62
311.868	341.62
312.098	334.62
312.328	334.62
312.557	343.62
312.787	345.62
313.017	354.62
313.246	329.62
313.476	319.62
313.706	337.62
313.935	351.62
314.165	332.62
314.394	342.62
314.624	340.62
314.853	322.62
315.083	324.62
315.312	340.62
315.542	328.62
315.771	332.62
316.001	350.62
316.23	322.62
316.46	337.62
316.689	333.62
316.919	322.62
317.148	322.62
317.377	342.62
317.607	333.62
317.836	340.62
318.065	325.62
318.295	339.62
318.524	340.62
318.753	343.62
318.983	359.62
319.212	318.62
319.441	325.62
319.67	343.62
319.9	326.62
320.129	345.62
320.358	337.62
320.587	349.62
320.816	338.62
321.046	352.62
321.275	339.62
321.504	346.62
321.733	378.62
321.962	333.62
322.191	368.62
322.42	370.62
322.649	375.62
322.878	379.62
323.108	403.62
323.337	395.62
323.566	407.62
323.795	417.62
324.024	461.62
324.253	530.62
324.482	718.62
324.71	1081.62
324.939	1636.62
325.168	1441.62
325.397	730.62
325.626	484.62
325.855	445.62
326.084	427.62
326.313	412.62
326.542	428.62
326.77	429.62
326.999	494.62
327.228	670.62
327.457	981.62
327.686	1303.62
327.914	826.62
328.143	533.62
328.372	477.62
328.6	452.62
328.829	426.62
329.058	450.62
329.287	474.62
329.515	451.62
329.744	419.62
329.972	421.62
330.201	426.62
330.43	449.62
330.658	461.62
330.887	492.62
331.115	489.62
331.344	428.62
331.572	420.62
331.801	399.62
332.03	405.62
332.258	409.62
332.486	400.62
332.715	410.62
332.943	389.62
333.172	421.62
333.4	414.62
333.629	407.62
333.857	423.62
334.085	421.62
334.314	428.62
334.542	450.62
334.771	462.62
334.999	426.62
335.227	421.62
335.455	405.62
335.684	415.62
335.912	407.62
336.14	406.62
336.369	393.62
336.597	411.62
336.825	407.62
337.053	382.62
337.281	393.62
337.51	390.62
337.738	407.62
337.966	403.62
338.194	396.62
338.422	375.62
338.65	387.62
338.878	377.62
339.106	379.62
339.334	400.62
339.562	393.62
339.79	398.62
340.018	407.62
340.246	392.62
340.474	393.62
340.702	387.62
340.93	373.62
341.158	404.62
341.386	383.62
341.614	392.62
341.842	383.62
342.07	383.62
342.298	391.62
342.526	377.62
342.754	378.62
342.981	379.62
343.209	377.62
343.437	383.62
343.665	413.62
343.893	400.62
344.12	418.62
344.348	396.62
344.576	399.62
344.804	390.62
345.031	395.62
345.259	411.62
345.487	402.62
345.714	396.62
345.942	383.62
346.17	383.62
346.397	398.62
346.625	365.62
346.853	383.62
347.08	380.62
347.308	375.62
347.535	402.62
347.763	370.62
347.99	398.62
348.218	394.62
348.445	389.62
348.673	396.62
348.9	393.62
349.128	370.62
349.355	371.62
349.583	370.62
349.81	378.62
350.037	381.62
350.265	366.62
350.492	391.62
350.72	366.62
350.947	362.62
351.174	376.62
351.402	399.62
351.629	378.62
351.856	380.62
352.083	363.62
352.311	381.62
352.538	379.62
352.765	372.62
352.992	388.62
353.22	360.62
353.447	365.62
353.674	371.62
353.901	380.62
354.128	356.62
354.355	357.62
354.583	366.62
354.81	347.62
355.037	375.62
355.264	374.62
355.491	356.62
355.718	362.62
355.945	371.62
356.172	366.62
356.399	360.62
356.626	357.62
356.853	370.62
357.08	361.62
357.307	371.62
357.534	386.62
357.761	371.62
357.988	363.62
358.215	350.62
358.441	375.62
358.668	375.62
358.895	365.62
359.122	377.62
359.349	373.62
359.576	391.62
359.802	388.62
360.029	394.62
360.256	399.62
360.483	408.62
360.709	389.62
360.936	388.62
361.163	398.62
361.39	385.62
361.616	385.62
361.843	374.62
362.07	373.62
362.296	365.62
362.523	389.62
362.749	390.62
362.976	394.62
363.203	388.62
363.429	366.62
363.656	370.62
363.882	381.62
364.109	350.62
364.335	365.62
364.562	379.62
364.788	369.62
365.015	374.62
365.241	362.62
365.468	372.62
365.694	398.62
365.92	379.62
366.147	392.62
366.373	413.62
366.599	369.62
366.826	369.62
367.052	378.62
367.278	366.62
367.505	381.62
367.731	385.62
367.957	376.62
368.184	387.62
368.41	385.62
368.636	389.62
368.862	393.62
369.089	374.62
369.315	381.62
369.541	398.62
369.767	385.62
369.993	389.62
370.219	389.62
370.445	386.62
370.672	391.62
370.898	386.62
371.124	376.62
371.35	408.62
371.576	398.62
371.802	408.62
372.028	384.62
372.254	396.62
372.48	387.62
372.706	405.62
372.932	378.62
373.158	385.62
373.384	408.62
373.61	389.62
373.835	390.62
374.061	401.62
374.287	403.62
374.513	388.62
374.739	388.62
374.965	413.62
375.191	397.62
375.416	402.62
375.642	381.62
375.868	396.62
376.094	377.62
376.319	384.62
376.545	381.62
376.771	384.62
376.997	369.62
377.222	401.62
377.448	382.62
377.674	371.62
377.899	396.62
378.125	379.62
378.35	385.62
378.576	397.62
378.802	367.62
379.027	405.62
379.253	401.62
379.478	394.62
379.704	404.62
379.929	397.62
380.155	384.62
380.38	405.62
380.606	391.62
380.831	398.62
381.057	395.62
381.282	401.62
381.507	402.62
381.733	398.62
381.958	411.62
382.184	403.62
382.409	406.62
382.634	410.62
382.86	413.62
383.085	394.62
383.31	413.62
383.535	406.62
383.761	423.62
383.986	402.62
384.211	407.62
384.436	422.62
384.662	424.62
384.887	433.62
385.112	439.62
385.337	444.62
385.562	442.62
385.787	426.62
386.013	441.62
386.238	427.62
386.463	467.62
386.688	438.62
386.913	445.62
387.138	441.62
387.363	461.62
387.588	447.62
387.813	438.62
388.038	437.62
388.263	433.62
388.488	436.62
388.713	442.62
388.938	445.62
389.163	457.62
389.387	440.62
389.612	453.62
389.837	423.62
390.062	435.62
390.287	438.62
390.512	441.62
390.736	422.62
390.961	411.62
391.186	443.62
391.411	452.62
391.636	435.62
391.86	452.62
392.085	454.62
392.31	446.62
392.534	453.62
392.759	457.62
392.984	451.62
393.208	464.62
393.433	469.62
393.658	467.62
393.882	460.62
394.107	433.62
394.331	443.62
394.556	456.62
394.78	451.62
395.005	445.62
395.229	435.62
395.454	443.62
395.678	446.62
395.903	473.62
396.127	487.62
396.352	498.62
396.576	479.62
396.801	464.62
397.025	477.62
397.249	487.62
397.474	474.62
397.698	441.62
397.922	461.62
398.147	476.62
398.371	510.62
398.595	493.62
398.82	523.62
399.044	489.62
399.268	554.62
399.492	561.62
399.717	596.62
399.941	607.62
400.165	637.62
400.389	646.62
400.613	592.62
400.837	528.62
401.062	530.62
401.286	495.62
401.51	513.62
401.734	486.62
401.958	500.62
402.182	481.62
402.406	517.62
402.63	519.62
402.854	506.62
403.078	515.62
403.302	527.62
403.526	537.62
403.75	531.62
403.974	530.62
404.198	495.62
404.422	519.62
404.645	521.62
404.869	549.62
405.093	563.62
405.317	596.62
405.541	597.62
405.765	554.62
405.988	525.62
406.212	543.62
406.436	551.62
406.66	579.62
406.883	532.62
407.107	576.62
407.331	627.62
407.555	659.62
407.778	689.62
408.002	621.62
408.226	578.62
408.449	586.62
408.673	573.62
408.896	594.62
409.12	634.62
409.344	597.62
409.567	557.62
409.791	530.62
410.014	529.62
410.238	516.62
410.461	532.62
410.685	540.62
410.908	516.62
411.132	575.62
411.355	581.62
411.578	590.62
411.802	530.62
412.025	517.62
412.249	554.62
412.472	546.62
412.695	576.62
412.919	550.62
413.142	521.62
413.365	512.62
413.589	527.62
413.812	516.62
414.035	494.62
414.258	497.62
414.482	507.62
414.705	514.62
414.928	504.62
415.151	511.62
415.374	505.62
415.597	489.62
415.821	489.62
416.044	510.62
416.267	501.62
416.49	494.62
416.713	486.62
416.936	503.62
417.159	487.62
417.382	501.62
417.605	491.62
417.828	510.62
418.051	517.62
418.274	525.62
418.497	504.62
418.72	476.62
418.943	514.62
419.166	519.62
419.389	542.62
419.611	556.62
419.834	523.62
420.057	527.62
420.28	535.62
420.503	511.62
420.726	501.62
420.948	520.62
421.171	571.62
421.394	583.62
421.617	550.62
421.839	513.62
422.062	520.62
422.285	525.62
422.507	576.62
422.73	660.62
422.953	644.62
423.175	554.62
423.398	533.62
423.621	545.62
423.843	547.62
424.066	543.62
424.288	546.62
424.511	562.62
424.733	613.62
424.956	691.62
425.178	657.62
425.401	639.62
425.623	699.62
425.846	599.62
426.068	525.62
426.291	541.62
426.513	545.62
426.735	552.62
426.958	575.62
427.18	681.62
427.402	761.62
427.625	878.62
427.847	732.62
428.069	641.62
428.292	563.62
428.514	547.62
428.736	510.62
428.958	517.62
429.181	518.62
429.403	490.62
429.625	505.62
429.847	535.62
430.069	597.62
430.292	590.62
430.514	533.62
430.736	501.62
430.958	509.62
431.18	498.62
431.402	488.62
431.624	478.62
431.846	469.62
432.068	484.62
432.29	478.62
432.512	485.62
432.734	505.62
432.956	497.62
433.178	508.62
433.4	502.62
433.622	492.62
433.844	504.62
434.066	485.62
434.287	487.62
434.509	510.62
434.731	509.62
434.953	516.62
435.175	539.62
435.397	537.62
435.618	523.62
435.84	574.62
436.062	651.62
436.284	715.62
436.505	621.62
436.727	551.62
436.949	510.62
437.17	501.62
437.392	511.62
437.614	524.62
437.835	537.62
438.057	616.62
438.278	730.62
438.5	708.62
438.721	803.62
438.943	756.62
439.165	594.62
439.386	543.62
439.608	551.62
439.829	542.62
440.05	557.62
440.272	600.62
440.493	572.62
440.715	527.62
440.936	501.62
441.158	513.62
441.379	521.62
441.6	526.62
441.822	533.62
442.043	574.62
442.264	651.62
442.486	700.62
442.707	584.62
442.928	552.62
443.149	555.62
443.371	583.62
443.592	604.62
443.813	700.62
444.034	762.62
444.255	629.62
444.476	574.62
444.698	541.62
444.919	554.62
445.14	658.62
445.361	628.62
445.582	594.62
445.803	627.62
446.024	739.62
446.245	745.62
446.466	655.62
446.687	580.62
446.908	531.62
447.129	497.62
447.35	504.62
447.571	504.62
447.792	490.62
448.013	504.62
448.234	522.62
448.455	557.62
448.675	634.62
448.896	777.62
449.117	660.62
449.338	618.62
449.559	709.62
449.779	834.62
450	649.62
450.221	551.62
450.442	511.62
450.662	500.62
450.883	485.62
451.104	493.62
451.324	458.62
451.545	492.62
451.766	472.62
451.986	468.62
452.207	435.62
452.428	443.62
452.648	440.62
452.869	463.62
453.089	441.62
453.31	452.62
453.53	435.62
453.751	455.62
453.971	471.62
454.192	463.62
454.412	458.62
454.633	441.62
454.853	446.62
455.073	422.62
455.294	460.62
455.514	532.62
455.734	505.62
455.955	458.62
456.175	441.62
456.395	431.62
456.616	433.62
456.836	437.62
457.056	446.62
457.276	432.62
457.497	420.62
457.717	439.62
457.937	419.62
458.157	469.62
458.377	467.62
458.598	444.62
458.818	499.62
459.038	571.62
459.258	585.62
459.478	516.62
459.698	496.62
459.918	479.62
460.138	493.62
460.358	486.62
460.578	491.62
460.798	501.62
461.018	516.62
461.238	507.62
461.458	525.62
461.678	513.62
461.898	513.62
462.118	510.62
462.338	517.62
462.558	494.62
462.777	537.62
462.997	561.62
463.217	593.62
463.437	567.62
463.657	566.62
463.876	543.62
464.096	547.62
464.316	559.62
464.536	566.62
464.755	540.62
464.975	532.62
465.195	540.62
465.414	590.62
465.634	557.62
465.854	525.62
466.073	503.62
466.293	493.62
466.512	479.62
466.732	470.62
466.951	461.62
467.171	481.62
467.391	489.62
467.61	488.62
467.829	482.62
468.049	472.62
468.268	481.62
468.488	463.62
468.707	466.62
468.927	477.62
469.146	449.62
469.365	470.62
469.585	479.62
469.804	458.62
470.023	483.62
470.243	477.62
470.462	482.62
470.681	499.62
470.901	455.62
471.12	485.62
471.339	486.62
471.558	501.62
471.777	482.62
471.997	467.62
472.216	469.62
472.435	493.62
472.654	494.62
472.873	469.62
473.092	474.62
473.311	479.62
473.53	491.62
473.749	486.62
473.968	523.62
474.187	581.62
474.406	599.62
474.625	522.62
474.844	477.62
475.063	488.62
475.282	476.62
475.501	475.62
475.72	504.62
475.939	501.62
476.158	501.62
476.377	491.62
476.596	486.62
476.814	503.62
477.033	498.62
477.252	518.62
477.471	527.62
477.69	523.62
477.908	535.62
478.127	537.62
478.346	524.62
478.564	565.62
478.783	519.62
479.002	547.62
479.22	549.62
479.439	574.62
479.658	575.62
479.876	578.62
480.095	608.62
480.313	593.62
480.532	600.62
480.751	599.62
480.969	563.62
481.188	623.62
481.406	647.62
481.624	602.62
481.843	585.62
482.061	583.62
482.28	578.62
482.498	570.62
482.717	561.62
482.935	579.62
483.153	580.62
483.372	588.62
483.59	574.62
483.808	555.62
484.027	566.62
484.245	569.62
484.463	565.62
484.681	574.62
484.9	597.62
485.118	595.62
485.336	582.62
485.554	589.62
485.772	603.62
485.99	551.62
486.209	587.62
486.427	598.62
486.645	611.62
486.863	634.62
487.081	615.62
487.299	617.62
487.517	642.62
487.735	577.62
487.953	605.62
488.171	623.62
488.389	609.62
488.607	601.62
488.825	635.62
489.043	598.62
489.261	627.62
489.479	621.62
489.696	617.62
489.914	627.62
490.132	613.62
490.35	627.62
490.568	625.62
490.786	649.62
491.003	656.62
491.221	662.62
491.439	639.62
491.657	682.62
491.874	660.62
492.092	670.62
492.31	671.62
492.527	690.62
492.745	676.62
492.963	669.62
493.18	687.62
493.398	691.62
493.615	700.62
493.833	697.62
494.05	692.62
494.268	691.62
494.485	701.62
494.703	699.62
494.92	700.62
495.138	686.62
495.355	701.62
495.573	700.62
495.79	717.62
496.008	717.62
496.225	725.62
496.442	728.62
496.66	719.62
496.877	715.62
497.094	724.62
497.312	713.62
497.529	732.62
497.746	748.62
497.963	765.62
498.181	773.62
498.398	775.62
498.615	827.62
498.832	830.62
499.049	855.62
499.267	873.62
499.484	873.62
499.701	910.62
499.918	967.62
500.135	996.62
500.352	1048.62
500.569	1090.62
500.786	1068.62
501.003	1070.62
501.22	1029.62
501.437	1002.62
501.654	917.62
501.871	925.62
