Data from 1966.PennyLincolnUp.Lamp.En5.5.200Scan.071719.P1.Scan2.head_HRD10591_14-19-36-281.txt Node
Date: Thu Jul 18 14:19:36 EDT 2019
User: cochatt
Spectrometer: HR+D1059
Trigger mode: 1
Integration Time (sec): 1.000000E-1
Scans to average: 1
Electric dark correction enabled: true
Nonlinearity correction enabled: false
Boxcar width: 0
XAxis mode: Wavelengths
Number of Pixels in Spectrum: 2048
>>>>>Begin Spectral Data<<<<<
223.165	-15.38
223.4	-15.38
223.635	-15.38
223.869	-22.38
224.104	-12.38
224.338	-10.38
224.573	-25.38
224.808	-5.38
225.042	-17.38
225.277	-0.38
225.511	2.62
225.746	-0.38
225.98	-4.38
226.215	18.62
226.449	15.62
226.683	22.62
226.918	16.62
227.152	37.62
227.387	34.62
227.621	37.62
227.856	44.62
228.09	50.62
228.324	42.62
228.559	51.62
228.793	66.62
229.027	91.62
229.262	106.62
229.496	124.62
229.73	144.62
229.964	173.62
230.199	129.62
230.433	110.62
230.667	115.62
230.901	117.62
231.136	126.62
231.37	124.62
231.604	113.62
231.838	107.62
232.072	123.62
232.306	100.62
232.541	123.62
232.775	107.62
233.009	130.62
233.243	132.62
233.477	116.62
233.711	125.62
233.945	104.62
234.179	123.62
234.413	122.62
234.647	129.62
234.881	126.62
235.115	122.62
235.349	120.62
235.583	133.62
235.817	128.62
236.051	140.62
236.285	121.62
236.519	124.62
236.753	134.62
236.987	155.62
237.221	192.62
237.455	261.62
237.689	194.62
237.922	149.62
238.156	145.62
238.39	143.62
238.624	126.62
238.858	130.62
239.091	138.62
239.325	119.62
239.559	124.62
239.793	130.62
240.027	144.62
240.26	166.62
240.494	175.62
240.728	164.62
240.961	162.62
241.195	160.62
241.429	159.62
241.662	134.62
241.896	156.62
242.13	152.62
242.363	139.62
242.597	136.62
242.83	137.62
243.064	144.62
243.298	140.62
243.531	157.62
243.765	139.62
243.998	140.62
244.232	140.62
244.465	154.62
244.699	150.62
244.932	147.62
245.166	148.62
245.399	148.62
245.633	156.62
245.866	162.62
246.099	159.62
246.333	154.62
246.566	151.62
246.8	149.62
247.033	158.62
247.266	157.62
247.5	191.62
247.733	181.62
247.966	184.62
248.2	188.62
248.433	175.62
248.666	178.62
248.899	200.62
249.133	208.62
249.366	218.62
249.599	220.62
249.832	198.62
250.066	192.62
250.299	192.62
250.532	218.62
250.765	206.62
250.998	235.62
251.231	248.62
251.465	203.62
251.698	210.62
251.931	211.62
252.164	211.62
252.397	214.62
252.63	228.62
252.863	212.62
253.096	222.62
253.329	249.62
253.562	225.62
253.795	227.62
254.028	220.62
254.261	221.62
254.494	226.62
254.727	273.62
254.96	292.62
255.193	292.62
255.426	260.62
255.659	235.62
255.892	238.62
256.124	228.62
256.357	250.62
256.59	237.62
256.823	236.62
257.056	218.62
257.289	233.62
257.521	234.62
257.754	222.62
257.987	221.62
258.22	240.62
258.452	213.62
258.685	213.62
258.918	229.62
259.151	232.62
259.383	236.62
259.616	234.62
259.849	234.62
260.081	265.62
260.314	250.62
260.547	272.62
260.779	259.62
261.012	247.62
261.244	262.62
261.477	229.62
261.71	233.62
261.942	240.62
262.175	248.62
262.407	227.62
262.64	232.62
262.872	231.62
263.105	229.62
263.337	229.62
263.57	214.62
263.802	227.62
264.035	214.62
264.267	227.62
264.499	215.62
264.732	238.62
264.964	231.62
265.197	223.62
265.429	228.62
265.661	226.62
265.894	237.62
266.126	234.62
266.358	233.62
266.591	205.62
266.823	231.62
267.055	248.62
267.287	254.62
267.52	238.62
267.752	234.62
267.984	233.62
268.216	268.62
268.448	246.62
268.681	238.62
268.913	259.62
269.145	284.62
269.377	287.62
269.609	291.62
269.841	280.62
270.073	302.62
270.306	315.62
270.538	328.62
270.77	317.62
271.002	331.62
271.234	301.62
271.466	314.62
271.698	341.62
271.93	327.62
272.162	332.62
272.394	330.62
272.626	314.62
272.858	318.62
273.09	311.62
273.322	291.62
273.553	272.62
273.785	293.62
274.017	255.62
274.249	272.62
274.481	288.62
274.713	278.62
274.945	293.62
275.176	275.62
275.408	284.62
275.64	276.62
275.872	271.62
276.104	283.62
276.335	295.62
276.567	307.62
276.799	291.62
277.031	322.62
277.262	340.62
277.494	343.62
277.726	315.62
277.957	298.62
278.189	292.62
278.421	286.62
278.652	291.62
278.884	284.62
279.115	292.62
279.347	300.62
279.579	290.62
279.81	290.62
280.042	273.62
280.273	286.62
280.505	280.62
280.736	295.62
280.968	291.62
281.199	287.62
281.431	281.62
281.662	290.62
281.894	300.62
282.125	295.62
282.356	293.62
282.588	313.62
282.819	322.62
283.051	291.62
283.282	278.62
283.513	306.62
283.745	295.62
283.976	291.62
284.207	302.62
284.439	287.62
284.67	293.62
284.901	319.62
285.132	312.62
285.364	293.62
285.595	294.62
285.826	304.62
286.057	319.62
286.288	296.62
286.52	282.62
286.751	298.62
286.982	286.62
287.213	303.62
287.444	299.62
287.675	318.62
287.906	317.62
288.138	311.62
288.369	324.62
288.6	336.62
288.831	318.62
289.062	330.62
289.293	315.62
289.524	326.62
289.755	315.62
289.986	292.62
290.217	310.62
290.448	292.62
290.679	324.62
290.91	322.62
291.141	315.62
291.371	319.62
291.602	307.62
291.833	312.62
292.064	312.62
292.295	311.62
292.526	311.62
292.757	332.62
292.987	323.62
293.218	302.62
293.449	310.62
293.68	312.62
293.91	305.62
294.141	318.62
294.372	309.62
294.603	297.62
294.833	305.62
295.064	317.62
295.295	327.62
295.525	340.62
295.756	320.62
295.987	320.62
296.217	360.62
296.448	353.62
296.679	351.62
296.909	325.62
297.14	295.62
297.37	322.62
297.601	314.62
297.831	315.62
298.062	311.62
298.292	309.62
298.523	322.62
298.753	317.62
298.984	318.62
299.214	320.62
299.445	319.62
299.675	338.62
299.905	339.62
300.136	346.62
300.366	342.62
300.597	338.62
300.827	346.62
301.057	320.62
301.288	345.62
301.518	356.62
301.748	337.62
301.979	324.62
302.209	349.62
302.439	355.62
302.669	347.62
302.9	340.62
303.13	351.62
303.36	342.62
303.59	352.62
303.82	364.62
304.051	358.62
304.281	340.62
304.511	356.62
304.741	347.62
304.971	346.62
305.201	347.62
305.431	360.62
305.661	362.62
305.891	361.62
306.121	366.62
306.352	359.62
306.582	373.62
306.812	351.62
307.042	362.62
307.272	350.62
307.502	344.62
307.731	377.62
307.961	365.62
308.191	359.62
308.421	351.62
308.651	379.62
308.881	352.62
309.111	370.62
309.341	362.62
309.571	391.62
309.8	366.62
310.03	396.62
310.26	388.62
310.49	393.62
310.72	400.62
310.949	399.62
311.179	440.62
311.409	403.62
311.639	386.62
311.868	396.62
312.098	388.62
312.328	411.62
312.557	427.62
312.787	427.62
313.017	417.62
313.246	418.62
313.476	396.62
313.706	409.62
313.935	392.62
314.165	396.62
314.394	417.62
314.624	438.62
314.853	415.62
315.083	409.62
315.312	405.62
315.542	391.62
315.771	408.62
316.001	386.62
316.23	412.62
316.46	403.62
316.689	397.62
316.919	400.62
317.148	403.62
317.377	425.62
317.607	408.62
317.836	415.62
318.065	398.62
318.295	404.62
318.524	415.62
318.753	423.62
318.983	428.62
319.212	404.62
319.441	411.62
319.67	422.62
319.9	423.62
320.129	404.62
320.358	403.62
320.587	410.62
320.816	429.62
321.046	408.62
321.275	416.62
321.504	421.62
321.733	444.62
321.962	445.62
322.191	421.62
322.42	460.62
322.649	473.62
322.878	482.62
323.108	475.62
323.337	504.62
323.566	510.62
323.795	541.62
324.024	611.62
324.253	725.62
324.482	1002.62
324.71	1597.62
324.939	2377.62
325.168	2058.62
325.397	1013.62
325.626	670.62
325.855	578.62
326.084	532.62
326.313	529.62
326.542	529.62
326.77	574.62
326.999	713.62
327.228	944.62
327.457	1416.62
327.686	1782.62
327.914	1155.62
328.143	760.62
328.372	665.62
328.6	604.62
328.829	603.62
329.058	621.62
329.287	623.62
329.515	595.62
329.744	590.62
329.972	544.62
330.201	588.62
330.43	617.62
330.658	623.62
330.887	648.62
331.115	634.62
331.344	554.62
331.572	521.62
331.801	523.62
332.03	530.62
332.258	504.62
332.486	502.62
332.715	452.62
332.943	490.62
333.172	510.62
333.4	519.62
333.629	507.62
333.857	518.62
334.085	552.62
334.314	555.62
334.542	595.62
334.771	595.62
334.999	561.62
335.227	523.62
335.455	500.62
335.684	494.62
335.912	483.62
336.14	491.62
336.369	480.62
336.597	489.62
336.825	490.62
337.053	472.62
337.281	490.62
337.51	472.62
337.738	485.62
337.966	469.62
338.194	471.62
338.422	493.62
338.65	492.62
338.878	471.62
339.106	460.62
339.334	468.62
339.562	470.62
339.79	457.62
340.018	462.62
340.246	458.62
340.474	447.62
340.702	485.62
340.93	476.62
341.158	454.62
341.386	490.62
341.614	479.62
341.842	504.62
342.07	467.62
342.298	468.62
342.526	462.62
342.754	464.62
342.981	461.62
343.209	461.62
343.437	459.62
343.665	455.62
343.893	449.62
344.12	485.62
344.348	495.62
344.576	471.62
344.804	475.62
345.031	469.62
345.259	493.62
345.487	490.62
345.714	472.62
345.942	470.62
346.17	470.62
346.397	473.62
346.625	452.62
346.853	464.62
347.08	461.62
347.308	468.62
347.535	474.62
347.763	479.62
347.99	486.62
348.218	474.62
348.445	468.62
348.673	458.62
348.9	469.62
349.128	438.62
349.355	455.62
349.583	436.62
349.81	432.62
350.037	432.62
350.265	446.62
350.492	423.62
350.72	483.62
350.947	459.62
351.174	451.62
351.402	460.62
351.629	457.62
351.856	481.62
352.083	468.62
352.311	485.62
352.538	479.62
352.765	479.62
352.992	449.62
353.22	460.62
353.447	444.62
353.674	460.62
353.901	450.62
354.128	431.62
354.355	441.62
354.583	448.62
354.81	461.62
355.037	439.62
355.264	435.62
355.491	429.62
355.718	435.62
355.945	462.62
356.172	429.62
356.399	438.62
356.626	427.62
356.853	428.62
357.08	423.62
357.307	424.62
357.534	439.62
357.761	450.62
357.988	443.62
358.215	417.62
358.441	455.62
358.668	446.62
358.895	442.62
359.122	458.62
359.349	457.62
359.576	457.62
359.802	496.62
360.029	515.62
360.256	534.62
360.483	484.62
360.709	470.62
360.936	472.62
361.163	488.62
361.39	457.62
361.616	450.62
361.843	455.62
362.07	464.62
362.296	460.62
362.523	462.62
362.749	465.62
362.976	458.62
363.203	466.62
363.429	446.62
363.656	460.62
363.882	455.62
364.109	442.62
364.335	447.62
364.562	446.62
364.788	470.62
365.015	458.62
365.241	442.62
365.468	458.62
365.694	443.62
365.92	455.62
366.147	452.62
366.373	440.62
366.599	457.62
366.826	450.62
367.052	440.62
367.278	458.62
367.505	446.62
367.731	453.62
367.957	438.62
368.184	461.62
368.41	457.62
368.636	479.62
368.862	469.62
369.089	460.62
369.315	470.62
369.541	460.62
369.767	459.62
369.993	430.62
370.219	448.62
370.445	448.62
370.672	458.62
370.898	442.62
371.124	454.62
371.35	450.62
371.576	459.62
371.802	435.62
372.028	443.62
372.254	445.62
372.48	446.62
372.706	447.62
372.932	465.62
373.158	456.62
373.384	466.62
373.61	467.62
373.835	463.62
374.061	458.62
374.287	468.62
374.513	450.62
374.739	478.62
374.965	471.62
375.191	472.62
375.416	468.62
375.642	473.62
375.868	464.62
376.094	435.62
376.319	449.62
376.545	454.62
376.771	443.62
376.997	461.62
377.222	443.62
377.448	465.62
377.674	438.62
377.899	450.62
378.125	458.62
378.35	449.62
378.576	447.62
378.802	440.62
379.027	448.62
379.253	436.62
379.478	442.62
379.704	456.62
379.929	448.62
380.155	457.62
380.38	428.62
380.606	467.62
380.831	460.62
381.057	459.62
381.282	455.62
381.507	463.62
381.733	453.62
381.958	440.62
382.184	481.62
382.409	458.62
382.634	453.62
382.86	474.62
383.085	463.62
383.31	470.62
383.535	478.62
383.761	472.62
383.986	484.62
384.211	492.62
384.436	476.62
384.662	506.62
384.887	472.62
385.112	482.62
385.337	501.62
385.562	519.62
385.787	501.62
386.013	499.62
386.238	511.62
386.463	496.62
386.688	503.62
386.913	487.62
387.138	512.62
387.363	494.62
387.588	497.62
387.813	493.62
388.038	495.62
388.263	489.62
388.488	530.62
388.713	502.62
388.938	512.62
389.163	518.62
389.387	509.62
389.612	524.62
389.837	520.62
390.062	471.62
390.287	486.62
390.512	490.62
390.736	473.62
390.961	519.62
391.186	500.62
391.411	514.62
391.636	516.62
391.86	512.62
392.085	501.62
392.31	527.62
392.534	526.62
392.759	549.62
392.984	530.62
393.208	527.62
393.433	532.62
393.658	535.62
393.882	508.62
394.107	536.62
394.331	535.62
394.556	523.62
394.78	513.62
395.005	493.62
395.229	502.62
395.454	550.62
395.678	539.62
395.903	542.62
396.127	578.62
396.352	571.62
396.576	542.62
396.801	546.62
397.025	516.62
397.249	542.62
397.474	562.62
397.698	564.62
397.922	554.62
398.147	581.62
398.371	588.62
398.595	582.62
398.82	582.62
399.044	588.62
399.268	634.62
399.492	631.62
399.717	702.62
399.941	719.62
400.165	714.62
400.389	741.62
400.613	670.62
400.837	636.62
401.062	623.62
401.286	594.62
401.51	600.62
401.734	589.62
401.958	586.62
402.182	574.62
402.406	595.62
402.63	613.62
402.854	596.62
403.078	616.62
403.302	615.62
403.526	622.62
403.75	597.62
403.974	601.62
404.198	632.62
404.422	649.62
404.645	630.62
404.869	635.62
405.093	667.62
405.317	709.62
405.541	737.62
405.765	672.62
405.988	640.62
406.212	679.62
406.436	662.62
406.66	681.62
406.883	691.62
407.107	722.62
407.331	738.62
407.555	849.62
407.778	820.62
408.002	755.62
408.226	675.62
408.449	678.62
408.673	675.62
408.896	702.62
409.12	756.62
409.344	718.62
409.567	670.62
409.791	623.62
410.014	588.62
410.238	619.62
410.461	640.62
410.685	641.62
410.908	650.62
411.132	715.62
411.355	728.62
411.578	704.62
411.802	634.62
412.025	631.62
412.249	638.62
412.472	664.62
412.695	721.62
412.919	686.62
413.142	629.62
413.365	634.62
413.589	626.62
413.812	612.62
414.035	612.62
414.258	580.62
414.482	598.62
414.705	589.62
414.928	593.62
415.151	597.62
415.374	572.62
415.597	574.62
415.821	595.62
416.044	573.62
416.267	608.62
416.49	596.62
416.713	582.62
416.936	562.62
417.159	589.62
417.382	591.62
417.605	587.62
417.828	590.62
418.051	620.62
418.274	609.62
418.497	583.62
418.72	566.62
418.943	596.62
419.166	596.62
419.389	633.62
419.611	610.62
419.834	630.62
420.057	592.62
420.28	633.62
420.503	606.62
420.726	610.62
420.948	641.62
421.171	665.62
421.394	716.62
421.617	644.62
421.839	628.62
422.062	608.62
422.285	626.62
422.507	700.62
422.73	790.62
422.953	771.62
423.175	665.62
423.398	645.62
423.621	650.62
423.843	632.62
424.066	645.62
424.288	652.62
424.511	666.62
424.733	749.62
424.956	859.62
425.178	790.62
425.401	784.62
425.623	822.62
425.846	704.62
426.068	694.62
426.291	657.62
426.513	644.62
426.735	687.62
426.958	694.62
427.18	802.62
427.402	970.62
427.625	1054.62
427.847	909.62
428.069	801.62
428.292	696.62
428.514	644.62
428.736	641.62
428.958	616.62
429.181	611.62
429.403	614.62
429.625	607.62
429.847	675.62
430.069	746.62
430.292	733.62
430.514	644.62
430.736	634.62
430.958	608.62
431.18	581.62
431.402	586.62
431.624	578.62
431.846	571.62
432.068	574.62
432.29	606.62
432.512	582.62
432.734	595.62
432.956	576.62
433.178	591.62
433.4	585.62
433.622	573.62
433.844	586.62
434.066	570.62
434.287	574.62
434.509	564.62
434.731	570.62
434.953	591.62
435.175	617.62
435.397	653.62
435.618	661.62
435.84	720.62
436.062	818.62
436.284	892.62
436.505	756.62
436.727	698.62
436.949	657.62
437.17	616.62
437.392	597.62
437.614	643.62
437.835	652.62
438.057	770.62
438.278	896.62
438.5	889.62
438.721	991.62
438.943	931.62
439.165	730.62
439.386	680.62
439.608	668.62
439.829	676.62
440.05	687.62
440.272	757.62
440.493	710.62
440.715	670.62
440.936	623.62
441.158	644.62
441.379	603.62
441.6	644.62
441.822	666.62
442.043	703.62
442.264	794.62
442.486	859.62
442.707	720.62
442.928	668.62
443.149	695.62
443.371	713.62
443.592	734.62
443.813	855.62
444.034	930.62
444.255	738.62
444.476	694.62
444.698	679.62
444.919	667.62
445.14	761.62
445.361	703.62
445.582	694.62
445.803	797.62
446.024	898.62
446.245	916.62
446.466	831.62
446.687	716.62
446.908	664.62
447.129	618.62
447.35	606.62
447.571	612.62
447.792	615.62
448.013	587.62
448.234	648.62
448.455	692.62
448.675	832.62
448.896	932.62
449.117	822.62
449.338	765.62
449.559	892.62
449.779	1010.62
450	817.62
450.221	672.62
450.442	629.62
450.662	601.62
450.883	602.62
451.104	619.62
451.324	619.62
451.545	581.62
451.766	570.62
451.986	531.62
452.207	541.62
452.428	547.62
452.648	547.62
452.869	530.62
453.089	564.62
453.31	572.62
453.53	567.62
453.751	537.62
453.971	540.62
454.192	569.62
454.412	552.62
454.633	525.62
454.853	555.62
455.073	532.62
455.294	579.62
455.514	664.62
455.734	638.62
455.955	540.62
456.175	529.62
456.395	522.62
456.616	505.62
456.836	504.62
457.056	493.62
457.276	482.62
457.497	516.62
457.717	504.62
457.937	538.62
458.157	525.62
458.377	526.62
458.598	551.62
458.818	592.62
459.038	719.62
459.258	721.62
459.478	632.62
459.698	591.62
459.918	567.62
460.138	579.62
460.358	587.62
460.578	576.62
460.798	592.62
461.018	611.62
461.238	593.62
461.458	616.62
461.678	578.62
461.898	591.62
462.118	598.62
462.338	615.62
462.558	618.62
462.777	616.62
462.997	644.62
463.217	667.62
463.437	663.62
463.657	655.62
463.876	640.62
464.096	646.62
464.316	635.62
464.536	631.62
464.755	634.62
464.975	644.62
465.195	672.62
465.414	732.62
465.634	671.62
465.854	626.62
466.073	596.62
466.293	584.62
466.512	572.62
466.732	576.62
466.951	574.62
467.171	565.62
467.391	560.62
467.61	574.62
467.829	568.62
468.049	558.62
468.268	570.62
468.488	569.62
468.707	540.62
468.927	550.62
469.146	552.62
469.365	549.62
469.585	539.62
469.804	555.62
470.023	564.62
470.243	554.62
470.462	578.62
470.681	571.62
470.901	571.62
471.12	571.62
471.339	567.62
471.558	563.62
471.777	587.62
471.997	559.62
472.216	585.62
472.435	597.62
472.654	603.62
472.873	582.62
473.092	578.62
473.311	570.62
473.53	592.62
473.749	556.62
473.968	621.62
474.187	722.62
474.406	770.62
474.625	652.62
474.844	590.62
475.063	586.62
475.282	553.62
475.501	576.62
475.72	602.62
475.939	580.62
476.158	568.62
476.377	576.62
476.596	573.62
476.814	623.62
477.033	614.62
477.252	611.62
477.471	620.62
477.69	612.62
477.908	593.62
478.127	624.62
478.346	603.62
478.564	632.62
478.783	654.62
479.002	672.62
479.22	670.62
479.439	663.62
479.658	677.62
479.876	677.62
480.095	679.62
480.313	707.62
480.532	706.62
480.751	712.62
480.969	713.62
481.188	772.62
481.406	830.62
481.624	726.62
481.843	716.62
482.061	696.62
482.28	683.62
482.498	697.62
482.717	697.62
482.935	660.62
483.153	664.62
483.372	663.62
483.59	679.62
483.808	684.62
484.027	675.62
484.245	687.62
484.463	670.62
484.681	671.62
484.9	691.62
485.118	687.62
485.336	700.62
485.554	695.62
485.772	700.62
485.99	711.62
486.209	702.62
486.427	691.62
486.645	713.62
486.863	721.62
487.081	720.62
487.299	704.62
487.517	725.62
487.735	719.62
487.953	707.62
488.171	731.62
488.389	720.62
488.607	714.62
488.825	746.62
489.043	734.62
489.261	700.62
489.479	714.62
489.696	739.62
489.914	767.62
490.132	749.62
490.35	741.62
490.568	767.62
490.786	773.62
491.003	739.62
491.221	812.62
491.439	825.62
491.657	814.62
491.874	828.62
492.092	823.62
492.31	812.62
492.527	829.62
492.745	802.62
492.963	809.62
493.18	819.62
493.398	863.62
493.615	853.62
493.833	859.62
494.05	867.62
494.268	824.62
494.485	838.62
494.703	825.62
494.92	855.62
495.138	844.62
495.355	862.62
495.573	858.62
495.79	849.62
496.008	863.62
496.225	877.62
496.442	866.62
496.66	866.62
496.877	866.62
497.094	863.62
497.312	888.62
497.529	852.62
497.746	904.62
497.963	899.62
498.181	907.62
498.398	943.62
498.615	940.62
498.832	978.62
499.049	984.62
499.267	1041.62
499.484	1032.62
499.701	1086.62
499.918	1092.62
500.135	1167.62
500.352	1216.62
500.569	1240.62
500.786	1239.62
501.003	1257.62
501.22	1220.62
501.437	1177.62
501.654	1143.62
