Data from 1966.PennyLincolnUp.Lamp.En5.5.200Scan.071719.P1.Scan2.head_HRD10591_14-18-09-165.txt Node
Date: Thu Jul 18 14:18:09 EDT 2019
User: cochatt
Spectrometer: HR+D1059
Trigger mode: 1
Integration Time (sec): 1.000000E-1
Scans to average: 1
Electric dark correction enabled: true
Nonlinearity correction enabled: false
Boxcar width: 0
XAxis mode: Wavelengths
Number of Pixels in Spectrum: 2048
>>>>>Begin Spectral Data<<<<<
223.165	-20.69
223.4	-20.69
223.635	-20.69
223.869	-15.69
224.104	-15.69
224.338	-8.69
224.573	-18.69
224.808	-22.69
225.042	-7.69
225.277	-11.69
225.511	7.31
225.746	16.31
225.98	2.31
226.215	4.31
226.449	18.31
226.683	26.31
226.918	20.31
227.152	26.31
227.387	29.31
227.621	26.31
227.856	40.31
228.09	46.31
228.324	28.31
228.559	39.31
228.793	63.31
229.027	103.31
229.262	103.31
229.496	100.31
229.73	130.31
229.964	153.31
230.199	124.31
230.433	120.31
230.667	121.31
230.901	119.31
231.136	110.31
231.37	107.31
231.604	99.31
231.838	112.31
232.072	109.31
232.306	113.31
232.541	117.31
232.775	123.31
233.009	106.31
233.243	116.31
233.477	119.31
233.711	115.31
233.945	122.31
234.179	108.31
234.413	124.31
234.647	136.31
234.881	126.31
235.115	117.31
235.349	128.31
235.583	128.31
235.817	110.31
236.051	123.31
236.285	112.31
236.519	118.31
236.753	133.31
236.987	132.31
237.221	172.31
237.455	233.31
237.689	184.31
237.922	142.31
238.156	124.31
238.39	125.31
238.624	137.31
238.858	133.31
239.091	132.31
239.325	128.31
239.559	122.31
239.793	127.31
240.027	122.31
240.26	149.31
240.494	152.31
240.728	141.31
240.961	150.31
241.195	153.31
241.429	146.31
241.662	126.31
241.896	140.31
242.13	145.31
242.363	134.31
242.597	140.31
242.83	132.31
243.064	131.31
243.298	137.31
243.531	135.31
243.765	130.31
243.998	146.31
244.232	129.31
244.465	145.31
244.699	145.31
244.932	147.31
245.166	163.31
245.399	168.31
245.633	124.31
245.866	144.31
246.099	166.31
246.333	134.31
246.566	153.31
246.8	176.31
247.033	154.31
247.266	155.31
247.5	156.31
247.733	165.31
247.966	168.31
248.2	164.31
248.433	182.31
248.666	185.31
248.899	184.31
249.133	194.31
249.366	217.31
249.599	192.31
249.832	177.31
250.066	193.31
250.299	192.31
250.532	194.31
250.765	202.31
250.998	220.31
251.231	214.31
251.465	212.31
251.698	223.31
251.931	205.31
252.164	193.31
252.397	200.31
252.63	198.31
252.863	197.31
253.096	218.31
253.329	244.31
253.562	231.31
253.795	208.31
254.028	202.31
254.261	222.31
254.494	233.31
254.727	267.31
254.96	283.31
255.193	269.31
255.426	249.31
255.659	233.31
255.892	243.31
256.124	238.31
256.357	237.31
256.59	230.31
256.823	218.31
257.056	215.31
257.289	220.31
257.521	225.31
257.754	202.31
257.987	201.31
258.22	211.31
258.452	208.31
258.685	217.31
258.918	208.31
259.151	202.31
259.383	228.31
259.616	213.31
259.849	220.31
260.081	234.31
260.314	245.31
260.547	256.31
260.779	253.31
261.012	240.31
261.244	218.31
261.477	231.31
261.71	212.31
261.942	230.31
262.175	250.31
262.407	227.31
262.64	214.31
262.872	223.31
263.105	206.31
263.337	205.31
263.57	211.31
263.802	221.31
264.035	220.31
264.267	222.31
264.499	219.31
264.732	215.31
264.964	217.31
265.197	205.31
265.429	221.31
265.661	214.31
265.894	216.31
266.126	213.31
266.358	225.31
266.591	218.31
266.823	224.31
267.055	232.31
267.287	250.31
267.52	245.31
267.752	226.31
267.984	244.31
268.216	240.31
268.448	246.31
268.681	228.31
268.913	235.31
269.145	254.31
269.377	270.31
269.609	262.31
269.841	284.31
270.073	278.31
270.306	277.31
270.538	316.31
270.77	317.31
271.002	294.31
271.234	296.31
271.466	309.31
271.698	306.31
271.93	330.31
272.162	328.31
272.394	328.31
272.626	300.31
272.858	315.31
273.09	291.31
273.322	277.31
273.553	265.31
273.785	266.31
274.017	270.31
274.249	271.31
274.481	257.31
274.713	291.31
274.945	273.31
275.176	283.31
275.408	276.31
275.64	267.31
275.872	277.31
276.104	267.31
276.335	272.31
276.567	285.31
276.799	267.31
277.031	314.31
277.262	339.31
277.494	299.31
277.726	293.31
277.957	300.31
278.189	295.31
278.421	285.31
278.652	269.31
278.884	267.31
279.115	267.31
279.347	295.31
279.579	271.31
279.81	271.31
280.042	280.31
280.273	277.31
280.505	286.31
280.736	274.31
280.968	268.31
281.199	273.31
281.431	285.31
281.662	283.31
281.894	276.31
282.125	265.31
282.356	280.31
282.588	316.31
282.819	301.31
283.051	301.31
283.282	284.31
283.513	278.31
283.745	290.31
283.976	282.31
284.207	292.31
284.439	281.31
284.67	300.31
284.901	285.31
285.132	281.31
285.364	262.31
285.595	272.31
285.826	278.31
286.057	298.31
286.288	272.31
286.52	280.31
286.751	278.31
286.982	282.31
287.213	304.31
287.444	301.31
287.675	300.31
287.906	298.31
288.138	306.31
288.369	302.31
288.6	293.31
288.831	306.31
289.062	294.31
289.293	315.31
289.524	297.31
289.755	280.31
289.986	293.31
290.217	312.31
290.448	308.31
290.679	329.31
290.91	309.31
291.141	273.31
291.371	293.31
291.602	288.31
291.833	294.31
292.064	296.31
292.295	292.31
292.526	316.31
292.757	304.31
292.987	306.31
293.218	302.31
293.449	324.31
293.68	294.31
293.91	314.31
294.141	293.31
294.372	308.31
294.603	296.31
294.833	320.31
295.064	319.31
295.295	312.31
295.525	301.31
295.756	304.31
295.987	308.31
296.217	330.31
296.448	330.31
296.679	328.31
296.909	309.31
297.14	308.31
297.37	311.31
297.601	299.31
297.831	305.31
298.062	304.31
298.292	310.31
298.523	329.31
298.753	302.31
298.984	320.31
299.214	317.31
299.445	306.31
299.675	314.31
299.905	337.31
300.136	310.31
300.366	340.31
300.597	323.31
300.827	314.31
301.057	341.31
301.288	335.31
301.518	336.31
301.748	335.31
301.979	325.31
302.209	332.31
302.439	338.31
302.669	341.31
302.9	330.31
303.13	339.31
303.36	328.31
303.59	347.31
303.82	337.31
304.051	358.31
304.281	343.31
304.511	349.31
304.741	334.31
304.971	333.31
305.201	352.31
305.431	340.31
305.661	333.31
305.891	350.31
306.121	332.31
306.352	347.31
306.582	339.31
306.812	338.31
307.042	341.31
307.272	352.31
307.502	344.31
307.731	355.31
307.961	345.31
308.191	338.31
308.421	341.31
308.651	350.31
308.881	353.31
309.111	344.31
309.341	350.31
309.571	349.31
309.8	363.31
310.03	370.31
310.26	374.31
310.49	363.31
310.72	379.31
310.949	395.31
311.179	388.31
311.409	413.31
311.639	390.31
311.868	385.31
312.098	372.31
312.328	406.31
312.557	413.31
312.787	411.31
313.017	408.31
313.246	403.31
313.476	391.31
313.706	398.31
313.935	393.31
314.165	428.31
314.394	411.31
314.624	418.31
314.853	404.31
315.083	394.31
315.312	381.31
315.542	347.31
315.771	385.31
316.001	378.31
316.23	389.31
316.46	377.31
316.689	381.31
316.919	384.31
317.148	395.31
317.377	413.31
317.607	392.31
317.836	391.31
318.065	385.31
318.295	394.31
318.524	390.31
318.753	389.31
318.983	410.31
319.212	393.31
319.441	383.31
319.67	390.31
319.9	389.31
320.129	388.31
320.358	411.31
320.587	398.31
320.816	409.31
321.046	406.31
321.275	398.31
321.504	413.31
321.733	418.31
321.962	413.31
322.191	429.31
322.42	452.31
322.649	441.31
322.878	457.31
323.108	476.31
323.337	483.31
323.566	507.31
323.795	512.31
324.024	556.31
324.253	669.31
324.482	953.31
324.71	1488.31
324.939	2197.31
325.168	1921.31
325.397	936.31
325.626	646.31
325.855	550.31
326.084	530.31
326.313	497.31
326.542	517.31
326.77	580.31
326.999	642.31
327.228	896.31
327.457	1336.31
327.686	1694.31
327.914	1080.31
328.143	686.31
328.372	629.31
328.6	578.31
328.829	590.31
329.058	565.31
329.287	576.31
329.515	548.31
329.744	523.31
329.972	523.31
330.201	533.31
330.43	578.31
330.658	595.31
330.887	603.31
331.115	605.31
331.344	549.31
331.572	521.31
331.801	514.31
332.03	515.31
332.258	487.31
332.486	466.31
332.715	487.31
332.943	501.31
333.172	463.31
333.4	476.31
333.629	485.31
333.857	501.31
334.085	513.31
334.314	531.31
334.542	549.31
334.771	571.31
334.999	511.31
335.227	500.31
335.455	481.31
335.684	476.31
335.912	451.31
336.14	456.31
336.369	480.31
336.597	477.31
336.825	486.31
337.053	453.31
337.281	462.31
337.51	457.31
337.738	456.31
337.966	456.31
338.194	465.31
338.422	476.31
338.65	456.31
338.878	470.31
339.106	457.31
339.334	470.31
339.562	438.31
339.79	441.31
340.018	426.31
340.246	445.31
340.474	460.31
340.702	452.31
340.93	451.31
341.158	461.31
341.386	454.31
341.614	465.31
341.842	435.31
342.07	459.31
342.298	439.31
342.526	464.31
342.754	448.31
342.981	443.31
343.209	445.31
343.437	444.31
343.665	469.31
343.893	462.31
344.12	471.31
344.348	472.31
344.576	465.31
344.804	450.31
345.031	480.31
345.259	466.31
345.487	469.31
345.714	481.31
345.942	452.31
346.17	429.31
346.397	458.31
346.625	422.31
346.853	437.31
347.08	434.31
347.308	443.31
347.535	449.31
347.763	448.31
347.99	444.31
348.218	454.31
348.445	446.31
348.673	449.31
348.9	447.31
349.128	442.31
349.355	443.31
349.583	429.31
349.81	417.31
350.037	426.31
350.265	408.31
350.492	433.31
350.72	437.31
350.947	439.31
351.174	441.31
351.402	459.31
351.629	433.31
351.856	435.31
352.083	470.31
352.311	462.31
352.538	469.31
352.765	459.31
352.992	440.31
353.22	430.31
353.447	436.31
353.674	445.31
353.901	424.31
354.128	424.31
354.355	434.31
354.583	432.31
354.81	441.31
355.037	427.31
355.264	398.31
355.491	403.31
355.718	425.31
355.945	412.31
356.172	408.31
356.399	435.31
356.626	433.31
356.853	418.31
357.08	419.31
357.307	420.31
357.534	430.31
357.761	409.31
357.988	427.31
358.215	434.31
358.441	426.31
358.668	416.31
358.895	418.31
359.122	416.31
359.349	437.31
359.576	436.31
359.802	460.31
360.029	469.31
360.256	484.31
360.483	476.31
360.709	443.31
360.936	457.31
361.163	439.31
361.39	455.31
361.616	462.31
361.843	440.31
362.07	456.31
362.296	436.31
362.523	432.31
362.749	452.31
362.976	460.31
363.203	445.31
363.429	421.31
363.656	414.31
363.882	421.31
364.109	424.31
364.335	416.31
364.562	425.31
364.788	428.31
365.015	436.31
365.241	436.31
365.468	439.31
365.694	462.31
365.92	445.31
366.147	416.31
366.373	449.31
366.599	442.31
366.826	446.31
367.052	439.31
367.278	431.31
367.505	439.31
367.731	426.31
367.957	445.31
368.184	438.31
368.41	433.31
368.636	429.31
368.862	432.31
369.089	434.31
369.315	443.31
369.541	431.31
369.767	437.31
369.993	427.31
370.219	425.31
370.445	416.31
370.672	441.31
370.898	432.31
371.124	461.31
371.35	436.31
371.576	425.31
371.802	421.31
372.028	434.31
372.254	443.31
372.48	438.31
372.706	452.31
372.932	459.31
373.158	442.31
373.384	416.31
373.61	419.31
373.835	450.31
374.061	438.31
374.287	460.31
374.513	449.31
374.739	442.31
374.965	446.31
375.191	458.31
375.416	466.31
375.642	428.31
375.868	464.31
376.094	459.31
376.319	443.31
376.545	426.31
376.771	422.31
376.997	417.31
377.222	436.31
377.448	436.31
377.674	443.31
377.899	429.31
378.125	427.31
378.35	440.31
378.576	443.31
378.802	408.31
379.027	453.31
379.253	446.31
379.478	444.31
379.704	430.31
379.929	448.31
380.155	438.31
380.38	417.31
380.606	445.31
380.831	426.31
381.057	452.31
381.282	450.31
381.507	436.31
381.733	454.31
381.958	455.31
382.184	454.31
382.409	476.31
382.634	454.31
382.86	461.31
383.085	463.31
383.31	462.31
383.535	479.31
383.761	465.31
383.986	453.31
384.211	457.31
384.436	465.31
384.662	469.31
384.887	471.31
385.112	478.31
385.337	480.31
385.562	496.31
385.787	487.31
386.013	494.31
386.238	491.31
386.463	483.31
386.688	509.31
386.913	497.31
387.138	474.31
387.363	481.31
387.588	483.31
387.813	484.31
388.038	489.31
388.263	492.31
388.488	494.31
388.713	478.31
388.938	513.31
389.163	496.31
389.387	491.31
389.612	493.31
389.837	496.31
390.062	489.31
390.287	489.31
390.512	482.31
390.736	474.31
390.961	475.31
391.186	498.31
391.411	498.31
391.636	491.31
391.86	498.31
392.085	522.31
392.31	510.31
392.534	539.31
392.759	509.31
392.984	492.31
393.208	492.31
393.433	528.31
393.658	519.31
393.882	497.31
394.107	496.31
394.331	483.31
394.556	497.31
394.78	510.31
395.005	491.31
395.229	494.31
395.454	520.31
395.678	524.31
395.903	543.31
396.127	561.31
396.352	550.31
396.576	522.31
396.801	524.31
397.025	539.31
397.249	531.31
397.474	526.31
397.698	540.31
397.922	548.31
398.147	555.31
398.371	583.31
398.595	560.31
398.82	571.31
399.044	579.31
399.268	599.31
399.492	644.31
399.717	652.31
399.941	716.31
400.165	733.31
400.389	705.31
400.613	678.31
400.837	610.31
401.062	597.31
401.286	583.31
401.51	561.31
401.734	562.31
401.958	605.31
402.182	577.31
402.406	596.31
402.63	589.31
402.854	571.31
403.078	585.31
403.302	557.31
403.526	610.31
403.75	604.31
403.974	600.31
404.198	604.31
404.422	604.31
404.645	595.31
404.869	579.31
405.093	633.31
405.317	698.31
405.541	747.31
405.765	681.31
405.988	646.31
406.212	629.31
406.436	636.31
406.66	679.31
406.883	643.31
407.107	669.31
407.331	742.31
407.555	801.31
407.778	791.31
408.002	746.31
408.226	688.31
408.449	658.31
408.673	664.31
408.896	686.31
409.12	716.31
409.344	693.31
409.567	632.31
409.791	626.31
410.014	615.31
410.238	609.31
410.461	598.31
410.685	630.31
410.908	613.31
411.132	654.31
411.355	685.31
411.578	658.31
411.802	592.31
412.025	589.31
412.249	592.31
412.472	668.31
412.695	644.31
412.919	667.31
413.142	610.31
413.365	588.31
413.589	587.31
413.812	561.31
414.035	571.31
414.258	588.31
414.482	576.31
414.705	548.31
414.928	569.31
415.151	552.31
415.374	554.31
415.597	558.31
415.821	570.31
416.044	556.31
416.267	574.31
416.49	566.31
416.713	586.31
416.936	580.31
417.159	572.31
417.382	573.31
417.605	582.31
417.828	558.31
418.051	592.31
418.274	584.31
418.497	563.31
418.72	561.31
418.943	547.31
419.166	577.31
419.389	622.31
419.611	602.31
419.834	592.31
420.057	600.31
420.28	617.31
420.503	603.31
420.726	590.31
420.948	618.31
421.171	656.31
421.394	658.31
421.617	605.31
421.839	598.31
422.062	585.31
422.285	602.31
422.507	687.31
422.73	760.31
422.953	711.31
423.175	652.31
423.398	627.31
423.621	617.31
423.843	627.31
424.066	620.31
424.288	634.31
424.511	652.31
424.733	718.31
424.956	813.31
425.178	777.31
425.401	787.31
425.623	788.31
425.846	676.31
426.068	618.31
426.291	618.31
426.513	620.31
426.735	634.31
426.958	685.31
427.18	784.31
427.402	928.31
427.625	1010.31
427.847	891.31
428.069	762.31
428.292	681.31
428.514	604.31
428.736	602.31
428.958	586.31
429.181	577.31
429.403	578.31
429.625	593.31
429.847	618.31
430.069	670.31
430.292	695.31
430.514	609.31
430.736	562.31
430.958	580.31
431.18	561.31
431.402	550.31
431.624	560.31
431.846	548.31
432.068	533.31
432.29	550.31
432.512	560.31
432.734	576.31
432.956	556.31
433.178	559.31
433.4	572.31
433.622	576.31
433.844	557.31
434.066	578.31
434.287	588.31
434.509	569.31
434.731	582.31
434.953	587.31
435.175	594.31
435.397	632.31
435.618	632.31
435.84	673.31
436.062	778.31
436.284	852.31
436.505	706.31
436.727	646.31
436.949	587.31
437.17	571.31
437.392	599.31
437.614	590.31
437.835	635.31
438.057	746.31
438.278	860.31
438.5	836.31
438.721	913.31
438.943	901.31
439.165	684.31
439.386	645.31
439.608	642.31
439.829	641.31
440.05	669.31
440.272	702.31
440.493	646.31
440.715	664.31
440.936	618.31
441.158	585.31
441.379	588.31
441.6	598.31
441.822	626.31
442.043	675.31
442.264	754.31
442.486	811.31
442.707	698.31
442.928	664.31
443.149	633.31
443.371	678.31
443.592	721.31
443.813	824.31
444.034	894.31
444.255	735.31
444.476	669.31
444.698	652.31
444.919	668.31
445.14	773.31
445.361	719.31
445.582	709.31
445.803	783.31
446.024	852.31
446.245	884.31
446.466	805.31
446.687	675.31
446.908	628.31
447.129	583.31
447.35	597.31
447.571	589.31
447.792	599.31
448.013	585.31
448.234	588.31
448.455	653.31
448.675	778.31
448.896	924.31
449.117	757.31
449.338	734.31
449.559	874.31
449.779	967.31
450	752.31
450.221	634.31
450.442	582.31
450.662	566.31
450.883	577.31
451.104	567.31
451.324	573.31
451.545	550.31
451.766	545.31
451.986	524.31
452.207	516.31
452.428	500.31
452.648	518.31
452.869	518.31
453.089	526.31
453.31	542.31
453.53	528.31
453.751	527.31
453.971	511.31
454.192	541.31
454.412	533.31
454.633	510.31
454.853	517.31
455.073	522.31
455.294	578.31
455.514	640.31
455.734	596.31
455.955	537.31
456.175	509.31
456.395	507.31
456.616	480.31
456.836	485.31
457.056	479.31
457.276	495.31
457.497	486.31
457.717	493.31
457.937	501.31
458.157	488.31
458.377	518.31
458.598	540.31
458.818	574.31
459.038	703.31
459.258	700.31
459.478	580.31
459.698	537.31
459.918	552.31
460.138	567.31
460.358	572.31
460.578	588.31
460.798	584.31
461.018	581.31
461.238	564.31
461.458	545.31
461.678	572.31
461.898	570.31
462.118	573.31
462.338	572.31
462.558	593.31
462.777	634.31
462.997	648.31
463.217	629.31
463.437	640.31
463.657	620.31
463.876	606.31
464.096	627.31
464.316	602.31
464.536	612.31
464.755	594.31
464.975	625.31
465.195	642.31
465.414	717.31
465.634	655.31
465.854	608.31
466.073	576.31
466.293	574.31
466.512	561.31
466.732	539.31
466.951	568.31
467.171	538.31
467.391	564.31
467.61	589.31
467.829	542.31
468.049	562.31
468.268	556.31
468.488	546.31
468.707	514.31
468.927	553.31
469.146	499.31
469.365	534.31
469.585	513.31
469.804	547.31
470.023	530.31
470.243	542.31
470.462	558.31
470.681	573.31
470.901	564.31
471.12	546.31
471.339	540.31
471.558	550.31
471.777	544.31
471.997	541.31
472.216	561.31
472.435	596.31
472.654	567.31
472.873	538.31
473.092	564.31
473.311	539.31
473.53	540.31
473.749	557.31
473.968	596.31
474.187	705.31
474.406	705.31
474.625	621.31
474.844	553.31
475.063	561.31
475.282	542.31
475.501	555.31
475.72	571.31
475.939	570.31
476.158	552.31
476.377	581.31
476.596	586.31
476.814	560.31
477.033	584.31
477.252	582.31
477.471	588.31
477.69	589.31
477.908	585.31
478.127	594.31
478.346	598.31
478.564	621.31
478.783	590.31
479.002	649.31
479.22	635.31
479.439	647.31
479.658	664.31
479.876	656.31
480.095	653.31
480.313	685.31
480.532	679.31
480.751	673.31
480.969	700.31
481.188	760.31
481.406	782.31
481.624	727.31
481.843	668.31
482.061	654.31
482.28	670.31
482.498	637.31
482.717	650.31
482.935	650.31
483.153	617.31
483.372	635.31
483.59	668.31
483.808	636.31
484.027	668.31
484.245	677.31
484.463	653.31
484.681	646.31
484.9	627.31
485.118	652.31
485.336	646.31
485.554	661.31
485.772	667.31
485.99	680.31
486.209	662.31
486.427	684.31
486.645	681.31
486.863	681.31
487.081	659.31
487.299	699.31
487.517	667.31
487.735	669.31
487.953	710.31
488.171	692.31
488.389	693.31
488.607	678.31
488.825	699.31
489.043	681.31
489.261	713.31
489.479	683.31
489.696	706.31
489.914	722.31
490.132	718.31
490.35	722.31
490.568	714.31
490.786	740.31
491.003	737.31
491.221	771.31
491.439	777.31
491.657	780.31
491.874	768.31
492.092	801.31
492.31	791.31
492.527	825.31
492.745	793.31
492.963	806.31
493.18	792.31
493.398	840.31
493.615	833.31
493.833	795.31
494.05	816.31
494.268	808.31
494.485	802.31
494.703	835.31
494.92	837.31
495.138	805.31
495.355	850.31
495.573	820.31
495.79	830.31
496.008	823.31
496.225	810.31
496.442	824.31
496.66	826.31
496.877	827.31
497.094	830.31
497.312	852.31
497.529	836.31
497.746	830.31
497.963	903.31
498.181	890.31
498.398	909.31
498.615	939.31
498.832	965.31
499.049	948.31
499.267	1009.31
499.484	1008.31
499.701	1045.31
499.918	1102.31
500.135	1158.31
500.352	1194.31
500.569	1217.31
500.786	1210.31
501.003	1211.31
501.22	1150.31
501.437	1148.31
501.654	1092.31
