Data from 1966.PennyLincolnUp.Lamp.En5.5.200Scan.071719.P1.Scan2.head_HRD10591_14-18-04-158.txt Node
Date: Thu Jul 18 14:18:04 EDT 2019
User: cochatt
Spectrometer: HR+D1059
Trigger mode: 1
Integration Time (sec): 1.000000E-1
Scans to average: 1
Electric dark correction enabled: true
Nonlinearity correction enabled: false
Boxcar width: 0
XAxis mode: Wavelengths
Number of Pixels in Spectrum: 2048
>>>>>Begin Spectral Data<<<<<
223.165	-14.25
223.4	-14.25
223.635	-14.25
223.869	-24.25
224.104	-29.25
224.338	-9.25
224.573	-7.25
224.808	-2.25
225.042	-13.25
225.277	-8.25
225.511	-4.25
225.746	0.75
225.98	24.75
226.215	3.75
226.449	14.75
226.683	14.75
226.918	24.75
227.152	28.75
227.387	29.75
227.621	33.75
227.856	37.75
228.09	38.75
228.324	59.75
228.559	60.75
228.793	55.75
229.027	93.75
229.262	101.75
229.496	111.75
229.73	141.75
229.964	158.75
230.199	111.75
230.433	107.75
230.667	111.75
230.901	113.75
231.136	122.75
231.37	119.75
231.604	114.75
231.838	111.75
232.072	115.75
232.306	122.75
232.541	118.75
232.775	120.75
233.009	110.75
233.243	104.75
233.477	123.75
233.711	110.75
233.945	101.75
234.179	115.75
234.413	119.75
234.647	125.75
234.881	146.75
235.115	134.75
235.349	107.75
235.583	119.75
235.817	113.75
236.051	134.75
236.285	102.75
236.519	118.75
236.753	127.75
236.987	142.75
237.221	186.75
237.455	234.75
237.689	185.75
237.922	150.75
238.156	139.75
238.39	134.75
238.624	132.75
238.858	111.75
239.091	130.75
239.325	116.75
239.559	127.75
239.793	134.75
240.027	135.75
240.26	133.75
240.494	141.75
240.728	164.75
240.961	152.75
241.195	149.75
241.429	162.75
241.662	146.75
241.896	142.75
242.13	135.75
242.363	127.75
242.597	138.75
242.83	133.75
243.064	134.75
243.298	139.75
243.531	140.75
243.765	148.75
243.998	142.75
244.232	137.75
244.465	134.75
244.699	125.75
244.932	136.75
245.166	158.75
245.399	156.75
245.633	154.75
245.866	160.75
246.099	154.75
246.333	150.75
246.566	150.75
246.8	154.75
247.033	147.75
247.266	151.75
247.5	171.75
247.733	160.75
247.966	171.75
248.2	163.75
248.433	175.75
248.666	181.75
248.899	190.75
249.133	202.75
249.366	199.75
249.599	184.75
249.832	182.75
250.066	182.75
250.299	182.75
250.532	186.75
250.765	204.75
250.998	209.75
251.231	208.75
251.465	215.75
251.698	206.75
251.931	210.75
252.164	180.75
252.397	194.75
252.63	209.75
252.863	198.75
253.096	201.75
253.329	230.75
253.562	211.75
253.795	206.75
254.028	215.75
254.261	201.75
254.494	200.75
254.727	260.75
254.96	269.75
255.193	259.75
255.426	246.75
255.659	236.75
255.892	238.75
256.124	226.75
256.357	237.75
256.59	214.75
256.823	216.75
257.056	214.75
257.289	228.75
257.521	203.75
257.754	196.75
257.987	190.75
258.22	207.75
258.452	212.75
258.685	204.75
258.918	207.75
259.151	215.75
259.383	216.75
259.616	220.75
259.849	214.75
260.081	213.75
260.314	246.75
260.547	226.75
260.779	232.75
261.012	226.75
261.244	220.75
261.477	243.75
261.71	218.75
261.942	216.75
262.175	229.75
262.407	220.75
262.64	222.75
262.872	211.75
263.105	208.75
263.337	213.75
263.57	211.75
263.802	197.75
264.035	212.75
264.267	214.75
264.499	200.75
264.732	211.75
264.964	214.75
265.197	217.75
265.429	215.75
265.661	197.75
265.894	242.75
266.126	219.75
266.358	209.75
266.591	221.75
266.823	241.75
267.055	220.75
267.287	201.75
267.52	216.75
267.752	227.75
267.984	222.75
268.216	222.75
268.448	224.75
268.681	220.75
268.913	231.75
269.145	249.75
269.377	262.75
269.609	264.75
269.841	247.75
270.073	266.75
270.306	276.75
270.538	295.75
270.77	306.75
271.002	296.75
271.234	292.75
271.466	271.75
271.698	294.75
271.93	303.75
272.162	320.75
272.394	300.75
272.626	290.75
272.858	284.75
273.09	274.75
273.322	265.75
273.553	246.75
273.785	255.75
274.017	252.75
274.249	272.75
274.481	262.75
274.713	254.75
274.945	253.75
275.176	276.75
275.408	256.75
275.64	262.75
275.872	248.75
276.104	263.75
276.335	259.75
276.567	277.75
276.799	278.75
277.031	284.75
277.262	306.75
277.494	309.75
277.726	301.75
277.957	278.75
278.189	256.75
278.421	268.75
278.652	271.75
278.884	252.75
279.115	269.75
279.347	267.75
279.579	265.75
279.81	269.75
280.042	277.75
280.273	262.75
280.505	263.75
280.736	269.75
280.968	237.75
281.199	272.75
281.431	258.75
281.662	266.75
281.894	257.75
282.125	262.75
282.356	281.75
282.588	287.75
282.819	284.75
283.051	272.75
283.282	269.75
283.513	267.75
283.745	282.75
283.976	287.75
284.207	270.75
284.439	268.75
284.67	271.75
284.901	275.75
285.132	267.75
285.364	286.75
285.595	268.75
285.826	270.75
286.057	270.75
286.288	263.75
286.52	265.75
286.751	290.75
286.982	267.75
287.213	254.75
287.444	267.75
287.675	280.75
287.906	283.75
288.138	285.75
288.369	289.75
288.6	298.75
288.831	298.75
289.062	273.75
289.293	303.75
289.524	285.75
289.755	286.75
289.986	263.75
290.217	272.75
290.448	293.75
290.679	284.75
290.91	282.75
291.141	278.75
291.371	300.75
291.602	269.75
291.833	292.75
292.064	295.75
292.295	309.75
292.526	303.75
292.757	281.75
292.987	269.75
293.218	280.75
293.449	298.75
293.68	292.75
293.91	283.75
294.141	282.75
294.372	299.75
294.603	288.75
294.833	291.75
295.064	273.75
295.295	300.75
295.525	270.75
295.756	304.75
295.987	310.75
296.217	304.75
296.448	326.75
296.679	304.75
296.909	292.75
297.14	299.75
297.37	292.75
297.601	281.75
297.831	302.75
298.062	317.75
298.292	314.75
298.523	307.75
298.753	302.75
298.984	292.75
299.214	305.75
299.445	292.75
299.675	314.75
299.905	314.75
300.136	298.75
300.366	308.75
300.597	312.75
300.827	326.75
301.057	313.75
301.288	321.75
301.518	322.75
301.748	310.75
301.979	322.75
302.209	330.75
302.439	324.75
302.669	308.75
302.9	320.75
303.13	318.75
303.36	326.75
303.59	319.75
303.82	333.75
304.051	346.75
304.281	332.75
304.511	334.75
304.741	325.75
304.971	319.75
305.201	330.75
305.431	317.75
305.661	321.75
305.891	318.75
306.121	333.75
306.352	333.75
306.582	331.75
306.812	331.75
307.042	338.75
307.272	310.75
307.502	330.75
307.731	312.75
307.961	305.75
308.191	329.75
308.421	319.75
308.651	324.75
308.881	331.75
309.111	334.75
309.341	335.75
309.571	359.75
309.8	346.75
310.03	368.75
310.26	361.75
310.49	350.75
310.72	374.75
310.949	360.75
311.179	404.75
311.409	394.75
311.639	363.75
311.868	361.75
312.098	373.75
312.328	383.75
312.557	400.75
312.787	407.75
313.017	392.75
313.246	380.75
313.476	348.75
313.706	350.75
313.935	374.75
314.165	402.75
314.394	389.75
314.624	389.75
314.853	400.75
315.083	383.75
315.312	377.75
315.542	361.75
315.771	364.75
316.001	357.75
316.23	375.75
316.46	367.75
316.689	352.75
316.919	383.75
317.148	372.75
317.377	376.75
317.607	392.75
317.836	381.75
318.065	378.75
318.295	362.75
318.524	360.75
318.753	351.75
318.983	385.75
319.212	382.75
319.441	393.75
319.67	381.75
319.9	370.75
320.129	376.75
320.358	371.75
320.587	369.75
320.816	359.75
321.046	384.75
321.275	394.75
321.504	406.75
321.733	405.75
321.962	406.75
322.191	414.75
322.42	414.75
322.649	421.75
322.878	436.75
323.108	455.75
323.337	456.75
323.566	484.75
323.795	487.75
324.024	530.75
324.253	644.75
324.482	918.75
324.71	1412.75
324.939	2116.75
325.168	1833.75
325.397	902.75
325.626	613.75
325.855	524.75
326.084	481.75
326.313	470.75
326.542	490.75
326.77	516.75
326.999	621.75
327.228	844.75
327.457	1277.75
327.686	1630.75
327.914	1066.75
328.143	663.75
328.372	617.75
328.6	582.75
328.829	539.75
329.058	522.75
329.287	537.75
329.515	534.75
329.744	489.75
329.972	500.75
330.201	520.75
330.43	546.75
330.658	557.75
330.887	608.75
331.115	584.75
331.344	509.75
331.572	512.75
331.801	485.75
332.03	486.75
332.258	470.75
332.486	461.75
332.715	447.75
332.943	434.75
333.172	438.75
333.4	455.75
333.629	462.75
333.857	455.75
334.085	479.75
334.314	483.75
334.542	534.75
334.771	542.75
334.999	515.75
335.227	494.75
335.455	468.75
335.684	458.75
335.912	457.75
336.14	420.75
336.369	436.75
336.597	450.75
336.825	457.75
337.053	447.75
337.281	434.75
337.51	442.75
337.738	446.75
337.966	427.75
338.194	444.75
338.422	441.75
338.65	434.75
338.878	436.75
339.106	419.75
339.334	426.75
339.562	417.75
339.79	412.75
340.018	444.75
340.246	432.75
340.474	435.75
340.702	434.75
340.93	431.75
341.158	446.75
341.386	421.75
341.614	423.75
341.842	439.75
342.07	440.75
342.298	434.75
342.526	414.75
342.754	424.75
342.981	420.75
343.209	414.75
343.437	426.75
343.665	444.75
343.893	448.75
344.12	452.75
344.348	435.75
344.576	437.75
344.804	450.75
345.031	430.75
345.259	454.75
345.487	460.75
345.714	427.75
345.942	438.75
346.17	400.75
346.397	412.75
346.625	409.75
346.853	400.75
347.08	404.75
347.308	420.75
347.535	426.75
347.763	440.75
347.99	424.75
348.218	415.75
348.445	427.75
348.673	440.75
348.9	406.75
349.128	436.75
349.355	409.75
349.583	423.75
349.81	408.75
350.037	398.75
350.265	415.75
350.492	421.75
350.72	396.75
350.947	434.75
351.174	408.75
351.402	425.75
351.629	436.75
351.856	422.75
352.083	426.75
352.311	453.75
352.538	430.75
352.765	414.75
352.992	428.75
353.22	440.75
353.447	404.75
353.674	407.75
353.901	406.75
354.128	388.75
354.355	404.75
354.583	409.75
354.81	407.75
355.037	407.75
355.264	391.75
355.491	400.75
355.718	380.75
355.945	413.75
356.172	391.75
356.399	394.75
356.626	372.75
356.853	408.75
357.08	381.75
357.307	388.75
357.534	404.75
357.761	399.75
357.988	398.75
358.215	397.75
358.441	392.75
358.668	410.75
358.895	398.75
359.122	414.75
359.349	423.75
359.576	427.75
359.802	441.75
360.029	446.75
360.256	466.75
360.483	458.75
360.709	423.75
360.936	426.75
361.163	417.75
361.39	435.75
361.616	444.75
361.843	411.75
362.07	411.75
362.296	441.75
362.523	430.75
362.749	404.75
362.976	410.75
363.203	417.75
363.429	406.75
363.656	427.75
363.882	426.75
364.109	419.75
364.335	421.75
364.562	404.75
364.788	418.75
365.015	432.75
365.241	404.75
365.468	415.75
365.694	414.75
365.92	420.75
366.147	416.75
366.373	401.75
366.599	396.75
366.826	411.75
367.052	387.75
367.278	400.75
367.505	418.75
367.731	407.75
367.957	408.75
368.184	413.75
368.41	408.75
368.636	421.75
368.862	445.75
369.089	425.75
369.315	399.75
369.541	398.75
369.767	427.75
369.993	418.75
370.219	406.75
370.445	419.75
370.672	417.75
370.898	416.75
371.124	415.75
371.35	410.75
371.576	410.75
371.802	400.75
372.028	419.75
372.254	418.75
372.48	419.75
372.706	415.75
372.932	422.75
373.158	418.75
373.384	413.75
373.61	413.75
373.835	434.75
374.061	448.75
374.287	423.75
374.513	423.75
374.739	411.75
374.965	410.75
375.191	412.75
375.416	432.75
375.642	417.75
375.868	439.75
376.094	424.75
376.319	405.75
376.545	416.75
376.771	428.75
376.997	425.75
377.222	399.75
377.448	394.75
377.674	421.75
377.899	412.75
378.125	395.75
378.35	404.75
378.576	411.75
378.802	426.75
379.027	405.75
379.253	418.75
379.478	410.75
379.704	414.75
379.929	426.75
380.155	434.75
380.38	412.75
380.606	418.75
380.831	413.75
381.057	428.75
381.282	436.75
381.507	413.75
381.733	419.75
381.958	423.75
382.184	417.75
382.409	422.75
382.634	416.75
382.86	422.75
383.085	441.75
383.31	424.75
383.535	434.75
383.761	420.75
383.986	428.75
384.211	455.75
384.436	424.75
384.662	451.75
384.887	434.75
385.112	447.75
385.337	442.75
385.562	455.75
385.787	464.75
386.013	460.75
386.238	456.75
386.463	459.75
386.688	460.75
386.913	441.75
387.138	472.75
387.363	440.75
387.588	461.75
387.813	464.75
388.038	454.75
388.263	473.75
388.488	460.75
388.713	449.75
388.938	429.75
389.163	461.75
389.387	473.75
389.612	476.75
389.837	458.75
390.062	443.75
390.287	464.75
390.512	441.75
390.736	454.75
390.961	498.75
391.186	440.75
391.411	458.75
391.636	474.75
391.86	485.75
392.085	474.75
392.31	466.75
392.534	461.75
392.759	487.75
392.984	477.75
393.208	478.75
393.433	515.75
393.658	485.75
393.882	471.75
394.107	470.75
394.331	481.75
394.556	483.75
394.78	473.75
395.005	488.75
395.229	499.75
395.454	482.75
395.678	505.75
395.903	492.75
396.127	529.75
396.352	548.75
396.576	518.75
396.801	496.75
397.025	473.75
397.249	483.75
397.474	501.75
397.698	500.75
397.922	531.75
398.147	535.75
398.371	549.75
398.595	526.75
398.82	530.75
399.044	545.75
399.268	567.75
399.492	615.75
399.717	643.75
399.941	644.75
400.165	679.75
400.389	675.75
400.613	619.75
400.837	603.75
401.062	543.75
401.286	549.75
401.51	549.75
401.734	547.75
401.958	525.75
402.182	546.75
402.406	559.75
402.63	574.75
402.854	539.75
403.078	556.75
403.302	563.75
403.526	570.75
403.75	558.75
403.974	565.75
404.198	564.75
404.422	553.75
404.645	554.75
404.869	580.75
405.093	593.75
405.317	644.75
405.541	678.75
405.765	624.75
405.988	613.75
406.212	599.75
406.436	616.75
406.66	628.75
406.883	612.75
407.107	648.75
407.331	697.75
407.555	738.75
407.778	745.75
408.002	704.75
408.226	630.75
408.449	616.75
408.673	619.75
408.896	659.75
409.12	700.75
409.344	645.75
409.567	587.75
409.791	582.75
410.014	589.75
410.238	558.75
410.461	570.75
410.685	592.75
410.908	584.75
411.132	615.75
411.355	642.75
411.578	634.75
411.802	570.75
412.025	581.75
412.249	564.75
412.472	601.75
412.695	638.75
412.919	646.75
413.142	593.75
413.365	548.75
413.589	551.75
413.812	541.75
414.035	545.75
414.258	549.75
414.482	555.75
414.705	556.75
414.928	563.75
415.151	550.75
415.374	528.75
415.597	546.75
415.821	523.75
416.044	538.75
416.267	540.75
416.49	537.75
416.713	534.75
416.936	550.75
417.159	532.75
417.382	514.75
417.605	553.75
417.828	551.75
418.051	574.75
418.274	549.75
418.497	540.75
418.72	546.75
418.943	538.75
419.166	562.75
419.389	575.75
419.611	580.75
419.834	581.75
420.057	563.75
420.28	568.75
420.503	567.75
420.726	542.75
420.948	585.75
421.171	614.75
421.394	630.75
421.617	589.75
421.839	553.75
422.062	557.75
422.285	575.75
422.507	627.75
422.73	716.75
422.953	708.75
423.175	640.75
423.398	585.75
423.621	592.75
423.843	583.75
424.066	584.75
424.288	579.75
424.511	607.75
424.733	676.75
424.956	762.75
425.178	712.75
425.401	719.75
425.623	761.75
425.846	657.75
426.068	618.75
426.291	627.75
426.513	580.75
426.735	587.75
426.958	669.75
427.18	723.75
427.402	861.75
427.625	973.75
427.847	829.75
428.069	720.75
428.292	633.75
428.514	591.75
428.736	562.75
428.958	541.75
429.181	564.75
429.403	560.75
429.625	558.75
429.847	574.75
430.069	648.75
430.292	653.75
430.514	586.75
430.736	559.75
430.958	534.75
431.18	546.75
431.402	559.75
431.624	537.75
431.846	520.75
432.068	488.75
432.29	526.75
432.512	519.75
432.734	558.75
432.956	534.75
433.178	549.75
433.4	546.75
433.622	526.75
433.844	544.75
434.066	531.75
434.287	539.75
434.509	533.75
434.731	535.75
434.953	516.75
435.175	566.75
435.397	608.75
435.618	611.75
435.84	628.75
436.062	736.75
436.284	815.75
436.505	702.75
436.727	617.75
436.949	582.75
437.17	542.75
437.392	559.75
437.614	544.75
437.835	596.75
438.057	686.75
438.278	811.75
438.5	776.75
438.721	894.75
438.943	845.75
439.165	644.75
439.386	628.75
439.608	613.75
439.829	615.75
440.05	647.75
440.272	679.75
440.493	618.75
440.715	615.75
440.936	585.75
441.158	589.75
441.379	547.75
441.6	567.75
441.822	598.75
442.043	628.75
442.264	737.75
442.486	756.75
442.707	652.75
442.928	624.75
443.149	611.75
443.371	657.75
443.592	700.75
443.813	811.75
444.034	869.75
444.255	716.75
444.476	632.75
444.698	611.75
444.919	636.75
445.14	756.75
445.361	692.75
445.582	629.75
445.803	717.75
446.024	834.75
446.245	851.75
446.466	777.75
446.687	648.75
446.908	595.75
447.129	562.75
447.35	543.75
447.571	548.75
447.792	547.75
448.013	563.75
448.234	558.75
448.455	605.75
448.675	734.75
448.896	902.75
449.117	735.75
449.338	680.75
449.559	810.75
449.779	899.75
450	726.75
450.221	619.75
450.442	545.75
450.662	522.75
450.883	566.75
451.104	557.75
451.324	542.75
451.545	524.75
451.766	512.75
451.986	501.75
452.207	479.75
452.428	485.75
452.648	516.75
452.869	518.75
453.089	513.75
453.31	532.75
453.53	506.75
453.751	489.75
453.971	499.75
454.192	518.75
454.412	487.75
454.633	492.75
454.853	487.75
455.073	477.75
455.294	522.75
455.514	578.75
455.734	580.75
455.955	494.75
456.175	478.75
456.395	461.75
456.616	472.75
456.836	456.75
457.056	479.75
457.276	443.75
457.497	478.75
457.717	476.75
457.937	471.75
458.157	484.75
458.377	484.75
458.598	491.75
458.818	555.75
459.038	616.75
459.258	685.75
459.478	580.75
459.698	558.75
459.918	542.75
460.138	534.75
460.358	534.75
460.578	564.75
460.798	552.75
461.018	529.75
461.238	535.75
461.458	544.75
461.678	567.75
461.898	549.75
462.118	558.75
462.338	528.75
462.558	555.75
462.777	587.75
462.997	554.75
463.217	597.75
463.437	610.75
463.657	585.75
463.876	586.75
464.096	589.75
464.316	564.75
464.536	570.75
464.755	592.75
464.975	580.75
465.195	618.75
465.414	659.75
465.634	612.75
465.854	572.75
466.073	548.75
466.293	534.75
466.512	498.75
466.732	507.75
466.951	514.75
467.171	497.75
467.391	526.75
467.61	506.75
467.829	551.75
468.049	534.75
468.268	535.75
468.488	499.75
468.707	493.75
468.927	496.75
469.146	494.75
469.365	509.75
469.585	504.75
469.804	517.75
470.023	510.75
470.243	528.75
470.462	501.75
470.681	530.75
470.901	538.75
471.12	500.75
471.339	515.75
471.558	520.75
471.777	528.75
471.997	526.75
472.216	521.75
472.435	539.75
472.654	558.75
472.873	517.75
473.092	509.75
473.311	510.75
473.53	523.75
473.749	523.75
473.968	549.75
474.187	668.75
474.406	684.75
474.625	572.75
474.844	542.75
475.063	530.75
475.282	518.75
475.501	522.75
475.72	498.75
475.939	527.75
476.158	546.75
476.377	528.75
476.596	546.75
476.814	534.75
477.033	554.75
477.252	551.75
477.471	552.75
477.69	563.75
477.908	560.75
478.127	574.75
478.346	550.75
478.564	580.75
478.783	572.75
479.002	588.75
479.22	608.75
479.439	621.75
479.658	614.75
479.876	629.75
480.095	642.75
480.313	668.75
480.532	644.75
480.751	629.75
480.969	648.75
481.188	693.75
481.406	720.75
481.624	664.75
481.843	652.75
482.061	633.75
482.28	629.75
482.498	634.75
482.717	591.75
482.935	584.75
483.153	607.75
483.372	598.75
483.59	608.75
483.808	608.75
484.027	606.75
484.245	632.75
484.463	625.75
484.681	640.75
484.9	622.75
485.118	596.75
485.336	619.75
485.554	632.75
485.772	645.75
485.99	642.75
486.209	648.75
486.427	626.75
486.645	633.75
486.863	669.75
487.081	649.75
487.299	656.75
487.517	659.75
487.735	646.75
487.953	648.75
488.171	680.75
488.389	655.75
488.607	643.75
488.825	670.75
489.043	676.75
489.261	629.75
489.479	653.75
489.696	673.75
489.914	668.75
490.132	663.75
490.35	700.75
490.568	692.75
490.786	698.75
491.003	711.75
491.221	722.75
491.439	745.75
491.657	723.75
491.874	740.75
492.092	736.75
492.31	760.75
492.527	751.75
492.745	772.75
492.963	776.75
493.18	772.75
493.398	778.75
493.615	779.75
493.833	781.75
494.05	792.75
494.268	791.75
494.485	759.75
494.703	770.75
494.92	779.75
495.138	781.75
495.355	794.75
495.573	793.75
495.79	771.75
496.008	776.75
496.225	758.75
496.442	788.75
496.66	760.75
496.877	794.75
497.094	805.75
497.312	803.75
497.529	811.75
497.746	787.75
497.963	820.75
498.181	847.75
498.398	849.75
498.615	871.75
498.832	905.75
499.049	906.75
499.267	925.75
499.484	947.75
499.701	991.75
499.918	1035.75
500.135	1048.75
500.352	1131.75
500.569	1139.75
500.786	1150.75
501.003	1119.75
501.22	1083.75
501.437	1055.75
501.654	993.75
