Data from 1966.PennyLincolnUp.Lamp.En5.5.200Scan.071719.P1._HRD10591_14-15-05-922.txt Node
Date: Thu Jul 18 14:15:05 EDT 2019
User: cochatt
Spectrometer: HR+D1059
Trigger mode: 1
Integration Time (sec): 1.000000E-1
Scans to average: 1
Electric dark correction enabled: true
Nonlinearity correction enabled: false
Boxcar width: 0
XAxis mode: Wavelengths
Number of Pixels in Spectrum: 2048
>>>>>Begin Spectral Data<<<<<
223.165	-16.88
223.4	-16.88
223.635	-16.88
223.869	-6.88
224.104	-29.88
224.338	-12.88
224.573	-14.88
224.808	-7.88
225.042	1.12
225.277	-10.88
225.511	-8.88
225.746	2.12
225.98	3.12
226.215	7.12
226.449	21.12
226.683	15.12
226.918	21.12
227.152	38.12
227.387	39.12
227.621	50.12
227.856	47.12
228.09	38.12
228.324	70.12
228.559	49.12
228.793	62.12
229.027	68.12
229.262	70.12
229.496	87.12
229.73	102.12
229.964	103.12
230.199	103.12
230.433	94.12
230.667	78.12
230.901	88.12
231.136	95.12
231.37	86.12
231.604	86.12
231.838	99.12
232.072	89.12
232.306	97.12
232.541	93.12
232.775	108.12
233.009	84.12
233.243	84.12
233.477	68.12
233.711	81.12
233.945	90.12
234.179	95.12
234.413	95.12
234.647	91.12
234.881	103.12
235.115	99.12
235.349	96.12
235.583	104.12
235.817	89.12
236.051	90.12
236.285	96.12
236.519	88.12
236.753	93.12
236.987	107.12
237.221	132.12
237.455	155.12
237.689	121.12
237.922	89.12
238.156	90.12
238.39	99.12
238.624	101.12
238.858	91.12
239.091	96.12
239.325	96.12
239.559	97.12
239.793	83.12
240.027	104.12
240.26	108.12
240.494	108.12
240.728	107.12
240.961	109.12
241.195	113.12
241.429	97.12
241.662	96.12
241.896	104.12
242.13	100.12
242.363	98.12
242.597	89.12
242.83	111.12
243.064	105.12
243.298	102.12
243.531	97.12
243.765	101.12
243.998	98.12
244.232	102.12
244.465	112.12
244.699	105.12
244.932	103.12
245.166	101.12
245.399	104.12
245.633	109.12
245.866	113.12
246.099	112.12
246.333	108.12
246.566	109.12
246.8	97.12
247.033	121.12
247.266	120.12
247.5	106.12
247.733	114.12
247.966	109.12
248.2	117.12
248.433	124.12
248.666	120.12
248.899	119.12
249.133	127.12
249.366	133.12
249.599	128.12
249.832	118.12
250.066	115.12
250.299	119.12
250.532	118.12
250.765	133.12
250.998	153.12
251.231	149.12
251.465	130.12
251.698	136.12
251.931	133.12
252.164	119.12
252.397	130.12
252.63	135.12
252.863	139.12
253.096	133.12
253.329	167.12
253.562	147.12
253.795	135.12
254.028	138.12
254.261	142.12
254.494	148.12
254.727	166.12
254.96	161.12
255.193	161.12
255.426	151.12
255.659	137.12
255.892	149.12
256.124	145.12
256.357	146.12
256.59	139.12
256.823	133.12
257.056	134.12
257.289	125.12
257.521	128.12
257.754	127.12
257.987	128.12
258.22	131.12
258.452	133.12
258.685	129.12
258.918	136.12
259.151	137.12
259.383	145.12
259.616	147.12
259.849	149.12
260.081	134.12
260.314	174.12
260.547	155.12
260.779	165.12
261.012	139.12
261.244	150.12
261.477	146.12
261.71	129.12
261.942	144.12
262.175	149.12
262.407	147.12
262.64	130.12
262.872	134.12
263.105	143.12
263.337	134.12
263.57	144.12
263.802	127.12
264.035	123.12
264.267	134.12
264.499	128.12
264.732	136.12
264.964	140.12
265.197	143.12
265.429	135.12
265.661	127.12
265.894	128.12
266.126	147.12
266.358	151.12
266.591	125.12
266.823	142.12
267.055	147.12
267.287	147.12
267.52	149.12
267.752	137.12
267.984	136.12
268.216	128.12
268.448	149.12
268.681	155.12
268.913	151.12
269.145	179.12
269.377	172.12
269.609	159.12
269.841	160.12
270.073	161.12
270.306	180.12
270.538	216.12
270.77	188.12
271.002	181.12
271.234	180.12
271.466	171.12
271.698	178.12
271.93	187.12
272.162	199.12
272.394	195.12
272.626	183.12
272.858	165.12
273.09	161.12
273.322	165.12
273.553	165.12
273.785	160.12
274.017	163.12
274.249	160.12
274.481	169.12
274.713	162.12
274.945	152.12
275.176	171.12
275.408	152.12
275.64	157.12
275.872	162.12
276.104	147.12
276.335	164.12
276.567	173.12
276.799	186.12
277.031	189.12
277.262	200.12
277.494	180.12
277.726	176.12
277.957	173.12
278.189	166.12
278.421	150.12
278.652	155.12
278.884	161.12
279.115	164.12
279.347	155.12
279.579	174.12
279.81	152.12
280.042	165.12
280.273	159.12
280.505	166.12
280.736	163.12
280.968	151.12
281.199	179.12
281.431	159.12
281.662	161.12
281.894	165.12
282.125	175.12
282.356	164.12
282.588	195.12
282.819	171.12
283.051	156.12
283.282	166.12
283.513	169.12
283.745	178.12
283.976	187.12
284.207	159.12
284.439	166.12
284.67	164.12
284.901	153.12
285.132	152.12
285.364	172.12
285.595	172.12
285.826	166.12
286.057	171.12
286.288	178.12
286.52	167.12
286.751	183.12
286.982	175.12
287.213	176.12
287.444	180.12
287.675	175.12
287.906	174.12
288.138	163.12
288.369	184.12
288.6	182.12
288.831	174.12
289.062	172.12
289.293	177.12
289.524	157.12
289.755	162.12
289.986	164.12
290.217	165.12
290.448	171.12
290.679	175.12
290.91	165.12
291.141	148.12
291.371	172.12
291.602	175.12
291.833	164.12
292.064	174.12
292.295	172.12
292.526	165.12
292.757	156.12
292.987	177.12
293.218	161.12
293.449	181.12
293.68	169.12
293.91	169.12
294.141	174.12
294.372	171.12
294.603	159.12
294.833	178.12
295.064	176.12
295.295	154.12
295.525	179.12
295.756	168.12
295.987	175.12
296.217	187.12
296.448	210.12
296.679	177.12
296.909	175.12
297.14	182.12
297.37	176.12
297.601	171.12
297.831	164.12
298.062	173.12
298.292	176.12
298.523	191.12
298.753	182.12
298.984	176.12
299.214	184.12
299.445	182.12
299.675	183.12
299.905	184.12
300.136	176.12
300.366	176.12
300.597	195.12
300.827	196.12
301.057	180.12
301.288	195.12
301.518	189.12
301.748	180.12
301.979	184.12
302.209	177.12
302.439	192.12
302.669	194.12
302.9	176.12
303.13	183.12
303.36	193.12
303.59	201.12
303.82	199.12
304.051	184.12
304.281	184.12
304.511	185.12
304.741	184.12
304.971	185.12
305.201	190.12
305.431	183.12
305.661	196.12
305.891	197.12
306.121	186.12
306.352	191.12
306.582	211.12
306.812	195.12
307.042	197.12
307.272	197.12
307.502	179.12
307.731	193.12
307.961	195.12
308.191	187.12
308.421	193.12
308.651	209.12
308.881	202.12
309.111	189.12
309.341	189.12
309.571	205.12
309.8	195.12
310.03	208.12
310.26	198.12
310.49	213.12
310.72	213.12
310.949	237.12
311.179	240.12
311.409	207.12
311.639	223.12
311.868	221.12
312.098	212.12
312.328	243.12
312.557	233.12
312.787	230.12
313.017	242.12
313.246	214.12
313.476	210.12
313.706	208.12
313.935	195.12
314.165	239.12
314.394	231.12
314.624	229.12
314.853	215.12
315.083	226.12
315.312	214.12
315.542	217.12
315.771	200.12
316.001	213.12
316.23	216.12
316.46	215.12
316.689	213.12
316.919	208.12
317.148	211.12
317.377	201.12
317.607	217.12
317.836	194.12
318.065	223.12
318.295	204.12
318.524	213.12
318.753	203.12
318.983	208.12
319.212	212.12
319.441	220.12
319.67	216.12
319.9	200.12
320.129	218.12
320.358	219.12
320.587	204.12
320.816	203.12
321.046	229.12
321.275	236.12
321.504	230.12
321.733	231.12
321.962	219.12
322.191	234.12
322.42	235.12
322.649	252.12
322.878	224.12
323.108	239.12
323.337	265.12
323.566	276.12
323.795	288.12
324.024	317.12
324.253	386.12
324.482	527.12
324.71	817.12
324.939	1102.12
325.168	899.12
325.397	455.12
325.626	316.12
325.855	273.12
326.084	259.12
326.313	250.12
326.542	241.12
326.77	308.12
326.999	361.12
327.228	504.12
327.457	707.12
327.686	827.12
327.914	538.12
328.143	376.12
328.372	335.12
328.6	312.12
328.829	317.12
329.058	325.12
329.287	324.12
329.515	301.12
329.744	289.12
329.972	291.12
330.201	298.12
330.43	319.12
330.658	341.12
330.887	350.12
331.115	355.12
331.344	304.12
331.572	260.12
331.801	260.12
332.03	267.12
332.258	248.12
332.486	248.12
332.715	232.12
332.943	224.12
333.172	268.12
333.4	256.12
333.629	269.12
333.857	291.12
334.085	275.12
334.314	266.12
334.542	319.12
334.771	334.12
334.999	283.12
335.227	251.12
335.455	250.12
335.684	254.12
335.912	244.12
336.14	227.12
336.369	249.12
336.597	243.12
336.825	248.12
337.053	217.12
337.281	225.12
337.51	230.12
337.738	239.12
337.966	257.12
338.194	249.12
338.422	237.12
338.65	229.12
338.878	219.12
339.106	233.12
339.334	228.12
339.562	210.12
339.79	233.12
340.018	244.12
340.246	250.12
340.474	240.12
340.702	233.12
340.93	239.12
341.158	236.12
341.386	241.12
341.614	231.12
341.842	231.12
342.07	231.12
342.298	228.12
342.526	221.12
342.754	224.12
342.981	219.12
343.209	222.12
343.437	232.12
343.665	207.12
343.893	221.12
344.12	221.12
344.348	231.12
344.576	241.12
344.804	236.12
345.031	241.12
345.259	247.12
345.487	241.12
345.714	220.12
345.942	227.12
346.17	212.12
346.397	229.12
346.625	221.12
346.853	218.12
347.08	213.12
347.308	224.12
347.535	236.12
347.763	227.12
347.99	217.12
348.218	227.12
348.445	233.12
348.673	243.12
348.9	209.12
349.128	228.12
349.355	215.12
349.583	217.12
349.81	219.12
350.037	203.12
350.265	209.12
350.492	222.12
350.72	226.12
350.947	224.12
351.174	220.12
351.402	233.12
351.629	255.12
351.856	223.12
352.083	219.12
352.311	256.12
352.538	243.12
352.765	233.12
352.992	232.12
353.22	233.12
353.447	225.12
353.674	215.12
353.901	225.12
354.128	217.12
354.355	225.12
354.583	225.12
354.81	220.12
355.037	208.12
355.264	209.12
355.491	213.12
355.718	223.12
355.945	204.12
356.172	214.12
356.399	202.12
356.626	206.12
356.853	191.12
357.08	200.12
357.307	209.12
357.534	189.12
357.761	198.12
357.988	189.12
358.215	217.12
358.441	210.12
358.668	199.12
358.895	206.12
359.122	211.12
359.349	213.12
359.576	226.12
359.802	241.12
360.029	281.12
360.256	268.12
360.483	245.12
360.709	246.12
360.936	208.12
361.163	230.12
361.39	229.12
361.616	231.12
361.843	219.12
362.07	201.12
362.296	231.12
362.523	219.12
362.749	236.12
362.976	215.12
363.203	216.12
363.429	218.12
363.656	209.12
363.882	227.12
364.109	200.12
364.335	192.12
364.562	212.12
364.788	211.12
365.015	194.12
365.241	205.12
365.468	232.12
365.694	215.12
365.92	200.12
366.147	203.12
366.373	211.12
366.599	213.12
366.826	219.12
367.052	214.12
367.278	209.12
367.505	216.12
367.731	214.12
367.957	208.12
368.184	200.12
368.41	208.12
368.636	216.12
368.862	222.12
369.089	241.12
369.315	208.12
369.541	218.12
369.767	220.12
369.993	232.12
370.219	192.12
370.445	201.12
370.672	229.12
370.898	209.12
371.124	215.12
371.35	228.12
371.576	208.12
371.802	219.12
372.028	208.12
372.254	195.12
372.48	209.12
372.706	198.12
372.932	199.12
373.158	222.12
373.384	214.12
373.61	207.12
373.835	210.12
374.061	204.12
374.287	219.12
374.513	220.12
374.739	197.12
374.965	234.12
375.191	228.12
375.416	214.12
375.642	214.12
375.868	203.12
376.094	212.12
376.319	218.12
376.545	215.12
376.771	183.12
376.997	202.12
377.222	203.12
377.448	187.12
377.674	215.12
377.899	193.12
378.125	197.12
378.35	211.12
378.576	212.12
378.802	194.12
379.027	209.12
379.253	191.12
379.478	214.12
379.704	205.12
379.929	222.12
380.155	207.12
380.38	205.12
380.606	214.12
380.831	214.12
381.057	221.12
381.282	217.12
381.507	213.12
381.733	196.12
381.958	227.12
382.184	211.12
382.409	206.12
382.634	202.12
382.86	231.12
383.085	201.12
383.31	201.12
383.535	219.12
383.761	206.12
383.986	205.12
384.211	203.12
384.436	224.12
384.662	220.12
384.887	215.12
385.112	225.12
385.337	198.12
385.562	232.12
385.787	212.12
386.013	223.12
386.238	233.12
386.463	243.12
386.688	223.12
386.913	229.12
387.138	216.12
387.363	224.12
387.588	226.12
387.813	213.12
388.038	215.12
388.263	217.12
388.488	231.12
388.713	235.12
388.938	230.12
389.163	213.12
389.387	229.12
389.612	220.12
389.837	235.12
390.062	215.12
390.287	204.12
390.512	226.12
390.736	213.12
390.961	227.12
391.186	226.12
391.411	213.12
391.636	218.12
391.86	236.12
392.085	223.12
392.31	232.12
392.534	220.12
392.759	236.12
392.984	261.12
393.208	243.12
393.433	240.12
393.658	220.12
393.882	217.12
394.107	223.12
394.331	229.12
394.556	237.12
394.78	227.12
395.005	214.12
395.229	228.12
395.454	221.12
395.678	242.12
395.903	226.12
396.127	257.12
396.352	239.12
396.576	226.12
396.801	236.12
397.025	238.12
397.249	246.12
397.474	241.12
397.698	235.12
397.922	221.12
398.147	258.12
398.371	260.12
398.595	237.12
398.82	244.12
399.044	259.12
399.268	241.12
399.492	282.12
399.717	297.12
399.941	303.12
400.165	290.12
400.389	312.12
400.613	263.12
400.837	263.12
401.062	255.12
401.286	256.12
401.51	250.12
401.734	247.12
401.958	260.12
402.182	259.12
402.406	301.12
402.63	268.12
402.854	277.12
403.078	273.12
403.302	263.12
403.526	266.12
403.75	247.12
403.974	272.12
404.198	257.12
404.422	267.12
404.645	248.12
404.869	268.12
405.093	277.12
405.317	294.12
405.541	299.12
405.765	282.12
405.988	274.12
406.212	302.12
406.436	325.12
406.66	316.12
406.883	288.12
407.107	309.12
407.331	314.12
407.555	336.12
407.778	324.12
408.002	296.12
408.226	289.12
408.449	280.12
408.673	284.12
408.896	295.12
409.12	324.12
409.344	289.12
409.567	269.12
409.791	273.12
410.014	257.12
410.238	245.12
410.461	258.12
410.685	272.12
410.908	265.12
411.132	283.12
411.355	307.12
411.578	284.12
411.802	254.12
412.025	262.12
412.249	263.12
412.472	279.12
412.695	282.12
412.919	300.12
413.142	263.12
413.365	245.12
413.589	265.12
413.812	261.12
414.035	261.12
414.258	248.12
414.482	245.12
414.705	254.12
414.928	268.12
415.151	256.12
415.374	274.12
415.597	264.12
415.821	248.12
416.044	245.12
416.267	236.12
416.49	252.12
416.713	246.12
416.936	258.12
417.159	262.12
417.382	252.12
417.605	258.12
417.828	260.12
418.051	290.12
418.274	276.12
418.497	252.12
418.72	251.12
418.943	248.12
419.166	262.12
419.389	268.12
419.611	258.12
419.834	271.12
420.057	287.12
420.28	268.12
420.503	269.12
420.726	271.12
420.948	263.12
421.171	273.12
421.394	311.12
421.617	285.12
421.839	295.12
422.062	268.12
422.285	265.12
422.507	310.12
422.73	345.12
422.953	336.12
423.175	291.12
423.398	269.12
423.621	247.12
423.843	277.12
424.066	262.12
424.288	266.12
424.511	305.12
424.733	325.12
424.956	360.12
425.178	343.12
425.401	334.12
425.623	337.12
425.846	317.12
426.068	280.12
426.291	258.12
426.513	275.12
426.735	284.12
426.958	296.12
427.18	344.12
427.402	400.12
427.625	421.12
427.847	385.12
428.069	326.12
428.292	288.12
428.514	277.12
428.736	265.12
428.958	263.12
429.181	269.12
429.403	289.12
429.625	260.12
429.847	277.12
430.069	307.12
430.292	297.12
430.514	275.12
430.736	255.12
430.958	254.12
431.18	245.12
431.402	243.12
431.624	234.12
431.846	265.12
432.068	237.12
432.29	261.12
432.512	255.12
432.734	248.12
432.956	242.12
433.178	267.12
433.4	258.12
433.622	280.12
433.844	260.12
434.066	241.12
434.287	247.12
434.509	254.12
434.731	257.12
434.953	284.12
435.175	291.12
435.397	289.12
435.618	277.12
435.84	306.12
436.062	345.12
436.284	370.12
436.505	293.12
436.727	276.12
436.949	288.12
437.17	253.12
437.392	261.12
437.614	252.12
437.835	294.12
438.057	332.12
438.278	348.12
438.5	370.12
438.721	387.12
438.943	345.12
439.165	289.12
439.386	295.12
439.608	291.12
439.829	275.12
440.05	304.12
440.272	326.12
440.493	297.12
440.715	268.12
440.936	267.12
441.158	269.12
441.379	278.12
441.6	261.12
441.822	277.12
442.043	307.12
442.264	348.12
442.486	351.12
442.707	298.12
442.928	286.12
443.149	294.12
443.371	310.12
443.592	321.12
443.813	376.12
444.034	360.12
444.255	315.12
444.476	273.12
444.698	282.12
444.919	270.12
445.14	381.12
445.361	354.12
445.582	305.12
445.803	329.12
446.024	400.12
446.245	387.12
446.466	331.12
446.687	312.12
446.908	289.12
447.129	269.12
447.35	253.12
447.571	260.12
447.792	261.12
448.013	273.12
448.234	267.12
448.455	303.12
448.675	328.12
448.896	379.12
449.117	320.12
449.338	294.12
449.559	371.12
449.779	375.12
450	323.12
450.221	273.12
450.442	260.12
450.662	263.12
450.883	268.12
451.104	276.12
451.324	277.12
451.545	254.12
451.766	251.12
451.986	218.12
452.207	245.12
452.428	236.12
452.648	236.12
452.869	257.12
453.089	258.12
453.31	257.12
453.53	251.12
453.751	248.12
453.971	246.12
454.192	261.12
454.412	257.12
454.633	239.12
454.853	226.12
455.073	233.12
455.294	259.12
455.514	281.12
455.734	269.12
455.955	228.12
456.175	218.12
456.395	225.12
456.616	229.12
456.836	219.12
457.056	230.12
457.276	200.12
457.497	211.12
457.717	225.12
457.937	219.12
458.157	217.12
458.377	245.12
458.598	245.12
458.818	287.12
459.038	324.12
459.258	335.12
459.478	269.12
459.698	255.12
459.918	231.12
460.138	243.12
460.358	270.12
460.578	250.12
460.798	244.12
461.018	261.12
461.238	260.12
461.458	235.12
461.678	246.12
461.898	226.12
462.118	240.12
462.338	256.12
462.558	261.12
462.777	252.12
462.997	251.12
463.217	275.12
463.437	272.12
463.657	270.12
463.876	262.12
464.096	270.12
464.316	265.12
464.536	261.12
464.755	271.12
464.975	279.12
465.195	321.12
465.414	352.12
465.634	316.12
465.854	259.12
466.073	259.12
466.293	250.12
466.512	257.12
466.732	249.12
466.951	242.12
467.171	219.12
467.391	247.12
467.61	234.12
467.829	247.12
468.049	249.12
468.268	256.12
468.488	239.12
468.707	241.12
468.927	236.12
469.146	220.12
469.365	254.12
469.585	235.12
469.804	241.12
470.023	241.12
470.243	261.12
470.462	264.12
470.681	273.12
470.901	269.12
471.12	246.12
471.339	236.12
471.558	241.12
471.777	239.12
471.997	245.12
472.216	268.12
472.435	301.12
472.654	278.12
472.873	239.12
473.092	255.12
473.311	234.12
473.53	241.12
473.749	245.12
473.968	268.12
474.187	337.12
474.406	323.12
474.625	276.12
474.844	243.12
475.063	235.12
475.282	245.12
475.501	240.12
475.72	241.12
475.939	241.12
476.158	242.12
476.377	236.12
476.596	245.12
476.814	249.12
477.033	259.12
477.252	253.12
477.471	268.12
477.69	260.12
477.908	273.12
478.127	259.12
478.346	275.12
478.564	255.12
478.783	272.12
479.002	287.12
479.22	275.12
479.439	288.12
479.658	298.12
479.876	304.12
480.095	283.12
480.313	294.12
480.532	296.12
480.751	293.12
480.969	300.12
481.188	366.12
481.406	393.12
481.624	333.12
481.843	297.12
482.061	287.12
482.28	304.12
482.498	284.12
482.717	306.12
482.935	278.12
483.153	279.12
483.372	269.12
483.59	275.12
483.808	281.12
484.027	288.12
484.245	295.12
484.463	282.12
484.681	278.12
484.9	299.12
485.118	270.12
485.336	290.12
485.554	310.12
485.772	301.12
485.99	284.12
486.209	290.12
486.427	293.12
486.645	297.12
486.863	308.12
487.081	309.12
487.299	301.12
487.517	300.12
487.735	307.12
487.953	312.12
488.171	305.12
488.389	302.12
488.607	304.12
488.825	304.12
489.043	304.12
489.261	296.12
489.479	295.12
489.696	316.12
489.914	311.12
490.132	304.12
490.35	321.12
490.568	340.12
490.786	331.12
491.003	330.12
491.221	334.12
491.439	341.12
491.657	358.12
491.874	350.12
492.092	345.12
492.31	354.12
492.527	349.12
492.745	367.12
492.963	355.12
493.18	361.12
493.398	368.12
493.615	346.12
493.833	371.12
494.05	361.12
494.268	362.12
494.485	372.12
494.703	337.12
494.92	351.12
495.138	363.12
495.355	369.12
495.573	343.12
495.79	361.12
496.008	352.12
496.225	352.12
496.442	362.12
496.66	349.12
496.877	359.12
497.094	351.12
497.312	357.12
497.529	352.12
497.746	358.12
497.963	369.12
498.181	377.12
498.398	357.12
498.615	383.12
498.832	381.12
499.049	375.12
499.267	390.12
499.484	399.12
499.701	410.12
499.918	412.12
500.135	436.12
500.352	464.12
500.569	460.12
500.786	469.12
501.003	453.12
501.22	445.12
501.437	447.12
501.654	448.12
501.871	434.12
502.088	432.12
502.305	398.12
502.522	380.12
