Data from 1966.PennyLincolnUp.Lamp.En5.5.200Scan.071719.P1._HRD10591_14-13-22-913.txt Node
Date: Thu Jul 18 14:13:22 EDT 2019
User: cochatt
Spectrometer: HR+D1059
Trigger mode: 1
Integration Time (sec): 1.000000E-1
Scans to average: 1
Electric dark correction enabled: true
Nonlinearity correction enabled: false
Boxcar width: 0
XAxis mode: Wavelengths
Number of Pixels in Spectrum: 2048
>>>>>Begin Spectral Data<<<<<
223.165	-19.19
223.4	-19.19
223.635	-19.19
223.869	-17.19
224.104	-29.19
224.338	-12.19
224.573	-17.19
224.808	-19.19
225.042	-1.19
225.277	-1.19
225.511	8.81
225.746	15.81
225.98	6.81
226.215	3.81
226.449	9.81
226.683	25.81
226.918	23.81
227.152	21.81
227.387	27.81
227.621	38.81
227.856	31.81
228.09	33.81
228.324	29.81
228.559	49.81
228.793	49.81
229.027	70.81
229.262	70.81
229.496	79.81
229.73	96.81
229.964	105.81
230.199	92.81
230.433	80.81
230.667	85.81
230.901	75.81
231.136	73.81
231.37	85.81
231.604	91.81
231.838	92.81
232.072	90.81
232.306	87.81
232.541	98.81
232.775	100.81
233.009	88.81
233.243	97.81
233.477	87.81
233.711	97.81
233.945	84.81
234.179	93.81
234.413	80.81
234.647	83.81
234.881	76.81
235.115	86.81
235.349	99.81
235.583	92.81
235.817	95.81
236.051	98.81
236.285	102.81
236.519	96.81
236.753	101.81
236.987	97.81
237.221	134.81
237.455	138.81
237.689	123.81
237.922	99.81
238.156	105.81
238.39	102.81
238.624	84.81
238.858	100.81
239.091	95.81
239.325	84.81
239.559	96.81
239.793	98.81
240.027	113.81
240.26	122.81
240.494	112.81
240.728	88.81
240.961	104.81
241.195	114.81
241.429	88.81
241.662	112.81
241.896	110.81
242.13	96.81
242.363	103.81
242.597	101.81
242.83	87.81
243.064	84.81
243.298	112.81
243.531	99.81
243.765	107.81
243.998	115.81
244.232	88.81
244.465	101.81
244.699	81.81
244.932	99.81
245.166	105.81
245.399	99.81
245.633	93.81
245.866	100.81
246.099	89.81
246.333	116.81
246.566	92.81
246.8	92.81
247.033	98.81
247.266	114.81
247.5	105.81
247.733	110.81
247.966	116.81
248.2	103.81
248.433	124.81
248.666	122.81
248.899	115.81
249.133	126.81
249.366	124.81
249.599	110.81
249.832	117.81
250.066	119.81
250.299	119.81
250.532	125.81
250.765	124.81
250.998	131.81
251.231	148.81
251.465	149.81
251.698	118.81
251.931	119.81
252.164	119.81
252.397	119.81
252.63	129.81
252.863	142.81
253.096	117.81
253.329	126.81
253.562	151.81
253.795	140.81
254.028	119.81
254.261	122.81
254.494	147.81
254.727	158.81
254.96	180.81
255.193	143.81
255.426	142.81
255.659	140.81
255.892	130.81
256.124	138.81
256.357	119.81
256.59	135.81
256.823	138.81
257.056	135.81
257.289	130.81
257.521	117.81
257.754	113.81
257.987	134.81
258.22	127.81
258.452	136.81
258.685	128.81
258.918	114.81
259.151	119.81
259.383	133.81
259.616	140.81
259.849	139.81
260.081	147.81
260.314	148.81
260.547	139.81
260.779	135.81
261.012	124.81
261.244	135.81
261.477	142.81
261.71	126.81
261.942	147.81
262.175	146.81
262.407	140.81
262.64	130.81
262.872	128.81
263.105	137.81
263.337	125.81
263.57	120.81
263.802	126.81
264.035	133.81
264.267	127.81
264.499	141.81
264.732	132.81
264.964	132.81
265.197	138.81
265.429	138.81
265.661	121.81
265.894	123.81
266.126	135.81
266.358	146.81
266.591	144.81
266.823	137.81
267.055	129.81
267.287	132.81
267.52	131.81
267.752	131.81
267.984	136.81
268.216	131.81
268.448	138.81
268.681	135.81
268.913	138.81
269.145	152.81
269.377	153.81
269.609	162.81
269.841	164.81
270.073	144.81
270.306	167.81
270.538	171.81
270.77	187.81
271.002	172.81
271.234	161.81
271.466	164.81
271.698	178.81
271.93	171.81
272.162	174.81
272.394	171.81
272.626	161.81
272.858	163.81
273.09	169.81
273.322	166.81
273.553	147.81
273.785	147.81
274.017	149.81
274.249	147.81
274.481	162.81
274.713	162.81
274.945	143.81
275.176	151.81
275.408	159.81
275.64	141.81
275.872	152.81
276.104	143.81
276.335	165.81
276.567	141.81
276.799	168.81
277.031	184.81
277.262	194.81
277.494	188.81
277.726	165.81
277.957	162.81
278.189	153.81
278.421	160.81
278.652	156.81
278.884	158.81
279.115	148.81
279.347	160.81
279.579	138.81
279.81	155.81
280.042	148.81
280.273	151.81
280.505	150.81
280.736	159.81
280.968	146.81
281.199	150.81
281.431	148.81
281.662	152.81
281.894	151.81
282.125	161.81
282.356	161.81
282.588	155.81
282.819	177.81
283.051	153.81
283.282	143.81
283.513	151.81
283.745	147.81
283.976	145.81
284.207	160.81
284.439	169.81
284.67	153.81
284.901	160.81
285.132	172.81
285.364	162.81
285.595	161.81
285.826	149.81
286.057	137.81
286.288	159.81
286.52	156.81
286.751	161.81
286.982	153.81
287.213	147.81
287.444	150.81
287.675	163.81
287.906	158.81
288.138	172.81
288.369	182.81
288.6	165.81
288.831	156.81
289.062	169.81
289.293	160.81
289.524	150.81
289.755	162.81
289.986	171.81
290.217	176.81
290.448	164.81
290.679	168.81
290.91	138.81
291.141	167.81
291.371	167.81
291.602	168.81
291.833	165.81
292.064	141.81
292.295	164.81
292.526	174.81
292.757	156.81
292.987	153.81
293.218	170.81
293.449	150.81
293.68	152.81
293.91	170.81
294.141	165.81
294.372	154.81
294.603	159.81
294.833	161.81
295.064	174.81
295.295	163.81
295.525	154.81
295.756	173.81
295.987	186.81
296.217	195.81
296.448	180.81
296.679	157.81
296.909	163.81
297.14	146.81
297.37	174.81
297.601	147.81
297.831	160.81
298.062	174.81
298.292	166.81
298.523	179.81
298.753	184.81
298.984	176.81
299.214	167.81
299.445	171.81
299.675	179.81
299.905	175.81
300.136	175.81
300.366	165.81
300.597	178.81
300.827	171.81
301.057	184.81
301.288	186.81
301.518	177.81
301.748	184.81
301.979	203.81
302.209	171.81
302.439	168.81
302.669	170.81
302.9	171.81
303.13	175.81
303.36	190.81
303.59	175.81
303.82	182.81
304.051	192.81
304.281	174.81
304.511	186.81
304.741	184.81
304.971	184.81
305.201	193.81
305.431	159.81
305.661	183.81
305.891	178.81
306.121	178.81
306.352	181.81
306.582	169.81
306.812	194.81
307.042	180.81
307.272	179.81
307.502	170.81
307.731	191.81
307.961	184.81
308.191	189.81
308.421	178.81
308.651	191.81
308.881	184.81
309.111	179.81
309.341	176.81
309.571	198.81
309.8	206.81
310.03	197.81
310.26	207.81
310.49	178.81
310.72	201.81
310.949	201.81
311.179	212.81
311.409	206.81
311.639	201.81
311.868	190.81
312.098	196.81
312.328	202.81
312.557	216.81
312.787	223.81
313.017	211.81
313.246	212.81
313.476	208.81
313.706	203.81
313.935	201.81
314.165	214.81
314.394	214.81
314.624	200.81
314.853	200.81
315.083	202.81
315.312	183.81
315.542	187.81
315.771	190.81
316.001	191.81
316.23	184.81
316.46	190.81
316.689	203.81
316.919	191.81
317.148	184.81
317.377	199.81
317.607	195.81
317.836	195.81
318.065	199.81
318.295	206.81
318.524	188.81
318.753	204.81
318.983	214.81
319.212	199.81
319.441	214.81
319.67	200.81
319.9	211.81
320.129	188.81
320.358	195.81
320.587	194.81
320.816	200.81
321.046	206.81
321.275	208.81
321.504	214.81
321.733	218.81
321.962	212.81
322.191	220.81
322.42	225.81
322.649	246.81
322.878	216.81
323.108	235.81
323.337	244.81
323.566	244.81
323.795	266.81
324.024	283.81
324.253	347.81
324.482	481.81
324.71	707.81
324.939	963.81
325.168	771.81
325.397	417.81
325.626	304.81
325.855	254.81
326.084	247.81
326.313	230.81
326.542	244.81
326.77	266.81
326.999	317.81
327.228	433.81
327.457	655.81
327.686	690.81
327.914	463.81
328.143	337.81
328.372	324.81
328.6	302.81
328.829	285.81
329.058	285.81
329.287	272.81
329.515	266.81
329.744	268.81
329.972	268.81
330.201	290.81
330.43	306.81
330.658	322.81
330.887	304.81
331.115	288.81
331.344	263.81
331.572	233.81
331.801	237.81
332.03	247.81
332.258	225.81
332.486	226.81
332.715	233.81
332.943	234.81
333.172	235.81
333.4	223.81
333.629	242.81
333.857	247.81
334.085	251.81
334.314	254.81
334.542	284.81
334.771	294.81
334.999	246.81
335.227	256.81
335.455	232.81
335.684	249.81
335.912	215.81
336.14	228.81
336.369	233.81
336.597	255.81
336.825	233.81
337.053	234.81
337.281	244.81
337.51	226.81
337.738	232.81
337.966	228.81
338.194	240.81
338.422	214.81
338.65	214.81
338.878	232.81
339.106	219.81
339.334	224.81
339.562	215.81
339.79	215.81
340.018	218.81
340.246	218.81
340.474	219.81
340.702	240.81
340.93	216.81
341.158	222.81
341.386	217.81
341.614	227.81
341.842	210.81
342.07	221.81
342.298	208.81
342.526	222.81
342.754	208.81
342.981	208.81
343.209	206.81
343.437	220.81
343.665	213.81
343.893	224.81
344.12	211.81
344.348	221.81
344.576	214.81
344.804	219.81
345.031	216.81
345.259	223.81
345.487	227.81
345.714	214.81
345.942	218.81
346.17	211.81
346.397	201.81
346.625	217.81
346.853	212.81
347.08	211.81
347.308	215.81
347.535	210.81
347.763	217.81
347.99	212.81
348.218	205.81
348.445	227.81
348.673	214.81
348.9	208.81
349.128	212.81
349.355	202.81
349.583	188.81
349.81	202.81
350.037	203.81
350.265	200.81
350.492	194.81
350.72	228.81
350.947	208.81
351.174	206.81
351.402	188.81
351.629	226.81
351.856	208.81
352.083	211.81
352.311	217.81
352.538	209.81
352.765	216.81
352.992	207.81
353.22	219.81
353.447	214.81
353.674	216.81
353.901	204.81
354.128	200.81
354.355	198.81
354.583	201.81
354.81	213.81
355.037	200.81
355.264	196.81
355.491	191.81
355.718	205.81
355.945	202.81
356.172	200.81
356.399	190.81
356.626	190.81
356.853	192.81
357.08	190.81
357.307	206.81
357.534	200.81
357.761	202.81
357.988	185.81
358.215	181.81
358.441	212.81
358.668	206.81
358.895	187.81
359.122	204.81
359.349	187.81
359.576	195.81
359.802	218.81
360.029	226.81
360.256	250.81
360.483	226.81
360.709	236.81
360.936	215.81
361.163	216.81
361.39	226.81
361.616	222.81
361.843	210.81
362.07	204.81
362.296	210.81
362.523	220.81
362.749	202.81
362.976	206.81
363.203	210.81
363.429	200.81
363.656	208.81
363.882	190.81
364.109	208.81
364.335	196.81
364.562	212.81
364.788	195.81
365.015	212.81
365.241	209.81
365.468	212.81
365.694	215.81
365.92	215.81
366.147	196.81
366.373	204.81
366.599	192.81
366.826	191.81
367.052	204.81
367.278	214.81
367.505	197.81
367.731	214.81
367.957	206.81
368.184	200.81
368.41	181.81
368.636	218.81
368.862	231.81
369.089	210.81
369.315	213.81
369.541	198.81
369.767	199.81
369.993	196.81
370.219	209.81
370.445	196.81
370.672	201.81
370.898	217.81
371.124	191.81
371.35	209.81
371.576	196.81
371.802	191.81
372.028	187.81
372.254	216.81
372.48	192.81
372.706	201.81
372.932	209.81
373.158	204.81
373.384	201.81
373.61	204.81
373.835	195.81
374.061	217.81
374.287	199.81
374.513	225.81
374.739	213.81
374.965	183.81
375.191	209.81
375.416	204.81
375.642	205.81
375.868	200.81
376.094	203.81
376.319	198.81
376.545	179.81
376.771	199.81
376.997	197.81
377.222	199.81
377.448	203.81
377.674	195.81
377.899	206.81
378.125	202.81
378.35	202.81
378.576	198.81
378.802	193.81
379.027	194.81
379.253	204.81
379.478	190.81
379.704	195.81
379.929	199.81
380.155	218.81
380.38	193.81
380.606	204.81
380.831	201.81
381.057	197.81
381.282	211.81
381.507	206.81
381.733	196.81
381.958	203.81
382.184	205.81
382.409	200.81
382.634	211.81
382.86	190.81
383.085	200.81
383.31	196.81
383.535	197.81
383.761	209.81
383.986	212.81
384.211	191.81
384.436	222.81
384.662	195.81
384.887	214.81
385.112	210.81
385.337	190.81
385.562	210.81
385.787	206.81
386.013	224.81
386.238	210.81
386.463	203.81
386.688	218.81
386.913	210.81
387.138	225.81
387.363	208.81
387.588	219.81
387.813	212.81
388.038	209.81
388.263	223.81
388.488	203.81
388.713	197.81
388.938	226.81
389.163	218.81
389.387	223.81
389.612	230.81
389.837	200.81
390.062	199.81
390.287	229.81
390.512	214.81
390.736	210.81
390.961	231.81
391.186	231.81
391.411	221.81
391.636	220.81
391.86	205.81
392.085	212.81
392.31	210.81
392.534	220.81
392.759	213.81
392.984	214.81
393.208	207.81
393.433	213.81
393.658	218.81
393.882	205.81
394.107	215.81
394.331	203.81
394.556	220.81
394.78	224.81
395.005	227.81
395.229	211.81
395.454	228.81
395.678	216.81
395.903	233.81
396.127	244.81
396.352	222.81
396.576	221.81
396.801	219.81
397.025	234.81
397.249	234.81
397.474	247.81
397.698	231.81
397.922	224.81
398.147	254.81
398.371	241.81
398.595	242.81
398.82	230.81
399.044	260.81
399.268	265.81
399.492	271.81
399.717	266.81
399.941	277.81
400.165	282.81
400.389	273.81
400.613	273.81
400.837	253.81
401.062	245.81
401.286	226.81
401.51	227.81
401.734	235.81
401.958	223.81
402.182	233.81
402.406	244.81
402.63	264.81
402.854	245.81
403.078	257.81
403.302	249.81
403.526	261.81
403.75	249.81
403.974	242.81
404.198	252.81
404.422	251.81
404.645	266.81
404.869	258.81
405.093	270.81
405.317	283.81
405.541	299.81
405.765	273.81
405.988	268.81
406.212	274.81
406.436	271.81
406.66	288.81
406.883	276.81
407.107	283.81
407.331	294.81
407.555	318.81
407.778	303.81
408.002	294.81
408.226	284.81
408.449	286.81
408.673	266.81
408.896	273.81
409.12	304.81
409.344	286.81
409.567	263.81
409.791	255.81
410.014	282.81
410.238	266.81
410.461	265.81
410.685	260.81
410.908	265.81
411.132	275.81
411.355	290.81
411.578	259.81
411.802	246.81
412.025	240.81
412.249	245.81
412.472	279.81
412.695	274.81
412.919	277.81
413.142	256.81
413.365	257.81
413.589	245.81
413.812	233.81
414.035	250.81
414.258	257.81
414.482	266.81
414.705	257.81
414.928	254.81
415.151	234.81
415.374	246.81
415.597	244.81
415.821	240.81
416.044	235.81
416.267	233.81
416.49	249.81
416.713	255.81
416.936	245.81
417.159	257.81
417.382	236.81
417.605	233.81
417.828	251.81
418.051	258.81
418.274	249.81
418.497	214.81
418.72	235.81
418.943	242.81
419.166	264.81
419.389	269.81
419.611	254.81
419.834	258.81
420.057	266.81
420.28	262.81
420.503	266.81
420.726	257.81
420.948	254.81
421.171	281.81
421.394	281.81
421.617	264.81
421.839	243.81
422.062	246.81
422.285	251.81
422.507	282.81
422.73	321.81
422.953	298.81
423.175	270.81
423.398	262.81
423.621	257.81
423.843	278.81
424.066	261.81
424.288	256.81
424.511	273.81
424.733	296.81
424.956	339.81
425.178	304.81
425.401	310.81
425.623	309.81
425.846	275.81
426.068	254.81
426.291	260.81
426.513	262.81
426.735	252.81
426.958	291.81
427.18	313.81
427.402	384.81
427.625	421.81
427.847	351.81
428.069	316.81
428.292	269.81
428.514	255.81
428.736	258.81
428.958	241.81
429.181	244.81
429.403	252.81
429.625	240.81
429.847	273.81
430.069	291.81
430.292	282.81
430.514	233.81
430.736	245.81
430.958	248.81
431.18	229.81
431.402	238.81
431.624	233.81
431.846	245.81
432.068	239.81
432.29	227.81
432.512	242.81
432.734	238.81
432.956	246.81
433.178	255.81
433.4	247.81
433.622	247.81
433.844	241.81
434.066	254.81
434.287	247.81
434.509	243.81
434.731	215.81
434.953	263.81
435.175	267.81
435.397	282.81
435.618	273.81
435.84	283.81
436.062	311.81
436.284	324.81
436.505	297.81
436.727	262.81
436.949	264.81
437.17	243.81
437.392	259.81
437.614	245.81
437.835	263.81
438.057	308.81
438.278	341.81
438.5	328.81
438.721	379.81
438.943	345.81
439.165	278.81
439.386	256.81
439.608	270.81
439.829	273.81
440.05	286.81
440.272	292.81
440.493	262.81
440.715	266.81
440.936	266.81
441.158	258.81
441.379	247.81
441.6	258.81
441.822	258.81
442.043	293.81
442.264	323.81
442.486	362.81
442.707	291.81
442.928	268.81
443.149	279.81
443.371	293.81
443.592	309.81
443.813	334.81
444.034	380.81
444.255	299.81
444.476	288.81
444.698	268.81
444.919	258.81
445.14	352.81
445.361	326.81
445.582	289.81
445.803	325.81
446.024	380.81
446.245	366.81
446.466	319.81
446.687	260.81
446.908	264.81
447.129	270.81
447.35	242.81
447.571	233.81
447.792	241.81
448.013	249.81
448.234	254.81
448.455	271.81
448.675	325.81
448.896	378.81
449.117	302.81
449.338	306.81
449.559	357.81
449.779	382.81
450	310.81
450.221	264.81
450.442	258.81
450.662	232.81
450.883	250.81
451.104	258.81
451.324	243.81
451.545	252.81
451.766	241.81
451.986	225.81
452.207	213.81
452.428	224.81
452.648	232.81
452.869	245.81
453.089	258.81
453.31	232.81
453.53	243.81
453.751	210.81
453.971	234.81
454.192	224.81
454.412	234.81
454.633	229.81
454.853	224.81
455.073	221.81
455.294	208.81
455.514	274.81
455.734	236.81
455.955	214.81
456.175	204.81
456.395	199.81
456.616	204.81
456.836	220.81
457.056	207.81
457.276	224.81
457.497	238.81
457.717	231.81
457.937	214.81
458.157	219.81
458.377	223.81
458.598	235.81
458.818	266.81
459.038	311.81
459.258	314.81
459.478	233.81
459.698	228.81
459.918	235.81
460.138	226.81
460.358	233.81
460.578	251.81
460.798	249.81
461.018	242.81
461.238	255.81
461.458	232.81
461.678	220.81
461.898	233.81
462.118	246.81
462.338	236.81
462.558	253.81
462.777	259.81
462.997	255.81
463.217	263.81
463.437	275.81
463.657	236.81
463.876	257.81
464.096	257.81
464.316	266.81
464.536	274.81
464.755	265.81
464.975	244.81
465.195	292.81
465.414	316.81
465.634	271.81
465.854	254.81
466.073	241.81
466.293	231.81
466.512	229.81
466.732	243.81
466.951	240.81
467.171	224.81
467.391	221.81
467.61	249.81
467.829	250.81
468.049	235.81
468.268	256.81
468.488	238.81
468.707	232.81
468.927	228.81
469.146	207.81
469.365	226.81
469.585	233.81
469.804	233.81
470.023	251.81
470.243	244.81
470.462	240.81
470.681	248.81
470.901	232.81
471.12	221.81
471.339	232.81
471.558	238.81
471.777	224.81
471.997	247.81
472.216	244.81
472.435	287.81
472.654	248.81
472.873	231.81
473.092	227.81
473.311	218.81
473.53	216.81
473.749	211.81
473.968	265.81
474.187	316.81
474.406	309.81
474.625	257.81
474.844	247.81
475.063	233.81
475.282	240.81
475.501	246.81
475.72	241.81
475.939	229.81
476.158	248.81
476.377	232.81
476.596	233.81
476.814	241.81
477.033	239.81
477.252	247.81
477.471	247.81
477.69	244.81
477.908	258.81
478.127	245.81
478.346	259.81
478.564	264.81
478.783	264.81
479.002	273.81
479.22	277.81
479.439	276.81
479.658	262.81
479.876	293.81
480.095	277.81
480.313	292.81
480.532	290.81
480.751	284.81
480.969	296.81
481.188	330.81
481.406	345.81
481.624	302.81
481.843	294.81
482.061	277.81
482.28	263.81
482.498	265.81
482.717	259.81
482.935	265.81
483.153	274.81
483.372	258.81
483.59	249.81
483.808	276.81
484.027	254.81
484.245	267.81
484.463	266.81
484.681	250.81
484.9	275.81
485.118	276.81
485.336	259.81
485.554	283.81
485.772	282.81
485.99	268.81
486.209	276.81
486.427	275.81
486.645	311.81
486.863	294.81
487.081	308.81
487.299	267.81
487.517	290.81
487.735	274.81
487.953	285.81
488.171	307.81
488.389	291.81
488.607	305.81
488.825	267.81
489.043	289.81
489.261	290.81
489.479	276.81
489.696	314.81
489.914	298.81
490.132	306.81
490.35	286.81
490.568	296.81
490.786	324.81
491.003	314.81
491.221	316.81
491.439	343.81
491.657	323.81
491.874	344.81
492.092	356.81
492.31	333.81
492.527	333.81
492.745	344.81
492.963	345.81
493.18	336.81
493.398	334.81
493.615	326.81
493.833	335.81
494.05	343.81
494.268	327.81
494.485	330.81
494.703	351.81
494.92	348.81
495.138	336.81
495.355	321.81
495.573	339.81
495.79	324.81
496.008	350.81
496.225	339.81
496.442	335.81
496.66	331.81
496.877	329.81
497.094	315.81
497.312	326.81
497.529	339.81
497.746	338.81
497.963	346.81
498.181	344.81
498.398	351.81
498.615	348.81
498.832	357.81
499.049	369.81
499.267	372.81
499.484	407.81
499.701	402.81
499.918	418.81
500.135	429.81
500.352	441.81
500.569	470.81
500.786	424.81
501.003	438.81
501.22	424.81
501.437	403.81
501.654	420.81
501.871	414.81
502.088	390.81
502.305	395.81
502.522	378.81
502.739	342.81
