Data from 1966.PennyLincolnUp.Lamp.En5.5.200Scan.071719.P1.Scan2.head_HRD10591_14-16-32-036.txt Node
Date: Thu Jul 18 14:16:32 EDT 2019
User: cochatt
Spectrometer: HR+D1059
Trigger mode: 1
Integration Time (sec): 1.000000E-1
Scans to average: 1
Electric dark correction enabled: true
Nonlinearity correction enabled: false
Boxcar width: 0
XAxis mode: Wavelengths
Number of Pixels in Spectrum: 2048
>>>>>Begin Spectral Data<<<<<
223.165	-18.62
223.4	-18.62
223.635	-18.62
223.869	-8.62
224.104	-13.62
224.338	-35.62
224.573	-13.62
224.808	-5.62
225.042	4.38
225.277	-11.62
225.511	3.38
225.746	5.38
225.98	4.38
226.215	1.38
226.449	29.38
226.683	0.38
226.918	21.38
227.152	37.38
227.387	44.38
227.621	45.38
227.856	44.38
228.09	38.38
228.324	58.38
228.559	68.38
228.793	57.38
229.027	88.38
229.262	88.38
229.496	97.38
229.73	126.38
229.964	129.38
230.199	118.38
230.433	116.38
230.667	107.38
230.901	114.38
231.136	103.38
231.37	101.38
231.604	98.38
231.838	106.38
232.072	105.38
232.306	111.38
232.541	112.38
232.775	105.38
233.009	116.38
233.243	104.38
233.477	110.38
233.711	115.38
233.945	95.38
234.179	106.38
234.413	122.38
234.647	122.38
234.881	123.38
235.115	125.38
235.349	108.38
235.583	127.38
235.817	101.38
236.051	114.38
236.285	123.38
236.519	88.38
236.753	107.38
236.987	118.38
237.221	160.38
237.455	196.38
237.689	164.38
237.922	122.38
238.156	129.38
238.39	128.38
238.624	120.38
238.858	118.38
239.091	130.38
239.325	116.38
239.559	125.38
239.793	120.38
240.027	116.38
240.26	124.38
240.494	126.38
240.728	136.38
240.961	139.38
241.195	139.38
241.429	122.38
241.662	128.38
241.896	143.38
242.13	116.38
242.363	129.38
242.597	130.38
242.83	120.38
243.064	133.38
243.298	124.38
243.531	126.38
243.765	137.38
243.998	140.38
244.232	149.38
244.465	139.38
244.699	140.38
244.932	142.38
245.166	143.38
245.399	126.38
245.633	155.38
245.866	141.38
246.099	146.38
246.333	137.38
246.566	139.38
246.8	151.38
247.033	152.38
247.266	140.38
247.5	150.38
247.733	158.38
247.966	181.38
248.2	156.38
248.433	153.38
248.666	172.38
248.899	146.38
249.133	184.38
249.366	177.38
249.599	177.38
249.832	173.38
250.066	178.38
250.299	164.38
250.532	165.38
250.765	180.38
250.998	182.38
251.231	193.38
251.465	184.38
251.698	183.38
251.931	187.38
252.164	153.38
252.397	172.38
252.63	172.38
252.863	177.38
253.096	184.38
253.329	211.38
253.562	176.38
253.795	198.38
254.028	184.38
254.261	172.38
254.494	196.38
254.727	193.38
254.96	220.38
255.193	217.38
255.426	210.38
255.659	192.38
255.892	194.38
256.124	190.38
256.357	205.38
256.59	197.38
256.823	184.38
257.056	191.38
257.289	193.38
257.521	183.38
257.754	176.38
257.987	181.38
258.22	166.38
258.452	192.38
258.685	187.38
258.918	176.38
259.151	182.38
259.383	185.38
259.616	193.38
259.849	192.38
260.081	199.38
260.314	208.38
260.547	220.38
260.779	204.38
261.012	202.38
261.244	219.38
261.477	215.38
261.71	191.38
261.942	218.38
262.175	202.38
262.407	201.38
262.64	189.38
262.872	191.38
263.105	193.38
263.337	192.38
263.57	188.38
263.802	199.38
264.035	204.38
264.267	185.38
264.499	202.38
264.732	186.38
264.964	205.38
265.197	195.38
265.429	185.38
265.661	186.38
265.894	199.38
266.126	192.38
266.358	189.38
266.591	209.38
266.823	178.38
267.055	214.38
267.287	221.38
267.52	190.38
267.752	206.38
267.984	214.38
268.216	188.38
268.448	222.38
268.681	196.38
268.913	206.38
269.145	220.38
269.377	232.38
269.609	223.38
269.841	226.38
270.073	214.38
270.306	230.38
270.538	266.38
270.77	248.38
271.002	245.38
271.234	240.38
271.466	227.38
271.698	257.38
271.93	251.38
272.162	258.38
272.394	257.38
272.626	249.38
272.858	233.38
273.09	218.38
273.322	226.38
273.553	217.38
273.785	227.38
274.017	238.38
274.249	233.38
274.481	234.38
274.713	230.38
274.945	230.38
275.176	246.38
275.408	232.38
275.64	238.38
275.872	246.38
276.104	230.38
276.335	247.38
276.567	233.38
276.799	245.38
277.031	234.38
277.262	256.38
277.494	244.38
277.726	240.38
277.957	257.38
278.189	228.38
278.421	231.38
278.652	246.38
278.884	238.38
279.115	228.38
279.347	222.38
279.579	242.38
279.81	265.38
280.042	231.38
280.273	250.38
280.505	256.38
280.736	239.38
280.968	234.38
281.199	255.38
281.431	238.38
281.662	232.38
281.894	231.38
282.125	251.38
282.356	244.38
282.588	265.38
282.819	256.38
283.051	239.38
283.282	256.38
283.513	226.38
283.745	243.38
283.976	241.38
284.207	244.38
284.439	259.38
284.67	247.38
284.901	249.38
285.132	249.38
285.364	239.38
285.595	239.38
285.826	250.38
286.057	272.38
286.288	244.38
286.52	262.38
286.751	245.38
286.982	247.38
287.213	235.38
287.444	238.38
287.675	263.38
287.906	264.38
288.138	273.38
288.369	261.38
288.6	265.38
288.831	265.38
289.062	250.38
289.293	253.38
289.524	249.38
289.755	273.38
289.986	264.38
290.217	271.38
290.448	253.38
290.679	262.38
290.91	243.38
291.141	243.38
291.371	256.38
291.602	250.38
291.833	252.38
292.064	271.38
292.295	264.38
292.526	281.38
292.757	260.38
292.987	269.38
293.218	257.38
293.449	262.38
293.68	258.38
293.91	246.38
294.141	274.38
294.372	273.38
294.603	250.38
294.833	255.38
295.064	268.38
295.295	249.38
295.525	246.38
295.756	269.38
295.987	254.38
296.217	277.38
296.448	270.38
296.679	264.38
296.909	274.38
297.14	273.38
297.37	267.38
297.601	280.38
297.831	264.38
298.062	274.38
298.292	271.38
298.523	291.38
298.753	286.38
298.984	285.38
299.214	271.38
299.445	264.38
299.675	260.38
299.905	288.38
300.136	273.38
300.366	276.38
300.597	270.38
300.827	281.38
301.057	297.38
301.288	293.38
301.518	288.38
301.748	280.38
301.979	278.38
302.209	298.38
302.439	302.38
302.669	295.38
302.9	290.38
303.13	288.38
303.36	303.38
303.59	289.38
303.82	311.38
304.051	297.38
304.281	289.38
304.511	301.38
304.741	286.38
304.971	288.38
305.201	310.38
305.431	291.38
305.661	300.38
305.891	304.38
306.121	285.38
306.352	274.38
306.582	295.38
306.812	292.38
307.042	282.38
307.272	297.38
307.502	294.38
307.731	288.38
307.961	288.38
308.191	279.38
308.421	296.38
308.651	316.38
308.881	295.38
309.111	303.38
309.341	295.38
309.571	277.38
309.8	290.38
310.03	302.38
310.26	332.38
310.49	331.38
310.72	304.38
310.949	345.38
311.179	325.38
311.409	320.38
311.639	331.38
311.868	329.38
312.098	333.38
312.328	326.38
312.557	324.38
312.787	356.38
313.017	337.38
313.246	330.38
313.476	320.38
313.706	306.38
313.935	324.38
314.165	346.38
314.394	320.38
314.624	327.38
314.853	344.38
315.083	331.38
315.312	336.38
315.542	326.38
315.771	336.38
316.001	333.38
316.23	326.38
316.46	317.38
316.689	306.38
316.919	335.38
317.148	347.38
317.377	331.38
317.607	326.38
317.836	337.38
318.065	323.38
318.295	332.38
318.524	336.38
318.753	334.38
318.983	316.38
319.212	338.38
319.441	346.38
319.67	347.38
319.9	342.38
320.129	357.38
320.358	339.38
320.587	331.38
320.816	356.38
321.046	360.38
321.275	342.38
321.504	348.38
321.733	347.38
321.962	358.38
322.191	373.38
322.42	369.38
322.649	372.38
322.878	354.38
323.108	372.38
323.337	388.38
323.566	421.38
323.795	396.38
324.024	416.38
324.253	495.38
324.482	680.38
324.71	1054.38
324.939	1578.38
325.168	1372.38
325.397	676.38
325.626	446.38
325.855	425.38
326.084	379.38
326.313	381.38
326.542	391.38
326.77	420.38
326.999	510.38
327.228	655.38
327.457	954.38
327.686	1208.38
327.914	774.38
328.143	514.38
328.372	466.38
328.6	437.38
328.829	453.38
329.058	446.38
329.287	466.38
329.515	424.38
329.744	395.38
329.972	400.38
330.201	397.38
330.43	444.38
330.658	451.38
330.887	473.38
331.115	425.38
331.344	426.38
331.572	412.38
331.801	404.38
332.03	394.38
332.258	400.38
332.486	388.38
332.715	393.38
332.943	392.38
333.172	389.38
333.4	408.38
333.629	410.38
333.857	411.38
334.085	390.38
334.314	414.38
334.542	451.38
334.771	452.38
334.999	437.38
335.227	410.38
335.455	400.38
335.684	408.38
335.912	382.38
336.14	380.38
336.369	393.38
336.597	408.38
336.825	410.38
337.053	388.38
337.281	389.38
337.51	395.38
337.738	403.38
337.966	396.38
338.194	399.38
338.422	378.38
338.65	394.38
338.878	386.38
339.106	381.38
339.334	369.38
339.562	384.38
339.79	376.38
340.018	374.38
340.246	390.38
340.474	376.38
340.702	396.38
340.93	364.38
341.158	377.38
341.386	374.38
341.614	391.38
341.842	387.38
342.07	374.38
342.298	368.38
342.526	376.38
342.754	386.38
342.981	390.38
343.209	394.38
343.437	392.38
343.665	384.38
343.893	398.38
344.12	372.38
344.348	405.38
344.576	374.38
344.804	406.38
345.031	394.38
345.259	388.38
345.487	387.38
345.714	400.38
345.942	402.38
346.17	365.38
346.397	369.38
346.625	364.38
346.853	387.38
347.08	378.38
347.308	379.38
347.535	377.38
347.763	373.38
347.99	397.38
348.218	391.38
348.445	391.38
348.673	381.38
348.9	372.38
349.128	373.38
349.355	365.38
349.583	348.38
349.81	362.38
350.037	348.38
350.265	364.38
350.492	363.38
350.72	365.38
350.947	359.38
351.174	382.38
351.402	369.38
351.629	390.38
351.856	380.38
352.083	404.38
352.311	386.38
352.538	368.38
352.765	392.38
352.992	377.38
353.22	376.38
353.447	363.38
353.674	367.38
353.901	383.38
354.128	396.38
354.355	352.38
354.583	373.38
354.81	360.38
355.037	358.38
355.264	356.38
355.491	346.38
355.718	359.38
355.945	377.38
356.172	374.38
356.399	366.38
356.626	352.38
356.853	358.38
357.08	369.38
357.307	347.38
357.534	353.38
357.761	373.38
357.988	364.38
358.215	366.38
358.441	352.38
358.668	367.38
358.895	366.38
359.122	368.38
359.349	377.38
359.576	376.38
359.802	383.38
360.029	409.38
360.256	409.38
360.483	402.38
360.709	398.38
360.936	383.38
361.163	364.38
361.39	381.38
361.616	376.38
361.843	396.38
362.07	361.38
362.296	396.38
362.523	378.38
362.749	369.38
362.976	380.38
363.203	364.38
363.429	372.38
363.656	374.38
363.882	377.38
364.109	363.38
364.335	374.38
364.562	369.38
364.788	376.38
365.015	358.38
365.241	371.38
365.468	368.38
365.694	384.38
365.92	377.38
366.147	372.38
366.373	357.38
366.599	375.38
366.826	377.38
367.052	374.38
367.278	376.38
367.505	356.38
367.731	382.38
367.957	384.38
368.184	376.38
368.41	377.38
368.636	376.38
368.862	386.38
369.089	392.38
369.315	380.38
369.541	380.38
369.767	376.38
369.993	374.38
370.219	380.38
370.445	362.38
370.672	390.38
370.898	370.38
371.124	403.38
371.35	386.38
371.576	380.38
371.802	366.38
372.028	392.38
372.254	396.38
372.48	393.38
372.706	386.38
372.932	391.38
373.158	395.38
373.384	377.38
373.61	417.38
373.835	390.38
374.061	386.38
374.287	381.38
374.513	393.38
374.739	378.38
374.965	407.38
375.191	422.38
375.416	395.38
375.642	384.38
375.868	389.38
376.094	388.38
376.319	397.38
376.545	390.38
376.771	365.38
376.997	384.38
377.222	394.38
377.448	392.38
377.674	379.38
377.899	374.38
378.125	380.38
378.35	386.38
378.576	379.38
378.802	385.38
379.027	381.38
379.253	375.38
379.478	390.38
379.704	395.38
379.929	389.38
380.155	367.38
380.38	396.38
380.606	410.38
380.831	388.38
381.057	374.38
381.282	385.38
381.507	373.38
381.733	402.38
381.958	424.38
382.184	426.38
382.409	401.38
382.634	389.38
382.86	417.38
383.085	412.38
383.31	418.38
383.535	411.38
383.761	385.38
383.986	401.38
384.211	413.38
384.436	412.38
384.662	428.38
384.887	417.38
385.112	408.38
385.337	432.38
385.562	421.38
385.787	441.38
386.013	434.38
386.238	442.38
386.463	430.38
386.688	418.38
386.913	406.38
387.138	446.38
387.363	455.38
387.588	421.38
387.813	426.38
388.038	431.38
388.263	446.38
388.488	428.38
388.713	428.38
388.938	455.38
389.163	438.38
389.387	446.38
389.612	419.38
389.837	407.38
390.062	421.38
390.287	422.38
390.512	434.38
390.736	430.38
390.961	435.38
391.186	440.38
391.411	428.38
391.636	444.38
391.86	452.38
392.085	456.38
392.31	439.38
392.534	453.38
392.759	445.38
392.984	456.38
393.208	457.38
393.433	494.38
393.658	502.38
393.882	466.38
394.107	425.38
394.331	448.38
394.556	446.38
394.78	452.38
395.005	441.38
395.229	454.38
395.454	460.38
395.678	469.38
395.903	458.38
396.127	482.38
396.352	494.38
396.576	464.38
396.801	470.38
397.025	466.38
397.249	470.38
397.474	482.38
397.698	471.38
397.922	484.38
398.147	489.38
398.371	479.38
398.595	520.38
398.82	500.38
399.044	508.38
399.268	537.38
399.492	555.38
399.717	581.38
399.941	612.38
400.165	615.38
400.389	632.38
400.613	576.38
400.837	528.38
401.062	528.38
401.286	506.38
401.51	520.38
401.734	507.38
401.958	497.38
402.182	508.38
402.406	512.38
402.63	513.38
402.854	518.38
403.078	502.38
403.302	524.38
403.526	521.38
403.75	503.38
403.974	516.38
404.198	517.38
404.422	521.38
404.645	513.38
404.869	531.38
405.093	553.38
405.317	584.38
405.541	616.38
405.765	554.38
405.988	550.38
406.212	561.38
406.436	536.38
406.66	581.38
406.883	543.38
407.107	581.38
407.331	612.38
407.555	675.38
407.778	671.38
408.002	628.38
408.226	582.38
408.449	549.38
408.673	573.38
408.896	574.38
409.12	622.38
409.344	592.38
409.567	544.38
409.791	518.38
410.014	507.38
410.238	513.38
410.461	537.38
410.685	550.38
410.908	535.38
411.132	570.38
411.355	610.38
411.578	595.38
411.802	533.38
412.025	520.38
412.249	532.38
412.472	544.38
412.695	564.38
412.919	542.38
413.142	513.38
413.365	510.38
413.589	529.38
413.812	500.38
414.035	482.38
414.258	459.38
414.482	517.38
414.705	502.38
414.928	485.38
415.151	508.38
415.374	506.38
415.597	501.38
415.821	486.38
416.044	492.38
416.267	516.38
416.49	512.38
416.713	474.38
416.936	488.38
417.159	487.38
417.382	510.38
417.605	496.38
417.828	505.38
418.051	521.38
418.274	495.38
418.497	504.38
418.72	480.38
418.943	477.38
419.166	480.38
419.389	536.38
419.611	524.38
419.834	523.38
420.057	526.38
420.28	533.38
420.503	503.38
420.726	529.38
420.948	513.38
421.171	552.38
421.394	585.38
421.617	525.38
421.839	525.38
422.062	523.38
422.285	516.38
422.507	580.38
422.73	658.38
422.953	640.38
423.175	531.38
423.398	514.38
423.621	509.38
423.843	543.38
424.066	552.38
424.288	542.38
424.511	556.38
424.733	581.38
424.956	652.38
425.178	650.38
425.401	630.38
425.623	635.38
425.846	583.38
426.068	530.38
426.291	544.38
426.513	525.38
426.735	538.38
426.958	554.38
427.18	641.38
427.402	779.38
427.625	844.38
427.847	715.38
428.069	631.38
428.292	555.38
428.514	516.38
428.736	510.38
428.958	509.38
429.181	503.38
429.403	477.38
429.625	515.38
429.847	525.38
430.069	574.38
430.292	573.38
430.514	503.38
430.736	518.38
430.958	491.38
431.18	501.38
431.402	497.38
431.624	487.38
431.846	472.38
432.068	471.38
432.29	505.38
432.512	479.38
432.734	493.38
432.956	481.38
433.178	501.38
433.4	493.38
433.622	498.38
433.844	504.38
434.066	483.38
434.287	479.38
434.509	493.38
434.731	504.38
434.953	519.38
435.175	509.38
435.397	538.38
435.618	537.38
435.84	583.38
436.062	653.38
436.284	720.38
436.505	609.38
436.727	550.38
436.949	538.38
437.17	490.38
437.392	470.38
437.614	489.38
437.835	553.38
438.057	615.38
438.278	721.38
438.5	692.38
438.721	773.38
438.943	747.38
439.165	606.38
439.386	531.38
439.608	549.38
439.829	551.38
440.05	557.38
440.272	592.38
440.493	564.38
440.715	527.38
440.936	522.38
441.158	488.38
441.379	504.38
441.6	513.38
441.822	529.38
442.043	572.38
442.264	630.38
442.486	672.38
442.707	590.38
442.928	560.38
443.149	556.38
443.371	568.38
443.592	618.38
443.813	682.38
444.034	727.38
444.255	659.38
444.476	565.38
444.698	542.38
444.919	549.38
445.14	658.38
445.361	606.38
445.582	566.38
445.803	598.38
446.024	718.38
446.245	716.38
446.466	641.38
446.687	559.38
446.908	541.38
447.129	523.38
447.35	493.38
447.571	497.38
447.792	462.38
448.013	494.38
448.234	512.38
448.455	564.38
448.675	653.38
448.896	745.38
449.117	636.38
449.338	596.38
449.559	711.38
449.779	817.38
450	624.38
450.221	527.38
450.442	492.38
450.662	465.38
450.883	479.38
451.104	500.38
451.324	497.38
451.545	472.38
451.766	474.38
451.986	445.38
452.207	470.38
452.428	456.38
452.648	428.38
452.869	439.38
453.089	452.38
453.31	462.38
453.53	460.38
453.751	424.38
453.971	448.38
454.192	461.38
454.412	432.38
454.633	459.38
454.853	450.38
455.073	452.38
455.294	457.38
455.514	519.38
455.734	515.38
455.955	453.38
456.175	440.38
456.395	423.38
456.616	443.38
456.836	417.38
457.056	424.38
457.276	410.38
457.497	439.38
457.717	426.38
457.937	438.38
458.157	442.38
458.377	438.38
458.598	461.38
458.818	498.38
459.038	562.38
459.258	589.38
459.478	514.38
459.698	489.38
459.918	486.38
460.138	487.38
460.358	499.38
460.578	518.38
460.798	485.38
461.018	486.38
461.238	495.38
461.458	508.38
461.678	476.38
461.898	530.38
462.118	508.38
462.338	509.38
462.558	516.38
462.777	530.38
462.997	529.38
463.217	586.38
463.437	578.38
463.657	552.38
463.876	548.38
464.096	579.38
464.316	532.38
464.536	529.38
464.755	530.38
464.975	535.38
465.195	548.38
465.414	564.38
465.634	538.38
465.854	501.38
466.073	484.38
466.293	497.38
466.512	468.38
466.732	465.38
466.951	487.38
467.171	491.38
467.391	467.38
467.61	479.38
467.829	509.38
468.049	457.38
468.268	460.38
468.488	478.38
468.707	449.38
468.927	441.38
469.146	454.38
469.365	461.38
469.585	453.38
469.804	447.38
470.023	494.38
470.243	477.38
470.462	484.38
470.681	486.38
470.901	484.38
471.12	477.38
471.339	478.38
471.558	469.38
471.777	475.38
471.997	473.38
472.216	463.38
472.435	485.38
472.654	476.38
472.873	479.38
473.092	466.38
473.311	461.38
473.53	464.38
473.749	473.38
473.968	508.38
474.187	582.38
474.406	619.38
474.625	538.38
474.844	482.38
475.063	466.38
475.282	470.38
475.501	470.38
475.72	480.38
475.939	484.38
476.158	489.38
476.377	503.38
476.596	488.38
476.814	482.38
477.033	496.38
477.252	488.38
477.471	510.38
477.69	511.38
477.908	517.38
478.127	534.38
478.346	527.38
478.564	533.38
478.783	555.38
479.002	537.38
479.22	560.38
479.439	568.38
479.658	553.38
479.876	584.38
480.095	561.38
480.313	594.38
480.532	582.38
480.751	585.38
480.969	596.38
481.188	592.38
481.406	644.38
481.624	589.38
481.843	552.38
482.061	562.38
482.28	560.38
482.498	547.38
482.717	564.38
482.935	559.38
483.153	560.38
483.372	542.38
483.59	569.38
483.808	558.38
484.027	548.38
484.245	584.38
484.463	553.38
484.681	573.38
484.9	571.38
485.118	616.38
485.336	580.38
485.554	578.38
485.772	591.38
485.99	583.38
486.209	562.38
486.427	596.38
486.645	608.38
486.863	600.38
487.081	593.38
487.299	607.38
487.517	600.38
487.735	589.38
487.953	598.38
488.171	600.38
488.389	621.38
488.607	609.38
488.825	609.38
489.043	603.38
489.261	598.38
489.479	608.38
489.696	612.38
489.914	624.38
490.132	614.38
490.35	629.38
490.568	637.38
490.786	620.38
491.003	644.38
491.221	646.38
491.439	672.38
491.657	644.38
491.874	654.38
492.092	681.38
492.31	668.38
492.527	682.38
492.745	664.38
492.963	680.38
493.18	681.38
493.398	699.38
493.615	687.38
493.833	684.38
494.05	677.38
494.268	684.38
494.485	680.38
494.703	658.38
494.92	702.38
495.138	689.38
495.355	711.38
495.573	698.38
495.79	713.38
496.008	708.38
496.225	721.38
496.442	698.38
496.66	694.38
496.877	704.38
497.094	720.38
497.312	725.38
497.529	716.38
497.746	729.38
497.963	742.38
498.181	743.38
498.398	777.38
498.615	785.38
498.832	814.38
499.049	834.38
499.267	822.38
499.484	862.38
499.701	911.38
499.918	948.38
500.135	1009.38
500.352	1027.38
500.569	1046.38
500.786	1090.38
501.003	1052.38
501.22	1048.38
501.437	940.38
501.654	938.38
501.871	917.38
