Data from 1966.PennyLincolnUp.Lamp.En5.5.200Scan.071719.P1.Scan2.head_HRD10591_14-19-28-270.txt Node
Date: Thu Jul 18 14:19:28 EDT 2019
User: cochatt
Spectrometer: HR+D1059
Trigger mode: 1
Integration Time (sec): 1.000000E-1
Scans to average: 1
Electric dark correction enabled: true
Nonlinearity correction enabled: false
Boxcar width: 0
XAxis mode: Wavelengths
Number of Pixels in Spectrum: 2048
>>>>>Begin Spectral Data<<<<<
223.165	-19.88
223.4	-19.88
223.635	-19.88
223.869	-16.88
224.104	-11.88
224.338	-4.88
224.573	-9.88
224.808	-11.88
225.042	-14.88
225.277	-5.88
225.511	-4.88
225.746	-1.88
225.98	17.12
226.215	8.12
226.449	13.12
226.683	19.12
226.918	18.12
227.152	27.12
227.387	36.12
227.621	43.12
227.856	46.12
228.09	52.12
228.324	55.12
228.559	64.12
228.793	65.12
229.027	97.12
229.262	100.12
229.496	115.12
229.73	127.12
229.964	163.12
230.199	126.12
230.433	115.12
230.667	127.12
230.901	118.12
231.136	108.12
231.37	109.12
231.604	116.12
231.838	111.12
232.072	113.12
232.306	112.12
232.541	112.12
232.775	122.12
233.009	117.12
233.243	124.12
233.477	119.12
233.711	121.12
233.945	119.12
234.179	121.12
234.413	121.12
234.647	123.12
234.881	121.12
235.115	122.12
235.349	115.12
235.583	127.12
235.817	129.12
236.051	144.12
236.285	134.12
236.519	137.12
236.753	133.12
236.987	149.12
237.221	180.12
237.455	248.12
237.689	196.12
237.922	144.12
238.156	143.12
238.39	135.12
238.624	136.12
238.858	123.12
239.091	135.12
239.325	122.12
239.559	120.12
239.793	135.12
240.027	140.12
240.26	133.12
240.494	164.12
240.728	166.12
240.961	161.12
241.195	167.12
241.429	146.12
241.662	147.12
241.896	129.12
242.13	151.12
242.363	127.12
242.597	130.12
242.83	151.12
243.064	139.12
243.298	131.12
243.531	143.12
243.765	159.12
243.998	154.12
244.232	164.12
244.465	159.12
244.699	137.12
244.932	154.12
245.166	148.12
245.399	151.12
245.633	155.12
245.866	133.12
246.099	159.12
246.333	138.12
246.566	161.12
246.8	164.12
247.033	168.12
247.266	155.12
247.5	162.12
247.733	176.12
247.966	191.12
248.2	167.12
248.433	182.12
248.666	183.12
248.899	187.12
249.133	204.12
249.366	213.12
249.599	210.12
249.832	176.12
250.066	191.12
250.299	192.12
250.532	200.12
250.765	209.12
250.998	251.12
251.231	232.12
251.465	231.12
251.698	204.12
251.931	204.12
252.164	205.12
252.397	203.12
252.63	197.12
252.863	208.12
253.096	230.12
253.329	233.12
253.562	222.12
253.795	213.12
254.028	209.12
254.261	220.12
254.494	237.12
254.727	271.12
254.96	293.12
255.193	279.12
255.426	260.12
255.659	234.12
255.892	244.12
256.124	249.12
256.357	240.12
256.59	225.12
256.823	217.12
257.056	224.12
257.289	223.12
257.521	222.12
257.754	221.12
257.987	207.12
258.22	227.12
258.452	221.12
258.685	217.12
258.918	198.12
259.151	222.12
259.383	235.12
259.616	239.12
259.849	231.12
260.081	243.12
260.314	241.12
260.547	272.12
260.779	245.12
261.012	235.12
261.244	228.12
261.477	235.12
261.71	237.12
261.942	230.12
262.175	244.12
262.407	221.12
262.64	231.12
262.872	244.12
263.105	233.12
263.337	209.12
263.57	230.12
263.802	228.12
264.035	237.12
264.267	217.12
264.499	210.12
264.732	220.12
264.964	222.12
265.197	218.12
265.429	223.12
265.661	217.12
265.894	214.12
266.126	229.12
266.358	227.12
266.591	226.12
266.823	233.12
267.055	253.12
267.287	243.12
267.52	241.12
267.752	241.12
267.984	238.12
268.216	236.12
268.448	234.12
268.681	229.12
268.913	243.12
269.145	277.12
269.377	294.12
269.609	285.12
269.841	282.12
270.073	263.12
270.306	295.12
270.538	319.12
270.77	334.12
271.002	308.12
271.234	289.12
271.466	309.12
271.698	331.12
271.93	309.12
272.162	326.12
272.394	335.12
272.626	317.12
272.858	313.12
273.09	294.12
273.322	255.12
273.553	279.12
273.785	268.12
274.017	281.12
274.249	264.12
274.481	269.12
274.713	271.12
274.945	276.12
275.176	280.12
275.408	286.12
275.64	293.12
275.872	288.12
276.104	265.12
276.335	269.12
276.567	286.12
276.799	295.12
277.031	300.12
277.262	324.12
277.494	325.12
277.726	320.12
277.957	293.12
278.189	286.12
278.421	278.12
278.652	294.12
278.884	278.12
279.115	272.12
279.347	261.12
279.579	282.12
279.81	256.12
280.042	265.12
280.273	285.12
280.505	273.12
280.736	288.12
280.968	263.12
281.199	287.12
281.431	285.12
281.662	278.12
281.894	272.12
282.125	295.12
282.356	297.12
282.588	307.12
282.819	304.12
283.051	275.12
283.282	274.12
283.513	285.12
283.745	283.12
283.976	299.12
284.207	314.12
284.439	291.12
284.67	285.12
284.901	300.12
285.132	293.12
285.364	281.12
285.595	284.12
285.826	290.12
286.057	288.12
286.288	295.12
286.52	279.12
286.751	269.12
286.982	276.12
287.213	290.12
287.444	287.12
287.675	292.12
287.906	301.12
288.138	297.12
288.369	315.12
288.6	317.12
288.831	305.12
289.062	307.12
289.293	298.12
289.524	303.12
289.755	295.12
289.986	286.12
290.217	300.12
290.448	289.12
290.679	285.12
290.91	308.12
291.141	276.12
291.371	295.12
291.602	295.12
291.833	304.12
292.064	303.12
292.295	309.12
292.526	309.12
292.757	299.12
292.987	294.12
293.218	309.12
293.449	319.12
293.68	304.12
293.91	291.12
294.141	313.12
294.372	295.12
294.603	292.12
294.833	303.12
295.064	312.12
295.295	284.12
295.525	300.12
295.756	308.12
295.987	310.12
296.217	330.12
296.448	322.12
296.679	336.12
296.909	303.12
297.14	315.12
297.37	318.12
297.601	331.12
297.831	302.12
298.062	316.12
298.292	311.12
298.523	321.12
298.753	312.12
298.984	320.12
299.214	326.12
299.445	335.12
299.675	326.12
299.905	318.12
300.136	332.12
300.366	330.12
300.597	332.12
300.827	314.12
301.057	311.12
301.288	350.12
301.518	350.12
301.748	337.12
301.979	352.12
302.209	337.12
302.439	342.12
302.669	343.12
302.9	324.12
303.13	324.12
303.36	333.12
303.59	330.12
303.82	342.12
304.051	334.12
304.281	352.12
304.511	348.12
304.741	328.12
304.971	330.12
305.201	333.12
305.431	332.12
305.661	331.12
305.891	343.12
306.121	318.12
306.352	340.12
306.582	369.12
306.812	362.12
307.042	353.12
307.272	360.12
307.502	349.12
307.731	339.12
307.961	338.12
308.191	363.12
308.421	345.12
308.651	339.12
308.881	365.12
309.111	358.12
309.341	355.12
309.571	367.12
309.8	378.12
310.03	373.12
310.26	393.12
310.49	377.12
310.72	387.12
310.949	405.12
311.179	423.12
311.409	378.12
311.639	367.12
311.868	375.12
312.098	407.12
312.328	375.12
312.557	404.12
312.787	419.12
313.017	414.12
313.246	412.12
313.476	393.12
313.706	374.12
313.935	391.12
314.165	396.12
314.394	412.12
314.624	399.12
314.853	405.12
315.083	361.12
315.312	381.12
315.542	393.12
315.771	391.12
316.001	394.12
316.23	372.12
316.46	388.12
316.689	390.12
316.919	375.12
317.148	410.12
317.377	402.12
317.607	390.12
317.836	391.12
318.065	389.12
318.295	396.12
318.524	397.12
318.753	381.12
318.983	401.12
319.212	397.12
319.441	390.12
319.67	415.12
319.9	403.12
320.129	395.12
320.358	385.12
320.587	399.12
320.816	414.12
321.046	393.12
321.275	406.12
321.504	397.12
321.733	414.12
321.962	437.12
322.191	441.12
322.42	429.12
322.649	454.12
322.878	463.12
323.108	485.12
323.337	478.12
323.566	513.12
323.795	542.12
324.024	571.12
324.253	673.12
324.482	988.12
324.71	1503.12
324.939	2287.12
325.168	1998.12
325.397	985.12
325.626	660.12
325.855	561.12
326.084	530.12
326.313	511.12
326.542	499.12
326.77	581.12
326.999	636.12
327.228	894.12
327.457	1367.12
327.686	1693.12
327.914	1124.12
328.143	716.12
328.372	651.12
328.6	617.12
328.829	574.12
329.058	604.12
329.287	595.12
329.515	561.12
329.744	525.12
329.972	520.12
330.201	551.12
330.43	609.12
330.658	615.12
330.887	629.12
331.115	623.12
331.344	529.12
331.572	499.12
331.801	507.12
332.03	518.12
332.258	499.12
332.486	481.12
332.715	480.12
332.943	468.12
333.172	473.12
333.4	485.12
333.629	489.12
333.857	502.12
334.085	523.12
334.314	553.12
334.542	561.12
334.771	574.12
334.999	541.12
335.227	513.12
335.455	498.12
335.684	501.12
335.912	464.12
336.14	474.12
336.369	475.12
336.597	484.12
336.825	488.12
337.053	471.12
337.281	469.12
337.51	439.12
337.738	463.12
337.966	468.12
338.194	447.12
338.422	487.12
338.65	439.12
338.878	479.12
339.106	455.12
339.334	449.12
339.562	459.12
339.79	435.12
340.018	456.12
340.246	452.12
340.474	464.12
340.702	457.12
340.93	442.12
341.158	457.12
341.386	431.12
341.614	476.12
341.842	463.12
342.07	454.12
342.298	429.12
342.526	428.12
342.754	439.12
342.981	428.12
343.209	437.12
343.437	445.12
343.665	444.12
343.893	452.12
344.12	469.12
344.348	458.12
344.576	458.12
344.804	464.12
345.031	472.12
345.259	481.12
345.487	466.12
345.714	462.12
345.942	437.12
346.17	457.12
346.397	445.12
346.625	439.12
346.853	441.12
347.08	446.12
347.308	455.12
347.535	438.12
347.763	470.12
347.99	456.12
348.218	445.12
348.445	451.12
348.673	454.12
348.9	449.12
349.128	433.12
349.355	424.12
349.583	436.12
349.81	439.12
350.037	439.12
350.265	422.12
350.492	413.12
350.72	424.12
350.947	419.12
351.174	433.12
351.402	458.12
351.629	435.12
351.856	462.12
352.083	452.12
352.311	465.12
352.538	455.12
352.765	454.12
352.992	455.12
353.22	451.12
353.447	436.12
353.674	439.12
353.901	439.12
354.128	414.12
354.355	393.12
354.583	399.12
354.81	411.12
355.037	431.12
355.264	423.12
355.491	408.12
355.718	397.12
355.945	405.12
356.172	417.12
356.399	404.12
356.626	431.12
356.853	413.12
357.08	402.12
357.307	412.12
357.534	423.12
357.761	418.12
357.988	413.12
358.215	413.12
358.441	413.12
358.668	433.12
358.895	415.12
359.122	439.12
359.349	443.12
359.576	456.12
359.802	450.12
360.029	468.12
360.256	483.12
360.483	491.12
360.709	473.12
360.936	453.12
361.163	431.12
361.39	443.12
361.616	449.12
361.843	445.12
362.07	453.12
362.296	451.12
362.523	447.12
362.749	436.12
362.976	417.12
363.203	430.12
363.429	424.12
363.656	419.12
363.882	425.12
364.109	440.12
364.335	454.12
364.562	433.12
364.788	431.12
365.015	443.12
365.241	455.12
365.468	416.12
365.694	439.12
365.92	433.12
366.147	446.12
366.373	421.12
366.599	429.12
366.826	451.12
367.052	427.12
367.278	425.12
367.505	444.12
367.731	419.12
367.957	444.12
368.184	451.12
368.41	435.12
368.636	452.12
368.862	461.12
369.089	437.12
369.315	422.12
369.541	449.12
369.767	436.12
369.993	429.12
370.219	439.12
370.445	444.12
370.672	426.12
370.898	428.12
371.124	416.12
371.35	455.12
371.576	439.12
371.802	425.12
372.028	456.12
372.254	429.12
372.48	453.12
372.706	465.12
372.932	447.12
373.158	427.12
373.384	452.12
373.61	458.12
373.835	432.12
374.061	439.12
374.287	447.12
374.513	447.12
374.739	442.12
374.965	441.12
375.191	451.12
375.416	444.12
375.642	423.12
375.868	445.12
376.094	441.12
376.319	435.12
376.545	427.12
376.771	433.12
376.997	450.12
377.222	445.12
377.448	417.12
377.674	445.12
377.899	422.12
378.125	432.12
378.35	451.12
378.576	456.12
378.802	428.12
379.027	451.12
379.253	432.12
379.478	446.12
379.704	424.12
379.929	430.12
380.155	440.12
380.38	439.12
380.606	445.12
380.831	456.12
381.057	461.12
381.282	448.12
381.507	432.12
381.733	458.12
381.958	455.12
382.184	448.12
382.409	436.12
382.634	444.12
382.86	439.12
383.085	444.12
383.31	430.12
383.535	454.12
383.761	459.12
383.986	466.12
384.211	429.12
384.436	460.12
384.662	477.12
384.887	477.12
385.112	482.12
385.337	468.12
385.562	507.12
385.787	500.12
386.013	489.12
386.238	513.12
386.463	495.12
386.688	484.12
386.913	477.12
387.138	480.12
387.363	493.12
387.588	489.12
387.813	472.12
388.038	491.12
388.263	480.12
388.488	500.12
388.713	467.12
388.938	488.12
389.163	492.12
389.387	491.12
389.612	519.12
389.837	509.12
390.062	490.12
390.287	479.12
390.512	482.12
390.736	500.12
390.961	467.12
391.186	483.12
391.411	510.12
391.636	511.12
391.86	495.12
392.085	515.12
392.31	503.12
392.534	526.12
392.759	517.12
392.984	496.12
393.208	464.12
393.433	508.12
393.658	503.12
393.882	485.12
394.107	487.12
394.331	494.12
394.556	499.12
394.78	505.12
395.005	522.12
395.229	488.12
395.454	515.12
395.678	519.12
395.903	547.12
396.127	543.12
396.352	573.12
396.576	509.12
396.801	521.12
397.025	529.12
397.249	532.12
397.474	523.12
397.698	507.12
397.922	549.12
398.147	568.12
398.371	540.12
398.595	574.12
398.82	568.12
399.044	577.12
399.268	589.12
399.492	607.12
399.717	657.12
399.941	672.12
400.165	704.12
400.389	712.12
400.613	671.12
400.837	599.12
401.062	581.12
401.286	565.12
401.51	584.12
401.734	593.12
401.958	581.12
402.182	555.12
402.406	574.12
402.63	567.12
402.854	553.12
403.078	601.12
403.302	597.12
403.526	584.12
403.75	594.12
403.974	575.12
404.198	603.12
404.422	612.12
404.645	592.12
404.869	613.12
405.093	645.12
405.317	672.12
405.541	725.12
405.765	659.12
405.988	631.12
406.212	626.12
406.436	640.12
406.66	670.12
406.883	643.12
407.107	665.12
407.331	721.12
407.555	784.12
407.778	774.12
408.002	706.12
408.226	675.12
408.449	638.12
408.673	641.12
408.896	686.12
409.12	730.12
409.344	706.12
409.567	610.12
409.791	615.12
410.014	590.12
410.238	585.12
410.461	621.12
410.685	617.12
410.908	616.12
411.132	663.12
411.355	711.12
411.578	664.12
411.802	607.12
412.025	595.12
412.249	592.12
412.472	627.12
412.695	691.12
412.919	666.12
413.142	613.12
413.365	603.12
413.589	570.12
413.812	585.12
414.035	571.12
414.258	560.12
414.482	566.12
414.705	555.12
414.928	569.12
415.151	587.12
415.374	589.12
415.597	554.12
415.821	526.12
416.044	552.12
416.267	566.12
416.49	565.12
416.713	553.12
416.936	578.12
417.159	557.12
417.382	567.12
417.605	568.12
417.828	585.12
418.051	589.12
418.274	563.12
418.497	559.12
418.72	563.12
418.943	546.12
419.166	606.12
419.389	616.12
419.611	607.12
419.834	603.12
420.057	595.12
420.28	591.12
420.503	590.12
420.726	571.12
420.948	601.12
421.171	665.12
421.394	684.12
421.617	601.12
421.839	607.12
422.062	604.12
422.285	606.12
422.507	680.12
422.73	741.12
422.953	741.12
423.175	639.12
423.398	643.12
423.621	617.12
423.843	627.12
424.066	629.12
424.288	647.12
424.511	647.12
424.733	735.12
424.956	797.12
425.178	780.12
425.401	772.12
425.623	776.12
425.846	699.12
426.068	639.12
426.291	625.12
426.513	620.12
426.735	617.12
426.958	684.12
427.18	807.12
427.402	938.12
427.625	1030.12
427.847	858.12
428.069	771.12
428.292	679.12
428.514	612.12
428.736	610.12
428.958	585.12
429.181	597.12
429.403	593.12
429.625	604.12
429.847	644.12
430.069	708.12
430.292	695.12
430.514	605.12
430.736	605.12
430.958	581.12
431.18	580.12
431.402	557.12
431.624	570.12
431.846	533.12
432.068	549.12
432.29	561.12
432.512	576.12
432.734	572.12
432.956	571.12
433.178	575.12
433.4	587.12
433.622	573.12
433.844	550.12
434.066	563.12
434.287	569.12
434.509	582.12
434.731	570.12
434.953	570.12
435.175	604.12
435.397	635.12
435.618	629.12
435.84	679.12
436.062	805.12
436.284	873.12
436.505	703.12
436.727	647.12
436.949	603.12
437.17	598.12
437.392	569.12
437.614	616.12
437.835	621.12
438.057	727.12
438.278	863.12
438.5	861.12
438.721	939.12
438.943	908.12
439.165	720.12
439.386	653.12
439.608	650.12
439.829	653.12
440.05	667.12
440.272	721.12
440.493	665.12
440.715	639.12
440.936	614.12
441.158	581.12
441.379	584.12
441.6	629.12
441.822	632.12
442.043	691.12
442.264	762.12
442.486	820.12
442.707	685.12
442.928	643.12
443.149	644.12
443.371	681.12
443.592	717.12
443.813	835.12
444.034	920.12
444.255	760.12
444.476	676.12
444.698	660.12
444.919	632.12
445.14	742.12
445.361	705.12
445.582	662.12
445.803	758.12
446.024	864.12
446.245	876.12
446.466	800.12
446.687	684.12
446.908	655.12
447.129	585.12
447.35	593.12
447.571	580.12
447.792	577.12
448.013	589.12
448.234	613.12
448.455	662.12
448.675	800.12
448.896	919.12
449.117	770.12
449.338	736.12
449.559	842.12
449.779	969.12
450	779.12
450.221	650.12
450.442	598.12
450.662	567.12
450.883	581.12
451.104	586.12
451.324	582.12
451.545	587.12
451.766	566.12
451.986	535.12
452.207	519.12
452.428	523.12
452.648	519.12
452.869	536.12
453.089	533.12
453.31	532.12
453.53	526.12
453.751	488.12
453.971	513.12
454.192	539.12
454.412	540.12
454.633	528.12
454.853	522.12
455.073	501.12
455.294	539.12
455.514	616.12
455.734	593.12
455.955	557.12
456.175	497.12
456.395	489.12
456.616	475.12
456.836	497.12
457.056	495.12
457.276	469.12
457.497	485.12
457.717	500.12
457.937	491.12
458.157	493.12
458.377	500.12
458.598	532.12
458.818	589.12
459.038	685.12
459.258	700.12
459.478	598.12
459.698	576.12
459.918	530.12
460.138	584.12
460.358	570.12
460.578	556.12
460.798	556.12
461.018	557.12
461.238	557.12
461.458	564.12
461.678	559.12
461.898	555.12
462.118	577.12
462.338	614.12
462.558	619.12
462.777	605.12
462.997	619.12
463.217	629.12
463.437	626.12
463.657	611.12
463.876	608.12
464.096	633.12
464.316	598.12
464.536	617.12
464.755	604.12
464.975	599.12
465.195	655.12
465.414	715.12
465.634	656.12
465.854	609.12
466.073	591.12
466.293	561.12
466.512	576.12
466.732	551.12
466.951	556.12
467.171	541.12
467.391	553.12
467.61	560.12
467.829	552.12
468.049	573.12
468.268	556.12
468.488	526.12
468.707	535.12
468.927	517.12
469.146	519.12
469.365	550.12
469.585	529.12
469.804	534.12
470.023	553.12
470.243	546.12
470.462	552.12
470.681	561.12
470.901	556.12
471.12	547.12
471.339	528.12
471.558	549.12
471.777	564.12
471.997	527.12
472.216	535.12
472.435	577.12
472.654	585.12
472.873	559.12
473.092	540.12
473.311	556.12
473.53	520.12
473.749	573.12
473.968	604.12
474.187	692.12
474.406	744.12
474.625	599.12
474.844	553.12
475.063	570.12
475.282	563.12
475.501	562.12
475.72	575.12
475.939	559.12
476.158	565.12
476.377	576.12
476.596	566.12
476.814	572.12
477.033	573.12
477.252	580.12
477.471	581.12
477.69	590.12
477.908	590.12
478.127	623.12
478.346	602.12
478.564	620.12
478.783	610.12
479.002	634.12
479.22	627.12
479.439	637.12
479.658	639.12
479.876	667.12
480.095	669.12
480.313	709.12
480.532	677.12
480.751	685.12
480.969	699.12
481.188	761.12
481.406	804.12
481.624	716.12
481.843	681.12
482.061	661.12
482.28	665.12
482.498	646.12
482.717	640.12
482.935	662.12
483.153	661.12
483.372	654.12
483.59	636.12
483.808	648.12
484.027	656.12
484.245	649.12
484.463	667.12
484.681	672.12
484.9	653.12
485.118	650.12
485.336	684.12
485.554	675.12
485.772	675.12
485.99	655.12
486.209	680.12
486.427	678.12
486.645	672.12
486.863	709.12
487.081	687.12
487.299	679.12
487.517	695.12
487.735	677.12
487.953	683.12
488.171	694.12
488.389	696.12
488.607	699.12
488.825	703.12
489.043	704.12
489.261	701.12
489.479	709.12
489.696	695.12
489.914	716.12
490.132	730.12
490.35	727.12
490.568	753.12
490.786	737.12
491.003	760.12
491.221	753.12
491.439	781.12
491.657	798.12
491.874	768.12
492.092	784.12
492.31	780.12
492.527	812.12
492.745	797.12
492.963	824.12
493.18	839.12
493.398	795.12
493.615	833.12
493.833	817.12
494.05	838.12
494.268	840.12
494.485	809.12
494.703	806.12
494.92	806.12
495.138	822.12
495.355	850.12
495.573	823.12
495.79	819.12
496.008	819.12
496.225	826.12
496.442	805.12
496.66	839.12
496.877	831.12
497.094	841.12
497.312	859.12
497.529	863.12
497.746	849.12
497.963	862.12
498.181	904.12
498.398	869.12
498.615	930.12
498.832	982.12
499.049	957.12
499.267	976.12
499.484	1031.12
499.701	1053.12
499.918	1083.12
500.135	1152.12
500.352	1179.12
500.569	1200.12
500.786	1192.12
501.003	1161.12
501.22	1135.12
501.437	1115.12
501.654	1076.12
