Data from 1966.PennyLincolnUp.Lamp.En5.5.200Scan.071719.P1.Scan2.head_HRD10591_14-17-57-149.txt Node
Date: Thu Jul 18 14:17:57 EDT 2019
User: cochatt
Spectrometer: HR+D1059
Trigger mode: 1
Integration Time (sec): 1.000000E-1
Scans to average: 1
Electric dark correction enabled: true
Nonlinearity correction enabled: false
Boxcar width: 0
XAxis mode: Wavelengths
Number of Pixels in Spectrum: 2048
>>>>>Begin Spectral Data<<<<<
223.165	-14.5
223.4	-14.5
223.635	-14.5
223.869	-16.5
224.104	-26.5
224.338	-13.5
224.573	-9.5
224.808	0.5
225.042	-4.5
225.277	-19.5
225.511	-7.5
225.746	-2.5
225.98	6.5
226.215	17.5
226.449	9.5
226.683	12.5
226.918	36.5
227.152	31.5
227.387	40.5
227.621	44.5
227.856	41.5
228.09	44.5
228.324	52.5
228.559	54.5
228.793	67.5
229.027	90.5
229.262	108.5
229.496	120.5
229.73	131.5
229.964	157.5
230.199	137.5
230.433	127.5
230.667	115.5
230.901	121.5
231.136	105.5
231.37	115.5
231.604	106.5
231.838	127.5
232.072	125.5
232.306	116.5
232.541	110.5
232.775	123.5
233.009	115.5
233.243	112.5
233.477	117.5
233.711	103.5
233.945	123.5
234.179	110.5
234.413	110.5
234.647	115.5
234.881	119.5
235.115	127.5
235.349	131.5
235.583	132.5
235.817	126.5
236.051	118.5
236.285	137.5
236.519	130.5
236.753	133.5
236.987	142.5
237.221	202.5
237.455	233.5
237.689	178.5
237.922	144.5
238.156	129.5
238.39	125.5
238.624	122.5
238.858	118.5
239.091	121.5
239.325	119.5
239.559	133.5
239.793	116.5
240.027	142.5
240.26	136.5
240.494	161.5
240.728	152.5
240.961	149.5
241.195	145.5
241.429	143.5
241.662	149.5
241.896	129.5
242.13	136.5
242.363	132.5
242.597	138.5
242.83	140.5
243.064	121.5
243.298	118.5
243.531	135.5
243.765	145.5
243.998	129.5
244.232	127.5
244.465	146.5
244.699	155.5
244.932	145.5
245.166	154.5
245.399	156.5
245.633	143.5
245.866	142.5
246.099	147.5
246.333	161.5
246.566	145.5
246.8	149.5
247.033	152.5
247.266	152.5
247.5	153.5
247.733	164.5
247.966	151.5
248.2	185.5
248.433	169.5
248.666	191.5
248.899	181.5
249.133	188.5
249.366	202.5
249.599	198.5
249.832	176.5
250.066	180.5
250.299	173.5
250.532	195.5
250.765	207.5
250.998	220.5
251.231	226.5
251.465	220.5
251.698	204.5
251.931	203.5
252.164	195.5
252.397	199.5
252.63	196.5
252.863	205.5
253.096	223.5
253.329	228.5
253.562	231.5
253.795	215.5
254.028	226.5
254.261	226.5
254.494	223.5
254.727	247.5
254.96	278.5
255.193	267.5
255.426	240.5
255.659	245.5
255.892	237.5
256.124	233.5
256.357	251.5
256.59	220.5
256.823	217.5
257.056	212.5
257.289	209.5
257.521	198.5
257.754	202.5
257.987	209.5
258.22	205.5
258.452	204.5
258.685	205.5
258.918	193.5
259.151	211.5
259.383	190.5
259.616	223.5
259.849	229.5
260.081	216.5
260.314	233.5
260.547	255.5
260.779	243.5
261.012	228.5
261.244	232.5
261.477	210.5
261.71	221.5
261.942	218.5
262.175	245.5
262.407	220.5
262.64	223.5
262.872	210.5
263.105	239.5
263.337	200.5
263.57	225.5
263.802	218.5
264.035	222.5
264.267	229.5
264.499	228.5
264.732	217.5
264.964	216.5
265.197	223.5
265.429	220.5
265.661	218.5
265.894	218.5
266.126	202.5
266.358	223.5
266.591	224.5
266.823	230.5
267.055	229.5
267.287	221.5
267.52	216.5
267.752	224.5
267.984	226.5
268.216	224.5
268.448	251.5
268.681	243.5
268.913	246.5
269.145	265.5
269.377	275.5
269.609	248.5
269.841	277.5
270.073	274.5
270.306	310.5
270.538	292.5
270.77	299.5
271.002	292.5
271.234	288.5
271.466	288.5
271.698	289.5
271.93	316.5
272.162	305.5
272.394	301.5
272.626	278.5
272.858	293.5
273.09	275.5
273.322	260.5
273.553	274.5
273.785	287.5
274.017	262.5
274.249	269.5
274.481	261.5
274.713	268.5
274.945	260.5
275.176	252.5
275.408	251.5
275.64	263.5
275.872	263.5
276.104	274.5
276.335	271.5
276.567	279.5
276.799	295.5
277.031	301.5
277.262	323.5
277.494	333.5
277.726	307.5
277.957	291.5
278.189	284.5
278.421	264.5
278.652	265.5
278.884	262.5
279.115	266.5
279.347	294.5
279.579	267.5
279.81	291.5
280.042	266.5
280.273	280.5
280.505	263.5
280.736	259.5
280.968	269.5
281.199	264.5
281.431	243.5
281.662	295.5
281.894	286.5
282.125	271.5
282.356	300.5
282.588	307.5
282.819	303.5
283.051	282.5
283.282	288.5
283.513	285.5
283.745	282.5
283.976	290.5
284.207	279.5
284.439	288.5
284.67	268.5
284.901	274.5
285.132	265.5
285.364	279.5
285.595	278.5
285.826	297.5
286.057	291.5
286.288	299.5
286.52	288.5
286.751	275.5
286.982	288.5
287.213	284.5
287.444	287.5
287.675	296.5
287.906	312.5
288.138	295.5
288.369	307.5
288.6	291.5
288.831	316.5
289.062	311.5
289.293	291.5
289.524	305.5
289.755	303.5
289.986	282.5
290.217	288.5
290.448	288.5
290.679	303.5
290.91	315.5
291.141	289.5
291.371	281.5
291.602	296.5
291.833	279.5
292.064	281.5
292.295	294.5
292.526	288.5
292.757	309.5
292.987	291.5
293.218	295.5
293.449	281.5
293.68	303.5
293.91	279.5
294.141	303.5
294.372	278.5
294.603	306.5
294.833	289.5
295.064	286.5
295.295	286.5
295.525	291.5
295.756	305.5
295.987	301.5
296.217	334.5
296.448	334.5
296.679	338.5
296.909	305.5
297.14	304.5
297.37	299.5
297.601	302.5
297.831	327.5
298.062	325.5
298.292	310.5
298.523	309.5
298.753	308.5
298.984	313.5
299.214	320.5
299.445	325.5
299.675	328.5
299.905	321.5
300.136	327.5
300.366	326.5
300.597	312.5
300.827	331.5
301.057	321.5
301.288	337.5
301.518	336.5
301.748	335.5
301.979	337.5
302.209	347.5
302.439	344.5
302.669	334.5
302.9	328.5
303.13	317.5
303.36	349.5
303.59	334.5
303.82	340.5
304.051	324.5
304.281	347.5
304.511	336.5
304.741	333.5
304.971	334.5
305.201	319.5
305.431	316.5
305.661	329.5
305.891	320.5
306.121	343.5
306.352	327.5
306.582	352.5
306.812	343.5
307.042	345.5
307.272	352.5
307.502	343.5
307.731	330.5
307.961	347.5
308.191	352.5
308.421	328.5
308.651	358.5
308.881	362.5
309.111	364.5
309.341	361.5
309.571	356.5
309.8	357.5
310.03	367.5
310.26	359.5
310.49	375.5
310.72	391.5
310.949	385.5
311.179	391.5
311.409	384.5
311.639	387.5
311.868	380.5
312.098	383.5
312.328	379.5
312.557	382.5
312.787	399.5
313.017	402.5
313.246	409.5
313.476	387.5
313.706	384.5
313.935	378.5
314.165	398.5
314.394	402.5
314.624	397.5
314.853	390.5
315.083	391.5
315.312	387.5
315.542	388.5
315.771	375.5
316.001	380.5
316.23	373.5
316.46	374.5
316.689	381.5
316.919	367.5
317.148	400.5
317.377	393.5
317.607	396.5
317.836	379.5
318.065	388.5
318.295	383.5
318.524	379.5
318.753	399.5
318.983	396.5
319.212	379.5
319.441	400.5
319.67	382.5
319.9	390.5
320.129	377.5
320.358	383.5
320.587	406.5
320.816	394.5
321.046	386.5
321.275	404.5
321.504	402.5
321.733	406.5
321.962	418.5
322.191	409.5
322.42	439.5
322.649	444.5
322.878	447.5
323.108	456.5
323.337	479.5
323.566	476.5
323.795	516.5
324.024	566.5
324.253	664.5
324.482	923.5
324.71	1414.5
324.939	2123.5
325.168	1874.5
325.397	901.5
325.626	623.5
325.855	551.5
326.084	488.5
326.313	502.5
326.542	473.5
326.77	522.5
326.999	609.5
327.228	855.5
327.457	1262.5
327.686	1607.5
327.914	1071.5
328.143	692.5
328.372	616.5
328.6	584.5
328.829	549.5
329.058	552.5
329.287	553.5
329.515	538.5
329.744	505.5
329.972	494.5
330.201	524.5
330.43	571.5
330.658	597.5
330.887	608.5
331.115	596.5
331.344	531.5
331.572	497.5
331.801	475.5
332.03	489.5
332.258	483.5
332.486	475.5
332.715	460.5
332.943	446.5
333.172	484.5
333.4	478.5
333.629	476.5
333.857	477.5
334.085	495.5
334.314	530.5
334.542	534.5
334.771	547.5
334.999	501.5
335.227	501.5
335.455	470.5
335.684	471.5
335.912	469.5
336.14	450.5
336.369	471.5
336.597	471.5
336.825	479.5
337.053	465.5
337.281	455.5
337.51	433.5
337.738	455.5
337.966	450.5
338.194	465.5
338.422	464.5
338.65	444.5
338.878	441.5
339.106	447.5
339.334	455.5
339.562	456.5
339.79	480.5
340.018	447.5
340.246	443.5
340.474	460.5
340.702	436.5
340.93	428.5
341.158	459.5
341.386	439.5
341.614	431.5
341.842	459.5
342.07	444.5
342.298	418.5
342.526	440.5
342.754	407.5
342.981	435.5
343.209	417.5
343.437	434.5
343.665	455.5
343.893	452.5
344.12	461.5
344.348	452.5
344.576	461.5
344.804	461.5
345.031	469.5
345.259	458.5
345.487	455.5
345.714	448.5
345.942	424.5
346.17	425.5
346.397	424.5
346.625	428.5
346.853	453.5
347.08	452.5
347.308	445.5
347.535	444.5
347.763	427.5
347.99	439.5
348.218	415.5
348.445	429.5
348.673	442.5
348.9	455.5
349.128	415.5
349.355	409.5
349.583	423.5
349.81	437.5
350.037	409.5
350.265	431.5
350.492	422.5
350.72	424.5
350.947	428.5
351.174	417.5
351.402	460.5
351.629	454.5
351.856	417.5
352.083	431.5
352.311	472.5
352.538	463.5
352.765	443.5
352.992	446.5
353.22	429.5
353.447	419.5
353.674	434.5
353.901	439.5
354.128	446.5
354.355	410.5
354.583	419.5
354.81	403.5
355.037	402.5
355.264	417.5
355.491	390.5
355.718	405.5
355.945	411.5
356.172	394.5
356.399	382.5
356.626	424.5
356.853	416.5
357.08	399.5
357.307	401.5
357.534	394.5
357.761	412.5
357.988	404.5
358.215	420.5
358.441	412.5
358.668	409.5
358.895	423.5
359.122	409.5
359.349	419.5
359.576	445.5
359.802	441.5
360.029	485.5
360.256	512.5
360.483	448.5
360.709	432.5
360.936	449.5
361.163	458.5
361.39	413.5
361.616	415.5
361.843	439.5
362.07	457.5
362.296	428.5
362.523	451.5
362.749	446.5
362.976	426.5
363.203	416.5
363.429	419.5
363.656	402.5
363.882	427.5
364.109	412.5
364.335	418.5
364.562	424.5
364.788	415.5
365.015	415.5
365.241	440.5
365.468	424.5
365.694	432.5
365.92	435.5
366.147	393.5
366.373	429.5
366.599	451.5
366.826	413.5
367.052	422.5
367.278	433.5
367.505	407.5
367.731	414.5
367.957	417.5
368.184	420.5
368.41	443.5
368.636	428.5
368.862	445.5
369.089	430.5
369.315	424.5
369.541	430.5
369.767	444.5
369.993	435.5
370.219	445.5
370.445	440.5
370.672	415.5
370.898	439.5
371.124	443.5
371.35	418.5
371.576	420.5
371.802	428.5
372.028	428.5
372.254	428.5
372.48	452.5
372.706	439.5
372.932	443.5
373.158	437.5
373.384	440.5
373.61	441.5
373.835	427.5
374.061	441.5
374.287	457.5
374.513	415.5
374.739	426.5
374.965	443.5
375.191	430.5
375.416	447.5
375.642	438.5
375.868	437.5
376.094	421.5
376.319	431.5
376.545	432.5
376.771	461.5
376.997	431.5
377.222	415.5
377.448	445.5
377.674	431.5
377.899	422.5
378.125	448.5
378.35	437.5
378.576	441.5
378.802	398.5
379.027	428.5
379.253	426.5
379.478	430.5
379.704	430.5
379.929	444.5
380.155	439.5
380.38	429.5
380.606	432.5
380.831	441.5
381.057	441.5
381.282	442.5
381.507	431.5
381.733	437.5
381.958	437.5
382.184	432.5
382.409	443.5
382.634	435.5
382.86	431.5
383.085	439.5
383.31	459.5
383.535	440.5
383.761	459.5
383.986	465.5
384.211	452.5
384.436	449.5
384.662	464.5
384.887	473.5
385.112	477.5
385.337	483.5
385.562	470.5
385.787	457.5
386.013	474.5
386.238	503.5
386.463	476.5
386.688	481.5
386.913	484.5
387.138	472.5
387.363	479.5
387.588	485.5
387.813	479.5
388.038	460.5
388.263	489.5
388.488	456.5
388.713	487.5
388.938	487.5
389.163	493.5
389.387	484.5
389.612	488.5
389.837	491.5
390.062	493.5
390.287	478.5
390.512	460.5
390.736	472.5
390.961	499.5
391.186	484.5
391.411	507.5
391.636	475.5
391.86	499.5
392.085	495.5
392.31	524.5
392.534	504.5
392.759	495.5
392.984	497.5
393.208	494.5
393.433	508.5
393.658	505.5
393.882	496.5
394.107	501.5
394.331	473.5
394.556	483.5
394.78	494.5
395.005	501.5
395.229	495.5
395.454	511.5
395.678	499.5
395.903	528.5
396.127	535.5
396.352	549.5
396.576	530.5
396.801	512.5
397.025	526.5
397.249	492.5
397.474	515.5
397.698	530.5
397.922	547.5
398.147	550.5
398.371	553.5
398.595	548.5
398.82	551.5
399.044	571.5
399.268	581.5
399.492	601.5
399.717	635.5
399.941	679.5
400.165	696.5
400.389	691.5
400.613	641.5
400.837	604.5
401.062	591.5
401.286	553.5
401.51	553.5
401.734	554.5
401.958	557.5
402.182	560.5
402.406	578.5
402.63	550.5
402.854	570.5
403.078	579.5
403.302	588.5
403.526	560.5
403.75	604.5
403.974	581.5
404.198	577.5
404.422	573.5
404.645	622.5
404.869	614.5
405.093	631.5
405.317	689.5
405.541	685.5
405.765	634.5
405.988	632.5
406.212	623.5
406.436	631.5
406.66	650.5
406.883	630.5
407.107	686.5
407.331	691.5
407.555	762.5
407.778	779.5
408.002	725.5
408.226	657.5
408.449	652.5
408.673	665.5
408.896	675.5
409.12	715.5
409.344	683.5
409.567	629.5
409.791	615.5
410.014	607.5
410.238	592.5
410.461	589.5
410.685	602.5
410.908	610.5
411.132	635.5
411.355	649.5
411.578	656.5
411.802	596.5
412.025	588.5
412.249	595.5
412.472	621.5
412.695	689.5
412.919	628.5
413.142	614.5
413.365	593.5
413.589	589.5
413.812	568.5
414.035	552.5
414.258	557.5
414.482	551.5
414.705	571.5
414.928	540.5
415.151	581.5
415.374	546.5
415.597	569.5
415.821	546.5
416.044	545.5
416.267	562.5
416.49	549.5
416.713	541.5
416.936	566.5
417.159	549.5
417.382	554.5
417.605	550.5
417.828	576.5
418.051	579.5
418.274	583.5
418.497	537.5
418.72	572.5
418.943	565.5
419.166	588.5
419.389	611.5
419.611	576.5
419.834	577.5
420.057	595.5
420.28	593.5
420.503	587.5
420.726	579.5
420.948	611.5
421.171	628.5
421.394	643.5
421.617	603.5
421.839	595.5
422.062	604.5
422.285	610.5
422.507	677.5
422.73	732.5
422.953	714.5
423.175	595.5
423.398	616.5
423.621	584.5
423.843	604.5
424.066	632.5
424.288	604.5
424.511	639.5
424.733	712.5
424.956	773.5
425.178	742.5
425.401	753.5
425.623	778.5
425.846	642.5
426.068	614.5
426.291	620.5
426.513	626.5
426.735	627.5
426.958	697.5
427.18	750.5
427.402	897.5
427.625	990.5
427.847	852.5
428.069	750.5
428.292	651.5
428.514	617.5
428.736	621.5
428.958	618.5
429.181	578.5
429.403	582.5
429.625	576.5
429.847	620.5
430.069	673.5
430.292	680.5
430.514	583.5
430.736	569.5
430.958	589.5
431.18	555.5
431.402	563.5
431.624	521.5
431.846	510.5
432.068	523.5
432.29	559.5
432.512	543.5
432.734	552.5
432.956	555.5
433.178	580.5
433.4	575.5
433.622	576.5
433.844	553.5
434.066	558.5
434.287	551.5
434.509	549.5
434.731	557.5
434.953	568.5
435.175	591.5
435.397	591.5
435.618	603.5
435.84	661.5
436.062	757.5
436.284	856.5
436.505	701.5
436.727	641.5
436.949	579.5
437.17	573.5
437.392	593.5
437.614	592.5
437.835	638.5
438.057	729.5
438.278	842.5
438.5	841.5
438.721	926.5
438.943	883.5
439.165	698.5
439.386	643.5
439.608	628.5
439.829	627.5
440.05	667.5
440.272	703.5
440.493	665.5
440.715	614.5
440.936	577.5
441.158	572.5
441.379	598.5
441.6	585.5
441.822	612.5
442.043	682.5
442.264	736.5
442.486	801.5
442.707	680.5
442.928	624.5
443.149	664.5
443.371	693.5
443.592	736.5
443.813	792.5
444.034	853.5
444.255	720.5
444.476	669.5
444.698	647.5
444.919	644.5
445.14	734.5
445.361	695.5
445.582	684.5
445.803	716.5
446.024	837.5
446.245	866.5
446.466	783.5
446.687	676.5
446.908	609.5
447.129	571.5
447.35	576.5
447.571	603.5
447.792	571.5
448.013	576.5
448.234	594.5
448.455	631.5
448.675	763.5
448.896	863.5
449.117	763.5
449.338	707.5
449.559	811.5
449.779	947.5
450	774.5
450.221	618.5
450.442	577.5
450.662	561.5
450.883	548.5
451.104	559.5
451.324	559.5
451.545	550.5
451.766	529.5
451.986	523.5
452.207	489.5
452.428	499.5
452.648	508.5
452.869	504.5
453.089	535.5
453.31	516.5
453.53	515.5
453.751	531.5
453.971	534.5
454.192	530.5
454.412	521.5
454.633	495.5
454.853	513.5
455.073	489.5
455.294	528.5
455.514	615.5
455.734	596.5
455.955	503.5
456.175	515.5
456.395	480.5
456.616	472.5
456.836	472.5
457.056	477.5
457.276	496.5
457.497	486.5
457.717	488.5
457.937	506.5
458.157	497.5
458.377	493.5
458.598	529.5
458.818	590.5
459.038	681.5
459.258	667.5
459.478	600.5
459.698	554.5
459.918	568.5
460.138	555.5
460.358	571.5
460.578	561.5
460.798	565.5
461.018	565.5
461.238	579.5
461.458	565.5
461.678	566.5
461.898	564.5
462.118	574.5
462.338	600.5
462.558	567.5
462.777	608.5
462.997	624.5
463.217	630.5
463.437	635.5
463.657	597.5
463.876	611.5
464.096	631.5
464.316	589.5
464.536	613.5
464.755	601.5
464.975	628.5
465.195	628.5
465.414	694.5
465.634	595.5
465.854	593.5
466.073	567.5
466.293	551.5
466.512	534.5
466.732	543.5
466.951	539.5
467.171	517.5
467.391	532.5
467.61	564.5
467.829	543.5
468.049	535.5
468.268	541.5
468.488	539.5
468.707	534.5
468.927	534.5
469.146	512.5
469.365	519.5
469.585	509.5
469.804	517.5
470.023	552.5
470.243	553.5
470.462	555.5
470.681	569.5
470.901	553.5
471.12	542.5
471.339	549.5
471.558	532.5
471.777	523.5
471.997	551.5
472.216	539.5
472.435	576.5
472.654	553.5
472.873	541.5
473.092	543.5
473.311	539.5
473.53	537.5
473.749	549.5
473.968	582.5
474.187	677.5
474.406	716.5
474.625	618.5
474.844	585.5
475.063	555.5
475.282	543.5
475.501	556.5
475.72	559.5
475.939	555.5
476.158	566.5
476.377	559.5
476.596	551.5
476.814	575.5
477.033	575.5
477.252	589.5
477.471	576.5
477.69	570.5
477.908	599.5
478.127	606.5
478.346	597.5
478.564	601.5
478.783	606.5
479.002	630.5
479.22	627.5
479.439	635.5
479.658	637.5
479.876	658.5
480.095	653.5
480.313	676.5
480.532	679.5
480.751	653.5
480.969	673.5
481.188	737.5
481.406	781.5
481.624	697.5
481.843	657.5
482.061	658.5
482.28	645.5
482.498	630.5
482.717	617.5
482.935	617.5
483.153	659.5
483.372	637.5
483.59	635.5
483.808	639.5
484.027	639.5
484.245	658.5
484.463	648.5
484.681	645.5
484.9	654.5
485.118	640.5
485.336	643.5
485.554	668.5
485.772	665.5
485.99	682.5
486.209	678.5
486.427	661.5
486.645	689.5
486.863	702.5
487.081	711.5
487.299	677.5
487.517	678.5
487.735	671.5
487.953	669.5
488.171	685.5
488.389	687.5
488.607	696.5
488.825	692.5
489.043	712.5
489.261	699.5
489.479	681.5
489.696	675.5
489.914	711.5
490.132	678.5
490.35	712.5
490.568	728.5
490.786	730.5
491.003	743.5
491.221	739.5
491.439	765.5
491.657	755.5
491.874	779.5
492.092	799.5
492.31	786.5
492.527	771.5
492.745	797.5
492.963	788.5
493.18	773.5
493.398	810.5
493.615	796.5
493.833	803.5
494.05	796.5
494.268	806.5
494.485	821.5
494.703	786.5
494.92	829.5
495.138	827.5
495.355	804.5
495.573	803.5
495.79	815.5
496.008	791.5
496.225	806.5
496.442	813.5
496.66	797.5
496.877	801.5
497.094	823.5
497.312	814.5
497.529	827.5
497.746	842.5
497.963	837.5
498.181	895.5
498.398	874.5
498.615	904.5
498.832	919.5
499.049	961.5
499.267	984.5
499.484	997.5
499.701	1048.5
499.918	1051.5
500.135	1121.5
500.352	1173.5
500.569	1173.5
500.786	1209.5
501.003	1172.5
501.22	1159.5
501.437	1103.5
501.654	1077.5
501.871	1089.5
502.088	999.5
502.305	975.5
502.522	937.5
502.739	922.5
502.956	901.5
503.172	858.5
503.389	851.5
503.606	852.5
503.823	838.5
504.04	800.5
504.256	823.5
504.473	828.5
504.69	830.5
504.907	807.5
505.123	815.5
505.34	803.5
505.557	753.5
505.773	798.5
505.99	764.5
506.207	772.5
506.423	771.5
506.64	756.5
506.856	761.5
507.073	773.5
507.289	743.5
507.506	751.5
507.722	755.5
507.939	767.5
508.155	724.5
508.372	714.5
508.588	719.5
508.805	728.5
509.021	730.5
509.238	767.5
509.454	740.5
509.67	740.5
509.887	743.5
510.103	723.5
510.319	728.5
510.536	791.5
510.752	1267.5
510.968	1040.5
511.184	732.5
511.401	696.5
511.617	693.5
511.833	712.5
512.049	687.5
512.265	669.5
512.481	676.5
512.698	691.5
512.914	684.5
513.13	671.5
513.346	677.5
513.562	662.5
513.778	673.5
513.994	700.5
514.21	708.5
514.426	708.5
514.642	763.5
514.858	746.5
515.074	799.5
515.29	941.5
515.506	1307.5
515.721	1094.5
515.937	809.5
516.153	716.5
516.369	711.5
516.585	679.5
516.801	711.5
517.016	711.5
517.232	704.5
517.448	715.5
517.664	736.5
517.879	712.5
518.095	719.5
518.311	721.5
518.527	708.5
518.742	717.5
518.958	696.5
519.173	680.5
519.389	694.5
519.605	693.5
