Data from 1966.PennyLincolnUp.Lamp.En5.5.200Scan.071719.P1.Scan2.head_HRD10591_14-17-00-073.txt Node
Date: Thu Jul 18 14:17:00 EDT 2019
User: cochatt
Spectrometer: HR+D1059
Trigger mode: 1
Integration Time (sec): 1.000000E-1
Scans to average: 1
Electric dark correction enabled: true
Nonlinearity correction enabled: false
Boxcar width: 0
XAxis mode: Wavelengths
Number of Pixels in Spectrum: 2048
>>>>>Begin Spectral Data<<<<<
223.165	-19.69
223.4	-19.69
223.635	-19.69
223.869	-14.69
224.104	-8.69
224.338	-12.69
224.573	-14.69
224.808	-4.69
225.042	-11.69
225.277	-17.69
225.511	-12.69
225.746	1.31
225.98	16.31
226.215	26.31
226.449	17.31
226.683	15.31
226.918	20.31
227.152	20.31
227.387	29.31
227.621	42.31
227.856	38.31
228.09	43.31
228.324	59.31
228.559	51.31
228.793	65.31
229.027	119.31
229.262	94.31
229.496	100.31
229.73	115.31
229.964	152.31
230.199	108.31
230.433	98.31
230.667	121.31
230.901	109.31
231.136	108.31
231.37	111.31
231.604	116.31
231.838	117.31
232.072	100.31
232.306	110.31
232.541	112.31
232.775	105.31
233.009	102.31
233.243	114.31
233.477	114.31
233.711	110.31
233.945	113.31
234.179	125.31
234.413	120.31
234.647	117.31
234.881	117.31
235.115	110.31
235.349	121.31
235.583	118.31
235.817	112.31
236.051	127.31
236.285	127.31
236.519	119.31
236.753	123.31
236.987	133.31
237.221	182.31
237.455	211.31
237.689	182.31
237.922	138.31
238.156	131.31
238.39	127.31
238.624	131.31
238.858	115.31
239.091	122.31
239.325	121.31
239.559	123.31
239.793	117.31
240.027	134.31
240.26	124.31
240.494	149.31
240.728	139.31
240.961	143.31
241.195	131.31
241.429	139.31
241.662	150.31
241.896	136.31
242.13	141.31
242.363	119.31
242.597	136.31
242.83	142.31
243.064	129.31
243.298	137.31
243.531	129.31
243.765	136.31
243.998	130.31
244.232	143.31
244.465	135.31
244.699	135.31
244.932	130.31
245.166	135.31
245.399	143.31
245.633	153.31
245.866	147.31
246.099	161.31
246.333	155.31
246.566	137.31
246.8	142.31
247.033	141.31
247.266	144.31
247.5	153.31
247.733	163.31
247.966	163.31
248.2	158.31
248.433	173.31
248.666	170.31
248.899	180.31
249.133	183.31
249.366	194.31
249.599	195.31
249.832	171.31
250.066	179.31
250.299	174.31
250.532	187.31
250.765	199.31
250.998	212.31
251.231	212.31
251.465	214.31
251.698	212.31
251.931	171.31
252.164	177.31
252.397	187.31
252.63	196.31
252.863	202.31
253.096	199.31
253.329	204.31
253.562	215.31
253.795	210.31
254.028	214.31
254.261	215.31
254.494	202.31
254.727	236.31
254.96	259.31
255.193	248.31
255.426	219.31
255.659	234.31
255.892	204.31
256.124	215.31
256.357	206.31
256.59	216.31
256.823	215.31
257.056	221.31
257.289	211.31
257.521	205.31
257.754	200.31
257.987	192.31
258.22	200.31
258.452	211.31
258.685	202.31
258.918	193.31
259.151	205.31
259.383	189.31
259.616	226.31
259.849	234.31
260.081	226.31
260.314	227.31
260.547	253.31
260.779	230.31
261.012	225.31
261.244	210.31
261.477	214.31
261.71	217.31
261.942	230.31
262.175	209.31
262.407	220.31
262.64	203.31
262.872	206.31
263.105	221.31
263.337	200.31
263.57	213.31
263.802	198.31
264.035	200.31
264.267	212.31
264.499	198.31
264.732	195.31
264.964	208.31
265.197	203.31
265.429	211.31
265.661	207.31
265.894	203.31
266.126	209.31
266.358	217.31
266.591	219.31
266.823	208.31
267.055	216.31
267.287	235.31
267.52	198.31
267.752	235.31
267.984	210.31
268.216	235.31
268.448	227.31
268.681	209.31
268.913	241.31
269.145	237.31
269.377	269.31
269.609	246.31
269.841	243.31
270.073	262.31
270.306	279.31
270.538	275.31
270.77	287.31
271.002	278.31
271.234	289.31
271.466	299.31
271.698	290.31
271.93	273.31
272.162	274.31
272.394	282.31
272.626	288.31
272.858	265.31
273.09	280.31
273.322	253.31
273.553	259.31
273.785	268.31
274.017	245.31
274.249	265.31
274.481	260.31
274.713	255.31
274.945	248.31
275.176	261.31
275.408	237.31
275.64	263.31
275.872	243.31
276.104	260.31
276.335	245.31
276.567	256.31
276.799	283.31
277.031	285.31
277.262	283.31
277.494	312.31
277.726	288.31
277.957	277.31
278.189	265.31
278.421	272.31
278.652	264.31
278.884	257.31
279.115	266.31
279.347	251.31
279.579	264.31
279.81	267.31
280.042	260.31
280.273	248.31
280.505	262.31
280.736	250.31
280.968	266.31
281.199	258.31
281.431	260.31
281.662	263.31
281.894	259.31
282.125	276.31
282.356	292.31
282.588	292.31
282.819	283.31
283.051	274.31
283.282	255.31
283.513	273.31
283.745	290.31
283.976	290.31
284.207	263.31
284.439	275.31
284.67	271.31
284.901	275.31
285.132	281.31
285.364	261.31
285.595	272.31
285.826	282.31
286.057	283.31
286.288	268.31
286.52	279.31
286.751	276.31
286.982	271.31
287.213	271.31
287.444	276.31
287.675	291.31
287.906	290.31
288.138	286.31
288.369	291.31
288.6	283.31
288.831	287.31
289.062	287.31
289.293	280.31
289.524	284.31
289.755	279.31
289.986	297.31
290.217	274.31
290.448	289.31
290.679	284.31
290.91	274.31
291.141	264.31
291.371	293.31
291.602	286.31
291.833	291.31
292.064	292.31
292.295	286.31
292.526	282.31
292.757	290.31
292.987	292.31
293.218	274.31
293.449	289.31
293.68	292.31
293.91	287.31
294.141	292.31
294.372	279.31
294.603	294.31
294.833	309.31
295.064	285.31
295.295	287.31
295.525	285.31
295.756	278.31
295.987	294.31
296.217	315.31
296.448	311.31
296.679	302.31
296.909	290.31
297.14	292.31
297.37	295.31
297.601	280.31
297.831	290.31
298.062	300.31
298.292	289.31
298.523	292.31
298.753	295.31
298.984	303.31
299.214	316.31
299.445	289.31
299.675	323.31
299.905	313.31
300.136	300.31
300.366	303.31
300.597	292.31
300.827	334.31
301.057	295.31
301.288	314.31
301.518	327.31
301.748	314.31
301.979	313.31
302.209	325.31
302.439	315.31
302.669	305.31
302.9	313.31
303.13	332.31
303.36	341.31
303.59	319.31
303.82	339.31
304.051	338.31
304.281	335.31
304.511	310.31
304.741	313.31
304.971	325.31
305.201	317.31
305.431	302.31
305.661	336.31
305.891	338.31
306.121	325.31
306.352	339.31
306.582	326.31
306.812	339.31
307.042	336.31
307.272	324.31
307.502	333.31
307.731	334.31
307.961	327.31
308.191	307.31
308.421	318.31
308.651	333.31
308.881	337.31
309.111	341.31
309.341	329.31
309.571	333.31
309.8	348.31
310.03	343.31
310.26	364.31
310.49	352.31
310.72	358.31
310.949	362.31
311.179	375.31
311.409	355.31
311.639	357.31
311.868	357.31
312.098	344.31
312.328	366.31
312.557	364.31
312.787	372.31
313.017	387.31
313.246	381.31
313.476	348.31
313.706	393.31
313.935	364.31
314.165	366.31
314.394	368.31
314.624	370.31
314.853	382.31
315.083	365.31
315.312	371.31
315.542	348.31
315.771	363.31
316.001	357.31
316.23	356.31
316.46	348.31
316.689	381.31
316.919	370.31
317.148	370.31
317.377	384.31
317.607	386.31
317.836	361.31
318.065	377.31
318.295	364.31
318.524	327.31
318.753	353.31
318.983	373.31
319.212	371.31
319.441	369.31
319.67	374.31
319.9	361.31
320.129	379.31
320.358	369.31
320.587	363.31
320.816	377.31
321.046	384.31
321.275	377.31
321.504	376.31
321.733	388.31
321.962	371.31
322.191	389.31
322.42	407.31
322.649	421.31
322.878	396.31
323.108	427.31
323.337	429.31
323.566	451.31
323.795	464.31
324.024	519.31
324.253	604.31
324.482	802.31
324.71	1267.31
324.939	1886.31
325.168	1607.31
325.397	836.31
325.626	569.31
325.855	503.31
326.084	465.31
326.313	472.31
326.542	485.31
326.77	504.31
326.999	549.31
327.228	747.31
327.457	1150.31
327.686	1431.31
327.914	940.31
328.143	617.31
328.372	545.31
328.6	536.31
328.829	487.31
329.058	497.31
329.287	511.31
329.515	486.31
329.744	462.31
329.972	464.31
330.201	469.31
330.43	495.31
330.658	526.31
330.887	526.31
331.115	539.31
331.344	477.31
331.572	471.31
331.801	456.31
332.03	456.31
332.258	447.31
332.486	439.31
332.715	420.31
332.943	441.31
333.172	437.31
333.4	470.31
333.629	447.31
333.857	461.31
334.085	447.31
334.314	479.31
334.542	516.31
334.771	505.31
334.999	482.31
335.227	478.31
335.455	453.31
335.684	439.31
335.912	412.31
336.14	429.31
336.369	445.31
336.597	455.31
336.825	461.31
337.053	435.31
337.281	451.31
337.51	442.31
337.738	455.31
337.966	446.31
338.194	424.31
338.422	442.31
338.65	405.31
338.878	439.31
339.106	413.31
339.334	433.31
339.562	415.31
339.79	429.31
340.018	460.31
340.246	434.31
340.474	425.31
340.702	418.31
340.93	428.31
341.158	425.31
341.386	408.31
341.614	443.31
341.842	436.31
342.07	433.31
342.298	436.31
342.526	411.31
342.754	399.31
342.981	407.31
343.209	399.31
343.437	422.31
343.665	430.31
343.893	450.31
344.12	449.31
344.348	431.31
344.576	457.31
344.804	444.31
345.031	439.31
345.259	468.31
345.487	437.31
345.714	411.31
345.942	423.31
346.17	402.31
346.397	422.31
346.625	427.31
346.853	429.31
347.08	422.31
347.308	407.31
347.535	419.31
347.763	426.31
347.99	423.31
348.218	411.31
348.445	427.31
348.673	417.31
348.9	420.31
349.128	409.31
349.355	406.31
349.583	409.31
349.81	405.31
350.037	408.31
350.265	398.31
350.492	399.31
350.72	394.31
350.947	422.31
351.174	419.31
351.402	417.31
351.629	405.31
351.856	416.31
352.083	425.31
352.311	426.31
352.538	418.31
352.765	416.31
352.992	394.31
353.22	410.31
353.447	433.31
353.674	420.31
353.901	406.31
354.128	408.31
354.355	392.31
354.583	418.31
354.81	396.31
355.037	403.31
355.264	403.31
355.491	404.31
355.718	400.31
355.945	413.31
356.172	404.31
356.399	379.31
356.626	386.31
356.853	398.31
357.08	385.31
357.307	403.31
357.534	379.31
357.761	394.31
357.988	402.31
358.215	400.31
358.441	403.31
358.668	411.31
358.895	404.31
359.122	395.31
359.349	407.31
359.576	411.31
359.802	434.31
360.029	430.31
360.256	467.31
360.483	441.31
360.709	421.31
360.936	432.31
361.163	414.31
361.39	419.31
361.616	421.31
361.843	434.31
362.07	422.31
362.296	418.31
362.523	410.31
362.749	403.31
362.976	404.31
363.203	434.31
363.429	391.31
363.656	412.31
363.882	406.31
364.109	410.31
364.335	397.31
364.562	399.31
364.788	412.31
365.015	417.31
365.241	437.31
365.468	414.31
365.694	406.31
365.92	405.31
366.147	414.31
366.373	427.31
366.599	406.31
366.826	420.31
367.052	420.31
367.278	402.31
367.505	413.31
367.731	420.31
367.957	385.31
368.184	410.31
368.41	424.31
368.636	413.31
368.862	436.31
369.089	433.31
369.315	406.31
369.541	426.31
369.767	403.31
369.993	415.31
370.219	416.31
370.445	397.31
370.672	389.31
370.898	426.31
371.124	418.31
371.35	426.31
371.576	411.31
371.802	405.31
372.028	429.31
372.254	413.31
372.48	421.31
372.706	411.31
372.932	421.31
373.158	431.31
373.384	412.31
373.61	438.31
373.835	418.31
374.061	410.31
374.287	435.31
374.513	425.31
374.739	408.31
374.965	440.31
375.191	423.31
375.416	439.31
375.642	414.31
375.868	433.31
376.094	421.31
376.319	427.31
376.545	417.31
376.771	435.31
376.997	435.31
377.222	415.31
377.448	434.31
377.674	430.31
377.899	426.31
378.125	408.31
378.35	423.31
378.576	422.31
378.802	417.31
379.027	414.31
379.253	423.31
379.478	419.31
379.704	421.31
379.929	418.31
380.155	416.31
380.38	424.31
380.606	420.31
380.831	442.31
381.057	431.31
381.282	422.31
381.507	409.31
381.733	433.31
381.958	437.31
382.184	440.31
382.409	436.31
382.634	439.31
382.86	435.31
383.085	442.31
383.31	441.31
383.535	429.31
383.761	440.31
383.986	445.31
384.211	443.31
384.436	443.31
384.662	457.31
384.887	443.31
385.112	459.31
385.337	464.31
385.562	483.31
385.787	477.31
386.013	490.31
386.238	476.31
386.463	482.31
386.688	467.31
386.913	485.31
387.138	477.31
387.363	479.31
387.588	493.31
387.813	482.31
388.038	459.31
388.263	453.31
388.488	469.31
388.713	457.31
388.938	462.31
389.163	464.31
389.387	475.31
389.612	456.31
389.837	471.31
390.062	451.31
390.287	453.31
390.512	477.31
390.736	473.31
390.961	469.31
391.186	481.31
391.411	467.31
391.636	472.31
391.86	472.31
392.085	495.31
392.31	500.31
392.534	483.31
392.759	476.31
392.984	451.31
393.208	503.31
393.433	523.31
393.658	518.31
393.882	463.31
394.107	493.31
394.331	469.31
394.556	478.31
394.78	473.31
395.005	459.31
395.229	489.31
395.454	486.31
395.678	492.31
395.903	515.31
396.127	517.31
396.352	552.31
396.576	490.31
396.801	492.31
397.025	512.31
397.249	517.31
397.474	506.31
397.698	491.31
397.922	505.31
398.147	541.31
398.371	523.31
398.595	530.31
398.82	554.31
399.044	561.31
399.268	583.31
399.492	573.31
399.717	620.31
399.941	664.31
400.165	662.31
400.389	681.31
400.613	629.31
400.837	557.31
401.062	573.31
401.286	550.31
401.51	540.31
401.734	538.31
401.958	542.31
402.182	556.31
402.406	563.31
402.63	567.31
402.854	544.31
403.078	557.31
403.302	548.31
403.526	569.31
403.75	583.31
403.974	587.31
404.198	556.31
404.422	557.31
404.645	563.31
404.869	555.31
405.093	614.31
405.317	628.31
405.541	678.31
405.765	636.31
405.988	570.31
406.212	586.31
406.436	608.31
406.66	625.31
406.883	602.31
407.107	648.31
407.331	678.31
407.555	751.31
407.778	730.31
408.002	689.31
408.226	642.31
408.449	629.31
408.673	628.31
408.896	647.31
409.12	710.31
409.344	663.31
409.567	580.31
409.791	591.31
410.014	589.31
410.238	563.31
410.461	568.31
410.685	565.31
410.908	598.31
411.132	637.31
411.355	666.31
411.578	616.31
411.802	587.31
412.025	569.31
412.249	571.31
412.472	590.31
412.695	618.31
412.919	599.31
413.142	602.31
413.365	565.31
413.589	557.31
413.812	553.31
414.035	561.31
414.258	538.31
414.482	524.31
414.705	542.31
414.928	550.31
415.151	523.31
415.374	519.31
415.597	531.31
415.821	549.31
416.044	531.31
416.267	534.31
416.49	531.31
416.713	554.31
416.936	537.31
417.159	530.31
417.382	531.31
417.605	522.31
417.828	560.31
418.051	563.31
418.274	538.31
418.497	520.31
418.72	548.31
418.943	530.31
419.166	560.31
419.389	585.31
419.611	596.31
419.834	590.31
420.057	580.31
420.28	579.31
420.503	579.31
420.726	566.31
420.948	549.31
421.171	616.31
421.394	621.31
421.617	585.31
421.839	539.31
422.062	551.31
422.285	552.31
422.507	625.31
422.73	717.31
422.953	678.31
423.175	626.31
423.398	589.31
423.621	583.31
423.843	589.31
424.066	624.31
424.288	591.31
424.511	614.31
424.733	651.31
424.956	740.31
425.178	699.31
425.401	720.31
425.623	756.31
425.846	636.31
426.068	585.31
426.291	589.31
426.513	588.31
426.735	617.31
426.958	625.31
427.18	733.31
427.402	834.31
427.625	931.31
427.847	814.31
428.069	715.31
428.292	641.31
428.514	581.31
428.736	561.31
428.958	568.31
429.181	551.31
429.403	543.31
429.625	553.31
429.847	563.31
430.069	644.31
430.292	639.31
430.514	559.31
430.736	564.31
430.958	575.31
431.18	528.31
431.402	521.31
431.624	546.31
431.846	524.31
432.068	537.31
432.29	538.31
432.512	527.31
432.734	544.31
432.956	532.31
433.178	563.31
433.4	546.31
433.622	530.31
433.844	527.31
434.066	518.31
434.287	521.31
434.509	539.31
434.731	539.31
434.953	549.31
435.175	563.31
435.397	597.31
435.618	591.31
435.84	635.31
436.062	711.31
436.284	787.31
436.505	665.31
436.727	591.31
436.949	569.31
437.17	565.31
437.392	533.31
437.614	547.31
437.835	609.31
438.057	690.31
438.278	789.31
438.5	784.31
438.721	829.31
438.943	811.31
439.165	657.31
439.386	610.31
439.608	598.31
439.829	587.31
440.05	617.31
440.272	664.31
440.493	635.31
440.715	586.31
440.936	595.31
441.158	578.31
441.379	578.31
441.6	588.31
441.822	580.31
442.043	629.31
442.264	702.31
442.486	751.31
442.707	647.31
442.928	597.31
443.149	605.31
443.371	615.31
443.592	689.31
443.813	786.31
444.034	844.31
444.255	683.31
444.476	605.31
444.698	613.31
444.919	601.31
445.14	694.31
445.361	634.31
445.582	655.31
445.803	696.31
446.024	779.31
446.245	837.31
446.466	731.31
446.687	627.31
446.908	605.31
447.129	555.31
447.35	576.31
447.571	534.31
447.792	552.31
448.013	539.31
448.234	548.31
448.455	597.31
448.675	726.31
448.896	869.31
449.117	704.31
449.338	680.31
449.559	781.31
449.779	898.31
450	727.31
450.221	585.31
450.442	557.31
450.662	528.31
450.883	522.31
451.104	538.31
451.324	516.31
451.545	504.31
451.766	506.31
451.986	505.31
452.207	473.31
452.428	498.31
452.648	487.31
452.869	505.31
453.089	503.31
453.31	491.31
453.53	483.31
453.751	481.31
453.971	503.31
454.192	483.31
454.412	475.31
454.633	487.31
454.853	477.31
455.073	487.31
455.294	520.31
455.514	572.31
455.734	576.31
455.955	486.31
456.175	487.31
456.395	455.31
456.616	455.31
456.836	464.31
457.056	466.31
457.276	452.31
457.497	463.31
457.717	476.31
457.937	468.31
458.157	501.31
458.377	470.31
458.598	506.31
458.818	545.31
459.038	603.31
459.258	662.31
459.478	554.31
459.698	539.31
459.918	536.31
460.138	521.31
460.358	561.31
460.578	536.31
460.798	528.31
461.018	558.31
461.238	541.31
461.458	562.31
461.678	580.31
461.898	564.31
462.118	567.31
462.338	574.31
462.558	581.31
462.777	595.31
462.997	582.31
463.217	612.31
463.437	629.31
463.657	591.31
463.876	593.31
464.096	603.31
464.316	598.31
464.536	588.31
464.755	563.31
464.975	581.31
465.195	610.31
465.414	642.31
465.634	576.31
465.854	559.31
466.073	546.31
466.293	547.31
466.512	511.31
466.732	525.31
466.951	519.31
467.171	499.31
467.391	482.31
467.61	520.31
467.829	537.31
468.049	520.31
468.268	515.31
468.488	500.31
468.707	505.31
468.927	494.31
469.146	499.31
469.365	499.31
469.585	500.31
469.804	505.31
470.023	524.31
470.243	516.31
470.462	532.31
470.681	535.31
470.901	519.31
471.12	519.31
471.339	520.31
471.558	535.31
471.777	533.31
471.997	527.31
472.216	521.31
472.435	545.31
472.654	537.31
472.873	534.31
473.092	502.31
473.311	512.31
473.53	526.31
473.749	539.31
473.968	561.31
474.187	633.31
474.406	668.31
474.625	579.31
474.844	542.31
475.063	521.31
475.282	517.31
475.501	531.31
475.72	539.31
475.939	514.31
476.158	527.31
476.377	537.31
476.596	551.31
476.814	544.31
477.033	546.31
477.252	547.31
477.471	565.31
477.69	563.31
477.908	553.31
478.127	564.31
478.346	597.31
478.564	574.31
478.783	598.31
479.002	570.31
479.22	595.31
479.439	585.31
479.658	622.31
479.876	619.31
480.095	639.31
480.313	667.31
480.532	630.31
480.751	661.31
480.969	658.31
481.188	673.31
481.406	716.31
481.624	650.31
481.843	629.31
482.061	622.31
482.28	631.31
482.498	585.31
482.717	611.31
482.935	606.31
483.153	616.31
483.372	622.31
483.59	616.31
483.808	619.31
484.027	613.31
484.245	618.31
484.463	613.31
484.681	610.31
484.9	629.31
485.118	656.31
485.336	635.31
485.554	626.31
485.772	626.31
485.99	635.31
486.209	627.31
486.427	630.31
486.645	641.31
486.863	651.31
487.081	653.31
487.299	618.31
487.517	665.31
487.735	647.31
487.953	650.31
488.171	646.31
488.389	682.31
488.607	651.31
488.825	661.31
489.043	649.31
489.261	669.31
489.479	685.31
489.696	663.31
489.914	670.31
490.132	657.31
490.35	704.31
490.568	684.31
490.786	697.31
491.003	708.31
491.221	724.31
491.439	739.31
491.657	743.31
491.874	714.31
492.092	717.31
492.31	740.31
492.527	738.31
492.745	754.31
492.963	732.31
493.18	762.31
493.398	748.31
493.615	762.31
493.833	741.31
494.05	771.31
494.268	753.31
494.485	772.31
494.703	755.31
494.92	769.31
495.138	749.31
495.355	777.31
495.573	763.31
495.79	772.31
496.008	779.31
496.225	785.31
496.442	769.31
496.66	769.31
496.877	768.31
497.094	790.31
497.312	783.31
497.529	825.31
497.746	783.31
497.963	831.31
498.181	847.31
498.398	865.31
498.615	873.31
498.832	883.31
499.049	921.31
499.267	928.31
499.484	959.31
499.701	987.31
499.918	1043.31
500.135	1075.31
500.352	1116.31
500.569	1155.31
500.786	1177.31
501.003	1131.31
501.22	1128.31
501.437	1073.31
501.654	1026.31
