Data from 1966.PennyLincolnUp.Lamp.En5.5.200Scan.071719.P1.Scan2.head_HRD10591_14-19-40-286.txt Node
Date: Thu Jul 18 14:19:40 EDT 2019
User: cochatt
Spectrometer: HR+D1059
Trigger mode: 1
Integration Time (sec): 1.000000E-1
Scans to average: 1
Electric dark correction enabled: true
Nonlinearity correction enabled: false
Boxcar width: 0
XAxis mode: Wavelengths
Number of Pixels in Spectrum: 2048
>>>>>Begin Spectral Data<<<<<
223.165	0.19
223.4	0.19
223.635	0.19
223.869	-12.81
224.104	-29.81
224.338	-29.81
224.573	-6.81
224.808	-10.81
225.042	3.19
225.277	2.19
225.511	-8.81
225.746	3.19
225.98	-1.81
226.215	2.19
226.449	8.19
226.683	21.19
226.918	30.19
227.152	30.19
227.387	30.19
227.621	26.19
227.856	45.19
228.09	49.19
228.324	58.19
228.559	50.19
228.793	68.19
229.027	111.19
229.262	102.19
229.496	119.19
229.73	149.19
229.964	157.19
230.199	132.19
230.433	129.19
230.667	120.19
230.901	116.19
231.136	130.19
231.37	114.19
231.604	99.19
231.838	118.19
232.072	118.19
232.306	116.19
232.541	120.19
232.775	115.19
233.009	114.19
233.243	125.19
233.477	121.19
233.711	129.19
233.945	128.19
234.179	123.19
234.413	112.19
234.647	120.19
234.881	122.19
235.115	121.19
235.349	123.19
235.583	122.19
235.817	112.19
236.051	124.19
236.285	128.19
236.519	130.19
236.753	131.19
236.987	142.19
237.221	182.19
237.455	262.19
237.689	202.19
237.922	134.19
238.156	135.19
238.39	145.19
238.624	140.19
238.858	142.19
239.091	136.19
239.325	123.19
239.559	140.19
239.793	129.19
240.027	133.19
240.26	145.19
240.494	153.19
240.728	148.19
240.961	164.19
241.195	147.19
241.429	147.19
241.662	152.19
241.896	144.19
242.13	154.19
242.363	140.19
242.597	129.19
242.83	158.19
243.064	148.19
243.298	134.19
243.531	151.19
243.765	144.19
243.998	158.19
244.232	131.19
244.465	147.19
244.699	154.19
244.932	138.19
245.166	166.19
245.399	154.19
245.633	166.19
245.866	167.19
246.099	178.19
246.333	163.19
246.566	155.19
246.8	158.19
247.033	169.19
247.266	158.19
247.5	170.19
247.733	195.19
247.966	177.19
248.2	183.19
248.433	180.19
248.666	186.19
248.899	201.19
249.133	208.19
249.366	216.19
249.599	208.19
249.832	191.19
250.066	170.19
250.299	186.19
250.532	226.19
250.765	199.19
250.998	234.19
251.231	235.19
251.465	250.19
251.698	217.19
251.931	218.19
252.164	218.19
252.397	212.19
252.63	211.19
252.863	224.19
253.096	217.19
253.329	220.19
253.562	247.19
253.795	227.19
254.028	242.19
254.261	228.19
254.494	243.19
254.727	269.19
254.96	301.19
255.193	289.19
255.426	290.19
255.659	251.19
255.892	251.19
256.124	241.19
256.357	236.19
256.59	224.19
256.823	227.19
257.056	226.19
257.289	227.19
257.521	221.19
257.754	225.19
257.987	213.19
258.22	216.19
258.452	222.19
258.685	215.19
258.918	218.19
259.151	220.19
259.383	233.19
259.616	248.19
259.849	220.19
260.081	251.19
260.314	281.19
260.547	279.19
260.779	253.19
261.012	247.19
261.244	242.19
261.477	240.19
261.71	227.19
261.942	241.19
262.175	240.19
262.407	235.19
262.64	228.19
262.872	233.19
263.105	207.19
263.337	216.19
263.57	236.19
263.802	239.19
264.035	230.19
264.267	223.19
264.499	221.19
264.732	230.19
264.964	228.19
265.197	222.19
265.429	224.19
265.661	204.19
265.894	214.19
266.126	234.19
266.358	250.19
266.591	223.19
266.823	247.19
267.055	233.19
267.287	224.19
267.52	253.19
267.752	238.19
267.984	223.19
268.216	249.19
268.448	238.19
268.681	252.19
268.913	268.19
269.145	276.19
269.377	282.19
269.609	318.19
269.841	298.19
270.073	272.19
270.306	302.19
270.538	322.19
270.77	320.19
271.002	314.19
271.234	296.19
271.466	324.19
271.698	326.19
271.93	334.19
272.162	327.19
272.394	341.19
272.626	303.19
272.858	303.19
273.09	291.19
273.322	299.19
273.553	300.19
273.785	274.19
274.017	284.19
274.249	278.19
274.481	291.19
274.713	277.19
274.945	291.19
275.176	262.19
275.408	270.19
275.64	266.19
275.872	273.19
276.104	305.19
276.335	275.19
276.567	275.19
276.799	297.19
277.031	318.19
277.262	332.19
277.494	339.19
277.726	308.19
277.957	293.19
278.189	303.19
278.421	282.19
278.652	287.19
278.884	302.19
279.115	288.19
279.347	283.19
279.579	303.19
279.81	298.19
280.042	291.19
280.273	292.19
280.505	293.19
280.736	288.19
280.968	304.19
281.199	267.19
281.431	299.19
281.662	272.19
281.894	282.19
282.125	292.19
282.356	295.19
282.588	292.19
282.819	322.19
283.051	317.19
283.282	296.19
283.513	284.19
283.745	294.19
283.976	278.19
284.207	298.19
284.439	286.19
284.67	303.19
284.901	297.19
285.132	306.19
285.364	303.19
285.595	310.19
285.826	291.19
286.057	314.19
286.288	314.19
286.52	287.19
286.751	286.19
286.982	288.19
287.213	303.19
287.444	298.19
287.675	298.19
287.906	303.19
288.138	324.19
288.369	340.19
288.6	323.19
288.831	312.19
289.062	330.19
289.293	316.19
289.524	310.19
289.755	311.19
289.986	324.19
290.217	307.19
290.448	311.19
290.679	326.19
290.91	311.19
291.141	312.19
291.371	304.19
291.602	306.19
291.833	315.19
292.064	304.19
292.295	314.19
292.526	314.19
292.757	321.19
292.987	304.19
293.218	292.19
293.449	324.19
293.68	316.19
293.91	306.19
294.141	303.19
294.372	303.19
294.603	305.19
294.833	307.19
295.064	308.19
295.295	316.19
295.525	299.19
295.756	346.19
295.987	326.19
296.217	346.19
296.448	338.19
296.679	337.19
296.909	332.19
297.14	322.19
297.37	332.19
297.601	326.19
297.831	331.19
298.062	324.19
298.292	331.19
298.523	336.19
298.753	319.19
298.984	328.19
299.214	327.19
299.445	329.19
299.675	330.19
299.905	356.19
300.136	345.19
300.366	336.19
300.597	342.19
300.827	354.19
301.057	331.19
301.288	346.19
301.518	357.19
301.748	348.19
301.979	349.19
302.209	363.19
302.439	342.19
302.669	346.19
302.9	345.19
303.13	352.19
303.36	363.19
303.59	346.19
303.82	353.19
304.051	354.19
304.281	344.19
304.511	354.19
304.741	350.19
304.971	346.19
305.201	344.19
305.431	355.19
305.661	331.19
305.891	358.19
306.121	351.19
306.352	382.19
306.582	366.19
306.812	358.19
307.042	360.19
307.272	350.19
307.502	352.19
307.731	364.19
307.961	352.19
308.191	353.19
308.421	367.19
308.651	353.19
308.881	374.19
309.111	376.19
309.341	374.19
309.571	382.19
309.8	372.19
310.03	392.19
310.26	388.19
310.49	375.19
310.72	402.19
310.949	419.19
311.179	410.19
311.409	417.19
311.639	402.19
311.868	392.19
312.098	382.19
312.328	393.19
312.557	438.19
312.787	414.19
313.017	445.19
313.246	428.19
313.476	425.19
313.706	410.19
313.935	422.19
314.165	419.19
314.394	418.19
314.624	420.19
314.853	412.19
315.083	432.19
315.312	404.19
315.542	415.19
315.771	414.19
316.001	409.19
316.23	389.19
316.46	398.19
316.689	411.19
316.919	426.19
317.148	411.19
317.377	414.19
317.607	417.19
317.836	419.19
318.065	414.19
318.295	402.19
318.524	384.19
318.753	394.19
318.983	401.19
319.212	411.19
319.441	423.19
319.67	408.19
319.9	410.19
320.129	420.19
320.358	409.19
320.587	407.19
320.816	439.19
321.046	413.19
321.275	427.19
321.504	434.19
321.733	429.19
321.962	431.19
322.191	429.19
322.42	457.19
322.649	474.19
322.878	484.19
323.108	475.19
323.337	487.19
323.566	526.19
323.795	534.19
324.024	579.19
324.253	714.19
324.482	1002.19
324.71	1569.19
324.939	2376.19
325.168	2056.19
325.397	1012.19
325.626	697.19
325.855	588.19
326.084	540.19
326.313	530.19
326.542	522.19
326.77	574.19
326.999	669.19
327.228	926.19
327.457	1410.19
327.686	1798.19
327.914	1186.19
328.143	766.19
328.372	668.19
328.6	621.19
328.829	604.19
329.058	602.19
329.287	617.19
329.515	576.19
329.744	560.19
329.972	549.19
330.201	566.19
330.43	615.19
330.658	621.19
330.887	663.19
331.115	620.19
331.344	556.19
331.572	543.19
331.801	536.19
332.03	518.19
332.258	507.19
332.486	487.19
332.715	488.19
332.943	486.19
333.172	483.19
333.4	510.19
333.629	528.19
333.857	502.19
334.085	536.19
334.314	570.19
334.542	586.19
334.771	590.19
334.999	560.19
335.227	524.19
335.455	518.19
335.684	488.19
335.912	484.19
336.14	494.19
336.369	489.19
336.597	499.19
336.825	500.19
337.053	485.19
337.281	471.19
337.51	472.19
337.738	483.19
337.966	473.19
338.194	490.19
338.422	489.19
338.65	471.19
338.878	438.19
339.106	473.19
339.334	482.19
339.562	481.19
339.79	467.19
340.018	483.19
340.246	485.19
340.474	481.19
340.702	482.19
340.93	471.19
341.158	462.19
341.386	478.19
341.614	467.19
341.842	459.19
342.07	467.19
342.298	455.19
342.526	465.19
342.754	470.19
342.981	452.19
343.209	444.19
343.437	453.19
343.665	456.19
343.893	475.19
344.12	502.19
344.348	476.19
344.576	501.19
344.804	491.19
345.031	488.19
345.259	519.19
345.487	477.19
345.714	488.19
345.942	468.19
346.17	460.19
346.397	454.19
346.625	464.19
346.853	468.19
347.08	458.19
347.308	481.19
347.535	455.19
347.763	481.19
347.99	467.19
348.218	495.19
348.445	473.19
348.673	470.19
348.9	480.19
349.128	473.19
349.355	463.19
349.583	453.19
349.81	472.19
350.037	436.19
350.265	429.19
350.492	436.19
350.72	433.19
350.947	457.19
351.174	455.19
351.402	484.19
351.629	450.19
351.856	465.19
352.083	455.19
352.311	456.19
352.538	468.19
352.765	489.19
352.992	468.19
353.22	478.19
353.447	448.19
353.674	469.19
353.901	451.19
354.128	457.19
354.355	427.19
354.583	452.19
354.81	441.19
355.037	446.19
355.264	427.19
355.491	436.19
355.718	414.19
355.945	401.19
356.172	428.19
356.399	423.19
356.626	419.19
356.853	428.19
357.08	433.19
357.307	424.19
357.534	428.19
357.761	444.19
357.988	447.19
358.215	422.19
358.441	435.19
358.668	446.19
358.895	431.19
359.122	453.19
359.349	453.19
359.576	470.19
359.802	494.19
360.029	494.19
360.256	503.19
360.483	478.19
360.709	489.19
360.936	491.19
361.163	487.19
361.39	457.19
361.616	479.19
361.843	486.19
362.07	442.19
362.296	476.19
362.523	478.19
362.749	459.19
362.976	468.19
363.203	475.19
363.429	448.19
363.656	438.19
363.882	429.19
364.109	467.19
364.335	452.19
364.562	462.19
364.788	438.19
365.015	456.19
365.241	438.19
365.468	451.19
365.694	454.19
365.92	452.19
366.147	445.19
366.373	449.19
366.599	457.19
366.826	442.19
367.052	456.19
367.278	450.19
367.505	466.19
367.731	463.19
367.957	464.19
368.184	468.19
368.41	462.19
368.636	450.19
368.862	476.19
369.089	465.19
369.315	461.19
369.541	438.19
369.767	446.19
369.993	456.19
370.219	447.19
370.445	477.19
370.672	458.19
370.898	461.19
371.124	460.19
371.35	448.19
371.576	457.19
371.802	444.19
372.028	467.19
372.254	444.19
372.48	439.19
372.706	448.19
372.932	461.19
373.158	468.19
373.384	464.19
373.61	463.19
373.835	440.19
374.061	443.19
374.287	464.19
374.513	444.19
374.739	457.19
374.965	473.19
375.191	479.19
375.416	472.19
375.642	462.19
375.868	478.19
376.094	459.19
376.319	458.19
376.545	461.19
376.771	452.19
376.997	453.19
377.222	444.19
377.448	466.19
377.674	453.19
377.899	450.19
378.125	459.19
378.35	460.19
378.576	454.19
378.802	428.19
379.027	453.19
379.253	457.19
379.478	435.19
379.704	454.19
379.929	446.19
380.155	442.19
380.38	459.19
380.606	459.19
380.831	459.19
381.057	462.19
381.282	467.19
381.507	446.19
381.733	480.19
381.958	460.19
382.184	463.19
382.409	454.19
382.634	476.19
382.86	456.19
383.085	451.19
383.31	468.19
383.535	477.19
383.761	497.19
383.986	491.19
384.211	474.19
384.436	478.19
384.662	492.19
384.887	502.19
385.112	478.19
385.337	490.19
385.562	506.19
385.787	519.19
386.013	520.19
386.238	505.19
386.463	508.19
386.688	516.19
386.913	512.19
387.138	507.19
387.363	492.19
387.588	516.19
387.813	506.19
388.038	513.19
388.263	507.19
388.488	504.19
388.713	507.19
388.938	527.19
389.163	508.19
389.387	530.19
389.612	508.19
389.837	513.19
390.062	506.19
390.287	505.19
390.512	485.19
390.736	494.19
390.961	511.19
391.186	525.19
391.411	504.19
391.636	513.19
391.86	547.19
392.085	523.19
392.31	519.19
392.534	532.19
392.759	554.19
392.984	512.19
393.208	524.19
393.433	527.19
393.658	540.19
393.882	501.19
394.107	533.19
394.331	536.19
394.556	532.19
394.78	538.19
395.005	522.19
395.229	516.19
395.454	514.19
395.678	540.19
395.903	551.19
396.127	558.19
396.352	556.19
396.576	539.19
396.801	543.19
397.025	534.19
397.249	549.19
397.474	524.19
397.698	546.19
397.922	590.19
398.147	565.19
398.371	564.19
398.595	578.19
398.82	580.19
399.044	608.19
399.268	615.19
399.492	661.19
399.717	676.19
399.941	732.19
400.165	743.19
400.389	752.19
400.613	698.19
400.837	651.19
401.062	610.19
401.286	589.19
401.51	588.19
401.734	586.19
401.958	586.19
402.182	580.19
402.406	618.19
402.63	627.19
402.854	616.19
403.078	599.19
403.302	612.19
403.526	612.19
403.75	632.19
403.974	601.19
404.198	600.19
404.422	620.19
404.645	652.19
404.869	635.19
405.093	663.19
405.317	734.19
405.541	754.19
405.765	694.19
405.988	636.19
406.212	666.19
406.436	659.19
406.66	705.19
406.883	666.19
407.107	701.19
407.331	746.19
407.555	814.19
407.778	826.19
408.002	747.19
408.226	689.19
408.449	700.19
408.673	680.19
408.896	703.19
409.12	758.19
409.344	711.19
409.567	641.19
409.791	642.19
410.014	609.19
410.238	632.19
410.461	598.19
410.685	620.19
410.908	651.19
411.132	702.19
411.355	724.19
411.578	707.19
411.802	617.19
412.025	623.19
412.249	619.19
412.472	672.19
412.695	699.19
412.919	675.19
413.142	657.19
413.365	626.19
413.589	611.19
413.812	590.19
414.035	576.19
414.258	612.19
414.482	604.19
414.705	588.19
414.928	583.19
415.151	590.19
415.374	589.19
415.597	563.19
415.821	570.19
416.044	600.19
416.267	611.19
416.49	591.19
416.713	573.19
416.936	586.19
417.159	611.19
417.382	598.19
417.605	607.19
417.828	606.19
418.051	625.19
418.274	613.19
418.497	585.19
418.72	591.19
418.943	590.19
419.166	609.19
419.389	642.19
419.611	638.19
419.834	621.19
420.057	625.19
420.28	624.19
420.503	622.19
420.726	613.19
420.948	642.19
421.171	694.19
421.394	700.19
421.617	625.19
421.839	627.19
422.062	612.19
422.285	633.19
422.507	676.19
422.73	770.19
422.953	754.19
423.175	673.19
423.398	640.19
423.621	638.19
423.843	633.19
424.066	673.19
424.288	645.19
424.511	681.19
424.733	758.19
424.956	839.19
425.178	778.19
425.401	806.19
425.623	795.19
425.846	707.19
426.068	663.19
426.291	658.19
426.513	654.19
426.735	673.19
426.958	707.19
427.18	794.19
427.402	952.19
427.625	1060.19
427.847	904.19
428.069	781.19
428.292	716.19
428.514	634.19
428.736	635.19
428.958	587.19
429.181	624.19
429.403	605.19
429.625	636.19
429.847	658.19
430.069	699.19
430.292	730.19
430.514	636.19
430.736	612.19
430.958	607.19
431.18	596.19
431.402	588.19
431.624	542.19
431.846	586.19
432.068	580.19
432.29	586.19
432.512	579.19
432.734	581.19
432.956	600.19
433.178	591.19
433.4	615.19
433.622	587.19
433.844	575.19
434.066	580.19
434.287	576.19
434.509	600.19
434.731	586.19
434.953	594.19
435.175	624.19
435.397	635.19
435.618	656.19
435.84	685.19
436.062	853.19
436.284	896.19
436.505	767.19
436.727	653.19
436.949	607.19
437.17	614.19
437.392	623.19
437.614	635.19
437.835	644.19
438.057	775.19
438.278	897.19
438.5	853.19
438.721	964.19
438.943	920.19
439.165	762.19
439.386	687.19
439.608	662.19
439.829	655.19
440.05	704.19
440.272	738.19
440.493	704.19
440.715	635.19
440.936	623.19
441.158	625.19
441.379	607.19
441.6	632.19
441.822	634.19
442.043	694.19
442.264	798.19
442.486	845.19
442.707	714.19
442.928	674.19
443.149	658.19
443.371	689.19
443.592	759.19
443.813	856.19
444.034	927.19
444.255	794.19
444.476	691.19
444.698	660.19
444.919	659.19
445.14	735.19
445.361	732.19
445.582	688.19
445.803	793.19
446.024	892.19
446.245	924.19
446.466	819.19
446.687	678.19
446.908	658.19
447.129	640.19
447.35	611.19
447.571	611.19
447.792	594.19
448.013	610.19
448.234	625.19
448.455	649.19
448.675	806.19
448.896	947.19
449.117	802.19
449.338	751.19
449.559	897.19
449.779	999.19
450	786.19
450.221	674.19
450.442	630.19
450.662	579.19
450.883	598.19
451.104	617.19
451.324	603.19
451.545	582.19
451.766	554.19
451.986	547.19
452.207	546.19
452.428	508.19
452.648	540.19
452.869	549.19
453.089	542.19
453.31	572.19
453.53	538.19
453.751	539.19
453.971	535.19
454.192	572.19
454.412	527.19
454.633	527.19
454.853	531.19
455.073	524.19
455.294	577.19
455.514	643.19
455.734	635.19
455.955	533.19
456.175	534.19
456.395	539.19
456.616	499.19
456.836	505.19
457.056	510.19
457.276	490.19
457.497	528.19
457.717	520.19
457.937	516.19
458.157	506.19
458.377	534.19
458.598	558.19
458.818	607.19
459.038	702.19
459.258	761.19
459.478	622.19
459.698	603.19
459.918	571.19
460.138	578.19
460.358	578.19
460.578	602.19
460.798	590.19
461.018	623.19
461.238	593.19
461.458	604.19
461.678	586.19
461.898	595.19
462.118	609.19
462.338	601.19
462.558	620.19
462.777	608.19
462.997	628.19
463.217	631.19
463.437	660.19
463.657	642.19
463.876	651.19
464.096	624.19
464.316	640.19
464.536	643.19
464.755	651.19
464.975	632.19
465.195	680.19
465.414	762.19
465.634	650.19
465.854	625.19
466.073	592.19
466.293	576.19
466.512	558.19
466.732	584.19
466.951	537.19
467.171	547.19
467.391	569.19
467.61	582.19
467.829	586.19
468.049	580.19
468.268	560.19
468.488	560.19
468.707	533.19
468.927	540.19
469.146	548.19
469.365	519.19
469.585	536.19
469.804	558.19
470.023	561.19
470.243	554.19
470.462	575.19
470.681	606.19
470.901	608.19
471.12	562.19
471.339	587.19
471.558	560.19
471.777	579.19
471.997	552.19
472.216	561.19
472.435	624.19
472.654	624.19
472.873	577.19
473.092	546.19
473.311	581.19
473.53	572.19
473.749	545.19
473.968	610.19
474.187	732.19
474.406	761.19
474.625	623.19
474.844	578.19
475.063	593.19
475.282	576.19
475.501	573.19
475.72	578.19
475.939	581.19
476.158	575.19
476.377	585.19
476.596	580.19
476.814	596.19
477.033	596.19
477.252	603.19
477.471	632.19
477.69	600.19
477.908	622.19
478.127	635.19
478.346	598.19
478.564	633.19
478.783	616.19
479.002	647.19
479.22	648.19
479.439	674.19
479.658	675.19
479.876	683.19
480.095	692.19
480.313	745.19
480.532	711.19
480.751	718.19
480.969	747.19
481.188	793.19
481.406	829.19
481.624	723.19
481.843	709.19
482.061	685.19
482.28	683.19
482.498	670.19
482.717	641.19
482.935	669.19
483.153	675.19
483.372	672.19
483.59	688.19
483.808	670.19
484.027	667.19
484.245	685.19
484.463	681.19
484.681	675.19
484.9	694.19
485.118	688.19
485.336	674.19
485.554	696.19
485.772	691.19
485.99	688.19
486.209	694.19
486.427	714.19
486.645	692.19
486.863	728.19
487.081	704.19
487.299	722.19
487.517	706.19
487.735	713.19
487.953	724.19
488.171	706.19
488.389	714.19
488.607	740.19
488.825	714.19
489.043	713.19
489.261	723.19
489.479	718.19
489.696	731.19
489.914	734.19
490.132	742.19
490.35	731.19
490.568	751.19
490.786	756.19
491.003	778.19
491.221	785.19
491.439	751.19
491.657	824.19
491.874	818.19
492.092	839.19
492.31	813.19
492.527	850.19
492.745	838.19
492.963	831.19
493.18	848.19
493.398	840.19
493.615	850.19
493.833	855.19
494.05	843.19
494.268	847.19
494.485	827.19
494.703	848.19
494.92	855.19
495.138	864.19
495.355	866.19
495.573	878.19
495.79	839.19
496.008	891.19
496.225	841.19
496.442	863.19
496.66	865.19
496.877	839.19
497.094	861.19
497.312	884.19
497.529	886.19
497.746	892.19
497.963	893.19
498.181	955.19
498.398	938.19
498.615	975.19
498.832	970.19
499.049	986.19
499.267	1002.19
499.484	1079.19
499.701	1066.19
499.918	1098.19
500.135	1180.19
500.352	1216.19
500.569	1228.19
500.786	1236.19
501.003	1264.19
501.22	1189.19
501.437	1149.19
501.654	1120.19
