Data from 1966.PennyLincolnUp.Lamp.En5.5.200Scan.071719.P1._HRD10591_14-14-44-918.txt Node
Date: Thu Jul 18 14:14:44 EDT 2019
User: cochatt
Spectrometer: HR+D1059
Trigger mode: 1
Integration Time (sec): 1.000000E-1
Scans to average: 1
Electric dark correction enabled: true
Nonlinearity correction enabled: false
Boxcar width: 0
XAxis mode: Wavelengths
Number of Pixels in Spectrum: 2048
>>>>>Begin Spectral Data<<<<<
223.165	-2.06
223.4	-2.06
223.635	-2.06
223.869	-27.06
224.104	-10.06
224.338	-23.06
224.573	-22.06
224.808	-12.06
225.042	-11.06
225.277	-8.06
225.511	-1.06
225.746	5.94
225.98	1.94
226.215	15.94
226.449	3.94
226.683	33.94
226.918	26.94
227.152	27.94
227.387	44.94
227.621	37.94
227.856	45.94
228.09	47.94
228.324	43.94
228.559	48.94
228.793	54.94
229.027	60.94
229.262	73.94
229.496	86.94
229.73	87.94
229.964	109.94
230.199	100.94
230.433	93.94
230.667	104.94
230.901	89.94
231.136	74.94
231.37	95.94
231.604	105.94
231.838	88.94
232.072	89.94
232.306	100.94
232.541	79.94
232.775	90.94
233.009	104.94
233.243	91.94
233.477	98.94
233.711	100.94
233.945	94.94
234.179	90.94
234.413	105.94
234.647	93.94
234.881	86.94
235.115	86.94
235.349	107.94
235.583	95.94
235.817	84.94
236.051	100.94
236.285	97.94
236.519	105.94
236.753	100.94
236.987	111.94
237.221	128.94
237.455	147.94
237.689	110.94
237.922	101.94
238.156	94.94
238.39	102.94
238.624	93.94
238.858	86.94
239.091	72.94
239.325	88.94
239.559	94.94
239.793	100.94
240.027	99.94
240.26	89.94
240.494	115.94
240.728	116.94
240.961	117.94
241.195	103.94
241.429	110.94
241.662	99.94
241.896	109.94
242.13	94.94
242.363	87.94
242.597	103.94
242.83	114.94
243.064	97.94
243.298	108.94
243.531	94.94
243.765	108.94
243.998	98.94
244.232	88.94
244.465	108.94
244.699	120.94
244.932	126.94
245.166	106.94
245.399	103.94
245.633	120.94
245.866	98.94
246.099	116.94
246.333	100.94
246.566	110.94
246.8	102.94
247.033	119.94
247.266	116.94
247.5	106.94
247.733	98.94
247.966	105.94
248.2	108.94
248.433	111.94
248.666	108.94
248.899	114.94
249.133	126.94
249.366	127.94
249.599	128.94
249.832	116.94
250.066	123.94
250.299	119.94
250.532	134.94
250.765	131.94
250.998	146.94
251.231	154.94
251.465	139.94
251.698	139.94
251.931	128.94
252.164	132.94
252.397	118.94
252.63	118.94
252.863	144.94
253.096	134.94
253.329	130.94
253.562	128.94
253.795	135.94
254.028	118.94
254.261	117.94
254.494	133.94
254.727	161.94
254.96	161.94
255.193	159.94
255.426	144.94
255.659	152.94
255.892	155.94
256.124	139.94
256.357	151.94
256.59	144.94
256.823	144.94
257.056	128.94
257.289	131.94
257.521	126.94
257.754	131.94
257.987	142.94
258.22	131.94
258.452	106.94
258.685	128.94
258.918	135.94
259.151	132.94
259.383	127.94
259.616	134.94
259.849	134.94
260.081	148.94
260.314	170.94
260.547	145.94
260.779	158.94
261.012	142.94
261.244	136.94
261.477	128.94
261.71	136.94
261.942	144.94
262.175	146.94
262.407	140.94
262.64	138.94
262.872	127.94
263.105	137.94
263.337	124.94
263.57	150.94
263.802	135.94
264.035	134.94
264.267	132.94
264.499	141.94
264.732	136.94
264.964	134.94
265.197	140.94
265.429	139.94
265.661	135.94
265.894	132.94
266.126	136.94
266.358	135.94
266.591	131.94
266.823	148.94
267.055	154.94
267.287	136.94
267.52	146.94
267.752	135.94
267.984	141.94
268.216	135.94
268.448	128.94
268.681	142.94
268.913	162.94
269.145	161.94
269.377	159.94
269.609	158.94
269.841	163.94
270.073	160.94
270.306	166.94
270.538	188.94
270.77	190.94
271.002	190.94
271.234	171.94
271.466	167.94
271.698	189.94
271.93	184.94
272.162	187.94
272.394	192.94
272.626	164.94
272.858	176.94
273.09	150.94
273.322	152.94
273.553	157.94
273.785	158.94
274.017	158.94
274.249	163.94
274.481	154.94
274.713	154.94
274.945	158.94
275.176	167.94
275.408	163.94
275.64	152.94
275.872	152.94
276.104	154.94
276.335	155.94
276.567	160.94
276.799	162.94
277.031	182.94
277.262	198.94
277.494	196.94
277.726	198.94
277.957	178.94
278.189	180.94
278.421	154.94
278.652	157.94
278.884	155.94
279.115	154.94
279.347	173.94
279.579	164.94
279.81	164.94
280.042	166.94
280.273	190.94
280.505	160.94
280.736	160.94
280.968	148.94
281.199	170.94
281.431	166.94
281.662	165.94
281.894	159.94
282.125	171.94
282.356	159.94
282.588	196.94
282.819	172.94
283.051	162.94
283.282	172.94
283.513	166.94
283.745	155.94
283.976	166.94
284.207	167.94
284.439	180.94
284.67	173.94
284.901	156.94
285.132	170.94
285.364	158.94
285.595	165.94
285.826	172.94
286.057	187.94
286.288	155.94
286.52	170.94
286.751	166.94
286.982	164.94
287.213	163.94
287.444	167.94
287.675	167.94
287.906	183.94
288.138	182.94
288.369	167.94
288.6	175.94
288.831	168.94
289.062	178.94
289.293	178.94
289.524	174.94
289.755	155.94
289.986	160.94
290.217	172.94
290.448	168.94
290.679	165.94
290.91	163.94
291.141	167.94
291.371	183.94
291.602	159.94
291.833	172.94
292.064	146.94
292.295	150.94
292.526	158.94
292.757	157.94
292.987	161.94
293.218	172.94
293.449	151.94
293.68	176.94
293.91	175.94
294.141	167.94
294.372	176.94
294.603	174.94
294.833	159.94
295.064	172.94
295.295	175.94
295.525	165.94
295.756	179.94
295.987	182.94
296.217	190.94
296.448	196.94
296.679	178.94
296.909	181.94
297.14	175.94
297.37	171.94
297.601	170.94
297.831	169.94
298.062	168.94
298.292	172.94
298.523	184.94
298.753	168.94
298.984	173.94
299.214	186.94
299.445	180.94
299.675	181.94
299.905	169.94
300.136	184.94
300.366	173.94
300.597	197.94
300.827	175.94
301.057	184.94
301.288	186.94
301.518	180.94
301.748	188.94
301.979	169.94
302.209	183.94
302.439	177.94
302.669	187.94
302.9	188.94
303.13	170.94
303.36	173.94
303.59	182.94
303.82	184.94
304.051	179.94
304.281	182.94
304.511	180.94
304.741	183.94
304.971	175.94
305.201	185.94
305.431	188.94
305.661	183.94
305.891	175.94
306.121	159.94
306.352	176.94
306.582	203.94
306.812	188.94
307.042	183.94
307.272	187.94
307.502	186.94
307.731	184.94
307.961	199.94
308.191	187.94
308.421	188.94
308.651	174.94
308.881	180.94
309.111	199.94
309.341	190.94
309.571	196.94
309.8	196.94
310.03	200.94
310.26	201.94
310.49	208.94
310.72	205.94
310.949	224.94
311.179	224.94
311.409	219.94
311.639	207.94
311.868	202.94
312.098	211.94
312.328	204.94
312.557	234.94
312.787	210.94
313.017	229.94
313.246	209.94
313.476	190.94
313.706	207.94
313.935	208.94
314.165	217.94
314.394	205.94
314.624	234.94
314.853	216.94
315.083	205.94
315.312	212.94
315.542	212.94
315.771	219.94
316.001	205.94
316.23	198.94
316.46	193.94
316.689	227.94
316.919	209.94
317.148	232.94
317.377	212.94
317.607	206.94
317.836	204.94
318.065	214.94
318.295	213.94
318.524	194.94
318.753	192.94
318.983	203.94
319.212	201.94
319.441	199.94
319.67	204.94
319.9	208.94
320.129	205.94
320.358	205.94
320.587	208.94
320.816	226.94
321.046	225.94
321.275	198.94
321.504	230.94
321.733	224.94
321.962	207.94
322.191	247.94
322.42	226.94
322.649	255.94
322.878	264.94
323.108	235.94
323.337	269.94
323.566	265.94
323.795	275.94
324.024	294.94
324.253	371.94
324.482	532.94
324.71	801.94
324.939	1088.94
325.168	858.94
325.397	440.94
325.626	324.94
325.855	258.94
326.084	253.94
326.313	244.94
326.542	242.94
326.77	301.94
326.999	350.94
327.228	468.94
327.457	694.94
327.686	785.94
327.914	520.94
328.143	365.94
328.372	318.94
328.6	326.94
328.829	298.94
329.058	315.94
329.287	328.94
329.515	295.94
329.744	280.94
329.972	278.94
330.201	292.94
330.43	321.94
330.658	341.94
330.887	349.94
331.115	330.94
331.344	285.94
331.572	271.94
331.801	272.94
332.03	252.94
332.258	278.94
332.486	231.94
332.715	234.94
332.943	224.94
333.172	237.94
333.4	249.94
333.629	259.94
333.857	239.94
334.085	274.94
334.314	282.94
334.542	299.94
334.771	338.94
334.999	258.94
335.227	247.94
335.455	237.94
335.684	262.94
335.912	244.94
336.14	237.94
336.369	242.94
336.597	247.94
336.825	249.94
337.053	240.94
337.281	232.94
337.51	237.94
337.738	235.94
337.966	240.94
338.194	245.94
338.422	242.94
338.65	227.94
338.878	226.94
339.106	252.94
339.334	234.94
339.562	224.94
339.79	211.94
340.018	222.94
340.246	228.94
340.474	215.94
340.702	234.94
340.93	237.94
341.158	237.94
341.386	228.94
341.614	242.94
341.842	226.94
342.07	230.94
342.298	220.94
342.526	214.94
342.754	218.94
342.981	215.94
343.209	212.94
343.437	208.94
343.665	222.94
343.893	232.94
344.12	247.94
344.348	246.94
344.576	236.94
344.804	230.94
345.031	242.94
345.259	249.94
345.487	245.94
345.714	223.94
345.942	222.94
346.17	214.94
346.397	220.94
346.625	210.94
346.853	227.94
347.08	210.94
347.308	230.94
347.535	211.94
347.763	237.94
347.99	233.94
348.218	242.94
348.445	244.94
348.673	233.94
348.9	224.94
349.128	223.94
349.355	217.94
349.583	207.94
349.81	228.94
350.037	196.94
350.265	200.94
350.492	214.94
350.72	200.94
350.947	227.94
351.174	223.94
351.402	234.94
351.629	219.94
351.856	226.94
352.083	236.94
352.311	237.94
352.538	221.94
352.765	232.94
352.992	238.94
353.22	236.94
353.447	212.94
353.674	212.94
353.901	223.94
354.128	220.94
354.355	205.94
354.583	218.94
354.81	210.94
355.037	212.94
355.264	202.94
355.491	189.94
355.718	203.94
355.945	206.94
356.172	198.94
356.399	207.94
356.626	205.94
356.853	209.94
357.08	203.94
357.307	202.94
357.534	196.94
357.761	203.94
357.988	199.94
358.215	203.94
358.441	202.94
358.668	215.94
358.895	215.94
359.122	218.94
359.349	203.94
359.576	210.94
359.802	230.94
360.029	244.94
360.256	250.94
360.483	231.94
360.709	226.94
360.936	229.94
361.163	209.94
361.39	230.94
361.616	230.94
361.843	210.94
362.07	224.94
362.296	216.94
362.523	205.94
362.749	214.94
362.976	202.94
363.203	221.94
363.429	210.94
363.656	199.94
363.882	215.94
364.109	210.94
364.335	206.94
364.562	221.94
364.788	199.94
365.015	201.94
365.241	195.94
365.468	204.94
365.694	227.94
365.92	210.94
366.147	209.94
366.373	188.94
366.599	184.94
366.826	208.94
367.052	188.94
367.278	196.94
367.505	192.94
367.731	220.94
367.957	226.94
368.184	213.94
368.41	217.94
368.636	214.94
368.862	227.94
369.089	221.94
369.315	224.94
369.541	211.94
369.767	217.94
369.993	216.94
370.219	214.94
370.445	201.94
370.672	212.94
370.898	213.94
371.124	207.94
371.35	215.94
371.576	228.94
371.802	211.94
372.028	199.94
372.254	192.94
372.48	214.94
372.706	206.94
372.932	215.94
373.158	197.94
373.384	208.94
373.61	202.94
373.835	214.94
374.061	207.94
374.287	205.94
374.513	219.94
374.739	197.94
374.965	198.94
375.191	199.94
375.416	205.94
375.642	221.94
375.868	208.94
376.094	203.94
376.319	197.94
376.545	200.94
376.771	194.94
376.997	198.94
377.222	221.94
377.448	200.94
377.674	201.94
377.899	201.94
378.125	208.94
378.35	202.94
378.576	208.94
378.802	209.94
379.027	199.94
379.253	217.94
379.478	214.94
379.704	202.94
379.929	208.94
380.155	207.94
380.38	201.94
380.606	203.94
380.831	219.94
381.057	220.94
381.282	222.94
381.507	207.94
381.733	216.94
381.958	204.94
382.184	224.94
382.409	182.94
382.634	194.94
382.86	219.94
383.085	214.94
383.31	217.94
383.535	214.94
383.761	215.94
383.986	198.94
384.211	192.94
384.436	232.94
384.662	209.94
384.887	222.94
385.112	216.94
385.337	232.94
385.562	230.94
385.787	208.94
386.013	234.94
386.238	234.94
386.463	231.94
386.688	208.94
386.913	221.94
387.138	209.94
387.363	208.94
387.588	220.94
387.813	230.94
388.038	227.94
388.263	216.94
388.488	221.94
388.713	233.94
388.938	212.94
389.163	219.94
389.387	222.94
389.612	231.94
389.837	232.94
390.062	244.94
390.287	207.94
390.512	230.94
390.736	226.94
390.961	228.94
391.186	223.94
391.411	215.94
391.636	215.94
391.86	223.94
392.085	228.94
392.31	223.94
392.534	228.94
392.759	238.94
392.984	214.94
393.208	234.94
393.433	243.94
393.658	212.94
393.882	217.94
394.107	212.94
394.331	226.94
394.556	228.94
394.78	247.94
395.005	229.94
395.229	222.94
395.454	213.94
395.678	231.94
395.903	228.94
396.127	239.94
396.352	247.94
396.576	231.94
396.801	248.94
397.025	239.94
397.249	244.94
397.474	234.94
397.698	250.94
397.922	237.94
398.147	213.94
398.371	255.94
398.595	246.94
398.82	260.94
399.044	275.94
399.268	270.94
399.492	294.94
399.717	282.94
399.941	307.94
400.165	308.94
400.389	303.94
400.613	278.94
400.837	272.94
401.062	260.94
401.286	245.94
401.51	252.94
401.734	248.94
401.958	263.94
402.182	261.94
402.406	239.94
402.63	262.94
402.854	258.94
403.078	254.94
403.302	260.94
403.526	250.94
403.75	274.94
403.974	265.94
404.198	275.94
404.422	260.94
404.645	260.94
404.869	236.94
405.093	269.94
405.317	299.94
405.541	319.94
405.765	293.94
405.988	280.94
406.212	292.94
406.436	316.94
406.66	294.94
406.883	297.94
407.107	273.94
407.331	303.94
407.555	324.94
407.778	315.94
408.002	308.94
408.226	302.94
408.449	284.94
408.673	295.94
408.896	283.94
409.12	294.94
409.344	293.94
409.567	281.94
409.791	259.94
410.014	250.94
410.238	251.94
410.461	276.94
410.685	282.94
410.908	251.94
411.132	277.94
411.355	280.94
411.578	270.94
411.802	273.94
412.025	250.94
412.249	271.94
412.472	278.94
412.695	298.94
412.919	268.94
413.142	243.94
413.365	258.94
413.589	249.94
413.812	262.94
414.035	243.94
414.258	250.94
414.482	257.94
414.705	240.94
414.928	239.94
415.151	248.94
415.374	260.94
415.597	246.94
415.821	230.94
416.044	263.94
416.267	254.94
416.49	254.94
416.713	239.94
416.936	237.94
417.159	245.94
417.382	240.94
417.605	230.94
417.828	258.94
418.051	274.94
418.274	259.94
418.497	260.94
418.72	240.94
418.943	247.94
419.166	248.94
419.389	276.94
419.611	264.94
419.834	266.94
420.057	277.94
420.28	261.94
420.503	282.94
420.726	271.94
420.948	282.94
421.171	269.94
421.394	295.94
421.617	279.94
421.839	262.94
422.062	243.94
422.285	262.94
422.507	297.94
422.73	323.94
422.953	316.94
423.175	272.94
423.398	282.94
423.621	260.94
423.843	293.94
424.066	294.94
424.288	279.94
424.511	280.94
424.733	306.94
424.956	342.94
425.178	312.94
425.401	339.94
425.623	332.94
425.846	290.94
426.068	278.94
426.291	252.94
426.513	270.94
426.735	265.94
426.958	282.94
427.18	346.94
427.402	389.94
427.625	434.94
427.847	390.94
428.069	332.94
428.292	294.94
428.514	269.94
428.736	265.94
428.958	249.94
429.181	263.94
429.403	255.94
429.625	268.94
429.847	270.94
430.069	303.94
430.292	315.94
430.514	266.94
430.736	262.94
430.958	273.94
431.18	242.94
431.402	252.94
431.624	231.94
431.846	242.94
432.068	246.94
432.29	230.94
432.512	262.94
432.734	263.94
432.956	247.94
433.178	265.94
433.4	267.94
433.622	249.94
433.844	232.94
434.066	271.94
434.287	247.94
434.509	250.94
434.731	244.94
434.953	276.94
435.175	268.94
435.397	276.94
435.618	305.94
435.84	286.94
436.062	330.94
436.284	344.94
436.505	297.94
436.727	279.94
436.949	273.94
437.17	250.94
437.392	252.94
437.614	268.94
437.835	277.94
438.057	326.94
438.278	359.94
438.5	355.94
438.721	350.94
438.943	351.94
439.165	286.94
439.386	275.94
439.608	276.94
439.829	290.94
440.05	284.94
440.272	324.94
440.493	292.94
440.715	267.94
440.936	273.94
441.158	270.94
441.379	252.94
441.6	265.94
441.822	260.94
442.043	304.94
442.264	345.94
442.486	341.94
442.707	315.94
442.928	290.94
443.149	307.94
443.371	308.94
443.592	327.94
443.813	355.94
444.034	372.94
444.255	324.94
444.476	285.94
444.698	279.94
444.919	285.94
445.14	335.94
445.361	326.94
445.582	302.94
445.803	312.94
446.024	358.94
446.245	357.94
446.466	347.94
446.687	284.94
446.908	288.94
447.129	264.94
447.35	251.94
447.571	268.94
447.792	260.94
448.013	256.94
448.234	268.94
448.455	298.94
448.675	345.94
448.896	373.94
449.117	322.94
449.338	301.94
449.559	380.94
449.779	393.94
450	320.94
450.221	281.94
450.442	271.94
450.662	260.94
450.883	264.94
451.104	279.94
451.324	269.94
451.545	247.94
451.766	228.94
451.986	239.94
452.207	236.94
452.428	234.94
452.648	237.94
452.869	246.94
453.089	218.94
453.31	254.94
453.53	245.94
453.751	236.94
453.971	259.94
454.192	266.94
454.412	228.94
454.633	244.94
454.853	233.94
455.073	231.94
455.294	235.94
455.514	276.94
455.734	261.94
455.955	232.94
456.175	231.94
456.395	220.94
456.616	242.94
456.836	214.94
457.056	217.94
457.276	208.94
457.497	220.94
457.717	220.94
457.937	227.94
458.157	213.94
458.377	234.94
458.598	237.94
458.818	267.94
459.038	323.94
459.258	330.94
459.478	264.94
459.698	238.94
459.918	252.94
460.138	248.94
460.358	248.94
460.578	227.94
460.798	231.94
461.018	256.94
461.238	259.94
461.458	236.94
461.678	246.94
461.898	236.94
462.118	267.94
462.338	261.94
462.558	260.94
462.777	264.94
462.997	271.94
463.217	272.94
463.437	265.94
463.657	262.94
463.876	271.94
464.096	265.94
464.316	263.94
464.536	272.94
464.755	266.94
464.975	271.94
465.195	311.94
465.414	368.94
465.634	302.94
465.854	264.94
466.073	244.94
466.293	234.94
466.512	258.94
466.732	231.94
466.951	227.94
467.171	227.94
467.391	251.94
467.61	252.94
467.829	270.94
468.049	251.94
468.268	233.94
468.488	239.94
468.707	236.94
468.927	256.94
469.146	233.94
469.365	230.94
469.585	232.94
469.804	237.94
470.023	254.94
470.243	249.94
470.462	252.94
470.681	263.94
470.901	234.94
471.12	219.94
471.339	234.94
471.558	253.94
471.777	256.94
471.997	243.94
472.216	258.94
472.435	294.94
472.654	266.94
472.873	253.94
473.092	236.94
473.311	244.94
473.53	238.94
473.749	248.94
473.968	247.94
474.187	310.94
474.406	306.94
474.625	272.94
474.844	257.94
475.063	239.94
475.282	235.94
475.501	249.94
475.72	246.94
475.939	258.94
476.158	252.94
476.377	262.94
476.596	247.94
476.814	237.94
477.033	265.94
477.252	264.94
477.471	265.94
477.69	262.94
477.908	259.94
478.127	258.94
478.346	261.94
478.564	282.94
478.783	263.94
479.002	254.94
479.22	284.94
479.439	300.94
479.658	283.94
479.876	294.94
480.095	282.94
480.313	297.94
480.532	301.94
480.751	302.94
480.969	297.94
481.188	350.94
481.406	400.94
481.624	310.94
481.843	302.94
482.061	270.94
482.28	264.94
482.498	277.94
482.717	258.94
482.935	278.94
483.153	267.94
483.372	264.94
483.59	279.94
483.808	276.94
484.027	281.94
484.245	274.94
484.463	277.94
484.681	269.94
484.9	294.94
485.118	274.94
485.336	274.94
485.554	288.94
485.772	298.94
485.99	300.94
486.209	296.94
486.427	290.94
486.645	285.94
486.863	300.94
487.081	294.94
487.299	304.94
487.517	302.94
487.735	319.94
487.953	293.94
488.171	294.94
488.389	307.94
488.607	299.94
488.825	292.94
489.043	296.94
489.261	309.94
489.479	293.94
489.696	294.94
489.914	301.94
490.132	299.94
490.35	318.94
490.568	324.94
490.786	327.94
491.003	323.94
491.221	344.94
491.439	343.94
491.657	353.94
491.874	344.94
492.092	331.94
492.31	358.94
492.527	348.94
492.745	352.94
492.963	334.94
493.18	351.94
493.398	348.94
493.615	367.94
493.833	369.94
494.05	351.94
494.268	368.94
494.485	355.94
494.703	342.94
494.92	337.94
495.138	373.94
495.355	350.94
495.573	362.94
495.79	373.94
496.008	344.94
496.225	347.94
496.442	347.94
496.66	358.94
496.877	342.94
497.094	349.94
497.312	362.94
497.529	348.94
497.746	357.94
497.963	378.94
498.181	374.94
498.398	356.94
498.615	346.94
498.832	384.94
499.049	390.94
499.267	410.94
499.484	390.94
499.701	421.94
499.918	412.94
500.135	434.94
500.352	452.94
500.569	477.94
500.786	457.94
501.003	444.94
501.22	455.94
501.437	434.94
501.654	414.94
501.871	434.94
502.088	411.94
502.305	412.94
502.522	377.94
