Data from 1966.PennyLincolnUp.Lamp.En5.5.200Scan.071719.P1.Scan2.head_HRD10591_14-19-35-279.txt Node
Date: Thu Jul 18 14:19:35 EDT 2019
User: cochatt
Spectrometer: HR+D1059
Trigger mode: 1
Integration Time (sec): 1.000000E-1
Scans to average: 1
Electric dark correction enabled: true
Nonlinearity correction enabled: false
Boxcar width: 0
XAxis mode: Wavelengths
Number of Pixels in Spectrum: 2048
>>>>>Begin Spectral Data<<<<<
223.165	-23.56
223.4	-23.56
223.635	-23.56
223.869	-2.56
224.104	-28.56
224.338	-15.56
224.573	-19.56
224.808	-19.56
225.042	-0.56
225.277	6.44
225.511	2.44
225.746	13.44
225.98	4.44
226.215	3.44
226.449	10.44
226.683	8.44
226.918	32.44
227.152	28.44
227.387	38.44
227.621	32.44
227.856	49.44
228.09	42.44
228.324	48.44
228.559	63.44
228.793	64.44
229.027	90.44
229.262	107.44
229.496	125.44
229.73	134.44
229.964	166.44
230.199	140.44
230.433	115.44
230.667	123.44
230.901	125.44
231.136	100.44
231.37	120.44
231.604	114.44
231.838	101.44
232.072	116.44
232.306	109.44
232.541	117.44
232.775	112.44
233.009	98.44
233.243	111.44
233.477	105.44
233.711	119.44
233.945	116.44
234.179	117.44
234.413	125.44
234.647	119.44
234.881	102.44
235.115	124.44
235.349	127.44
235.583	122.44
235.817	141.44
236.051	132.44
236.285	117.44
236.519	133.44
236.753	130.44
236.987	158.44
237.221	189.44
237.455	248.44
237.689	203.44
237.922	138.44
238.156	130.44
238.39	130.44
238.624	141.44
238.858	124.44
239.091	126.44
239.325	121.44
239.559	123.44
239.793	123.44
240.027	138.44
240.26	130.44
240.494	168.44
240.728	167.44
240.961	155.44
241.195	152.44
241.429	171.44
241.662	132.44
241.896	126.44
242.13	141.44
242.363	126.44
242.597	137.44
242.83	134.44
243.064	149.44
243.298	144.44
243.531	151.44
243.765	131.44
243.998	153.44
244.232	139.44
244.465	141.44
244.699	153.44
244.932	140.44
245.166	144.44
245.399	162.44
245.633	148.44
245.866	149.44
246.099	157.44
246.333	152.44
246.566	152.44
246.8	161.44
247.033	164.44
247.266	167.44
247.5	166.44
247.733	176.44
247.966	174.44
248.2	173.44
248.433	178.44
248.666	184.44
248.899	189.44
249.133	201.44
249.366	219.44
249.599	202.44
249.832	207.44
250.066	196.44
250.299	197.44
250.532	205.44
250.765	225.44
250.998	235.44
251.231	237.44
251.465	217.44
251.698	209.44
251.931	206.44
252.164	197.44
252.397	185.44
252.63	195.44
252.863	212.44
253.096	214.44
253.329	207.44
253.562	219.44
253.795	241.44
254.028	218.44
254.261	220.44
254.494	235.44
254.727	283.44
254.96	309.44
255.193	296.44
255.426	277.44
255.659	231.44
255.892	231.44
256.124	253.44
256.357	258.44
256.59	227.44
256.823	225.44
257.056	219.44
257.289	225.44
257.521	219.44
257.754	226.44
257.987	218.44
258.22	214.44
258.452	205.44
258.685	211.44
258.918	216.44
259.151	216.44
259.383	217.44
259.616	221.44
259.849	234.44
260.081	244.44
260.314	267.44
260.547	285.44
260.779	273.44
261.012	253.44
261.244	219.44
261.477	237.44
261.71	232.44
261.942	226.44
262.175	252.44
262.407	225.44
262.64	230.44
262.872	230.44
263.105	214.44
263.337	219.44
263.57	225.44
263.802	203.44
264.035	221.44
264.267	223.44
264.499	230.44
264.732	212.44
264.964	229.44
265.197	236.44
265.429	206.44
265.661	214.44
265.894	223.44
266.126	215.44
266.358	219.44
266.591	236.44
266.823	235.44
267.055	243.44
267.287	232.44
267.52	234.44
267.752	254.44
267.984	231.44
268.216	252.44
268.448	233.44
268.681	246.44
268.913	266.44
269.145	285.44
269.377	280.44
269.609	281.44
269.841	264.44
270.073	289.44
270.306	304.44
270.538	337.44
270.77	331.44
271.002	315.44
271.234	297.44
271.466	326.44
271.698	325.44
271.93	326.44
272.162	329.44
272.394	337.44
272.626	323.44
272.858	306.44
273.09	306.44
273.322	294.44
273.553	280.44
273.785	269.44
274.017	268.44
274.249	276.44
274.481	277.44
274.713	262.44
274.945	291.44
275.176	269.44
275.408	286.44
275.64	289.44
275.872	280.44
276.104	276.44
276.335	281.44
276.567	284.44
276.799	291.44
277.031	317.44
277.262	323.44
277.494	335.44
277.726	312.44
277.957	322.44
278.189	292.44
278.421	279.44
278.652	295.44
278.884	292.44
279.115	289.44
279.347	268.44
279.579	279.44
279.81	289.44
280.042	282.44
280.273	271.44
280.505	278.44
280.736	293.44
280.968	283.44
281.199	283.44
281.431	299.44
281.662	279.44
281.894	283.44
282.125	286.44
282.356	306.44
282.588	318.44
282.819	314.44
283.051	298.44
283.282	306.44
283.513	280.44
283.745	294.44
283.976	311.44
284.207	306.44
284.439	320.44
284.67	309.44
284.901	280.44
285.132	282.44
285.364	309.44
285.595	276.44
285.826	299.44
286.057	294.44
286.288	277.44
286.52	302.44
286.751	290.44
286.982	301.44
287.213	289.44
287.444	316.44
287.675	322.44
287.906	317.44
288.138	304.44
288.369	316.44
288.6	327.44
288.831	311.44
289.062	286.44
289.293	310.44
289.524	298.44
289.755	310.44
289.986	283.44
290.217	304.44
290.448	321.44
290.679	304.44
290.91	315.44
291.141	306.44
291.371	286.44
291.602	295.44
291.833	298.44
292.064	326.44
292.295	310.44
292.526	290.44
292.757	307.44
292.987	292.44
293.218	306.44
293.449	304.44
293.68	309.44
293.91	314.44
294.141	293.44
294.372	300.44
294.603	307.44
294.833	308.44
295.064	301.44
295.295	313.44
295.525	296.44
295.756	330.44
295.987	314.44
296.217	331.44
296.448	366.44
296.679	312.44
296.909	297.44
297.14	323.44
297.37	335.44
297.601	301.44
297.831	327.44
298.062	299.44
298.292	319.44
298.523	318.44
298.753	340.44
298.984	332.44
299.214	328.44
299.445	331.44
299.675	329.44
299.905	340.44
300.136	338.44
300.366	332.44
300.597	340.44
300.827	341.44
301.057	337.44
301.288	332.44
301.518	342.44
301.748	339.44
301.979	321.44
302.209	341.44
302.439	374.44
302.669	342.44
302.9	349.44
303.13	346.44
303.36	339.44
303.59	335.44
303.82	373.44
304.051	376.44
304.281	349.44
304.511	343.44
304.741	352.44
304.971	366.44
305.201	362.44
305.431	352.44
305.661	330.44
305.891	352.44
306.121	345.44
306.352	341.44
306.582	342.44
306.812	353.44
307.042	355.44
307.272	330.44
307.502	342.44
307.731	342.44
307.961	352.44
308.191	353.44
308.421	352.44
308.651	355.44
308.881	345.44
309.111	361.44
309.341	364.44
309.571	378.44
309.8	392.44
310.03	382.44
310.26	392.44
310.49	373.44
310.72	406.44
310.949	408.44
311.179	410.44
311.409	409.44
311.639	380.44
311.868	411.44
312.098	395.44
312.328	400.44
312.557	414.44
312.787	425.44
313.017	419.44
313.246	409.44
313.476	395.44
313.706	393.44
313.935	409.44
314.165	409.44
314.394	434.44
314.624	418.44
314.853	391.44
315.083	417.44
315.312	386.44
315.542	387.44
315.771	390.44
316.001	383.44
316.23	390.44
316.46	379.44
316.689	402.44
316.919	391.44
317.148	420.44
317.377	410.44
317.607	393.44
317.836	406.44
318.065	402.44
318.295	399.44
318.524	419.44
318.753	405.44
318.983	414.44
319.212	409.44
319.441	397.44
319.67	423.44
319.9	415.44
320.129	407.44
320.358	388.44
320.587	416.44
320.816	433.44
321.046	404.44
321.275	406.44
321.504	414.44
321.733	411.44
321.962	437.44
322.191	426.44
322.42	453.44
322.649	454.44
322.878	480.44
323.108	472.44
323.337	510.44
323.566	518.44
323.795	565.44
324.024	608.44
324.253	728.44
324.482	1048.44
324.71	1587.44
324.939	2379.44
325.168	2082.44
325.397	1027.44
325.626	676.44
325.855	589.44
326.084	520.44
326.313	518.44
326.542	536.44
326.77	601.44
326.999	665.44
327.228	915.44
327.457	1418.44
327.686	1827.44
327.914	1164.44
328.143	733.44
328.372	658.44
328.6	616.44
328.829	593.44
329.058	590.44
329.287	614.44
329.515	597.44
329.744	552.44
329.972	529.44
330.201	592.44
330.43	617.44
330.658	628.44
330.887	632.44
331.115	628.44
331.344	579.44
331.572	506.44
331.801	499.44
332.03	554.44
332.258	483.44
332.486	476.44
332.715	483.44
332.943	501.44
333.172	480.44
333.4	487.44
333.629	491.44
333.857	514.44
334.085	538.44
334.314	545.44
334.542	571.44
334.771	632.44
334.999	572.44
335.227	508.44
335.455	488.44
335.684	491.44
335.912	486.44
336.14	488.44
336.369	479.44
336.597	486.44
336.825	489.44
337.053	471.44
337.281	485.44
337.51	475.44
337.738	477.44
337.966	466.44
338.194	466.44
338.422	487.44
338.65	454.44
338.878	475.44
339.106	486.44
339.334	459.44
339.562	460.44
339.79	457.44
340.018	468.44
340.246	467.44
340.474	468.44
340.702	463.44
340.93	446.44
341.158	463.44
341.386	456.44
341.614	454.44
341.842	467.44
342.07	470.44
342.298	458.44
342.526	447.44
342.754	440.44
342.981	457.44
343.209	445.44
343.437	445.44
343.665	460.44
343.893	482.44
344.12	475.44
344.348	496.44
344.576	474.44
344.804	477.44
345.031	475.44
345.259	485.44
345.487	504.44
345.714	481.44
345.942	472.44
346.17	458.44
346.397	466.44
346.625	444.44
346.853	457.44
347.08	437.44
347.308	461.44
347.535	463.44
347.763	457.44
347.99	456.44
348.218	459.44
348.445	481.44
348.673	461.44
348.9	456.44
349.128	438.44
349.355	442.44
349.583	433.44
349.81	423.44
350.037	449.44
350.265	452.44
350.492	432.44
350.72	440.44
350.947	425.44
351.174	448.44
351.402	462.44
351.629	435.44
351.856	447.44
352.083	474.44
352.311	457.44
352.538	477.44
352.765	474.44
352.992	448.44
353.22	440.44
353.447	440.44
353.674	449.44
353.901	437.44
354.128	427.44
354.355	444.44
354.583	427.44
354.81	427.44
355.037	441.44
355.264	426.44
355.491	400.44
355.718	422.44
355.945	430.44
356.172	422.44
356.399	418.44
356.626	412.44
356.853	426.44
357.08	403.44
357.307	429.44
357.534	417.44
357.761	436.44
357.988	438.44
358.215	415.44
358.441	422.44
358.668	437.44
358.895	417.44
359.122	440.44
359.349	446.44
359.576	452.44
359.802	473.44
360.029	482.44
360.256	510.44
360.483	505.44
360.709	456.44
360.936	458.44
361.163	466.44
361.39	443.44
361.616	473.44
361.843	451.44
362.07	456.44
362.296	450.44
362.523	471.44
362.749	468.44
362.976	454.44
363.203	451.44
363.429	437.44
363.656	454.44
363.882	452.44
364.109	438.44
364.335	440.44
364.562	429.44
364.788	429.44
365.015	442.44
365.241	422.44
365.468	433.44
365.694	434.44
365.92	451.44
366.147	448.44
366.373	459.44
366.599	438.44
366.826	420.44
367.052	427.44
367.278	441.44
367.505	434.44
367.731	439.44
367.957	435.44
368.184	442.44
368.41	447.44
368.636	462.44
368.862	452.44
369.089	464.44
369.315	451.44
369.541	431.44
369.767	445.44
369.993	444.44
370.219	458.44
370.445	442.44
370.672	437.44
370.898	448.44
371.124	427.44
371.35	428.44
371.576	458.44
371.802	443.44
372.028	435.44
372.254	454.44
372.48	459.44
372.706	446.44
372.932	441.44
373.158	452.44
373.384	455.44
373.61	457.44
373.835	439.44
374.061	475.44
374.287	476.44
374.513	467.44
374.739	457.44
374.965	458.44
375.191	453.44
375.416	472.44
375.642	451.44
375.868	452.44
376.094	457.44
376.319	451.44
376.545	446.44
376.771	445.44
376.997	434.44
377.222	461.44
377.448	452.44
377.674	436.44
377.899	437.44
378.125	451.44
378.35	430.44
378.576	429.44
378.802	448.44
379.027	441.44
379.253	433.44
379.478	450.44
379.704	453.44
379.929	444.44
380.155	439.44
380.38	451.44
380.606	462.44
380.831	441.44
381.057	454.44
381.282	443.44
381.507	421.44
381.733	440.44
381.958	459.44
382.184	471.44
382.409	456.44
382.634	440.44
382.86	445.44
383.085	466.44
383.31	445.44
383.535	466.44
383.761	475.44
383.986	482.44
384.211	483.44
384.436	470.44
384.662	473.44
384.887	476.44
385.112	463.44
385.337	501.44
385.562	477.44
385.787	484.44
386.013	481.44
386.238	486.44
386.463	518.44
386.688	473.44
386.913	491.44
387.138	482.44
387.363	483.44
387.588	505.44
387.813	487.44
388.038	485.44
388.263	492.44
388.488	512.44
388.713	496.44
388.938	503.44
389.163	498.44
389.387	498.44
389.612	488.44
389.837	473.44
390.062	482.44
390.287	482.44
390.512	501.44
390.736	489.44
390.961	493.44
391.186	501.44
391.411	516.44
391.636	514.44
391.86	505.44
392.085	497.44
392.31	513.44
392.534	516.44
392.759	509.44
392.984	497.44
393.208	509.44
393.433	503.44
393.658	496.44
393.882	482.44
394.107	507.44
394.331	493.44
394.556	500.44
394.78	514.44
395.005	534.44
395.229	508.44
395.454	536.44
395.678	519.44
395.903	505.44
396.127	557.44
396.352	549.44
396.576	537.44
396.801	532.44
397.025	534.44
397.249	534.44
397.474	526.44
397.698	552.44
397.922	535.44
398.147	557.44
398.371	568.44
398.595	570.44
398.82	561.44
399.044	605.44
399.268	609.44
399.492	654.44
399.717	682.44
399.941	688.44
400.165	735.44
400.389	718.44
400.613	647.44
400.837	617.44
401.062	603.44
401.286	592.44
401.51	590.44
401.734	569.44
401.958	576.44
402.182	592.44
402.406	591.44
402.63	594.44
402.854	570.44
403.078	571.44
403.302	598.44
403.526	626.44
403.75	606.44
403.974	618.44
404.198	592.44
404.422	585.44
404.645	616.44
404.869	629.44
405.093	672.44
405.317	684.44
405.541	713.44
405.765	672.44
405.988	640.44
406.212	664.44
406.436	654.44
406.66	687.44
406.883	650.44
407.107	686.44
407.331	733.44
407.555	812.44
407.778	812.44
408.002	743.44
408.226	675.44
408.449	676.44
408.673	655.44
408.896	710.44
409.12	724.44
409.344	718.44
409.567	627.44
409.791	606.44
410.014	620.44
410.238	604.44
410.461	626.44
410.685	620.44
410.908	628.44
411.132	679.44
411.355	685.44
411.578	670.44
411.802	600.44
412.025	599.44
412.249	642.44
412.472	658.44
412.695	675.44
412.919	674.44
413.142	614.44
413.365	598.44
413.589	596.44
413.812	600.44
414.035	573.44
414.258	584.44
414.482	566.44
414.705	582.44
414.928	572.44
415.151	581.44
415.374	562.44
415.597	582.44
415.821	565.44
416.044	570.44
416.267	582.44
416.49	562.44
416.713	573.44
416.936	562.44
417.159	570.44
417.382	590.44
417.605	577.44
417.828	574.44
418.051	602.44
418.274	609.44
418.497	572.44
418.72	585.44
418.943	572.44
419.166	590.44
419.389	614.44
419.611	613.44
419.834	641.44
420.057	608.44
420.28	609.44
420.503	605.44
420.726	594.44
420.948	613.44
421.171	672.44
421.394	716.44
421.617	618.44
421.839	610.44
422.062	609.44
422.285	605.44
422.507	669.44
422.73	775.44
422.953	733.44
423.175	654.44
423.398	654.44
423.621	632.44
423.843	666.44
424.066	630.44
424.288	652.44
424.511	677.44
424.733	710.44
424.956	825.44
425.178	802.44
425.401	804.44
425.623	813.44
425.846	684.44
426.068	654.44
426.291	651.44
426.513	645.44
426.735	675.44
426.958	702.44
427.18	789.44
427.402	946.44
427.625	1049.44
427.847	896.44
428.069	782.44
428.292	704.44
428.514	670.44
428.736	640.44
428.958	605.44
429.181	594.44
429.403	574.44
429.625	593.44
429.847	645.44
430.069	722.44
430.292	724.44
430.514	617.44
430.736	595.44
430.958	573.44
431.18	564.44
431.402	576.44
431.624	574.44
431.846	561.44
432.068	560.44
432.29	565.44
432.512	566.44
432.734	574.44
432.956	559.44
433.178	554.44
433.4	589.44
433.622	583.44
433.844	563.44
434.066	576.44
434.287	568.44
434.509	582.44
434.731	588.44
434.953	593.44
435.175	609.44
435.397	631.44
435.618	668.44
435.84	704.44
436.062	782.44
436.284	872.44
436.505	731.44
436.727	636.44
436.949	607.44
437.17	598.44
437.392	600.44
437.614	601.44
437.835	642.44
438.057	739.44
438.278	891.44
438.5	871.44
438.721	952.44
438.943	918.44
439.165	733.44
439.386	647.44
439.608	657.44
439.829	646.44
440.05	680.44
440.272	745.44
440.493	682.44
440.715	616.44
440.936	601.44
441.158	592.44
441.379	615.44
441.6	622.44
441.822	637.44
442.043	690.44
442.264	784.44
442.486	840.44
442.707	721.44
442.928	678.44
443.149	676.44
443.371	689.44
443.592	770.44
443.813	829.44
444.034	948.44
444.255	776.44
444.476	674.44
444.698	646.44
444.919	646.44
445.14	755.44
445.361	717.44
445.582	686.44
445.803	784.44
446.024	937.44
446.245	892.44
446.466	812.44
446.687	700.44
446.908	650.44
447.129	612.44
447.35	613.44
447.571	583.44
447.792	580.44
448.013	604.44
448.234	599.44
448.455	694.44
448.675	816.44
448.896	943.44
449.117	803.44
449.338	766.44
449.559	881.44
449.779	997.44
450	766.44
450.221	647.44
450.442	591.44
450.662	570.44
450.883	580.44
451.104	610.44
451.324	588.44
451.545	569.44
451.766	552.44
451.986	531.44
452.207	529.44
452.428	533.44
452.648	541.44
452.869	542.44
453.089	542.44
453.31	557.44
453.53	535.44
453.751	531.44
453.971	520.44
454.192	551.44
454.412	542.44
454.633	518.44
454.853	527.44
455.073	532.44
455.294	572.44
455.514	642.44
455.734	616.44
455.955	545.44
456.175	509.44
456.395	524.44
456.616	510.44
456.836	509.44
457.056	499.44
457.276	500.44
457.497	509.44
457.717	518.44
457.937	546.44
458.157	518.44
458.377	526.44
458.598	533.44
458.818	589.44
459.038	709.44
459.258	754.44
459.478	649.44
459.698	589.44
459.918	549.44
460.138	576.44
460.358	561.44
460.578	579.44
460.798	581.44
461.018	574.44
461.238	571.44
461.458	580.44
461.678	572.44
461.898	588.44
462.118	593.44
462.338	594.44
462.558	614.44
462.777	606.44
462.997	605.44
463.217	643.44
463.437	660.44
463.657	624.44
463.876	593.44
464.096	626.44
464.316	626.44
464.536	625.44
464.755	628.44
464.975	638.44
465.195	701.44
465.414	723.44
465.634	647.44
465.854	617.44
466.073	606.44
466.293	569.44
466.512	567.44
466.732	565.44
466.951	576.44
467.171	526.44
467.391	542.44
467.61	547.44
467.829	571.44
468.049	572.44
468.268	563.44
468.488	525.44
468.707	538.44
468.927	517.44
469.146	530.44
469.365	538.44
469.585	525.44
469.804	539.44
470.023	564.44
470.243	560.44
470.462	590.44
470.681	551.44
470.901	585.44
471.12	561.44
471.339	537.44
471.558	555.44
471.777	567.44
471.997	520.44
472.216	562.44
472.435	595.44
472.654	584.44
472.873	581.44
473.092	576.44
473.311	540.44
473.53	567.44
473.749	573.44
473.968	615.44
474.187	719.44
474.406	742.44
474.625	648.44
474.844	584.44
475.063	557.44
475.282	542.44
475.501	577.44
475.72	592.44
475.939	576.44
476.158	590.44
476.377	585.44
476.596	571.44
476.814	594.44
477.033	594.44
477.252	594.44
477.471	587.44
477.69	579.44
477.908	617.44
478.127	629.44
478.346	636.44
478.564	628.44
478.783	636.44
479.002	610.44
479.22	636.44
479.439	634.44
479.658	663.44
479.876	671.44
480.095	704.44
480.313	702.44
480.532	698.44
480.751	691.44
480.969	706.44
481.188	764.44
481.406	816.44
481.624	727.44
481.843	679.44
482.061	677.44
482.28	677.44
482.498	673.44
482.717	661.44
482.935	652.44
483.153	646.44
483.372	635.44
483.59	651.44
483.808	638.44
484.027	661.44
484.245	668.44
484.463	668.44
484.681	657.44
484.9	682.44
485.118	679.44
485.336	673.44
485.554	683.44
485.772	681.44
485.99	680.44
486.209	715.44
486.427	688.44
486.645	722.44
486.863	702.44
487.081	739.44
487.299	715.44
487.517	725.44
487.735	690.44
487.953	722.44
488.171	682.44
488.389	719.44
488.607	712.44
488.825	690.44
489.043	691.44
489.261	729.44
489.479	687.44
489.696	725.44
489.914	704.44
490.132	713.44
490.35	754.44
490.568	737.44
490.786	716.44
491.003	779.44
491.221	761.44
491.439	807.44
491.657	783.44
491.874	798.44
492.092	813.44
492.31	801.44
492.527	793.44
492.745	822.44
492.963	819.44
493.18	836.44
493.398	836.44
493.615	870.44
493.833	837.44
494.05	814.44
494.268	855.44
494.485	818.44
494.703	838.44
494.92	837.44
495.138	828.44
495.355	808.44
495.573	856.44
495.79	855.44
496.008	836.44
496.225	856.44
496.442	837.44
496.66	861.44
496.877	839.44
497.094	857.44
497.312	871.44
497.529	864.44
497.746	873.44
497.963	877.44
498.181	908.44
498.398	896.44
498.615	975.44
498.832	980.44
499.049	976.44
499.267	1024.44
499.484	1025.44
499.701	1067.44
499.918	1082.44
500.135	1122.44
500.352	1207.44
500.569	1204.44
500.786	1235.44
501.003	1189.44
501.22	1187.44
501.437	1113.44
501.654	1126.44
