Data from 1966.PennyLincolnUp.Lamp.En5.5.200Scan.071719.P1._HRD10591_14-15-07-924.txt Node
Date: Thu Jul 18 14:15:07 EDT 2019
User: cochatt
Spectrometer: HR+D1059
Trigger mode: 1
Integration Time (sec): 1.000000E-1
Scans to average: 1
Electric dark correction enabled: true
Nonlinearity correction enabled: false
Boxcar width: 0
XAxis mode: Wavelengths
Number of Pixels in Spectrum: 2048
>>>>>Begin Spectral Data<<<<<
223.165	-13.5
223.4	-13.5
223.635	-13.5
223.869	-24.5
224.104	-19.5
224.338	-18.5
224.573	-22.5
224.808	-15.5
225.042	9.5
225.277	-2.5
225.511	-6.5
225.746	8.5
225.98	14.5
226.215	11.5
226.449	8.5
226.683	21.5
226.918	14.5
227.152	34.5
227.387	29.5
227.621	28.5
227.856	36.5
228.09	36.5
228.324	56.5
228.559	73.5
228.793	71.5
229.027	73.5
229.262	70.5
229.496	80.5
229.73	109.5
229.964	111.5
230.199	100.5
230.433	87.5
230.667	80.5
230.901	95.5
231.136	95.5
231.37	95.5
231.604	83.5
231.838	82.5
232.072	98.5
232.306	87.5
232.541	93.5
232.775	93.5
233.009	91.5
233.243	106.5
233.477	92.5
233.711	91.5
233.945	84.5
234.179	97.5
234.413	109.5
234.647	94.5
234.881	108.5
235.115	98.5
235.349	95.5
235.583	98.5
235.817	105.5
236.051	108.5
236.285	91.5
236.519	89.5
236.753	100.5
236.987	114.5
237.221	132.5
237.455	159.5
237.689	128.5
237.922	116.5
238.156	105.5
238.39	109.5
238.624	96.5
238.858	90.5
239.091	98.5
239.325	89.5
239.559	91.5
239.793	96.5
240.027	92.5
240.26	105.5
240.494	106.5
240.728	119.5
240.961	111.5
241.195	98.5
241.429	117.5
241.662	88.5
241.896	101.5
242.13	99.5
242.363	93.5
242.597	112.5
242.83	107.5
243.064	96.5
243.298	106.5
243.531	97.5
243.765	105.5
243.998	93.5
244.232	92.5
244.465	101.5
244.699	102.5
244.932	111.5
245.166	116.5
245.399	110.5
245.633	116.5
245.866	111.5
246.099	103.5
246.333	117.5
246.566	98.5
246.8	105.5
247.033	102.5
247.266	127.5
247.5	109.5
247.733	120.5
247.966	120.5
248.2	115.5
248.433	116.5
248.666	110.5
248.899	126.5
249.133	135.5
249.366	136.5
249.599	128.5
249.832	133.5
250.066	128.5
250.299	126.5
250.532	134.5
250.765	153.5
250.998	143.5
251.231	135.5
251.465	131.5
251.698	141.5
251.931	140.5
252.164	128.5
252.397	125.5
252.63	134.5
252.863	143.5
253.096	154.5
253.329	157.5
253.562	160.5
253.795	134.5
254.028	134.5
254.261	147.5
254.494	140.5
254.727	178.5
254.96	202.5
255.193	173.5
255.426	147.5
255.659	150.5
255.892	138.5
256.124	136.5
256.357	136.5
256.59	150.5
256.823	142.5
257.056	135.5
257.289	131.5
257.521	129.5
257.754	147.5
257.987	128.5
258.22	127.5
258.452	135.5
258.685	139.5
258.918	130.5
259.151	139.5
259.383	152.5
259.616	154.5
259.849	135.5
260.081	148.5
260.314	168.5
260.547	169.5
260.779	170.5
261.012	163.5
261.244	147.5
261.477	149.5
261.71	139.5
261.942	150.5
262.175	158.5
262.407	134.5
262.64	134.5
262.872	138.5
263.105	135.5
263.337	138.5
263.57	143.5
263.802	136.5
264.035	129.5
264.267	142.5
264.499	134.5
264.732	139.5
264.964	138.5
265.197	128.5
265.429	141.5
265.661	148.5
265.894	126.5
266.126	144.5
266.358	157.5
266.591	151.5
266.823	144.5
267.055	142.5
267.287	149.5
267.52	149.5
267.752	137.5
267.984	131.5
268.216	138.5
268.448	143.5
268.681	161.5
268.913	148.5
269.145	171.5
269.377	191.5
269.609	158.5
269.841	166.5
270.073	185.5
270.306	192.5
270.538	201.5
270.77	198.5
271.002	188.5
271.234	197.5
271.466	178.5
271.698	180.5
271.93	189.5
272.162	197.5
272.394	196.5
272.626	198.5
272.858	179.5
273.09	180.5
273.322	172.5
273.553	170.5
273.785	162.5
274.017	145.5
274.249	157.5
274.481	175.5
274.713	162.5
274.945	157.5
275.176	151.5
275.408	168.5
275.64	170.5
275.872	178.5
276.104	164.5
276.335	168.5
276.567	160.5
276.799	181.5
277.031	187.5
277.262	204.5
277.494	207.5
277.726	182.5
277.957	178.5
278.189	166.5
278.421	155.5
278.652	160.5
278.884	146.5
279.115	144.5
279.347	141.5
279.579	152.5
279.81	180.5
280.042	165.5
280.273	170.5
280.505	155.5
280.736	170.5
280.968	149.5
281.199	166.5
281.431	158.5
281.662	155.5
281.894	165.5
282.125	173.5
282.356	192.5
282.588	179.5
282.819	190.5
283.051	155.5
283.282	190.5
283.513	168.5
283.745	183.5
283.976	168.5
284.207	172.5
284.439	183.5
284.67	182.5
284.901	162.5
285.132	174.5
285.364	163.5
285.595	184.5
285.826	163.5
286.057	181.5
286.288	170.5
286.52	175.5
286.751	170.5
286.982	164.5
287.213	169.5
287.444	208.5
287.675	190.5
287.906	183.5
288.138	184.5
288.369	194.5
288.6	190.5
288.831	180.5
289.062	207.5
289.293	181.5
289.524	179.5
289.755	176.5
289.986	166.5
290.217	174.5
290.448	194.5
290.679	170.5
290.91	178.5
291.141	178.5
291.371	180.5
291.602	182.5
291.833	158.5
292.064	175.5
292.295	173.5
292.526	183.5
292.757	180.5
292.987	191.5
293.218	167.5
293.449	184.5
293.68	182.5
293.91	175.5
294.141	170.5
294.372	176.5
294.603	177.5
294.833	166.5
295.064	175.5
295.295	177.5
295.525	170.5
295.756	186.5
295.987	185.5
296.217	201.5
296.448	200.5
296.679	194.5
296.909	173.5
297.14	168.5
297.37	185.5
297.601	178.5
297.831	194.5
298.062	176.5
298.292	180.5
298.523	183.5
298.753	187.5
298.984	209.5
299.214	175.5
299.445	185.5
299.675	178.5
299.905	182.5
300.136	188.5
300.366	177.5
300.597	179.5
300.827	199.5
301.057	183.5
301.288	203.5
301.518	191.5
301.748	193.5
301.979	195.5
302.209	184.5
302.439	190.5
302.669	192.5
302.9	185.5
303.13	182.5
303.36	200.5
303.59	212.5
303.82	203.5
304.051	206.5
304.281	218.5
304.511	192.5
304.741	193.5
304.971	197.5
305.201	183.5
305.431	186.5
305.661	194.5
305.891	200.5
306.121	206.5
306.352	201.5
306.582	210.5
306.812	199.5
307.042	210.5
307.272	192.5
307.502	185.5
307.731	200.5
307.961	208.5
308.191	196.5
308.421	182.5
308.651	197.5
308.881	211.5
309.111	197.5
309.341	213.5
309.571	211.5
309.8	205.5
310.03	214.5
310.26	215.5
310.49	222.5
310.72	219.5
310.949	221.5
311.179	239.5
311.409	226.5
311.639	219.5
311.868	216.5
312.098	207.5
312.328	216.5
312.557	226.5
312.787	232.5
313.017	228.5
313.246	219.5
313.476	224.5
313.706	207.5
313.935	222.5
314.165	223.5
314.394	230.5
314.624	218.5
314.853	221.5
315.083	198.5
315.312	212.5
315.542	220.5
315.771	220.5
316.001	219.5
316.23	217.5
316.46	213.5
316.689	220.5
316.919	203.5
317.148	228.5
317.377	216.5
317.607	219.5
317.836	217.5
318.065	214.5
318.295	207.5
318.524	216.5
318.753	197.5
318.983	221.5
319.212	235.5
319.441	227.5
319.67	214.5
319.9	231.5
320.129	221.5
320.358	218.5
320.587	215.5
320.816	214.5
321.046	212.5
321.275	232.5
321.504	233.5
321.733	227.5
321.962	223.5
322.191	230.5
322.42	242.5
322.649	262.5
322.878	269.5
323.108	263.5
323.337	283.5
323.566	256.5
323.795	301.5
324.024	346.5
324.253	391.5
324.482	558.5
324.71	830.5
324.939	1107.5
325.168	902.5
325.397	469.5
325.626	315.5
325.855	291.5
326.084	264.5
326.313	272.5
326.542	285.5
326.77	296.5
326.999	372.5
327.228	500.5
327.457	717.5
327.686	826.5
327.914	545.5
328.143	380.5
328.372	355.5
328.6	330.5
328.829	305.5
329.058	332.5
329.287	337.5
329.515	300.5
329.744	276.5
329.972	267.5
330.201	314.5
330.43	337.5
330.658	342.5
330.887	364.5
331.115	329.5
331.344	297.5
331.572	265.5
331.801	277.5
332.03	262.5
332.258	264.5
332.486	252.5
332.715	245.5
332.943	255.5
333.172	276.5
333.4	261.5
333.629	271.5
333.857	282.5
334.085	278.5
334.314	309.5
334.542	302.5
334.771	327.5
334.999	296.5
335.227	267.5
335.455	260.5
335.684	260.5
335.912	251.5
336.14	240.5
336.369	242.5
336.597	247.5
336.825	231.5
337.053	242.5
337.281	246.5
337.51	221.5
337.738	246.5
337.966	237.5
338.194	252.5
338.422	247.5
338.65	242.5
338.878	235.5
339.106	243.5
339.334	250.5
339.562	219.5
339.79	224.5
340.018	229.5
340.246	247.5
340.474	245.5
340.702	251.5
340.93	223.5
341.158	252.5
341.386	244.5
341.614	238.5
341.842	246.5
342.07	232.5
342.298	239.5
342.526	236.5
342.754	217.5
342.981	218.5
343.209	221.5
343.437	227.5
343.665	223.5
343.893	250.5
344.12	245.5
344.348	235.5
344.576	239.5
344.804	246.5
345.031	270.5
345.259	262.5
345.487	222.5
345.714	231.5
345.942	239.5
346.17	245.5
346.397	249.5
346.625	223.5
346.853	238.5
347.08	222.5
347.308	220.5
347.535	232.5
347.763	214.5
347.99	250.5
348.218	260.5
348.445	258.5
348.673	231.5
348.9	228.5
349.128	226.5
349.355	230.5
349.583	228.5
349.81	208.5
350.037	223.5
350.265	213.5
350.492	242.5
350.72	222.5
350.947	221.5
351.174	227.5
351.402	237.5
351.629	240.5
351.856	226.5
352.083	242.5
352.311	232.5
352.538	253.5
352.765	226.5
352.992	237.5
353.22	212.5
353.447	228.5
353.674	242.5
353.901	208.5
354.128	218.5
354.355	218.5
354.583	220.5
354.81	223.5
355.037	210.5
355.264	216.5
355.491	219.5
355.718	203.5
355.945	208.5
356.172	194.5
356.399	199.5
356.626	215.5
356.853	213.5
357.08	199.5
357.307	201.5
357.534	197.5
357.761	210.5
357.988	208.5
358.215	209.5
358.441	220.5
358.668	235.5
358.895	230.5
359.122	215.5
359.349	239.5
359.576	235.5
359.802	250.5
360.029	252.5
360.256	261.5
360.483	240.5
360.709	244.5
360.936	226.5
361.163	230.5
361.39	223.5
361.616	225.5
361.843	235.5
362.07	234.5
362.296	255.5
362.523	226.5
362.749	216.5
362.976	232.5
363.203	222.5
363.429	216.5
363.656	226.5
363.882	229.5
364.109	212.5
364.335	234.5
364.562	228.5
364.788	214.5
365.015	222.5
365.241	216.5
365.468	222.5
365.694	214.5
365.92	234.5
366.147	209.5
366.373	219.5
366.599	210.5
366.826	217.5
367.052	218.5
367.278	226.5
367.505	223.5
367.731	233.5
367.957	226.5
368.184	214.5
368.41	232.5
368.636	236.5
368.862	237.5
369.089	230.5
369.315	214.5
369.541	220.5
369.767	226.5
369.993	220.5
370.219	207.5
370.445	214.5
370.672	218.5
370.898	225.5
371.124	230.5
371.35	215.5
371.576	192.5
371.802	203.5
372.028	207.5
372.254	214.5
372.48	210.5
372.706	220.5
372.932	222.5
373.158	210.5
373.384	224.5
373.61	220.5
373.835	210.5
374.061	206.5
374.287	223.5
374.513	217.5
374.739	222.5
374.965	230.5
375.191	227.5
375.416	231.5
375.642	219.5
375.868	207.5
376.094	217.5
376.319	208.5
376.545	199.5
376.771	199.5
376.997	207.5
377.222	220.5
377.448	220.5
377.674	222.5
377.899	224.5
378.125	219.5
378.35	207.5
378.576	204.5
378.802	195.5
379.027	214.5
379.253	207.5
379.478	208.5
379.704	216.5
379.929	228.5
380.155	219.5
380.38	221.5
380.606	211.5
380.831	213.5
381.057	205.5
381.282	224.5
381.507	218.5
381.733	218.5
381.958	224.5
382.184	217.5
382.409	199.5
382.634	220.5
382.86	220.5
383.085	221.5
383.31	202.5
383.535	219.5
383.761	239.5
383.986	224.5
384.211	226.5
384.436	228.5
384.662	219.5
384.887	216.5
385.112	215.5
385.337	225.5
385.562	232.5
385.787	212.5
386.013	224.5
386.238	241.5
386.463	230.5
386.688	230.5
386.913	219.5
387.138	214.5
387.363	204.5
387.588	235.5
387.813	214.5
388.038	234.5
388.263	229.5
388.488	237.5
388.713	239.5
388.938	228.5
389.163	221.5
389.387	229.5
389.612	235.5
389.837	236.5
390.062	224.5
390.287	244.5
390.512	237.5
390.736	222.5
390.961	238.5
391.186	212.5
391.411	227.5
391.636	238.5
391.86	235.5
392.085	251.5
392.31	234.5
392.534	232.5
392.759	230.5
392.984	223.5
393.208	232.5
393.433	235.5
393.658	235.5
393.882	217.5
394.107	219.5
394.331	236.5
394.556	224.5
394.78	239.5
395.005	238.5
395.229	235.5
395.454	246.5
395.678	239.5
395.903	231.5
396.127	232.5
396.352	250.5
396.576	235.5
396.801	237.5
397.025	219.5
397.249	245.5
397.474	260.5
397.698	246.5
397.922	248.5
398.147	255.5
398.371	255.5
398.595	251.5
398.82	270.5
399.044	256.5
399.268	282.5
399.492	285.5
399.717	288.5
399.941	313.5
400.165	309.5
400.389	311.5
400.613	281.5
400.837	275.5
401.062	272.5
401.286	272.5
401.51	279.5
401.734	262.5
401.958	266.5
402.182	269.5
402.406	278.5
402.63	276.5
402.854	249.5
403.078	273.5
403.302	267.5
403.526	287.5
403.75	263.5
403.974	284.5
404.198	274.5
404.422	272.5
404.645	285.5
404.869	278.5
405.093	276.5
405.317	308.5
405.541	311.5
405.765	283.5
405.988	295.5
406.212	298.5
406.436	292.5
406.66	310.5
406.883	296.5
407.107	282.5
407.331	322.5
407.555	351.5
407.778	341.5
408.002	316.5
408.226	299.5
408.449	291.5
408.673	287.5
408.896	290.5
409.12	308.5
409.344	300.5
409.567	270.5
409.791	260.5
410.014	271.5
410.238	269.5
410.461	251.5
410.685	273.5
410.908	302.5
411.132	294.5
411.355	311.5
411.578	296.5
411.802	260.5
412.025	277.5
412.249	276.5
412.472	288.5
412.695	312.5
412.919	288.5
413.142	286.5
413.365	277.5
413.589	270.5
413.812	260.5
414.035	275.5
414.258	271.5
414.482	276.5
414.705	255.5
414.928	269.5
415.151	247.5
415.374	266.5
415.597	263.5
415.821	257.5
416.044	262.5
416.267	268.5
416.49	250.5
416.713	262.5
416.936	264.5
417.159	264.5
417.382	270.5
417.605	267.5
417.828	271.5
418.051	276.5
418.274	258.5
418.497	264.5
418.72	260.5
418.943	276.5
419.166	268.5
419.389	285.5
419.611	274.5
419.834	274.5
420.057	280.5
420.28	261.5
420.503	280.5
420.726	276.5
420.948	281.5
421.171	299.5
421.394	335.5
421.617	276.5
421.839	272.5
422.062	282.5
422.285	270.5
422.507	318.5
422.73	329.5
422.953	309.5
423.175	288.5
423.398	277.5
423.621	300.5
423.843	292.5
424.066	299.5
424.288	280.5
424.511	295.5
424.733	339.5
424.956	329.5
425.178	355.5
425.401	348.5
425.623	351.5
425.846	317.5
426.068	285.5
426.291	265.5
426.513	281.5
426.735	302.5
426.958	292.5
427.18	335.5
427.402	394.5
427.625	456.5
427.847	388.5
428.069	345.5
428.292	312.5
428.514	273.5
428.736	258.5
428.958	278.5
429.181	264.5
429.403	253.5
429.625	267.5
429.847	290.5
430.069	312.5
430.292	298.5
430.514	272.5
430.736	281.5
430.958	253.5
431.18	259.5
431.402	247.5
431.624	259.5
431.846	259.5
432.068	249.5
432.29	236.5
432.512	249.5
432.734	249.5
432.956	258.5
433.178	267.5
433.4	270.5
433.622	240.5
433.844	262.5
434.066	262.5
434.287	263.5
434.509	271.5
434.731	264.5
434.953	248.5
435.175	278.5
435.397	284.5
435.618	294.5
435.84	298.5
436.062	351.5
436.284	360.5
436.505	326.5
436.727	294.5
436.949	268.5
437.17	283.5
437.392	252.5
437.614	256.5
437.835	312.5
438.057	356.5
438.278	406.5
438.5	370.5
438.721	392.5
438.943	376.5
439.165	304.5
439.386	290.5
439.608	291.5
439.829	293.5
440.05	312.5
440.272	309.5
440.493	300.5
440.715	272.5
440.936	296.5
441.158	287.5
441.379	266.5
441.6	271.5
441.822	289.5
442.043	315.5
442.264	361.5
442.486	362.5
442.707	295.5
442.928	294.5
443.149	313.5
443.371	317.5
443.592	327.5
443.813	342.5
444.034	384.5
444.255	308.5
444.476	287.5
444.698	280.5
444.919	295.5
445.14	383.5
445.361	336.5
445.582	303.5
445.803	342.5
446.024	390.5
446.245	388.5
446.466	348.5
446.687	320.5
446.908	275.5
447.129	272.5
447.35	262.5
447.571	264.5
447.792	278.5
448.013	273.5
448.234	290.5
448.455	286.5
448.675	337.5
448.896	394.5
449.117	308.5
449.338	332.5
449.559	376.5
449.779	401.5
450	317.5
450.221	282.5
450.442	278.5
450.662	259.5
450.883	284.5
451.104	286.5
451.324	285.5
451.545	253.5
451.766	240.5
451.986	242.5
452.207	238.5
452.428	233.5
452.648	235.5
452.869	240.5
453.089	266.5
453.31	255.5
453.53	243.5
453.751	252.5
453.971	262.5
454.192	276.5
454.412	258.5
454.633	250.5
454.853	250.5
455.073	227.5
455.294	255.5
455.514	297.5
455.734	280.5
455.955	242.5
456.175	236.5
456.395	235.5
456.616	230.5
456.836	239.5
457.056	231.5
457.276	230.5
457.497	217.5
457.717	216.5
457.937	223.5
458.157	235.5
458.377	226.5
458.598	258.5
458.818	291.5
459.038	318.5
459.258	337.5
459.478	276.5
459.698	255.5
459.918	265.5
460.138	253.5
460.358	270.5
460.578	259.5
460.798	272.5
461.018	270.5
461.238	258.5
461.458	247.5
461.678	254.5
461.898	253.5
462.118	255.5
462.338	259.5
462.558	256.5
462.777	276.5
462.997	263.5
463.217	299.5
463.437	284.5
463.657	268.5
463.876	268.5
464.096	259.5
464.316	277.5
464.536	277.5
464.755	276.5
464.975	281.5
465.195	315.5
465.414	379.5
465.634	321.5
465.854	278.5
466.073	262.5
466.293	250.5
466.512	251.5
466.732	274.5
466.951	258.5
467.171	243.5
467.391	247.5
467.61	253.5
467.829	269.5
468.049	267.5
468.268	279.5
468.488	252.5
468.707	250.5
468.927	242.5
469.146	242.5
469.365	247.5
469.585	262.5
469.804	266.5
470.023	272.5
470.243	251.5
470.462	265.5
470.681	299.5
470.901	266.5
471.12	248.5
471.339	224.5
471.558	247.5
471.777	232.5
471.997	245.5
472.216	243.5
472.435	307.5
472.654	272.5
472.873	241.5
473.092	250.5
473.311	235.5
473.53	243.5
473.749	255.5
473.968	290.5
474.187	344.5
474.406	326.5
474.625	280.5
474.844	244.5
475.063	255.5
475.282	236.5
475.501	258.5
475.72	250.5
475.939	260.5
476.158	270.5
476.377	255.5
476.596	241.5
476.814	280.5
477.033	272.5
477.252	251.5
477.471	258.5
477.69	276.5
477.908	270.5
478.127	299.5
478.346	266.5
478.564	270.5
478.783	282.5
479.002	279.5
479.22	274.5
479.439	294.5
479.658	299.5
479.876	294.5
480.095	312.5
480.313	315.5
480.532	311.5
480.751	323.5
480.969	328.5
481.188	357.5
481.406	414.5
481.624	335.5
481.843	322.5
482.061	291.5
482.28	286.5
482.498	293.5
482.717	291.5
482.935	285.5
483.153	291.5
483.372	288.5
483.59	303.5
483.808	299.5
484.027	276.5
484.245	297.5
484.463	279.5
484.681	314.5
484.9	313.5
485.118	304.5
485.336	308.5
485.554	298.5
485.772	297.5
485.99	307.5
486.209	306.5
486.427	308.5
486.645	319.5
486.863	310.5
487.081	314.5
487.299	333.5
487.517	313.5
487.735	301.5
487.953	318.5
488.171	297.5
488.389	299.5
488.607	325.5
488.825	308.5
489.043	325.5
489.261	311.5
489.479	313.5
489.696	314.5
489.914	317.5
490.132	311.5
490.35	311.5
490.568	342.5
490.786	328.5
491.003	338.5
491.221	359.5
491.439	368.5
491.657	359.5
491.874	380.5
492.092	370.5
492.31	374.5
492.527	374.5
492.745	355.5
492.963	372.5
493.18	355.5
493.398	368.5
493.615	357.5
493.833	370.5
494.05	356.5
494.268	338.5
494.485	359.5
494.703	361.5
494.92	354.5
495.138	374.5
495.355	365.5
495.573	361.5
495.79	378.5
496.008	365.5
496.225	394.5
496.442	372.5
496.66	376.5
496.877	365.5
497.094	365.5
497.312	377.5
497.529	374.5
497.746	359.5
497.963	355.5
498.181	375.5
498.398	391.5
498.615	379.5
498.832	400.5
499.049	379.5
499.267	391.5
499.484	408.5
499.701	426.5
499.918	469.5
500.135	474.5
500.352	456.5
500.569	480.5
500.786	470.5
501.003	463.5
501.22	462.5
501.437	452.5
501.654	467.5
501.871	457.5
502.088	434.5
502.305	413.5
502.522	401.5
502.739	393.5
502.956	385.5
503.172	379.5
503.389	358.5
503.606	384.5
503.823	378.5
504.04	360.5
504.256	349.5
504.473	354.5
504.69	373.5
504.907	353.5
505.123	356.5
505.34	342.5
505.557	336.5
505.773	346.5
505.99	336.5
506.207	364.5
506.423	347.5
506.64	344.5
506.856	344.5
507.073	339.5
507.289	350.5
507.506	333.5
507.722	350.5
507.939	371.5
508.155	330.5
508.372	334.5
508.588	322.5
508.805	326.5
509.021	336.5
509.238	343.5
509.454	352.5
509.67	336.5
509.887	328.5
510.103	324.5
510.319	338.5
510.536	421.5
510.752	829.5
510.968	605.5
511.184	349.5
511.401	323.5
511.617	317.5
511.833	306.5
512.049	311.5
512.265	309.5
512.481	306.5
512.698	287.5
512.914	303.5
513.13	296.5
513.346	296.5
513.562	299.5
513.778	307.5
513.994	310.5
514.21	318.5
514.426	360.5
514.642	386.5
514.858	391.5
515.074	396.5
515.29	510.5
515.506	873.5
515.721	711.5
515.937	410.5
516.153	348.5
516.369	342.5
516.585	323.5
516.801	310.5
517.016	321.5
517.232	332.5
517.448	311.5
517.664	318.5
517.879	320.5
518.095	321.5
518.311	326.5
518.527	290.5
518.742	330.5
518.958	292.5
519.173	306.5
519.389	296.5
519.605	312.5
519.82	318.5
520.036	330.5
520.251	329.5
520.467	356.5
