Data from 1966.PennyLincolnUp.Lamp.En5.5.200Scan.071719.P1.Scan2.head_HRD10591_14-18-16-174.txt Node
Date: Thu Jul 18 14:18:16 EDT 2019
User: cochatt
Spectrometer: HR+D1059
Trigger mode: 1
Integration Time (sec): 1.000000E-1
Scans to average: 1
Electric dark correction enabled: true
Nonlinearity correction enabled: false
Boxcar width: 0
XAxis mode: Wavelengths
Number of Pixels in Spectrum: 2048
>>>>>Begin Spectral Data<<<<<
223.165	-13.56
223.4	-13.56
223.635	-13.56
223.869	-24.56
224.104	-1.56
224.338	-11.56
224.573	-13.56
224.808	-33.56
225.042	-5.56
225.277	-5.56
225.511	-22.56
225.746	-1.56
225.98	4.44
226.215	19.44
226.449	10.44
226.683	20.44
226.918	36.44
227.152	42.44
227.387	40.44
227.621	37.44
227.856	52.44
228.09	45.44
228.324	46.44
228.559	51.44
228.793	86.44
229.027	105.44
229.262	111.44
229.496	112.44
229.73	119.44
229.964	166.44
230.199	140.44
230.433	124.44
230.667	122.44
230.901	128.44
231.136	112.44
231.37	104.44
231.604	125.44
231.838	122.44
232.072	100.44
232.306	109.44
232.541	118.44
232.775	127.44
233.009	116.44
233.243	123.44
233.477	114.44
233.711	112.44
233.945	114.44
234.179	105.44
234.413	108.44
234.647	135.44
234.881	121.44
235.115	116.44
235.349	122.44
235.583	137.44
235.817	128.44
236.051	119.44
236.285	128.44
236.519	117.44
236.753	128.44
236.987	138.44
237.221	171.44
237.455	238.44
237.689	189.44
237.922	160.44
238.156	117.44
238.39	139.44
238.624	140.44
238.858	124.44
239.091	118.44
239.325	126.44
239.559	151.44
239.793	127.44
240.027	144.44
240.26	155.44
240.494	159.44
240.728	169.44
240.961	174.44
241.195	152.44
241.429	133.44
241.662	133.44
241.896	139.44
242.13	142.44
242.363	150.44
242.597	133.44
242.83	136.44
243.064	135.44
243.298	144.44
243.531	130.44
243.765	124.44
243.998	128.44
244.232	146.44
244.465	168.44
244.699	167.44
244.932	166.44
245.166	146.44
245.399	145.44
245.633	142.44
245.866	139.44
246.099	149.44
246.333	156.44
246.566	159.44
246.8	154.44
247.033	163.44
247.266	166.44
247.5	168.44
247.733	179.44
247.966	185.44
248.2	195.44
248.433	177.44
248.666	175.44
248.899	184.44
249.133	197.44
249.366	197.44
249.599	190.44
249.832	187.44
250.066	186.44
250.299	198.44
250.532	208.44
250.765	192.44
250.998	214.44
251.231	228.44
251.465	228.44
251.698	218.44
251.931	203.44
252.164	208.44
252.397	197.44
252.63	196.44
252.863	199.44
253.096	197.44
253.329	249.44
253.562	238.44
253.795	195.44
254.028	229.44
254.261	227.44
254.494	222.44
254.727	254.44
254.96	270.44
255.193	279.44
255.426	241.44
255.659	230.44
255.892	234.44
256.124	222.44
256.357	225.44
256.59	219.44
256.823	230.44
257.056	223.44
257.289	213.44
257.521	198.44
257.754	186.44
257.987	221.44
258.22	222.44
258.452	208.44
258.685	222.44
258.918	205.44
259.151	210.44
259.383	231.44
259.616	215.44
259.849	231.44
260.081	233.44
260.314	258.44
260.547	259.44
260.779	261.44
261.012	251.44
261.244	224.44
261.477	238.44
261.71	228.44
261.942	224.44
262.175	231.44
262.407	239.44
262.64	232.44
262.872	223.44
263.105	231.44
263.337	206.44
263.57	248.44
263.802	221.44
264.035	210.44
264.267	217.44
264.499	222.44
264.732	221.44
264.964	210.44
265.197	200.44
265.429	216.44
265.661	227.44
265.894	231.44
266.126	227.44
266.358	217.44
266.591	214.44
266.823	229.44
267.055	241.44
267.287	230.44
267.52	219.44
267.752	229.44
267.984	234.44
268.216	216.44
268.448	243.44
268.681	237.44
268.913	248.44
269.145	287.44
269.377	274.44
269.609	290.44
269.841	287.44
270.073	270.44
270.306	303.44
270.538	308.44
270.77	312.44
271.002	303.44
271.234	293.44
271.466	290.44
271.698	323.44
271.93	334.44
272.162	318.44
272.394	314.44
272.626	320.44
272.858	276.44
273.09	275.44
273.322	287.44
273.553	256.44
273.785	281.44
274.017	279.44
274.249	285.44
274.481	250.44
274.713	237.44
274.945	250.44
275.176	285.44
275.408	271.44
275.64	270.44
275.872	274.44
276.104	271.44
276.335	261.44
276.567	282.44
276.799	282.44
277.031	314.44
277.262	302.44
277.494	336.44
277.726	309.44
277.957	276.44
278.189	273.44
278.421	282.44
278.652	283.44
278.884	278.44
279.115	273.44
279.347	282.44
279.579	268.44
279.81	243.44
280.042	276.44
280.273	267.44
280.505	262.44
280.736	266.44
280.968	263.44
281.199	291.44
281.431	272.44
281.662	291.44
281.894	282.44
282.125	279.44
282.356	294.44
282.588	324.44
282.819	297.44
283.051	270.44
283.282	293.44
283.513	276.44
283.745	272.44
283.976	292.44
284.207	292.44
284.439	282.44
284.67	282.44
284.901	292.44
285.132	299.44
285.364	307.44
285.595	285.44
285.826	292.44
286.057	296.44
286.288	286.44
286.52	286.44
286.751	298.44
286.982	295.44
287.213	303.44
287.444	298.44
287.675	293.44
287.906	314.44
288.138	298.44
288.369	301.44
288.6	314.44
288.831	302.44
289.062	295.44
289.293	304.44
289.524	300.44
289.755	304.44
289.986	299.44
290.217	304.44
290.448	303.44
290.679	302.44
290.91	284.44
291.141	299.44
291.371	297.44
291.602	285.44
291.833	300.44
292.064	284.44
292.295	276.44
292.526	303.44
292.757	287.44
292.987	291.44
293.218	299.44
293.449	306.44
293.68	309.44
293.91	301.44
294.141	292.44
294.372	299.44
294.603	309.44
294.833	309.44
295.064	307.44
295.295	296.44
295.525	301.44
295.756	300.44
295.987	314.44
296.217	312.44
296.448	342.44
296.679	314.44
296.909	303.44
297.14	301.44
297.37	321.44
297.601	315.44
297.831	308.44
298.062	310.44
298.292	320.44
298.523	329.44
298.753	309.44
298.984	315.44
299.214	316.44
299.445	303.44
299.675	338.44
299.905	322.44
300.136	320.44
300.366	320.44
300.597	299.44
300.827	314.44
301.057	310.44
301.288	347.44
301.518	326.44
301.748	338.44
301.979	334.44
302.209	335.44
302.439	334.44
302.669	341.44
302.9	321.44
303.13	350.44
303.36	324.44
303.59	312.44
303.82	338.44
304.051	351.44
304.281	344.44
304.511	339.44
304.741	320.44
304.971	325.44
305.201	335.44
305.431	340.44
305.661	327.44
305.891	326.44
306.121	331.44
306.352	346.44
306.582	344.44
306.812	345.44
307.042	342.44
307.272	348.44
307.502	332.44
307.731	343.44
307.961	338.44
308.191	352.44
308.421	337.44
308.651	341.44
308.881	353.44
309.111	359.44
309.341	348.44
309.571	346.44
309.8	362.44
310.03	376.44
310.26	382.44
310.49	386.44
310.72	374.44
310.949	395.44
311.179	406.44
311.409	398.44
311.639	367.44
311.868	383.44
312.098	398.44
312.328	395.44
312.557	415.44
312.787	432.44
313.017	428.44
313.246	402.44
313.476	362.44
313.706	394.44
313.935	389.44
314.165	388.44
314.394	381.44
314.624	394.44
314.853	382.44
315.083	391.44
315.312	402.44
315.542	380.44
315.771	396.44
316.001	397.44
316.23	386.44
316.46	381.44
316.689	375.44
316.919	411.44
317.148	412.44
317.377	407.44
317.607	404.44
317.836	403.44
318.065	395.44
318.295	388.44
318.524	370.44
318.753	398.44
318.983	393.44
319.212	400.44
319.441	394.44
319.67	417.44
319.9	381.44
320.129	388.44
320.358	380.44
320.587	389.44
320.816	413.44
321.046	401.44
321.275	417.44
321.504	409.44
321.733	425.44
321.962	406.44
322.191	447.44
322.42	444.44
322.649	444.44
322.878	463.44
323.108	455.44
323.337	488.44
323.566	518.44
323.795	544.44
324.024	560.44
324.253	679.44
324.482	968.44
324.71	1504.44
324.939	2239.44
325.168	1976.44
325.397	964.44
325.626	671.44
325.855	538.44
326.084	539.44
326.313	501.44
326.542	521.44
326.77	559.44
326.999	648.44
327.228	891.44
327.457	1379.44
327.686	1701.44
327.914	1095.44
328.143	708.44
328.372	631.44
328.6	603.44
328.829	561.44
329.058	570.44
329.287	609.44
329.515	565.44
329.744	519.44
329.972	506.44
330.201	562.44
330.43	582.44
330.658	609.44
330.887	613.44
331.115	607.44
331.344	524.44
331.572	506.44
331.801	504.44
332.03	480.44
332.258	493.44
332.486	488.44
332.715	484.44
332.943	466.44
333.172	470.44
333.4	505.44
333.629	495.44
333.857	488.44
334.085	532.44
334.314	542.44
334.542	558.44
334.771	579.44
334.999	507.44
335.227	483.44
335.455	485.44
335.684	483.44
335.912	472.44
336.14	466.44
336.369	454.44
336.597	484.44
336.825	459.44
337.053	446.44
337.281	461.44
337.51	438.44
337.738	454.44
337.966	474.44
338.194	459.44
338.422	465.44
338.65	439.44
338.878	454.44
339.106	454.44
339.334	436.44
339.562	444.44
339.79	450.44
340.018	461.44
340.246	437.44
340.474	466.44
340.702	456.44
340.93	446.44
341.158	460.44
341.386	442.44
341.614	461.44
341.842	423.44
342.07	430.44
342.298	463.44
342.526	448.44
342.754	426.44
342.981	446.44
343.209	456.44
343.437	445.44
343.665	460.44
343.893	468.44
344.12	476.44
344.348	462.44
344.576	479.44
344.804	470.44
345.031	479.44
345.259	468.44
345.487	468.44
345.714	467.44
345.942	435.44
346.17	438.44
346.397	446.44
346.625	461.44
346.853	434.44
347.08	444.44
347.308	439.44
347.535	436.44
347.763	463.44
347.99	431.44
348.218	461.44
348.445	443.44
348.673	437.44
348.9	443.44
349.128	429.44
349.355	424.44
349.583	412.44
349.81	450.44
350.037	438.44
350.265	399.44
350.492	429.44
350.72	422.44
350.947	433.44
351.174	446.44
351.402	453.44
351.629	452.44
351.856	456.44
352.083	472.44
352.311	455.44
352.538	452.44
352.765	443.44
352.992	442.44
353.22	445.44
353.447	427.44
353.674	458.44
353.901	439.44
354.128	405.44
354.355	405.44
354.583	422.44
354.81	406.44
355.037	414.44
355.264	397.44
355.491	429.44
355.718	427.44
355.945	395.44
356.172	406.44
356.399	418.44
356.626	419.44
356.853	409.44
357.08	408.44
357.307	429.44
357.534	412.44
357.761	428.44
357.988	407.44
358.215	412.44
358.441	421.44
358.668	420.44
358.895	409.44
359.122	425.44
359.349	451.44
359.576	439.44
359.802	467.44
360.029	486.44
360.256	491.44
360.483	483.44
360.709	437.44
360.936	454.44
361.163	458.44
361.39	447.44
361.616	463.44
361.843	455.44
362.07	437.44
362.296	458.44
362.523	446.44
362.749	452.44
362.976	456.44
363.203	459.44
363.429	429.44
363.656	426.44
363.882	448.44
364.109	426.44
364.335	419.44
364.562	419.44
364.788	452.44
365.015	445.44
365.241	430.44
365.468	454.44
365.694	449.44
365.92	455.44
366.147	438.44
366.373	456.44
366.599	435.44
366.826	448.44
367.052	420.44
367.278	434.44
367.505	438.44
367.731	445.44
367.957	432.44
368.184	431.44
368.41	420.44
368.636	454.44
368.862	450.44
369.089	436.44
369.315	431.44
369.541	446.44
369.767	447.44
369.993	435.44
370.219	428.44
370.445	444.44
370.672	436.44
370.898	436.44
371.124	429.44
371.35	424.44
371.576	446.44
371.802	429.44
372.028	442.44
372.254	434.44
372.48	447.44
372.706	418.44
372.932	427.44
373.158	444.44
373.384	456.44
373.61	437.44
373.835	457.44
374.061	455.44
374.287	448.44
374.513	446.44
374.739	458.44
374.965	443.44
375.191	471.44
375.416	442.44
375.642	438.44
375.868	435.44
376.094	427.44
376.319	423.44
376.545	410.44
376.771	442.44
376.997	452.44
377.222	450.44
377.448	428.44
377.674	440.44
377.899	429.44
378.125	454.44
378.35	438.44
378.576	416.44
378.802	425.44
379.027	444.44
379.253	430.44
379.478	412.44
379.704	428.44
379.929	440.44
380.155	444.44
380.38	461.44
380.606	444.44
380.831	447.44
381.057	440.44
381.282	439.44
381.507	455.44
381.733	451.44
381.958	435.44
382.184	445.44
382.409	451.44
382.634	448.44
382.86	428.44
383.085	458.44
383.31	440.44
383.535	474.44
383.761	456.44
383.986	464.44
384.211	464.44
384.436	468.44
384.662	446.44
384.887	490.44
385.112	468.44
385.337	458.44
385.562	472.44
385.787	504.44
386.013	500.44
386.238	498.44
386.463	488.44
386.688	504.44
386.913	498.44
387.138	470.44
387.363	482.44
387.588	493.44
387.813	485.44
388.038	482.44
388.263	465.44
388.488	507.44
388.713	492.44
388.938	504.44
389.163	496.44
389.387	485.44
389.612	472.44
389.837	479.44
390.062	500.44
390.287	482.44
390.512	471.44
390.736	480.44
390.961	479.44
391.186	491.44
391.411	471.44
391.636	499.44
391.86	502.44
392.085	486.44
392.31	516.44
392.534	487.44
392.759	521.44
392.984	485.44
393.208	512.44
393.433	506.44
393.658	508.44
393.882	516.44
394.107	495.44
394.331	500.44
394.556	510.44
394.78	517.44
395.005	501.44
395.229	495.44
395.454	512.44
395.678	523.44
395.903	520.44
396.127	543.44
396.352	547.44
396.576	521.44
396.801	504.44
397.025	522.44
397.249	519.44
397.474	542.44
397.698	533.44
397.922	529.44
398.147	557.44
398.371	559.44
398.595	578.44
398.82	570.44
399.044	567.44
399.268	579.44
399.492	630.44
399.717	657.44
399.941	667.44
400.165	686.44
400.389	699.44
400.613	644.44
400.837	607.44
401.062	576.44
401.286	582.44
401.51	583.44
401.734	582.44
401.958	577.44
402.182	592.44
402.406	576.44
402.63	601.44
402.854	575.44
403.078	601.44
403.302	581.44
403.526	606.44
403.75	583.44
403.974	592.44
404.198	578.44
404.422	597.44
404.645	584.44
404.869	612.44
405.093	639.44
405.317	677.44
405.541	711.44
405.765	654.44
405.988	619.44
406.212	658.44
406.436	646.44
406.66	667.44
406.883	653.44
407.107	650.44
407.331	712.44
407.555	780.44
407.778	777.44
408.002	701.44
408.226	661.44
408.449	666.44
408.673	649.44
408.896	686.44
409.12	726.44
409.344	692.44
409.567	613.44
409.791	615.44
410.014	584.44
410.238	612.44
410.461	612.44
410.685	597.44
410.908	626.44
411.132	646.44
411.355	662.44
411.578	636.44
411.802	620.44
412.025	592.44
412.249	623.44
412.472	661.44
412.695	665.44
412.919	670.44
413.142	604.44
413.365	591.44
413.589	615.44
413.812	570.44
414.035	573.44
414.258	558.44
414.482	560.44
414.705	551.44
414.928	577.44
415.151	568.44
415.374	556.44
415.597	542.44
415.821	549.44
416.044	585.44
416.267	582.44
416.49	581.44
416.713	558.44
416.936	556.44
417.159	568.44
417.382	564.44
417.605	556.44
417.828	562.44
418.051	580.44
418.274	585.44
418.497	558.44
418.72	575.44
418.943	535.44
419.166	568.44
419.389	619.44
419.611	613.44
419.834	592.44
420.057	596.44
420.28	590.44
420.503	576.44
420.726	566.44
420.948	588.44
421.171	644.44
421.394	704.44
421.617	596.44
421.839	592.44
422.062	564.44
422.285	615.44
422.507	644.44
422.73	764.44
422.953	733.44
423.175	631.44
423.398	612.44
423.621	610.44
423.843	626.44
424.066	648.44
424.288	646.44
424.511	627.44
424.733	679.44
424.956	763.44
425.178	764.44
425.401	785.44
425.623	788.44
425.846	674.44
426.068	619.44
426.291	618.44
426.513	613.44
426.735	635.44
426.958	656.44
427.18	762.44
427.402	902.44
427.625	1018.44
427.847	878.44
428.069	782.44
428.292	655.44
428.514	616.44
428.736	599.44
428.958	606.44
429.181	569.44
429.403	570.44
429.625	587.44
429.847	607.44
430.069	689.44
430.292	679.44
430.514	601.44
430.736	582.44
430.958	586.44
431.18	580.44
431.402	548.44
431.624	563.44
431.846	550.44
432.068	558.44
432.29	555.44
432.512	556.44
432.734	566.44
432.956	570.44
433.178	560.44
433.4	589.44
433.622	558.44
433.844	547.44
434.066	551.44
434.287	539.44
434.509	585.44
434.731	579.44
434.953	582.44
435.175	607.44
435.397	619.44
435.618	630.44
435.84	682.44
436.062	796.44
436.284	873.44
436.505	714.44
436.727	638.44
436.949	623.44
437.17	568.44
437.392	596.44
437.614	584.44
437.835	642.44
438.057	724.44
438.278	836.44
438.5	855.44
438.721	951.44
438.943	888.44
439.165	693.44
439.386	630.44
439.608	629.44
439.829	651.44
440.05	684.44
440.272	716.44
440.493	682.44
440.715	622.44
440.936	628.44
441.158	602.44
441.379	598.44
441.6	608.44
441.822	629.44
442.043	675.44
442.264	768.44
442.486	816.44
442.707	688.44
442.928	652.44
443.149	654.44
443.371	690.44
443.592	717.44
443.813	830.44
444.034	894.44
444.255	742.44
444.476	653.44
444.698	632.44
444.919	636.44
445.14	760.44
445.361	711.44
445.582	681.44
445.803	745.44
446.024	883.44
446.245	872.44
446.466	780.44
446.687	700.44
446.908	635.44
447.129	591.44
447.35	569.44
447.571	590.44
447.792	604.44
448.013	568.44
448.234	599.44
448.455	658.44
448.675	778.44
448.896	916.44
449.117	772.44
449.338	716.44
449.559	824.44
449.779	971.44
450	754.44
450.221	652.44
450.442	579.44
450.662	568.44
450.883	564.44
451.104	566.44
451.324	587.44
451.545	558.44
451.766	550.44
451.986	497.44
452.207	505.44
452.428	526.44
452.648	541.44
452.869	507.44
453.089	539.44
453.31	564.44
453.53	515.44
453.751	509.44
453.971	520.44
454.192	532.44
454.412	528.44
454.633	516.44
454.853	498.44
455.073	520.44
455.294	564.44
455.514	615.44
455.734	587.44
455.955	531.44
456.175	515.44
456.395	494.44
456.616	498.44
456.836	480.44
457.056	498.44
457.276	481.44
457.497	485.44
457.717	488.44
457.937	524.44
458.157	489.44
458.377	515.44
458.598	547.44
458.818	576.44
459.038	681.44
459.258	710.44
459.478	608.44
459.698	550.44
459.918	551.44
460.138	572.44
460.358	562.44
460.578	560.44
460.798	562.44
461.018	564.44
461.238	571.44
461.458	564.44
461.678	564.44
461.898	572.44
462.118	571.44
462.338	582.44
462.558	597.44
462.777	610.44
462.997	634.44
463.217	642.44
463.437	651.44
463.657	612.44
463.876	593.44
464.096	626.44
464.316	614.44
464.536	608.44
464.755	631.44
464.975	636.44
465.195	651.44
465.414	738.44
465.634	630.44
465.854	596.44
466.073	564.44
466.293	541.44
466.512	554.44
466.732	547.44
466.951	533.44
467.171	532.44
467.391	542.44
467.61	564.44
467.829	558.44
468.049	544.44
468.268	554.44
468.488	532.44
468.707	502.44
468.927	527.44
469.146	520.44
469.365	519.44
469.585	506.44
469.804	557.44
470.023	528.44
470.243	538.44
470.462	551.44
470.681	564.44
470.901	554.44
471.12	533.44
471.339	550.44
471.558	554.44
471.777	515.44
471.997	532.44
472.216	528.44
472.435	584.44
472.654	558.44
472.873	557.44
473.092	549.44
473.311	526.44
473.53	540.44
473.749	544.44
473.968	594.44
474.187	683.44
474.406	786.44
474.625	614.44
474.844	572.44
475.063	543.44
475.282	544.44
475.501	561.44
475.72	574.44
475.939	543.44
476.158	554.44
476.377	559.44
476.596	564.44
476.814	566.44
477.033	573.44
477.252	578.44
477.471	576.44
477.69	579.44
477.908	596.44
478.127	616.44
478.346	586.44
478.564	627.44
478.783	610.44
479.002	607.44
479.22	616.44
479.439	623.44
479.658	648.44
479.876	650.44
480.095	654.44
480.313	693.44
480.532	691.44
480.751	687.44
480.969	675.44
481.188	756.44
481.406	792.44
481.624	717.44
481.843	664.44
482.061	642.44
482.28	647.44
482.498	661.44
482.717	631.44
482.935	640.44
483.153	645.44
483.372	642.44
483.59	640.44
483.808	632.44
484.027	644.44
484.245	657.44
484.463	638.44
484.681	664.44
484.9	654.44
485.118	647.44
485.336	652.44
485.554	670.44
485.772	678.44
485.99	645.44
486.209	690.44
486.427	646.44
486.645	690.44
486.863	690.44
487.081	707.44
487.299	672.44
487.517	675.44
487.735	676.44
487.953	682.44
488.171	680.44
488.389	688.44
488.607	677.44
488.825	664.44
489.043	704.44
489.261	710.44
489.479	686.44
489.696	710.44
489.914	694.44
490.132	725.44
490.35	704.44
490.568	730.44
490.786	756.44
491.003	740.44
491.221	785.44
491.439	776.44
491.657	757.44
491.874	808.44
492.092	782.44
492.31	796.44
492.527	794.44
492.745	800.44
492.963	812.44
493.18	829.44
493.398	805.44
493.615	819.44
493.833	832.44
494.05	808.44
494.268	802.44
494.485	819.44
494.703	835.44
494.92	824.44
495.138	805.44
495.355	832.44
495.573	839.44
495.79	814.44
496.008	822.44
496.225	817.44
496.442	822.44
496.66	828.44
496.877	826.44
497.094	853.44
497.312	826.44
497.529	841.44
497.746	878.44
497.963	873.44
498.181	900.44
498.398	902.44
498.615	905.44
498.832	927.44
499.049	935.44
499.267	969.44
499.484	1020.44
499.701	1032.44
499.918	1067.44
500.135	1129.44
500.352	1174.44
500.569	1196.44
500.786	1206.44
501.003	1183.44
501.22	1136.44
501.437	1115.44
501.654	1078.44
