Data from 1966.PennyLincolnUp.Lamp.En5.5.200Scan.071719.P1.Scan2.head_HRD10591_14-16-51-062.txt Node
Date: Thu Jul 18 14:16:51 EDT 2019
User: cochatt
Spectrometer: HR+D1059
Trigger mode: 1
Integration Time (sec): 1.000000E-1
Scans to average: 1
Electric dark correction enabled: true
Nonlinearity correction enabled: false
Boxcar width: 0
XAxis mode: Wavelengths
Number of Pixels in Spectrum: 2048
>>>>>Begin Spectral Data<<<<<
223.165	-19.81
223.4	-19.81
223.635	-19.81
223.869	-22.81
224.104	-12.81
224.338	-17.81
224.573	-6.81
224.808	6.19
225.042	-20.81
225.277	-7.81
225.511	-6.81
225.746	0.19
225.98	2.19
226.215	16.19
226.449	14.19
226.683	14.19
226.918	33.19
227.152	29.19
227.387	35.19
227.621	35.19
227.856	27.19
228.09	58.19
228.324	37.19
228.559	51.19
228.793	60.19
229.027	104.19
229.262	94.19
229.496	94.19
229.73	124.19
229.964	134.19
230.199	118.19
230.433	115.19
230.667	103.19
230.901	102.19
231.136	105.19
231.37	107.19
231.604	119.19
231.838	106.19
232.072	108.19
232.306	106.19
232.541	105.19
232.775	114.19
233.009	116.19
233.243	119.19
233.477	96.19
233.711	105.19
233.945	110.19
234.179	118.19
234.413	111.19
234.647	106.19
234.881	121.19
235.115	109.19
235.349	108.19
235.583	120.19
235.817	128.19
236.051	118.19
236.285	137.19
236.519	116.19
236.753	115.19
236.987	134.19
237.221	160.19
237.455	195.19
237.689	165.19
237.922	134.19
238.156	118.19
238.39	125.19
238.624	117.19
238.858	129.19
239.091	125.19
239.325	114.19
239.559	137.19
239.793	117.19
240.027	111.19
240.26	133.19
240.494	151.19
240.728	147.19
240.961	151.19
241.195	138.19
241.429	129.19
241.662	122.19
241.896	123.19
242.13	138.19
242.363	132.19
242.597	119.19
242.83	133.19
243.064	139.19
243.298	140.19
243.531	144.19
243.765	124.19
243.998	129.19
244.232	133.19
244.465	142.19
244.699	141.19
244.932	145.19
245.166	131.19
245.399	137.19
245.633	139.19
245.866	139.19
246.099	154.19
246.333	145.19
246.566	147.19
246.8	157.19
247.033	148.19
247.266	162.19
247.5	164.19
247.733	149.19
247.966	147.19
248.2	170.19
248.433	156.19
248.666	165.19
248.899	177.19
249.133	181.19
249.366	189.19
249.599	191.19
249.832	161.19
250.066	176.19
250.299	188.19
250.532	181.19
250.765	179.19
250.998	203.19
251.231	207.19
251.465	185.19
251.698	208.19
251.931	186.19
252.164	174.19
252.397	176.19
252.63	179.19
252.863	203.19
253.096	207.19
253.329	211.19
253.562	203.19
253.795	185.19
254.028	191.19
254.261	210.19
254.494	221.19
254.727	215.19
254.96	254.19
255.193	260.19
255.426	230.19
255.659	223.19
255.892	211.19
256.124	201.19
256.357	216.19
256.59	219.19
256.823	190.19
257.056	212.19
257.289	208.19
257.521	185.19
257.754	203.19
257.987	183.19
258.22	200.19
258.452	202.19
258.685	196.19
258.918	207.19
259.151	196.19
259.383	222.19
259.616	194.19
259.849	201.19
260.081	204.19
260.314	232.19
260.547	249.19
260.779	218.19
261.012	216.19
261.244	204.19
261.477	211.19
261.71	206.19
261.942	199.19
262.175	216.19
262.407	227.19
262.64	211.19
262.872	189.19
263.105	199.19
263.337	193.19
263.57	210.19
263.802	205.19
264.035	195.19
264.267	204.19
264.499	179.19
264.732	205.19
264.964	201.19
265.197	206.19
265.429	198.19
265.661	196.19
265.894	218.19
266.126	222.19
266.358	203.19
266.591	211.19
266.823	208.19
267.055	215.19
267.287	212.19
267.52	225.19
267.752	202.19
267.984	213.19
268.216	214.19
268.448	223.19
268.681	229.19
268.913	228.19
269.145	243.19
269.377	238.19
269.609	241.19
269.841	254.19
270.073	240.19
270.306	262.19
270.538	271.19
270.77	274.19
271.002	270.19
271.234	257.19
271.466	253.19
271.698	274.19
271.93	293.19
272.162	282.19
272.394	275.19
272.626	256.19
272.858	268.19
273.09	270.19
273.322	245.19
273.553	226.19
273.785	234.19
274.017	246.19
274.249	236.19
274.481	257.19
274.713	243.19
274.945	267.19
275.176	227.19
275.408	254.19
275.64	233.19
275.872	247.19
276.104	238.19
276.335	249.19
276.567	247.19
276.799	282.19
277.031	280.19
277.262	282.19
277.494	291.19
277.726	285.19
277.957	271.19
278.189	251.19
278.421	261.19
278.652	243.19
278.884	257.19
279.115	251.19
279.347	264.19
279.579	258.19
279.81	243.19
280.042	265.19
280.273	262.19
280.505	243.19
280.736	235.19
280.968	246.19
281.199	250.19
281.431	248.19
281.662	243.19
281.894	259.19
282.125	262.19
282.356	283.19
282.588	267.19
282.819	278.19
283.051	255.19
283.282	261.19
283.513	258.19
283.745	271.19
283.976	271.19
284.207	259.19
284.439	243.19
284.67	259.19
284.901	259.19
285.132	267.19
285.364	263.19
285.595	265.19
285.826	262.19
286.057	259.19
286.288	265.19
286.52	284.19
286.751	261.19
286.982	269.19
287.213	282.19
287.444	253.19
287.675	260.19
287.906	290.19
288.138	278.19
288.369	291.19
288.6	291.19
288.831	277.19
289.062	268.19
289.293	274.19
289.524	274.19
289.755	274.19
289.986	266.19
290.217	261.19
290.448	260.19
290.679	275.19
290.91	280.19
291.141	273.19
291.371	293.19
291.602	278.19
291.833	272.19
292.064	277.19
292.295	254.19
292.526	271.19
292.757	279.19
292.987	273.19
293.218	289.19
293.449	269.19
293.68	277.19
293.91	282.19
294.141	280.19
294.372	267.19
294.603	289.19
294.833	275.19
295.064	289.19
295.295	296.19
295.525	277.19
295.756	278.19
295.987	276.19
296.217	293.19
296.448	316.19
296.679	278.19
296.909	289.19
297.14	282.19
297.37	286.19
297.601	293.19
297.831	269.19
298.062	285.19
298.292	287.19
298.523	303.19
298.753	282.19
298.984	274.19
299.214	269.19
299.445	287.19
299.675	305.19
299.905	285.19
300.136	283.19
300.366	285.19
300.597	303.19
300.827	301.19
301.057	302.19
301.288	321.19
301.518	309.19
301.748	302.19
301.979	309.19
302.209	309.19
302.439	323.19
302.669	305.19
302.9	313.19
303.13	316.19
303.36	294.19
303.59	292.19
303.82	312.19
304.051	318.19
304.281	283.19
304.511	294.19
304.741	304.19
304.971	304.19
305.201	319.19
305.431	317.19
305.661	298.19
305.891	303.19
306.121	313.19
306.352	308.19
306.582	308.19
306.812	308.19
307.042	297.19
307.272	294.19
307.502	303.19
307.731	334.19
307.961	334.19
308.191	318.19
308.421	335.19
308.651	328.19
308.881	323.19
309.111	319.19
309.341	289.19
309.571	341.19
309.8	333.19
310.03	350.19
310.26	354.19
310.49	342.19
310.72	359.19
310.949	353.19
311.179	371.19
311.409	338.19
311.639	349.19
311.868	339.19
312.098	371.19
312.328	360.19
312.557	353.19
312.787	367.19
313.017	388.19
313.246	349.19
313.476	330.19
313.706	340.19
313.935	344.19
314.165	356.19
314.394	341.19
314.624	350.19
314.853	346.19
315.083	330.19
315.312	338.19
315.542	344.19
315.771	365.19
316.001	372.19
316.23	345.19
316.46	356.19
316.689	361.19
316.919	341.19
317.148	366.19
317.377	355.19
317.607	356.19
317.836	365.19
318.065	369.19
318.295	349.19
318.524	341.19
318.753	358.19
318.983	359.19
319.212	364.19
319.441	371.19
319.67	350.19
319.9	357.19
320.129	342.19
320.358	373.19
320.587	370.19
320.816	375.19
321.046	372.19
321.275	376.19
321.504	371.19
321.733	360.19
321.962	365.19
322.191	388.19
322.42	389.19
322.649	404.19
322.878	396.19
323.108	405.19
323.337	419.19
323.566	411.19
323.795	442.19
324.024	488.19
324.253	575.19
324.482	768.19
324.71	1195.19
324.939	1769.19
325.168	1549.19
325.397	794.19
325.626	531.19
325.855	459.19
326.084	445.19
326.313	439.19
326.542	437.19
326.77	461.19
326.999	545.19
327.228	695.19
327.457	1057.19
327.686	1341.19
327.914	909.19
328.143	588.19
328.372	536.19
328.6	520.19
328.829	483.19
329.058	469.19
329.287	501.19
329.515	475.19
329.744	449.19
329.972	439.19
330.201	466.19
330.43	489.19
330.658	499.19
330.887	529.19
331.115	539.19
331.344	461.19
331.572	447.19
331.801	451.19
332.03	452.19
332.258	441.19
332.486	428.19
332.715	417.19
332.943	426.19
333.172	411.19
333.4	411.19
333.629	437.19
333.857	442.19
334.085	465.19
334.314	458.19
334.542	463.19
334.771	488.19
334.999	459.19
335.227	446.19
335.455	426.19
335.684	440.19
335.912	426.19
336.14	408.19
336.369	425.19
336.597	434.19
336.825	410.19
337.053	445.19
337.281	420.19
337.51	420.19
337.738	418.19
337.966	430.19
338.194	421.19
338.422	408.19
338.65	423.19
338.878	407.19
339.106	423.19
339.334	408.19
339.562	392.19
339.79	420.19
340.018	412.19
340.246	425.19
340.474	428.19
340.702	422.19
340.93	411.19
341.158	389.19
341.386	426.19
341.614	433.19
341.842	403.19
342.07	410.19
342.298	418.19
342.526	369.19
342.754	399.19
342.981	413.19
343.209	394.19
343.437	396.19
343.665	416.19
343.893	421.19
344.12	430.19
344.348	441.19
344.576	396.19
344.804	428.19
345.031	447.19
345.259	430.19
345.487	429.19
345.714	413.19
345.942	419.19
346.17	391.19
346.397	414.19
346.625	393.19
346.853	409.19
347.08	381.19
347.308	389.19
347.535	419.19
347.763	404.19
347.99	412.19
348.218	419.19
348.445	380.19
348.673	430.19
348.9	408.19
349.128	382.19
349.355	413.19
349.583	396.19
349.81	381.19
350.037	391.19
350.265	396.19
350.492	367.19
350.72	384.19
350.947	391.19
351.174	385.19
351.402	421.19
351.629	399.19
351.856	385.19
352.083	392.19
352.311	413.19
352.538	414.19
352.765	419.19
352.992	419.19
353.22	407.19
353.447	400.19
353.674	386.19
353.901	383.19
354.128	398.19
354.355	402.19
354.583	385.19
354.81	394.19
355.037	377.19
355.264	381.19
355.491	390.19
355.718	378.19
355.945	398.19
356.172	382.19
356.399	399.19
356.626	382.19
356.853	379.19
357.08	353.19
357.307	399.19
357.534	379.19
357.761	398.19
357.988	378.19
358.215	364.19
358.441	405.19
358.668	385.19
358.895	394.19
359.122	384.19
359.349	400.19
359.576	385.19
359.802	407.19
360.029	436.19
360.256	433.19
360.483	436.19
360.709	414.19
360.936	419.19
361.163	415.19
361.39	430.19
361.616	419.19
361.843	409.19
362.07	394.19
362.296	410.19
362.523	398.19
362.749	390.19
362.976	391.19
363.203	390.19
363.429	406.19
363.656	389.19
363.882	410.19
364.109	371.19
364.335	394.19
364.562	406.19
364.788	389.19
365.015	395.19
365.241	395.19
365.468	405.19
365.694	427.19
365.92	421.19
366.147	394.19
366.373	400.19
366.599	396.19
366.826	377.19
367.052	385.19
367.278	382.19
367.505	387.19
367.731	398.19
367.957	422.19
368.184	423.19
368.41	401.19
368.636	420.19
368.862	417.19
369.089	388.19
369.315	381.19
369.541	388.19
369.767	413.19
369.993	392.19
370.219	389.19
370.445	427.19
370.672	386.19
370.898	415.19
371.124	409.19
371.35	379.19
371.576	403.19
371.802	408.19
372.028	406.19
372.254	401.19
372.48	395.19
372.706	413.19
372.932	395.19
373.158	401.19
373.384	414.19
373.61	424.19
373.835	404.19
374.061	391.19
374.287	420.19
374.513	415.19
374.739	412.19
374.965	407.19
375.191	438.19
375.416	429.19
375.642	402.19
375.868	413.19
376.094	422.19
376.319	391.19
376.545	406.19
376.771	409.19
376.997	426.19
377.222	413.19
377.448	415.19
377.674	403.19
377.899	427.19
378.125	401.19
378.35	395.19
378.576	400.19
378.802	416.19
379.027	415.19
379.253	415.19
379.478	412.19
379.704	392.19
379.929	429.19
380.155	403.19
380.38	382.19
380.606	402.19
380.831	419.19
381.057	411.19
381.282	421.19
381.507	409.19
381.733	412.19
381.958	421.19
382.184	416.19
382.409	405.19
382.634	433.19
382.86	431.19
383.085	420.19
383.31	421.19
383.535	422.19
383.761	437.19
383.986	445.19
384.211	418.19
384.436	428.19
384.662	448.19
384.887	457.19
385.112	441.19
385.337	453.19
385.562	463.19
385.787	433.19
386.013	457.19
386.238	451.19
386.463	466.19
386.688	448.19
386.913	466.19
387.138	446.19
387.363	452.19
387.588	453.19
387.813	458.19
388.038	459.19
388.263	452.19
388.488	459.19
388.713	443.19
388.938	449.19
389.163	449.19
389.387	459.19
389.612	460.19
389.837	460.19
390.062	441.19
390.287	447.19
390.512	477.19
390.736	449.19
390.961	461.19
391.186	459.19
391.411	441.19
391.636	443.19
391.86	466.19
392.085	489.19
392.31	470.19
392.534	488.19
392.759	475.19
392.984	486.19
393.208	469.19
393.433	490.19
393.658	494.19
393.882	479.19
394.107	472.19
394.331	469.19
394.556	452.19
394.78	450.19
395.005	458.19
395.229	473.19
395.454	466.19
395.678	471.19
395.903	494.19
396.127	537.19
396.352	523.19
396.576	503.19
396.801	502.19
397.025	525.19
397.249	482.19
397.474	491.19
397.698	477.19
397.922	515.19
398.147	500.19
398.371	541.19
398.595	532.19
398.82	541.19
399.044	545.19
399.268	567.19
399.492	557.19
399.717	595.19
399.941	638.19
400.165	643.19
400.389	682.19
400.613	612.19
400.837	533.19
401.062	561.19
401.286	529.19
401.51	529.19
401.734	516.19
401.958	534.19
402.182	556.19
402.406	533.19
402.63	537.19
402.854	555.19
403.078	529.19
403.302	556.19
403.526	559.19
403.75	549.19
403.974	551.19
404.198	546.19
404.422	523.19
404.645	553.19
404.869	563.19
405.093	603.19
405.317	625.19
405.541	661.19
405.765	599.19
405.988	590.19
406.212	583.19
406.436	601.19
406.66	627.19
406.883	587.19
407.107	595.19
407.331	665.19
407.555	730.19
407.778	716.19
408.002	668.19
408.226	633.19
408.449	616.19
408.673	596.19
408.896	639.19
409.12	677.19
409.344	629.19
409.567	589.19
409.791	572.19
410.014	555.19
410.238	550.19
410.461	573.19
410.685	566.19
410.908	573.19
411.132	588.19
411.355	631.19
411.578	606.19
411.802	553.19
412.025	558.19
412.249	554.19
412.472	585.19
412.695	597.19
412.919	630.19
413.142	580.19
413.365	539.19
413.589	533.19
413.812	539.19
414.035	531.19
414.258	504.19
414.482	526.19
414.705	510.19
414.928	525.19
415.151	537.19
415.374	515.19
415.597	516.19
415.821	502.19
416.044	527.19
416.267	516.19
416.49	505.19
416.713	537.19
416.936	507.19
417.159	498.19
417.382	534.19
417.605	519.19
417.828	515.19
418.051	552.19
418.274	527.19
418.497	522.19
418.72	538.19
418.943	524.19
419.166	553.19
419.389	553.19
419.611	572.19
419.834	554.19
420.057	565.19
420.28	555.19
420.503	533.19
420.726	535.19
420.948	564.19
421.171	587.19
421.394	611.19
421.617	579.19
421.839	523.19
422.062	546.19
422.285	546.19
422.507	613.19
422.73	661.19
422.953	638.19
423.175	595.19
423.398	561.19
423.621	551.19
423.843	580.19
424.066	605.19
424.288	577.19
424.511	578.19
424.733	642.19
424.956	725.19
425.178	689.19
425.401	662.19
425.623	718.19
425.846	616.19
426.068	571.19
426.291	587.19
426.513	577.19
426.735	591.19
426.958	613.19
427.18	690.19
427.402	831.19
427.625	903.19
427.847	766.19
428.069	677.19
428.292	620.19
428.514	563.19
428.736	533.19
428.958	534.19
429.181	536.19
429.403	538.19
429.625	532.19
429.847	554.19
430.069	638.19
430.292	646.19
430.514	545.19
430.736	533.19
430.958	532.19
431.18	515.19
431.402	517.19
431.624	494.19
431.846	496.19
432.068	501.19
432.29	520.19
432.512	513.19
432.734	520.19
432.956	504.19
433.178	501.19
433.4	539.19
433.622	521.19
433.844	502.19
434.066	505.19
434.287	511.19
434.509	506.19
434.731	517.19
434.953	535.19
435.175	558.19
435.397	579.19
435.618	601.19
435.84	607.19
436.062	706.19
436.284	782.19
436.505	650.19
436.727	586.19
436.949	548.19
437.17	523.19
437.392	523.19
437.614	526.19
437.835	564.19
438.057	666.19
438.278	769.19
438.5	747.19
438.721	843.19
438.943	779.19
439.165	646.19
439.386	567.19
439.608	559.19
439.829	578.19
440.05	595.19
440.272	648.19
440.493	592.19
440.715	535.19
440.936	548.19
441.158	547.19
441.379	543.19
441.6	569.19
441.822	590.19
442.043	613.19
442.264	688.19
442.486	723.19
442.707	634.19
442.928	596.19
443.149	598.19
443.371	610.19
443.592	659.19
443.813	743.19
444.034	822.19
444.255	660.19
444.476	602.19
444.698	601.19
444.919	595.19
445.14	678.19
445.361	641.19
445.582	609.19
445.803	651.19
446.024	778.19
446.245	769.19
446.466	743.19
446.687	593.19
446.908	565.19
447.129	541.19
447.35	533.19
447.571	529.19
447.792	529.19
448.013	537.19
448.234	544.19
448.455	587.19
448.675	715.19
448.896	801.19
449.117	683.19
449.338	676.19
449.559	764.19
449.779	842.19
450	692.19
450.221	575.19
450.442	537.19
450.662	515.19
450.883	506.19
451.104	528.19
451.324	516.19
451.545	515.19
451.766	505.19
451.986	489.19
452.207	473.19
452.428	499.19
452.648	470.19
452.869	475.19
453.089	486.19
453.31	484.19
453.53	493.19
453.751	459.19
453.971	478.19
454.192	473.19
454.412	480.19
454.633	486.19
454.853	479.19
455.073	444.19
455.294	490.19
455.514	559.19
455.734	553.19
455.955	463.19
456.175	480.19
456.395	454.19
456.616	444.19
456.836	441.19
457.056	463.19
457.276	465.19
457.497	443.19
457.717	458.19
457.937	441.19
458.157	466.19
458.377	490.19
458.598	487.19
458.818	544.19
459.038	609.19
459.258	630.19
459.478	547.19
459.698	533.19
459.918	513.19
460.138	509.19
460.358	507.19
460.578	514.19
460.798	537.19
461.018	544.19
461.238	517.19
461.458	512.19
461.678	516.19
461.898	541.19
462.118	541.19
462.338	532.19
462.558	559.19
462.777	547.19
462.997	577.19
463.217	600.19
463.437	603.19
463.657	600.19
463.876	556.19
464.096	586.19
464.316	582.19
464.536	562.19
464.755	559.19
464.975	573.19
465.195	581.19
465.414	654.19
465.634	586.19
465.854	541.19
466.073	525.19
466.293	518.19
466.512	501.19
466.732	486.19
466.951	513.19
467.171	490.19
467.391	497.19
467.61	493.19
467.829	482.19
468.049	503.19
468.268	509.19
468.488	510.19
468.707	483.19
468.927	473.19
469.146	488.19
469.365	471.19
469.585	481.19
469.804	493.19
470.023	510.19
470.243	497.19
470.462	487.19
470.681	513.19
470.901	512.19
471.12	516.19
471.339	498.19
471.558	502.19
471.777	515.19
471.997	505.19
472.216	499.19
472.435	527.19
472.654	523.19
472.873	520.19
473.092	484.19
473.311	502.19
473.53	507.19
473.749	525.19
473.968	522.19
474.187	621.19
474.406	657.19
474.625	564.19
474.844	525.19
475.063	506.19
475.282	513.19
475.501	501.19
475.72	529.19
475.939	531.19
476.158	521.19
476.377	515.19
476.596	502.19
476.814	535.19
477.033	542.19
477.252	527.19
477.471	534.19
477.69	550.19
477.908	563.19
478.127	550.19
478.346	550.19
478.564	552.19
478.783	572.19
479.002	597.19
479.22	570.19
479.439	574.19
479.658	595.19
479.876	619.19
480.095	594.19
480.313	635.19
480.532	633.19
480.751	625.19
480.969	613.19
481.188	645.19
481.406	687.19
481.624	619.19
481.843	619.19
482.061	607.19
482.28	600.19
482.498	587.19
482.717	601.19
482.935	614.19
483.153	574.19
483.372	569.19
483.59	598.19
483.808	608.19
484.027	596.19
484.245	606.19
484.463	605.19
484.681	596.19
484.9	595.19
485.118	608.19
485.336	598.19
485.554	603.19
485.772	605.19
485.99	609.19
486.209	633.19
486.427	608.19
486.645	644.19
486.863	666.19
487.081	622.19
487.299	614.19
487.517	651.19
487.735	627.19
487.953	629.19
488.171	649.19
488.389	636.19
488.607	636.19
488.825	622.19
489.043	634.19
489.261	655.19
489.479	645.19
489.696	609.19
489.914	626.19
490.132	659.19
490.35	633.19
490.568	679.19
490.786	654.19
491.003	663.19
491.221	681.19
491.439	701.19
491.657	696.19
491.874	702.19
492.092	720.19
492.31	709.19
492.527	718.19
492.745	733.19
492.963	724.19
493.18	760.19
493.398	757.19
493.615	727.19
493.833	746.19
494.05	747.19
494.268	721.19
494.485	729.19
494.703	725.19
494.92	750.19
495.138	724.19
495.355	734.19
495.573	734.19
495.79	756.19
496.008	753.19
496.225	742.19
496.442	751.19
496.66	762.19
496.877	764.19
497.094	720.19
497.312	750.19
497.529	778.19
497.746	797.19
497.963	800.19
498.181	812.19
498.398	839.19
498.615	825.19
498.832	872.19
499.049	891.19
499.267	900.19
499.484	939.19
499.701	982.19
499.918	994.19
500.135	1066.19
500.352	1075.19
500.569	1115.19
500.786	1090.19
501.003	1103.19
501.22	1080.19
501.437	1033.19
501.654	979.19
