Data from 1966.PennyLincolnUp.Lamp.En5.5.200Scan.071719.P1._HRD10591_14-14-32-914.txt Node
Date: Thu Jul 18 14:14:32 EDT 2019
User: cochatt
Spectrometer: HR+D1059
Trigger mode: 1
Integration Time (sec): 1.000000E-1
Scans to average: 1
Electric dark correction enabled: true
Nonlinearity correction enabled: false
Boxcar width: 0
XAxis mode: Wavelengths
Number of Pixels in Spectrum: 2048
>>>>>Begin Spectral Data<<<<<
223.165	-15.81
223.4	-15.81
223.635	-15.81
223.869	-8.81
224.104	-29.81
224.338	-18.81
224.573	-23.81
224.808	-5.81
225.042	-1.81
225.277	-8.81
225.511	-9.81
225.746	8.19
225.98	11.19
226.215	19.19
226.449	8.19
226.683	16.19
226.918	19.19
227.152	41.19
227.387	48.19
227.621	52.19
227.856	41.19
228.09	55.19
228.324	47.19
228.559	56.19
228.793	67.19
229.027	78.19
229.262	87.19
229.496	101.19
229.73	99.19
229.964	109.19
230.199	102.19
230.433	90.19
230.667	90.19
230.901	97.19
231.136	72.19
231.37	93.19
231.604	91.19
231.838	93.19
232.072	105.19
232.306	101.19
232.541	121.19
232.775	102.19
233.009	107.19
233.243	91.19
233.477	95.19
233.711	90.19
233.945	99.19
234.179	85.19
234.413	122.19
234.647	87.19
234.881	97.19
235.115	99.19
235.349	98.19
235.583	105.19
235.817	113.19
236.051	108.19
236.285	106.19
236.519	101.19
236.753	116.19
236.987	106.19
237.221	123.19
237.455	149.19
237.689	123.19
237.922	107.19
238.156	93.19
238.39	98.19
238.624	96.19
238.858	107.19
239.091	94.19
239.325	85.19
239.559	86.19
239.793	107.19
240.027	103.19
240.26	111.19
240.494	107.19
240.728	100.19
240.961	111.19
241.195	113.19
241.429	97.19
241.662	105.19
241.896	96.19
242.13	105.19
242.363	107.19
242.597	109.19
242.83	98.19
243.064	101.19
243.298	109.19
243.531	111.19
243.765	115.19
243.998	94.19
244.232	109.19
244.465	96.19
244.699	114.19
244.932	110.19
245.166	110.19
245.399	105.19
245.633	123.19
245.866	111.19
246.099	103.19
246.333	123.19
246.566	119.19
246.8	103.19
247.033	106.19
247.266	126.19
247.5	97.19
247.733	127.19
247.966	119.19
248.2	119.19
248.433	124.19
248.666	129.19
248.899	136.19
249.133	135.19
249.366	151.19
249.599	125.19
249.832	130.19
250.066	142.19
250.299	135.19
250.532	128.19
250.765	129.19
250.998	151.19
251.231	144.19
251.465	141.19
251.698	145.19
251.931	117.19
252.164	123.19
252.397	121.19
252.63	126.19
252.863	147.19
253.096	124.19
253.329	153.19
253.562	148.19
253.795	136.19
254.028	130.19
254.261	134.19
254.494	148.19
254.727	169.19
254.96	178.19
255.193	162.19
255.426	157.19
255.659	125.19
255.892	159.19
256.124	150.19
256.357	145.19
256.59	136.19
256.823	126.19
257.056	130.19
257.289	134.19
257.521	126.19
257.754	129.19
257.987	130.19
258.22	147.19
258.452	142.19
258.685	127.19
258.918	139.19
259.151	140.19
259.383	138.19
259.616	156.19
259.849	145.19
260.081	150.19
260.314	157.19
260.547	145.19
260.779	157.19
261.012	154.19
261.244	137.19
261.477	143.19
261.71	149.19
261.942	140.19
262.175	145.19
262.407	142.19
262.64	150.19
262.872	137.19
263.105	151.19
263.337	141.19
263.57	140.19
263.802	142.19
264.035	135.19
264.267	136.19
264.499	131.19
264.732	145.19
264.964	132.19
265.197	127.19
265.429	137.19
265.661	135.19
265.894	128.19
266.126	154.19
266.358	145.19
266.591	153.19
266.823	152.19
267.055	148.19
267.287	144.19
267.52	139.19
267.752	148.19
267.984	161.19
268.216	152.19
268.448	152.19
268.681	162.19
268.913	151.19
269.145	163.19
269.377	160.19
269.609	169.19
269.841	176.19
270.073	154.19
270.306	164.19
270.538	189.19
270.77	187.19
271.002	172.19
271.234	183.19
271.466	173.19
271.698	196.19
271.93	196.19
272.162	185.19
272.394	193.19
272.626	166.19
272.858	162.19
273.09	154.19
273.322	172.19
273.553	157.19
273.785	167.19
274.017	159.19
274.249	154.19
274.481	169.19
274.713	161.19
274.945	162.19
275.176	158.19
275.408	161.19
275.64	159.19
275.872	162.19
276.104	169.19
276.335	153.19
276.567	162.19
276.799	187.19
277.031	197.19
277.262	193.19
277.494	185.19
277.726	195.19
277.957	183.19
278.189	170.19
278.421	158.19
278.652	167.19
278.884	165.19
279.115	160.19
279.347	171.19
279.579	162.19
279.81	169.19
280.042	158.19
280.273	151.19
280.505	161.19
280.736	157.19
280.968	171.19
281.199	170.19
281.431	160.19
281.662	159.19
281.894	160.19
282.125	177.19
282.356	185.19
282.588	189.19
282.819	173.19
283.051	161.19
283.282	163.19
283.513	175.19
283.745	181.19
283.976	169.19
284.207	160.19
284.439	160.19
284.67	168.19
284.901	171.19
285.132	160.19
285.364	170.19
285.595	172.19
285.826	175.19
286.057	186.19
286.288	169.19
286.52	166.19
286.751	161.19
286.982	161.19
287.213	179.19
287.444	169.19
287.675	162.19
287.906	163.19
288.138	183.19
288.369	182.19
288.6	185.19
288.831	159.19
289.062	177.19
289.293	173.19
289.524	182.19
289.755	172.19
289.986	175.19
290.217	163.19
290.448	171.19
290.679	166.19
290.91	167.19
291.141	177.19
291.371	176.19
291.602	187.19
291.833	166.19
292.064	172.19
292.295	160.19
292.526	163.19
292.757	160.19
292.987	172.19
293.218	153.19
293.449	173.19
293.68	173.19
293.91	175.19
294.141	174.19
294.372	169.19
294.603	146.19
294.833	163.19
295.064	155.19
295.295	183.19
295.525	166.19
295.756	185.19
295.987	185.19
296.217	191.19
296.448	199.19
296.679	185.19
296.909	183.19
297.14	184.19
297.37	177.19
297.601	159.19
297.831	164.19
298.062	193.19
298.292	169.19
298.523	174.19
298.753	174.19
298.984	181.19
299.214	178.19
299.445	187.19
299.675	165.19
299.905	181.19
300.136	176.19
300.366	170.19
300.597	178.19
300.827	178.19
301.057	188.19
301.288	193.19
301.518	184.19
301.748	193.19
301.979	191.19
302.209	193.19
302.439	182.19
302.669	195.19
302.9	199.19
303.13	173.19
303.36	172.19
303.59	201.19
303.82	185.19
304.051	179.19
304.281	194.19
304.511	199.19
304.741	193.19
304.971	183.19
305.201	175.19
305.431	174.19
305.661	175.19
305.891	185.19
306.121	197.19
306.352	185.19
306.582	196.19
306.812	178.19
307.042	179.19
307.272	190.19
307.502	197.19
307.731	192.19
307.961	194.19
308.191	187.19
308.421	218.19
308.651	174.19
308.881	181.19
309.111	198.19
309.341	185.19
309.571	191.19
309.8	206.19
310.03	216.19
310.26	208.19
310.49	224.19
310.72	220.19
310.949	217.19
311.179	229.19
311.409	207.19
311.639	226.19
311.868	217.19
312.098	209.19
312.328	226.19
312.557	234.19
312.787	226.19
313.017	225.19
313.246	215.19
313.476	210.19
313.706	224.19
313.935	211.19
314.165	218.19
314.394	214.19
314.624	223.19
314.853	229.19
315.083	201.19
315.312	210.19
315.542	212.19
315.771	195.19
316.001	207.19
316.23	213.19
316.46	204.19
316.689	211.19
316.919	219.19
317.148	216.19
317.377	211.19
317.607	227.19
317.836	212.19
318.065	206.19
318.295	201.19
318.524	197.19
318.753	207.19
318.983	210.19
319.212	210.19
319.441	230.19
319.67	223.19
319.9	213.19
320.129	209.19
320.358	219.19
320.587	221.19
320.816	226.19
321.046	226.19
321.275	203.19
321.504	229.19
321.733	229.19
321.962	206.19
322.191	218.19
322.42	233.19
322.649	242.19
322.878	234.19
323.108	227.19
323.337	263.19
323.566	260.19
323.795	266.19
324.024	323.19
324.253	379.19
324.482	549.19
324.71	803.19
324.939	1066.19
325.168	871.19
325.397	429.19
325.626	305.19
325.855	258.19
326.084	266.19
326.313	256.19
326.542	266.19
326.77	301.19
326.999	352.19
327.228	471.19
327.457	693.19
327.686	785.19
327.914	534.19
328.143	358.19
328.372	338.19
328.6	309.19
328.829	310.19
329.058	302.19
329.287	330.19
329.515	291.19
329.744	259.19
329.972	266.19
330.201	292.19
330.43	314.19
330.658	335.19
330.887	361.19
331.115	315.19
331.344	290.19
331.572	285.19
331.801	267.19
332.03	266.19
332.258	254.19
332.486	248.19
332.715	258.19
332.943	233.19
333.172	242.19
333.4	267.19
333.629	237.19
333.857	262.19
334.085	271.19
334.314	282.19
334.542	309.19
334.771	313.19
334.999	283.19
335.227	274.19
335.455	242.19
335.684	262.19
335.912	236.19
336.14	249.19
336.369	227.19
336.597	246.19
336.825	249.19
337.053	246.19
337.281	237.19
337.51	227.19
337.738	224.19
337.966	240.19
338.194	233.19
338.422	237.19
338.65	242.19
338.878	226.19
339.106	237.19
339.334	239.19
339.562	220.19
339.79	207.19
340.018	231.19
340.246	223.19
340.474	234.19
340.702	226.19
340.93	220.19
341.158	212.19
341.386	227.19
341.614	227.19
341.842	237.19
342.07	232.19
342.298	217.19
342.526	210.19
342.754	213.19
342.981	229.19
343.209	230.19
343.437	228.19
343.665	211.19
343.893	241.19
344.12	224.19
344.348	234.19
344.576	256.19
344.804	234.19
345.031	234.19
345.259	251.19
345.487	228.19
345.714	227.19
345.942	227.19
346.17	234.19
346.397	207.19
346.625	232.19
346.853	218.19
347.08	219.19
347.308	229.19
347.535	234.19
347.763	232.19
347.99	219.19
348.218	237.19
348.445	241.19
348.673	240.19
348.9	231.19
349.128	224.19
349.355	233.19
349.583	205.19
349.81	211.19
350.037	211.19
350.265	215.19
350.492	194.19
350.72	221.19
350.947	223.19
351.174	229.19
351.402	215.19
351.629	231.19
351.856	219.19
352.083	216.19
352.311	242.19
352.538	240.19
352.765	247.19
352.992	235.19
353.22	216.19
353.447	226.19
353.674	220.19
353.901	208.19
354.128	220.19
354.355	215.19
354.583	189.19
354.81	214.19
355.037	219.19
355.264	206.19
355.491	225.19
355.718	209.19
355.945	201.19
356.172	205.19
356.399	209.19
356.626	209.19
356.853	194.19
357.08	190.19
357.307	213.19
357.534	217.19
357.761	194.19
357.988	217.19
358.215	205.19
358.441	212.19
358.668	214.19
358.895	204.19
359.122	217.19
359.349	218.19
359.576	231.19
359.802	231.19
360.029	252.19
360.256	260.19
360.483	241.19
360.709	220.19
360.936	238.19
361.163	215.19
361.39	214.19
361.616	231.19
361.843	219.19
362.07	249.19
362.296	230.19
362.523	219.19
362.749	231.19
362.976	210.19
363.203	218.19
363.429	210.19
363.656	223.19
363.882	221.19
364.109	204.19
364.335	222.19
364.562	212.19
364.788	211.19
365.015	226.19
365.241	197.19
365.468	215.19
365.694	204.19
365.92	204.19
366.147	201.19
366.373	208.19
366.599	199.19
366.826	208.19
367.052	218.19
367.278	206.19
367.505	196.19
367.731	204.19
367.957	206.19
368.184	221.19
368.41	219.19
368.636	228.19
368.862	233.19
369.089	204.19
369.315	217.19
369.541	201.19
369.767	218.19
369.993	209.19
370.219	207.19
370.445	213.19
370.672	202.19
370.898	201.19
371.124	205.19
371.35	213.19
371.576	209.19
371.802	208.19
372.028	201.19
372.254	187.19
372.48	215.19
372.706	189.19
372.932	206.19
373.158	200.19
373.384	197.19
373.61	203.19
373.835	214.19
374.061	188.19
374.287	205.19
374.513	213.19
374.739	219.19
374.965	215.19
375.191	225.19
375.416	209.19
375.642	231.19
375.868	219.19
376.094	217.19
376.319	201.19
376.545	194.19
376.771	201.19
376.997	207.19
377.222	215.19
377.448	215.19
377.674	205.19
377.899	217.19
378.125	201.19
378.35	214.19
378.576	200.19
378.802	185.19
379.027	196.19
379.253	193.19
379.478	198.19
379.704	203.19
379.929	206.19
380.155	206.19
380.38	214.19
380.606	204.19
380.831	208.19
381.057	217.19
381.282	194.19
381.507	208.19
381.733	208.19
381.958	205.19
382.184	210.19
382.409	210.19
382.634	198.19
382.86	207.19
383.085	219.19
383.31	195.19
383.535	218.19
383.761	231.19
383.986	218.19
384.211	214.19
384.436	202.19
384.662	219.19
384.887	216.19
385.112	216.19
385.337	219.19
385.562	216.19
385.787	221.19
386.013	217.19
386.238	224.19
386.463	223.19
386.688	230.19
386.913	210.19
387.138	227.19
387.363	237.19
387.588	221.19
387.813	216.19
388.038	211.19
388.263	227.19
388.488	222.19
388.713	230.19
388.938	227.19
389.163	221.19
389.387	241.19
389.612	217.19
389.837	213.19
390.062	227.19
390.287	230.19
390.512	221.19
390.736	211.19
390.961	229.19
391.186	223.19
391.411	245.19
391.636	223.19
391.86	221.19
392.085	221.19
392.31	232.19
392.534	228.19
392.759	232.19
392.984	217.19
393.208	221.19
393.433	226.19
393.658	223.19
393.882	227.19
394.107	222.19
394.331	231.19
394.556	225.19
394.78	242.19
395.005	220.19
395.229	220.19
395.454	234.19
395.678	233.19
395.903	233.19
396.127	235.19
396.352	233.19
396.576	231.19
396.801	218.19
397.025	230.19
397.249	220.19
397.474	227.19
397.698	228.19
397.922	247.19
398.147	231.19
398.371	236.19
398.595	242.19
398.82	251.19
399.044	239.19
399.268	259.19
399.492	275.19
399.717	299.19
399.941	291.19
400.165	294.19
400.389	306.19
400.613	274.19
400.837	277.19
401.062	256.19
401.286	225.19
401.51	254.19
401.734	234.19
401.958	255.19
402.182	257.19
402.406	235.19
402.63	255.19
402.854	265.19
403.078	249.19
403.302	256.19
403.526	262.19
403.75	261.19
403.974	281.19
404.198	254.19
404.422	265.19
404.645	274.19
404.869	267.19
405.093	281.19
405.317	312.19
405.541	294.19
405.765	285.19
405.988	282.19
406.212	273.19
406.436	299.19
406.66	293.19
406.883	283.19
407.107	281.19
407.331	313.19
407.555	339.19
407.778	334.19
408.002	298.19
408.226	307.19
408.449	270.19
408.673	286.19
408.896	298.19
409.12	310.19
409.344	280.19
409.567	276.19
409.791	275.19
410.014	284.19
410.238	254.19
410.461	256.19
410.685	259.19
410.908	265.19
411.132	294.19
411.355	295.19
411.578	279.19
411.802	248.19
412.025	273.19
412.249	270.19
412.472	287.19
412.695	286.19
412.919	289.19
413.142	270.19
413.365	241.19
413.589	235.19
413.812	250.19
414.035	241.19
414.258	240.19
414.482	256.19
414.705	228.19
414.928	274.19
415.151	246.19
415.374	250.19
415.597	230.19
415.821	261.19
416.044	262.19
416.267	248.19
416.49	267.19
416.713	246.19
416.936	231.19
417.159	250.19
417.382	256.19
417.605	245.19
417.828	268.19
418.051	255.19
418.274	259.19
418.497	255.19
418.72	251.19
418.943	263.19
419.166	247.19
419.389	250.19
419.611	262.19
419.834	274.19
420.057	269.19
420.28	278.19
420.503	261.19
420.726	251.19
420.948	243.19
421.171	281.19
421.394	293.19
421.617	271.19
421.839	274.19
422.062	259.19
422.285	276.19
422.507	275.19
422.73	319.19
422.953	307.19
423.175	282.19
423.398	268.19
423.621	276.19
423.843	271.19
424.066	293.19
424.288	292.19
424.511	281.19
424.733	314.19
424.956	346.19
425.178	321.19
425.401	321.19
425.623	352.19
425.846	283.19
426.068	288.19
426.291	273.19
426.513	271.19
426.735	276.19
426.958	302.19
427.18	327.19
427.402	387.19
427.625	418.19
427.847	363.19
428.069	340.19
428.292	294.19
428.514	263.19
428.736	263.19
428.958	249.19
429.181	259.19
429.403	255.19
429.625	264.19
429.847	281.19
430.069	300.19
430.292	291.19
430.514	268.19
430.736	273.19
430.958	262.19
431.18	246.19
431.402	238.19
431.624	233.19
431.846	234.19
432.068	230.19
432.29	245.19
432.512	253.19
432.734	236.19
432.956	257.19
433.178	253.19
433.4	255.19
433.622	249.19
433.844	254.19
434.066	256.19
434.287	238.19
434.509	251.19
434.731	252.19
434.953	271.19
435.175	273.19
435.397	286.19
435.618	283.19
435.84	285.19
436.062	324.19
436.284	368.19
436.505	292.19
436.727	283.19
436.949	277.19
437.17	267.19
437.392	272.19
437.614	248.19
437.835	272.19
438.057	334.19
438.278	341.19
438.5	323.19
438.721	389.19
438.943	350.19
439.165	297.19
439.386	284.19
439.608	280.19
439.829	284.19
440.05	297.19
440.272	315.19
440.493	303.19
440.715	292.19
440.936	249.19
441.158	280.19
441.379	272.19
441.6	263.19
441.822	267.19
442.043	316.19
442.264	338.19
442.486	360.19
442.707	284.19
442.928	288.19
443.149	300.19
443.371	309.19
443.592	338.19
443.813	352.19
444.034	381.19
444.255	295.19
444.476	289.19
444.698	276.19
444.919	279.19
445.14	371.19
445.361	317.19
445.582	305.19
445.803	327.19
446.024	386.19
446.245	349.19
446.466	332.19
446.687	301.19
446.908	281.19
447.129	271.19
447.35	264.19
447.571	266.19
447.792	261.19
448.013	253.19
448.234	279.19
448.455	281.19
448.675	345.19
448.896	399.19
449.117	321.19
449.338	293.19
449.559	361.19
449.779	397.19
450	321.19
450.221	265.19
450.442	256.19
450.662	242.19
450.883	255.19
451.104	280.19
451.324	253.19
451.545	245.19
451.766	232.19
451.986	253.19
452.207	240.19
452.428	252.19
452.648	252.19
452.869	234.19
453.089	245.19
453.31	258.19
453.53	245.19
453.751	249.19
453.971	249.19
454.192	249.19
454.412	235.19
454.633	235.19
454.853	239.19
455.073	229.19
455.294	243.19
455.514	281.19
455.734	281.19
455.955	239.19
456.175	217.19
456.395	223.19
456.616	228.19
456.836	229.19
457.056	229.19
457.276	215.19
457.497	208.19
457.717	231.19
457.937	231.19
458.157	227.19
458.377	236.19
458.598	241.19
458.818	282.19
459.038	336.19
459.258	331.19
459.478	278.19
459.698	242.19
459.918	238.19
460.138	262.19
460.358	238.19
460.578	231.19
460.798	243.19
461.018	246.19
461.238	249.19
461.458	265.19
461.678	265.19
461.898	236.19
462.118	277.19
462.338	258.19
462.558	231.19
462.777	260.19
462.997	257.19
463.217	254.19
463.437	280.19
463.657	264.19
463.876	268.19
464.096	277.19
464.316	262.19
464.536	261.19
464.755	272.19
464.975	252.19
465.195	318.19
465.414	343.19
465.634	305.19
465.854	274.19
466.073	253.19
466.293	234.19
466.512	238.19
466.732	225.19
466.951	233.19
467.171	246.19
467.391	232.19
467.61	248.19
467.829	258.19
468.049	263.19
468.268	255.19
468.488	258.19
468.707	229.19
468.927	234.19
469.146	244.19
469.365	243.19
469.585	221.19
469.804	239.19
470.023	262.19
470.243	234.19
470.462	238.19
470.681	269.19
470.901	255.19
471.12	230.19
471.339	240.19
471.558	245.19
471.777	246.19
471.997	257.19
472.216	258.19
472.435	278.19
472.654	259.19
472.873	252.19
473.092	241.19
473.311	240.19
473.53	232.19
473.749	246.19
473.968	273.19
474.187	325.19
474.406	319.19
474.625	262.19
474.844	215.19
475.063	245.19
475.282	251.19
475.501	218.19
475.72	246.19
475.939	251.19
476.158	237.19
476.377	236.19
476.596	236.19
476.814	240.19
477.033	258.19
477.252	256.19
477.471	257.19
477.69	259.19
477.908	261.19
478.127	267.19
478.346	265.19
478.564	275.19
478.783	249.19
479.002	285.19
479.22	290.19
479.439	287.19
479.658	293.19
479.876	298.19
480.095	286.19
480.313	295.19
480.532	307.19
480.751	302.19
480.969	315.19
481.188	359.19
481.406	400.19
481.624	322.19
481.843	306.19
482.061	286.19
482.28	279.19
482.498	269.19
482.717	266.19
482.935	281.19
483.153	259.19
483.372	274.19
483.59	300.19
483.808	282.19
484.027	289.19
484.245	269.19
484.463	284.19
484.681	290.19
484.9	301.19
485.118	288.19
485.336	290.19
485.554	281.19
485.772	286.19
485.99	286.19
486.209	285.19
486.427	270.19
486.645	294.19
486.863	309.19
487.081	293.19
487.299	314.19
487.517	295.19
487.735	306.19
487.953	295.19
488.171	307.19
488.389	294.19
488.607	309.19
488.825	292.19
489.043	299.19
489.261	295.19
489.479	305.19
489.696	321.19
489.914	291.19
490.132	311.19
490.35	303.19
490.568	298.19
490.786	327.19
491.003	320.19
491.221	338.19
491.439	339.19
491.657	333.19
491.874	347.19
492.092	351.19
492.31	366.19
492.527	356.19
492.745	334.19
492.963	344.19
493.18	355.19
493.398	345.19
493.615	351.19
493.833	346.19
494.05	362.19
494.268	361.19
494.485	350.19
494.703	354.19
494.92	353.19
495.138	354.19
495.355	351.19
495.573	365.19
495.79	350.19
496.008	377.19
496.225	365.19
496.442	341.19
496.66	342.19
496.877	349.19
497.094	357.19
497.312	339.19
497.529	349.19
497.746	359.19
497.963	369.19
498.181	370.19
498.398	381.19
498.615	381.19
498.832	384.19
499.049	390.19
499.267	392.19
499.484	385.19
499.701	401.19
499.918	424.19
500.135	458.19
500.352	438.19
500.569	454.19
500.786	449.19
501.003	453.19
501.22	454.19
501.437	432.19
501.654	447.19
501.871	422.19
502.088	413.19
502.305	390.19
502.522	374.19
