Data from 1966.PennyLincolnUp.Lamp.En5.5.200Scan.071719.P1._HRD10591_14-14-02-914.txt Node
Date: Thu Jul 18 14:14:02 EDT 2019
User: cochatt
Spectrometer: HR+D1059
Trigger mode: 1
Integration Time (sec): 1.000000E-1
Scans to average: 1
Electric dark correction enabled: true
Nonlinearity correction enabled: false
Boxcar width: 0
XAxis mode: Wavelengths
Number of Pixels in Spectrum: 2048
>>>>>Begin Spectral Data<<<<<
223.165	-1.94
223.4	-1.94
223.635	-1.94
223.869	-19.94
224.104	-12.94
224.338	-8.94
224.573	-4.94
224.808	-11.94
225.042	-5.94
225.277	-2.94
225.511	-18.94
225.746	24.06
225.98	7.06
226.215	11.06
226.449	5.06
226.683	6.06
226.918	7.06
227.152	28.06
227.387	28.06
227.621	35.06
227.856	38.06
228.09	40.06
228.324	46.06
228.559	53.06
228.793	68.06
229.027	79.06
229.262	78.06
229.496	91.06
229.73	91.06
229.964	106.06
230.199	95.06
230.433	84.06
230.667	78.06
230.901	78.06
231.136	93.06
231.37	98.06
231.604	84.06
231.838	96.06
232.072	89.06
232.306	90.06
232.541	98.06
232.775	95.06
233.009	86.06
233.243	100.06
233.477	87.06
233.711	95.06
233.945	88.06
234.179	91.06
234.413	87.06
234.647	106.06
234.881	105.06
235.115	90.06
235.349	95.06
235.583	88.06
235.817	94.06
236.051	76.06
236.285	87.06
236.519	108.06
236.753	98.06
236.987	118.06
237.221	126.06
237.455	147.06
237.689	131.06
237.922	101.06
238.156	105.06
238.39	87.06
238.624	97.06
238.858	100.06
239.091	90.06
239.325	104.06
239.559	91.06
239.793	94.06
240.027	93.06
240.26	111.06
240.494	110.06
240.728	102.06
240.961	124.06
241.195	99.06
241.429	106.06
241.662	107.06
241.896	92.06
242.13	114.06
242.363	102.06
242.597	107.06
242.83	100.06
243.064	99.06
243.298	100.06
243.531	104.06
243.765	110.06
243.998	101.06
244.232	92.06
244.465	94.06
244.699	126.06
244.932	93.06
245.166	100.06
245.399	97.06
245.633	94.06
245.866	109.06
246.099	111.06
246.333	108.06
246.566	111.06
246.8	111.06
247.033	94.06
247.266	94.06
247.5	114.06
247.733	108.06
247.966	114.06
248.2	122.06
248.433	133.06
248.666	143.06
248.899	127.06
249.133	138.06
249.366	146.06
249.599	133.06
249.832	118.06
250.066	124.06
250.299	107.06
250.532	132.06
250.765	146.06
250.998	145.06
251.231	139.06
251.465	155.06
251.698	141.06
251.931	132.06
252.164	122.06
252.397	137.06
252.63	131.06
252.863	139.06
253.096	150.06
253.329	141.06
253.562	144.06
253.795	131.06
254.028	134.06
254.261	146.06
254.494	140.06
254.727	163.06
254.96	158.06
255.193	144.06
255.426	145.06
255.659	150.06
255.892	146.06
256.124	132.06
256.357	154.06
256.59	152.06
256.823	128.06
257.056	132.06
257.289	129.06
257.521	137.06
257.754	136.06
257.987	138.06
258.22	135.06
258.452	114.06
258.685	128.06
258.918	130.06
259.151	135.06
259.383	137.06
259.616	130.06
259.849	157.06
260.081	144.06
260.314	150.06
260.547	156.06
260.779	148.06
261.012	149.06
261.244	142.06
261.477	140.06
261.71	136.06
261.942	139.06
262.175	154.06
262.407	152.06
262.64	141.06
262.872	142.06
263.105	143.06
263.337	142.06
263.57	124.06
263.802	126.06
264.035	134.06
264.267	144.06
264.499	133.06
264.732	136.06
264.964	135.06
265.197	129.06
265.429	127.06
265.661	130.06
265.894	126.06
266.126	149.06
266.358	130.06
266.591	144.06
266.823	140.06
267.055	137.06
267.287	142.06
267.52	139.06
267.752	150.06
267.984	150.06
268.216	158.06
268.448	150.06
268.681	140.06
268.913	152.06
269.145	179.06
269.377	166.06
269.609	180.06
269.841	174.06
270.073	171.06
270.306	180.06
270.538	198.06
270.77	179.06
271.002	188.06
271.234	169.06
271.466	183.06
271.698	199.06
271.93	166.06
272.162	187.06
272.394	190.06
272.626	179.06
272.858	173.06
273.09	164.06
273.322	148.06
273.553	172.06
273.785	171.06
274.017	162.06
274.249	163.06
274.481	160.06
274.713	156.06
274.945	173.06
275.176	171.06
275.408	163.06
275.64	165.06
275.872	163.06
276.104	162.06
276.335	153.06
276.567	152.06
276.799	174.06
277.031	184.06
277.262	199.06
277.494	169.06
277.726	178.06
277.957	167.06
278.189	154.06
278.421	144.06
278.652	159.06
278.884	159.06
279.115	169.06
279.347	164.06
279.579	175.06
279.81	152.06
280.042	167.06
280.273	160.06
280.505	167.06
280.736	149.06
280.968	162.06
281.199	164.06
281.431	157.06
281.662	167.06
281.894	152.06
282.125	156.06
282.356	175.06
282.588	179.06
282.819	190.06
283.051	174.06
283.282	166.06
283.513	185.06
283.745	167.06
283.976	168.06
284.207	171.06
284.439	140.06
284.67	155.06
284.901	167.06
285.132	175.06
285.364	162.06
285.595	165.06
285.826	169.06
286.057	172.06
286.288	183.06
286.52	180.06
286.751	168.06
286.982	159.06
287.213	157.06
287.444	178.06
287.675	180.06
287.906	190.06
288.138	183.06
288.369	180.06
288.6	181.06
288.831	175.06
289.062	174.06
289.293	163.06
289.524	158.06
289.755	168.06
289.986	182.06
290.217	158.06
290.448	186.06
290.679	168.06
290.91	153.06
291.141	173.06
291.371	170.06
291.602	156.06
291.833	159.06
292.064	169.06
292.295	179.06
292.526	182.06
292.757	169.06
292.987	172.06
293.218	176.06
293.449	178.06
293.68	180.06
293.91	173.06
294.141	164.06
294.372	167.06
294.603	180.06
294.833	168.06
295.064	163.06
295.295	181.06
295.525	174.06
295.756	183.06
295.987	194.06
296.217	194.06
296.448	187.06
296.679	186.06
296.909	168.06
297.14	176.06
297.37	179.06
297.601	178.06
297.831	163.06
298.062	163.06
298.292	169.06
298.523	168.06
298.753	182.06
298.984	188.06
299.214	174.06
299.445	188.06
299.675	178.06
299.905	182.06
300.136	175.06
300.366	174.06
300.597	175.06
300.827	192.06
301.057	189.06
301.288	198.06
301.518	191.06
301.748	178.06
301.979	187.06
302.209	179.06
302.439	194.06
302.669	195.06
302.9	183.06
303.13	178.06
303.36	178.06
303.59	203.06
303.82	208.06
304.051	194.06
304.281	188.06
304.511	193.06
304.741	178.06
304.971	190.06
305.201	194.06
305.431	198.06
305.661	186.06
305.891	195.06
306.121	184.06
306.352	194.06
306.582	188.06
306.812	198.06
307.042	212.06
307.272	191.06
307.502	196.06
307.731	207.06
307.961	203.06
308.191	188.06
308.421	183.06
308.651	169.06
308.881	185.06
309.111	202.06
309.341	190.06
309.571	196.06
309.8	200.06
310.03	219.06
310.26	203.06
310.49	213.06
310.72	223.06
310.949	233.06
311.179	238.06
311.409	199.06
311.639	208.06
311.868	216.06
312.098	215.06
312.328	216.06
312.557	236.06
312.787	225.06
313.017	229.06
313.246	237.06
313.476	220.06
313.706	199.06
313.935	213.06
314.165	235.06
314.394	234.06
314.624	215.06
314.853	219.06
315.083	211.06
315.312	208.06
315.542	197.06
315.771	208.06
316.001	223.06
316.23	211.06
316.46	203.06
316.689	202.06
316.919	235.06
317.148	221.06
317.377	233.06
317.607	220.06
317.836	219.06
318.065	219.06
318.295	209.06
318.524	214.06
318.753	202.06
318.983	193.06
319.212	200.06
319.441	200.06
319.67	214.06
319.9	211.06
320.129	208.06
320.358	203.06
320.587	208.06
320.816	207.06
321.046	206.06
321.275	214.06
321.504	224.06
321.733	228.06
321.962	223.06
322.191	240.06
322.42	223.06
322.649	240.06
322.878	239.06
323.108	268.06
323.337	282.06
323.566	286.06
323.795	296.06
324.024	308.06
324.253	363.06
324.482	518.06
324.71	764.06
324.939	1048.06
325.168	854.06
325.397	422.06
325.626	315.06
325.855	267.06
326.084	258.06
326.313	282.06
326.542	257.06
326.77	292.06
326.999	367.06
327.228	482.06
327.457	704.06
327.686	796.06
327.914	524.06
328.143	335.06
328.372	346.06
328.6	303.06
328.829	293.06
329.058	312.06
329.287	300.06
329.515	293.06
329.744	287.06
329.972	295.06
330.201	266.06
330.43	304.06
330.658	332.06
330.887	337.06
331.115	330.06
331.344	277.06
331.572	271.06
331.801	260.06
332.03	242.06
332.258	253.06
332.486	250.06
332.715	230.06
332.943	232.06
333.172	232.06
333.4	238.06
333.629	272.06
333.857	250.06
334.085	270.06
334.314	296.06
334.542	288.06
334.771	326.06
334.999	287.06
335.227	258.06
335.455	262.06
335.684	249.06
335.912	242.06
336.14	242.06
336.369	230.06
336.597	234.06
336.825	242.06
337.053	233.06
337.281	229.06
337.51	243.06
337.738	249.06
337.966	225.06
338.194	244.06
338.422	228.06
338.65	235.06
338.878	228.06
339.106	234.06
339.334	243.06
339.562	229.06
339.79	239.06
340.018	232.06
340.246	242.06
340.474	231.06
340.702	232.06
340.93	228.06
341.158	229.06
341.386	242.06
341.614	234.06
341.842	223.06
342.07	218.06
342.298	225.06
342.526	215.06
342.754	230.06
342.981	218.06
343.209	209.06
343.437	230.06
343.665	223.06
343.893	239.06
344.12	243.06
344.348	235.06
344.576	250.06
344.804	244.06
345.031	246.06
345.259	244.06
345.487	237.06
345.714	238.06
345.942	218.06
346.17	216.06
346.397	222.06
346.625	217.06
346.853	196.06
347.08	219.06
347.308	229.06
347.535	233.06
347.763	222.06
347.99	226.06
348.218	217.06
348.445	232.06
348.673	221.06
348.9	230.06
349.128	214.06
349.355	206.06
349.583	204.06
349.81	226.06
350.037	221.06
350.265	229.06
350.492	218.06
350.72	223.06
350.947	216.06
351.174	223.06
351.402	217.06
351.629	218.06
351.856	228.06
352.083	217.06
352.311	228.06
352.538	218.06
352.765	248.06
352.992	246.06
353.22	232.06
353.447	224.06
353.674	228.06
353.901	202.06
354.128	210.06
354.355	203.06
354.583	246.06
354.81	194.06
355.037	211.06
355.264	213.06
355.491	219.06
355.718	211.06
355.945	217.06
356.172	208.06
356.399	204.06
356.626	198.06
356.853	192.06
357.08	210.06
357.307	204.06
357.534	205.06
357.761	200.06
357.988	229.06
358.215	205.06
358.441	220.06
358.668	193.06
358.895	215.06
359.122	213.06
359.349	207.06
359.576	214.06
359.802	230.06
360.029	255.06
360.256	272.06
360.483	256.06
360.709	220.06
360.936	218.06
361.163	211.06
361.39	223.06
361.616	222.06
361.843	236.06
362.07	226.06
362.296	224.06
362.523	210.06
362.749	214.06
362.976	224.06
363.203	232.06
363.429	216.06
363.656	234.06
363.882	219.06
364.109	213.06
364.335	214.06
364.562	213.06
364.788	204.06
365.015	202.06
365.241	220.06
365.468	227.06
365.694	216.06
365.92	212.06
366.147	199.06
366.373	211.06
366.599	210.06
366.826	208.06
367.052	194.06
367.278	211.06
367.505	213.06
367.731	199.06
367.957	203.06
368.184	205.06
368.41	206.06
368.636	221.06
368.862	221.06
369.089	211.06
369.315	199.06
369.541	210.06
369.767	209.06
369.993	208.06
370.219	214.06
370.445	195.06
370.672	211.06
370.898	233.06
371.124	215.06
371.35	190.06
371.576	202.06
371.802	195.06
372.028	202.06
372.254	212.06
372.48	212.06
372.706	197.06
372.932	207.06
373.158	230.06
373.384	208.06
373.61	214.06
373.835	200.06
374.061	209.06
374.287	201.06
374.513	226.06
374.739	219.06
374.965	220.06
375.191	227.06
375.416	205.06
375.642	207.06
375.868	216.06
376.094	212.06
376.319	198.06
376.545	215.06
376.771	219.06
376.997	211.06
377.222	210.06
377.448	216.06
377.674	207.06
377.899	191.06
378.125	211.06
378.35	208.06
378.576	214.06
378.802	196.06
379.027	203.06
379.253	187.06
379.478	220.06
379.704	199.06
379.929	202.06
380.155	204.06
380.38	201.06
380.606	214.06
380.831	210.06
381.057	230.06
381.282	199.06
381.507	214.06
381.733	214.06
381.958	194.06
382.184	222.06
382.409	224.06
382.634	220.06
382.86	207.06
383.085	213.06
383.31	219.06
383.535	210.06
383.761	227.06
383.986	206.06
384.211	205.06
384.436	205.06
384.662	215.06
384.887	227.06
385.112	216.06
385.337	220.06
385.562	223.06
385.787	235.06
386.013	229.06
386.238	234.06
386.463	222.06
386.688	236.06
386.913	218.06
387.138	239.06
387.363	233.06
387.588	229.06
387.813	222.06
388.038	225.06
388.263	233.06
388.488	223.06
388.713	227.06
388.938	236.06
389.163	223.06
389.387	231.06
389.612	219.06
389.837	220.06
390.062	209.06
390.287	220.06
390.512	207.06
390.736	214.06
390.961	237.06
391.186	223.06
391.411	231.06
391.636	235.06
391.86	247.06
392.085	221.06
392.31	237.06
392.534	236.06
392.759	237.06
392.984	239.06
393.208	227.06
393.433	233.06
393.658	236.06
393.882	224.06
394.107	248.06
394.331	238.06
394.556	231.06
394.78	224.06
395.005	229.06
395.229	227.06
395.454	224.06
395.678	242.06
395.903	246.06
396.127	242.06
396.352	255.06
396.576	233.06
396.801	226.06
397.025	238.06
397.249	226.06
397.474	234.06
397.698	225.06
397.922	225.06
398.147	240.06
398.371	264.06
398.595	254.06
398.82	239.06
399.044	254.06
399.268	259.06
399.492	272.06
399.717	284.06
399.941	299.06
400.165	301.06
400.389	299.06
400.613	286.06
400.837	267.06
401.062	251.06
401.286	242.06
401.51	261.06
401.734	258.06
401.958	248.06
402.182	268.06
402.406	258.06
402.63	271.06
402.854	273.06
403.078	254.06
403.302	267.06
403.526	276.06
403.75	265.06
403.974	240.06
404.198	267.06
404.422	266.06
404.645	284.06
404.869	268.06
405.093	275.06
405.317	302.06
405.541	319.06
405.765	288.06
405.988	260.06
406.212	281.06
406.436	290.06
406.66	304.06
406.883	293.06
407.107	296.06
407.331	296.06
407.555	338.06
407.778	327.06
408.002	304.06
408.226	293.06
408.449	271.06
408.673	287.06
408.896	297.06
409.12	329.06
409.344	304.06
409.567	271.06
409.791	278.06
410.014	264.06
410.238	260.06
410.461	267.06
410.685	267.06
410.908	271.06
411.132	294.06
411.355	296.06
411.578	295.06
411.802	272.06
412.025	257.06
412.249	272.06
412.472	277.06
412.695	291.06
412.919	296.06
413.142	281.06
413.365	268.06
413.589	262.06
413.812	276.06
414.035	250.06
414.258	258.06
414.482	240.06
414.705	260.06
414.928	256.06
415.151	242.06
415.374	247.06
415.597	250.06
415.821	261.06
416.044	244.06
416.267	258.06
416.49	227.06
416.713	264.06
416.936	251.06
417.159	247.06
417.382	260.06
417.605	271.06
417.828	274.06
418.051	294.06
418.274	263.06
418.497	248.06
418.72	264.06
418.943	254.06
419.166	259.06
419.389	270.06
419.611	267.06
419.834	273.06
420.057	262.06
420.28	280.06
420.503	278.06
420.726	277.06
420.948	266.06
421.171	297.06
421.394	315.06
421.617	268.06
421.839	252.06
422.062	256.06
422.285	275.06
422.507	301.06
422.73	335.06
422.953	301.06
423.175	296.06
423.398	263.06
423.621	281.06
423.843	279.06
424.066	279.06
424.288	272.06
424.511	269.06
424.733	325.06
424.956	322.06
425.178	325.06
425.401	320.06
425.623	356.06
425.846	304.06
426.068	283.06
426.291	256.06
426.513	278.06
426.735	284.06
426.958	302.06
427.18	337.06
427.402	380.06
427.625	430.06
427.847	373.06
428.069	324.06
428.292	288.06
428.514	272.06
428.736	271.06
428.958	267.06
429.181	259.06
429.403	258.06
429.625	260.06
429.847	281.06
430.069	315.06
430.292	308.06
430.514	263.06
430.736	262.06
430.958	246.06
431.18	242.06
431.402	259.06
431.624	239.06
431.846	243.06
432.068	245.06
432.29	240.06
432.512	254.06
432.734	254.06
432.956	258.06
433.178	271.06
433.4	271.06
433.622	252.06
433.844	246.06
434.066	250.06
434.287	252.06
434.509	252.06
434.731	242.06
434.953	260.06
435.175	259.06
435.397	309.06
435.618	264.06
435.84	300.06
436.062	346.06
436.284	365.06
436.505	310.06
436.727	252.06
436.949	251.06
437.17	285.06
437.392	267.06
437.614	273.06
437.835	294.06
438.057	325.06
438.278	347.06
438.5	354.06
438.721	400.06
438.943	379.06
439.165	291.06
439.386	293.06
439.608	276.06
439.829	282.06
440.05	309.06
440.272	301.06
440.493	281.06
440.715	286.06
440.936	267.06
441.158	283.06
441.379	260.06
441.6	267.06
441.822	291.06
442.043	304.06
442.264	350.06
442.486	358.06
442.707	295.06
442.928	303.06
443.149	282.06
443.371	300.06
443.592	322.06
443.813	372.06
444.034	391.06
444.255	318.06
444.476	292.06
444.698	278.06
444.919	286.06
445.14	378.06
445.361	341.06
445.582	286.06
445.803	335.06
446.024	362.06
446.245	366.06
446.466	339.06
446.687	284.06
446.908	270.06
447.129	288.06
447.35	253.06
447.571	253.06
447.792	252.06
448.013	251.06
448.234	264.06
448.455	287.06
448.675	357.06
448.896	356.06
449.117	315.06
449.338	310.06
449.559	352.06
449.779	399.06
450	311.06
450.221	280.06
450.442	262.06
450.662	250.06
450.883	264.06
451.104	271.06
451.324	255.06
451.545	240.06
451.766	226.06
451.986	224.06
452.207	237.06
452.428	229.06
452.648	247.06
452.869	258.06
453.089	263.06
453.31	255.06
453.53	246.06
453.751	244.06
453.971	255.06
454.192	260.06
454.412	251.06
454.633	219.06
454.853	232.06
455.073	234.06
455.294	263.06
455.514	271.06
455.734	270.06
455.955	233.06
456.175	239.06
456.395	219.06
456.616	225.06
456.836	229.06
457.056	209.06
457.276	218.06
457.497	223.06
457.717	220.06
457.937	226.06
458.157	236.06
458.377	231.06
458.598	254.06
458.818	279.06
459.038	315.06
459.258	324.06
459.478	267.06
459.698	246.06
459.918	240.06
460.138	244.06
460.358	243.06
460.578	260.06
460.798	251.06
461.018	246.06
461.238	251.06
461.458	262.06
461.678	256.06
461.898	240.06
462.118	243.06
462.338	274.06
462.558	270.06
462.777	265.06
462.997	278.06
463.217	268.06
463.437	286.06
463.657	261.06
463.876	262.06
464.096	259.06
464.316	254.06
464.536	276.06
464.755	285.06
464.975	290.06
465.195	294.06
465.414	376.06
465.634	290.06
465.854	270.06
466.073	261.06
466.293	260.06
466.512	244.06
466.732	244.06
466.951	267.06
467.171	227.06
467.391	258.06
467.61	256.06
467.829	236.06
468.049	247.06
468.268	258.06
468.488	235.06
468.707	232.06
468.927	242.06
469.146	248.06
469.365	223.06
469.585	250.06
469.804	242.06
470.023	255.06
470.243	253.06
470.462	243.06
470.681	277.06
470.901	256.06
471.12	248.06
471.339	238.06
471.558	252.06
471.777	234.06
471.997	218.06
472.216	260.06
472.435	283.06
472.654	275.06
472.873	261.06
473.092	242.06
473.311	259.06
473.53	218.06
473.749	246.06
473.968	264.06
474.187	328.06
474.406	322.06
474.625	256.06
474.844	253.06
475.063	250.06
475.282	228.06
475.501	270.06
475.72	272.06
475.939	245.06
476.158	260.06
476.377	258.06
476.596	254.06
476.814	258.06
477.033	253.06
477.252	249.06
477.471	263.06
477.69	261.06
477.908	250.06
478.127	262.06
478.346	267.06
478.564	274.06
478.783	262.06
479.002	279.06
479.22	262.06
479.439	287.06
479.658	278.06
479.876	315.06
480.095	287.06
480.313	314.06
480.532	304.06
480.751	278.06
480.969	300.06
481.188	346.06
481.406	392.06
481.624	318.06
481.843	310.06
482.061	290.06
482.28	280.06
482.498	276.06
482.717	279.06
482.935	264.06
483.153	283.06
483.372	272.06
483.59	276.06
483.808	276.06
484.027	290.06
484.245	283.06
484.463	274.06
484.681	290.06
484.9	279.06
485.118	288.06
485.336	296.06
485.554	291.06
485.772	292.06
485.99	290.06
486.209	281.06
486.427	290.06
486.645	281.06
486.863	333.06
487.081	324.06
487.299	290.06
487.517	291.06
487.735	309.06
487.953	276.06
488.171	291.06
488.389	316.06
488.607	310.06
488.825	308.06
489.043	301.06
489.261	319.06
489.479	335.06
489.696	322.06
489.914	312.06
490.132	315.06
490.35	325.06
490.568	310.06
490.786	341.06
491.003	328.06
491.221	334.06
491.439	345.06
491.657	328.06
491.874	368.06
492.092	349.06
492.31	343.06
492.527	339.06
492.745	349.06
492.963	360.06
493.18	364.06
493.398	365.06
493.615	362.06
493.833	354.06
494.05	360.06
494.268	360.06
494.485	365.06
494.703	365.06
494.92	340.06
495.138	347.06
495.355	351.06
495.573	363.06
495.79	363.06
496.008	361.06
496.225	360.06
496.442	346.06
496.66	359.06
496.877	352.06
497.094	367.06
497.312	335.06
497.529	378.06
497.746	344.06
497.963	354.06
498.181	374.06
498.398	362.06
498.615	374.06
498.832	390.06
499.049	403.06
499.267	388.06
499.484	396.06
499.701	409.06
499.918	440.06
500.135	457.06
500.352	495.06
500.569	478.06
500.786	471.06
501.003	455.06
501.22	453.06
501.437	435.06
501.654	407.06
501.871	440.06
502.088	420.06
502.305	387.06
502.522	377.06
502.739	391.06
