Data from 1966.PennyLincolnUp.Lamp.En5.5.200Scan.071719.P1.Scan2.head_HRD10591_14-17-29-112.txt Node
Date: Thu Jul 18 14:17:29 EDT 2019
User: cochatt
Spectrometer: HR+D1059
Trigger mode: 1
Integration Time (sec): 1.000000E-1
Scans to average: 1
Electric dark correction enabled: true
Nonlinearity correction enabled: false
Boxcar width: 0
XAxis mode: Wavelengths
Number of Pixels in Spectrum: 2048
>>>>>Begin Spectral Data<<<<<
223.165	-16.69
223.4	-16.69
223.635	-16.69
223.869	-24.69
224.104	-28.69
224.338	-18.69
224.573	-25.69
224.808	-5.69
225.042	-7.69
225.277	-10.69
225.511	3.31
225.746	10.31
225.98	7.31
226.215	24.31
226.449	14.31
226.683	21.31
226.918	20.31
227.152	37.31
227.387	27.31
227.621	31.31
227.856	28.31
228.09	42.31
228.324	46.31
228.559	53.31
228.793	67.31
229.027	90.31
229.262	103.31
229.496	123.31
229.73	131.31
229.964	152.31
230.199	124.31
230.433	118.31
230.667	111.31
230.901	116.31
231.136	109.31
231.37	126.31
231.604	100.31
231.838	121.31
232.072	108.31
232.306	100.31
232.541	118.31
232.775	110.31
233.009	115.31
233.243	110.31
233.477	112.31
233.711	116.31
233.945	122.31
234.179	125.31
234.413	134.31
234.647	118.31
234.881	105.31
235.115	125.31
235.349	125.31
235.583	126.31
235.817	133.31
236.051	128.31
236.285	114.31
236.519	120.31
236.753	120.31
236.987	157.31
237.221	173.31
237.455	225.31
237.689	181.31
237.922	131.31
238.156	132.31
238.39	120.31
238.624	132.31
238.858	129.31
239.091	126.31
239.325	133.31
239.559	137.31
239.793	152.31
240.027	130.31
240.26	133.31
240.494	160.31
240.728	146.31
240.961	140.31
241.195	150.31
241.429	129.31
241.662	136.31
241.896	143.31
242.13	125.31
242.363	142.31
242.597	138.31
242.83	126.31
243.064	148.31
243.298	139.31
243.531	130.31
243.765	122.31
243.998	134.31
244.232	147.31
244.465	125.31
244.699	137.31
244.932	156.31
245.166	143.31
245.399	148.31
245.633	171.31
245.866	147.31
246.099	143.31
246.333	135.31
246.566	146.31
246.8	150.31
247.033	141.31
247.266	151.31
247.5	155.31
247.733	162.31
247.966	170.31
248.2	167.31
248.433	169.31
248.666	155.31
248.899	178.31
249.133	207.31
249.366	196.31
249.599	179.31
249.832	195.31
250.066	187.31
250.299	182.31
250.532	185.31
250.765	213.31
250.998	214.31
251.231	221.31
251.465	235.31
251.698	205.31
251.931	192.31
252.164	187.31
252.397	197.31
252.63	186.31
252.863	202.31
253.096	221.31
253.329	236.31
253.562	218.31
253.795	222.31
254.028	202.31
254.261	204.31
254.494	206.31
254.727	248.31
254.96	255.31
255.193	256.31
255.426	246.31
255.659	214.31
255.892	229.31
256.124	227.31
256.357	219.31
256.59	221.31
256.823	220.31
257.056	186.31
257.289	208.31
257.521	221.31
257.754	209.31
257.987	200.31
258.22	200.31
258.452	211.31
258.685	190.31
258.918	186.31
259.151	212.31
259.383	219.31
259.616	235.31
259.849	216.31
260.081	230.31
260.314	242.31
260.547	244.31
260.779	239.31
261.012	228.31
261.244	222.31
261.477	229.31
261.71	203.31
261.942	227.31
262.175	215.31
262.407	224.31
262.64	214.31
262.872	200.31
263.105	211.31
263.337	224.31
263.57	210.31
263.802	209.31
264.035	199.31
264.267	210.31
264.499	220.31
264.732	212.31
264.964	219.31
265.197	226.31
265.429	219.31
265.661	203.31
265.894	223.31
266.126	217.31
266.358	220.31
266.591	223.31
266.823	233.31
267.055	214.31
267.287	231.31
267.52	224.31
267.752	224.31
267.984	232.31
268.216	219.31
268.448	242.31
268.681	239.31
268.913	254.31
269.145	234.31
269.377	266.31
269.609	272.31
269.841	264.31
270.073	255.31
270.306	300.31
270.538	295.31
270.77	293.31
271.002	294.31
271.234	291.31
271.466	276.31
271.698	311.31
271.93	322.31
272.162	301.31
272.394	306.31
272.626	292.31
272.858	271.31
273.09	278.31
273.322	278.31
273.553	272.31
273.785	265.31
274.017	261.31
274.249	273.31
274.481	240.31
274.713	261.31
274.945	276.31
275.176	271.31
275.408	285.31
275.64	272.31
275.872	267.31
276.104	269.31
276.335	278.31
276.567	264.31
276.799	266.31
277.031	296.31
277.262	328.31
277.494	309.31
277.726	295.31
277.957	268.31
278.189	271.31
278.421	251.31
278.652	279.31
278.884	270.31
279.115	274.31
279.347	258.31
279.579	249.31
279.81	263.31
280.042	266.31
280.273	253.31
280.505	266.31
280.736	277.31
280.968	267.31
281.199	272.31
281.431	273.31
281.662	281.31
281.894	281.31
282.125	270.31
282.356	308.31
282.588	303.31
282.819	311.31
283.051	288.31
283.282	272.31
283.513	279.31
283.745	283.31
283.976	280.31
284.207	267.31
284.439	288.31
284.67	287.31
284.901	269.31
285.132	264.31
285.364	271.31
285.595	279.31
285.826	260.31
286.057	283.31
286.288	292.31
286.52	290.31
286.751	287.31
286.982	267.31
287.213	275.31
287.444	283.31
287.675	280.31
287.906	297.31
288.138	300.31
288.369	302.31
288.6	323.31
288.831	312.31
289.062	295.31
289.293	300.31
289.524	291.31
289.755	282.31
289.986	302.31
290.217	287.31
290.448	286.31
290.679	294.31
290.91	307.31
291.141	298.31
291.371	287.31
291.602	283.31
291.833	300.31
292.064	273.31
292.295	296.31
292.526	291.31
292.757	295.31
292.987	285.31
293.218	287.31
293.449	288.31
293.68	292.31
293.91	296.31
294.141	290.31
294.372	300.31
294.603	308.31
294.833	295.31
295.064	302.31
295.295	279.31
295.525	286.31
295.756	310.31
295.987	309.31
296.217	312.31
296.448	328.31
296.679	313.31
296.909	302.31
297.14	290.31
297.37	295.31
297.601	288.31
297.831	292.31
298.062	286.31
298.292	312.31
298.523	303.31
298.753	320.31
298.984	313.31
299.214	328.31
299.445	288.31
299.675	302.31
299.905	318.31
300.136	288.31
300.366	317.31
300.597	299.31
300.827	315.31
301.057	319.31
301.288	333.31
301.518	326.31
301.748	332.31
301.979	355.31
302.209	334.31
302.439	345.31
302.669	323.31
302.9	342.31
303.13	319.31
303.36	337.31
303.59	328.31
303.82	354.31
304.051	349.31
304.281	344.31
304.511	322.31
304.741	337.31
304.971	335.31
305.201	326.31
305.431	313.31
305.661	328.31
305.891	326.31
306.121	324.31
306.352	344.31
306.582	352.31
306.812	316.31
307.042	326.31
307.272	349.31
307.502	329.31
307.731	340.31
307.961	337.31
308.191	336.31
308.421	337.31
308.651	356.31
308.881	316.31
309.111	345.31
309.341	341.31
309.571	347.31
309.8	357.31
310.03	373.31
310.26	375.31
310.49	356.31
310.72	370.31
310.949	408.31
311.179	390.31
311.409	364.31
311.639	377.31
311.868	382.31
312.098	358.31
312.328	370.31
312.557	382.31
312.787	401.31
313.017	410.31
313.246	395.31
313.476	384.31
313.706	397.31
313.935	382.31
314.165	390.31
314.394	381.31
314.624	381.31
314.853	386.31
315.083	376.31
315.312	390.31
315.542	366.31
315.771	365.31
316.001	379.31
316.23	367.31
316.46	371.31
316.689	375.31
316.919	382.31
317.148	382.31
317.377	394.31
317.607	380.31
317.836	382.31
318.065	378.31
318.295	366.31
318.524	363.31
318.753	384.31
318.983	367.31
319.212	347.31
319.441	384.31
319.67	383.31
319.9	382.31
320.129	384.31
320.358	388.31
320.587	386.31
320.816	396.31
321.046	399.31
321.275	398.31
321.504	409.31
321.733	397.31
321.962	391.31
322.191	384.31
322.42	430.31
322.649	424.31
322.878	440.31
323.108	450.31
323.337	470.31
323.566	473.31
323.795	500.31
324.024	542.31
324.253	638.31
324.482	910.31
324.71	1385.31
324.939	2058.31
325.168	1768.31
325.397	864.31
325.626	642.31
325.855	516.31
326.084	522.31
326.313	474.31
326.542	493.31
326.77	533.31
326.999	580.31
327.228	800.31
327.457	1243.31
327.686	1579.31
327.914	1020.31
328.143	680.31
328.372	612.31
328.6	563.31
328.829	514.31
329.058	550.31
329.287	542.31
329.515	536.31
329.744	529.31
329.972	478.31
330.201	509.31
330.43	558.31
330.658	548.31
330.887	586.31
331.115	586.31
331.344	505.31
331.572	464.31
331.801	492.31
332.03	490.31
332.258	478.31
332.486	446.31
332.715	468.31
332.943	463.31
333.172	466.31
333.4	472.31
333.629	477.31
333.857	487.31
334.085	492.31
334.314	492.31
334.542	565.31
334.771	551.31
334.999	515.31
335.227	490.31
335.455	491.31
335.684	460.31
335.912	450.31
336.14	460.31
336.369	438.31
336.597	470.31
336.825	485.31
337.053	475.31
337.281	454.31
337.51	460.31
337.738	454.31
337.966	448.31
338.194	441.31
338.422	457.31
338.65	456.31
338.878	439.31
339.106	442.31
339.334	436.31
339.562	454.31
339.79	431.31
340.018	430.31
340.246	445.31
340.474	441.31
340.702	431.31
340.93	440.31
341.158	442.31
341.386	429.31
341.614	429.31
341.842	451.31
342.07	459.31
342.298	435.31
342.526	440.31
342.754	422.31
342.981	440.31
343.209	438.31
343.437	424.31
343.665	427.31
343.893	461.31
344.12	452.31
344.348	467.31
344.576	471.31
344.804	450.31
345.031	453.31
345.259	445.31
345.487	445.31
345.714	442.31
345.942	440.31
346.17	429.31
346.397	442.31
346.625	428.31
346.853	440.31
347.08	422.31
347.308	438.31
347.535	434.31
347.763	454.31
347.99	433.31
348.218	456.31
348.445	445.31
348.673	426.31
348.9	414.31
349.128	439.31
349.355	413.31
349.583	402.31
349.81	399.31
350.037	408.31
350.265	372.31
350.492	399.31
350.72	417.31
350.947	434.31
351.174	424.31
351.402	465.31
351.629	445.31
351.856	434.31
352.083	412.31
352.311	447.31
352.538	435.31
352.765	478.31
352.992	449.31
353.22	441.31
353.447	439.31
353.674	421.31
353.901	418.31
354.128	419.31
354.355	428.31
354.583	409.31
354.81	425.31
355.037	409.31
355.264	418.31
355.491	420.31
355.718	399.31
355.945	422.31
356.172	414.31
356.399	410.31
356.626	402.31
356.853	389.31
357.08	414.31
357.307	405.31
357.534	417.31
357.761	396.31
357.988	406.31
358.215	409.31
358.441	388.31
358.668	409.31
358.895	418.31
359.122	428.31
359.349	422.31
359.576	431.31
359.802	444.31
360.029	480.31
360.256	507.31
360.483	460.31
360.709	462.31
360.936	451.31
361.163	415.31
361.39	430.31
361.616	431.31
361.843	416.31
362.07	454.31
362.296	428.31
362.523	435.31
362.749	421.31
362.976	410.31
363.203	433.31
363.429	440.31
363.656	417.31
363.882	424.31
364.109	430.31
364.335	443.31
364.562	427.31
364.788	426.31
365.015	422.31
365.241	421.31
365.468	426.31
365.694	409.31
365.92	430.31
366.147	419.31
366.373	428.31
366.599	407.31
366.826	427.31
367.052	421.31
367.278	415.31
367.505	429.31
367.731	426.31
367.957	432.31
368.184	427.31
368.41	427.31
368.636	443.31
368.862	458.31
369.089	423.31
369.315	440.31
369.541	445.31
369.767	420.31
369.993	417.31
370.219	436.31
370.445	417.31
370.672	418.31
370.898	421.31
371.124	408.31
371.35	435.31
371.576	434.31
371.802	411.31
372.028	415.31
372.254	412.31
372.48	418.31
372.706	454.31
372.932	444.31
373.158	430.31
373.384	444.31
373.61	430.31
373.835	422.31
374.061	444.31
374.287	436.31
374.513	429.31
374.739	458.31
374.965	455.31
375.191	438.31
375.416	443.31
375.642	431.31
375.868	447.31
376.094	434.31
376.319	452.31
376.545	420.31
376.771	424.31
376.997	422.31
377.222	444.31
377.448	427.31
377.674	444.31
377.899	414.31
378.125	418.31
378.35	430.31
378.576	428.31
378.802	419.31
379.027	436.31
379.253	431.31
379.478	420.31
379.704	424.31
379.929	438.31
380.155	444.31
380.38	435.31
380.606	445.31
380.831	430.31
381.057	444.31
381.282	429.31
381.507	438.31
381.733	438.31
381.958	452.31
382.184	435.31
382.409	437.31
382.634	452.31
382.86	447.31
383.085	443.31
383.31	453.31
383.535	465.31
383.761	458.31
383.986	470.31
384.211	450.31
384.436	482.31
384.662	472.31
384.887	462.31
385.112	467.31
385.337	477.31
385.562	494.31
385.787	454.31
386.013	476.31
386.238	481.31
386.463	500.31
386.688	489.31
386.913	474.31
387.138	487.31
387.363	490.31
387.588	493.31
387.813	472.31
388.038	469.31
388.263	480.31
388.488	475.31
388.713	478.31
388.938	488.31
389.163	491.31
389.387	488.31
389.612	482.31
389.837	479.31
390.062	486.31
390.287	483.31
390.512	491.31
390.736	473.31
390.961	483.31
391.186	479.31
391.411	490.31
391.636	487.31
391.86	496.31
392.085	519.31
392.31	506.31
392.534	500.31
392.759	518.31
392.984	493.31
393.208	491.31
393.433	501.31
393.658	522.31
393.882	487.31
394.107	487.31
394.331	492.31
394.556	520.31
394.78	487.31
395.005	498.31
395.229	491.31
395.454	511.31
395.678	467.31
395.903	530.31
396.127	548.31
396.352	538.31
396.576	521.31
396.801	530.31
397.025	493.31
397.249	510.31
397.474	520.31
397.698	526.31
397.922	527.31
398.147	544.31
398.371	550.31
398.595	556.31
398.82	556.31
399.044	565.31
399.268	592.31
399.492	622.31
399.717	641.31
399.941	675.31
400.165	703.31
400.389	715.31
400.613	651.31
400.837	592.31
401.062	580.31
401.286	591.31
401.51	548.31
401.734	550.31
401.958	574.31
402.182	573.31
402.406	595.31
402.63	569.31
402.854	558.31
403.078	570.31
403.302	564.31
403.526	591.31
403.75	575.31
403.974	583.31
404.198	558.31
404.422	608.31
404.645	590.31
404.869	593.31
405.093	638.31
405.317	666.31
405.541	685.31
405.765	644.31
405.988	623.31
406.212	632.31
406.436	632.31
406.66	661.31
406.883	626.31
407.107	648.31
407.331	715.31
407.555	773.31
407.778	754.31
408.002	696.31
408.226	662.31
408.449	638.31
408.673	635.31
408.896	655.31
409.12	720.31
409.344	692.31
409.567	615.31
409.791	610.31
410.014	600.31
410.238	580.31
410.461	591.31
410.685	607.31
410.908	590.31
411.132	636.31
411.355	670.31
411.578	621.31
411.802	608.31
412.025	591.31
412.249	589.31
412.472	600.31
412.695	642.31
412.919	692.31
413.142	607.31
413.365	582.31
413.589	585.31
413.812	552.31
414.035	571.31
414.258	552.31
414.482	556.31
414.705	547.31
414.928	541.31
415.151	572.31
415.374	554.31
415.597	544.31
415.821	547.31
416.044	569.31
416.267	570.31
416.49	554.31
416.713	558.31
416.936	549.31
417.159	559.31
417.382	555.31
417.605	575.31
417.828	583.31
418.051	562.31
418.274	583.31
418.497	538.31
418.72	556.31
418.943	535.31
419.166	558.31
419.389	605.31
419.611	592.31
419.834	599.31
420.057	593.31
420.28	603.31
420.503	567.31
420.726	587.31
420.948	610.31
421.171	638.31
421.394	683.31
421.617	624.31
421.839	587.31
422.062	559.31
422.285	608.31
422.507	651.31
422.73	740.31
422.953	690.31
423.175	635.31
423.398	613.31
423.621	611.31
423.843	610.31
424.066	610.31
424.288	647.31
424.511	617.31
424.733	694.31
424.956	764.31
425.178	713.31
425.401	735.31
425.623	755.31
425.846	644.31
426.068	632.31
426.291	613.31
426.513	630.31
426.735	628.31
426.958	670.31
427.18	742.31
427.402	901.31
427.625	982.31
427.847	831.31
428.069	720.31
428.292	675.31
428.514	608.31
428.736	588.31
428.958	592.31
429.181	584.31
429.403	580.31
429.625	590.31
429.847	612.31
430.069	677.31
430.292	670.31
430.514	591.31
430.736	557.31
430.958	565.31
431.18	562.31
431.402	544.31
431.624	585.31
431.846	528.31
432.068	536.31
432.29	567.31
432.512	571.31
432.734	561.31
432.956	544.31
433.178	555.31
433.4	565.31
433.622	549.31
433.844	532.31
434.066	557.31
434.287	557.31
434.509	547.31
434.731	568.31
434.953	585.31
435.175	598.31
435.397	594.31
435.618	627.31
435.84	668.31
436.062	750.31
436.284	841.31
436.505	694.31
436.727	634.31
436.949	593.31
437.17	575.31
437.392	583.31
437.614	588.31
437.835	615.31
438.057	716.31
438.278	828.31
438.5	821.31
438.721	888.31
438.943	866.31
439.165	717.31
439.386	637.31
439.608	612.31
439.829	617.31
440.05	660.31
440.272	702.31
440.493	678.31
440.715	617.31
440.936	589.31
441.158	557.31
441.379	583.31
441.6	591.31
441.822	639.31
442.043	686.31
442.264	748.31
442.486	786.31
442.707	663.31
442.928	630.31
443.149	644.31
443.371	667.31
443.592	701.31
443.813	811.31
444.034	898.31
444.255	748.31
444.476	653.31
444.698	654.31
444.919	648.31
445.14	742.31
445.361	674.31
445.582	657.31
445.803	713.31
446.024	845.31
446.245	859.31
446.466	801.31
446.687	651.31
446.908	614.31
447.129	588.31
447.35	576.31
447.571	567.31
447.792	552.31
448.013	573.31
448.234	577.31
448.455	623.31
448.675	764.31
448.896	881.31
449.117	748.31
449.338	722.31
449.559	823.31
449.779	919.31
450	744.31
450.221	611.31
450.442	588.31
450.662	549.31
450.883	581.31
451.104	571.31
451.324	579.31
451.545	527.31
451.766	526.31
451.986	514.31
452.207	516.31
452.428	513.31
452.648	526.31
452.869	513.31
453.089	512.31
453.31	533.31
453.53	511.31
453.751	487.31
453.971	532.31
454.192	537.31
454.412	493.31
454.633	512.31
454.853	510.31
455.073	499.31
455.294	519.31
455.514	605.31
455.734	601.31
455.955	526.31
456.175	500.31
456.395	479.31
456.616	474.31
456.836	486.31
457.056	478.31
457.276	479.31
457.497	479.31
457.717	473.31
457.937	482.31
458.157	485.31
458.377	500.31
458.598	503.31
458.818	565.31
459.038	639.31
459.258	692.31
459.478	590.31
459.698	540.31
459.918	541.31
460.138	563.31
460.358	567.31
460.578	563.31
460.798	574.31
461.018	575.31
461.238	554.31
461.458	581.31
461.678	574.31
461.898	579.31
462.118	563.31
462.338	590.31
462.558	589.31
462.777	598.31
462.997	617.31
463.217	623.31
463.437	634.31
463.657	609.31
463.876	610.31
464.096	640.31
464.316	586.31
464.536	628.31
464.755	640.31
464.975	585.31
465.195	620.31
465.414	687.31
465.634	617.31
465.854	611.31
466.073	570.31
466.293	566.31
466.512	528.31
466.732	515.31
466.951	528.31
467.171	509.31
467.391	512.31
467.61	539.31
467.829	543.31
468.049	551.31
468.268	538.31
468.488	526.31
468.707	524.31
468.927	510.31
469.146	535.31
469.365	492.31
469.585	516.31
469.804	528.31
470.023	524.31
470.243	534.31
470.462	546.31
470.681	548.31
470.901	564.31
471.12	529.31
471.339	554.31
471.558	543.31
471.777	554.31
471.997	543.31
472.216	536.31
472.435	575.31
472.654	558.31
472.873	534.31
473.092	532.31
473.311	528.31
473.53	523.31
473.749	554.31
473.968	587.31
474.187	678.31
474.406	704.31
474.625	617.31
474.844	559.31
475.063	555.31
475.282	518.31
475.501	550.31
475.72	546.31
475.939	540.31
476.158	544.31
476.377	554.31
476.596	555.31
476.814	556.31
477.033	564.31
477.252	552.31
477.471	581.31
477.69	547.31
477.908	584.31
478.127	576.31
478.346	583.31
478.564	617.31
478.783	620.31
479.002	621.31
479.22	626.31
479.439	648.31
479.658	646.31
479.876	658.31
480.095	656.31
480.313	686.31
480.532	686.31
480.751	648.31
480.969	679.31
481.188	732.31
481.406	757.31
481.624	686.31
481.843	669.31
482.061	651.31
482.28	644.31
482.498	620.31
482.717	631.31
482.935	630.31
483.153	642.31
483.372	605.31
483.59	650.31
483.808	628.31
484.027	642.31
484.245	631.31
484.463	620.31
484.681	630.31
484.9	668.31
485.118	635.31
485.336	652.31
485.554	656.31
485.772	648.31
485.99	648.31
486.209	676.31
486.427	669.31
486.645	660.31
486.863	684.31
487.081	701.31
487.299	686.31
487.517	662.31
487.735	648.31
487.953	669.31
488.171	664.31
488.389	671.31
488.607	669.31
488.825	668.31
489.043	690.31
489.261	660.31
489.479	684.31
489.696	680.31
489.914	715.31
490.132	711.31
490.35	726.31
490.568	708.31
490.786	715.31
491.003	716.31
491.221	758.31
491.439	772.31
491.657	759.31
491.874	774.31
492.092	782.31
492.31	774.31
492.527	762.31
492.745	756.31
492.963	778.31
493.18	778.31
493.398	765.31
493.615	774.31
493.833	764.31
494.05	774.31
494.268	802.31
494.485	782.31
494.703	770.31
494.92	797.31
495.138	786.31
495.355	830.31
495.573	790.31
495.79	794.31
496.008	830.31
496.225	826.31
496.442	795.31
496.66	822.31
496.877	770.31
497.094	822.31
497.312	820.31
497.529	836.31
497.746	853.31
497.963	832.31
498.181	867.31
498.398	901.31
498.615	926.31
498.832	917.31
499.049	956.31
499.267	970.31
499.484	989.31
499.701	1035.31
499.918	1092.31
500.135	1099.31
500.352	1156.31
500.569	1203.31
500.786	1206.31
501.003	1168.31
501.22	1180.31
501.437	1113.31
501.654	1058.31
