Data from 1966.PennyLincolnUp.Lamp.En5.5.200Scan.071719.P1._HRD10591_14-13-56-915.txt Node
Date: Thu Jul 18 14:13:56 EDT 2019
User: cochatt
Spectrometer: HR+D1059
Trigger mode: 1
Integration Time (sec): 1.000000E-1
Scans to average: 1
Electric dark correction enabled: true
Nonlinearity correction enabled: false
Boxcar width: 0
XAxis mode: Wavelengths
Number of Pixels in Spectrum: 2048
>>>>>Begin Spectral Data<<<<<
223.165	-15.06
223.4	-15.06
223.635	-15.06
223.869	-10.06
224.104	-12.06
224.338	-7.06
224.573	-30.06
224.808	-15.06
225.042	-10.06
225.277	-2.06
225.511	-9.06
225.746	4.94
225.98	12.94
226.215	12.94
226.449	5.94
226.683	13.94
226.918	23.94
227.152	35.94
227.387	29.94
227.621	31.94
227.856	49.94
228.09	54.94
228.324	64.94
228.559	45.94
228.793	53.94
229.027	75.94
229.262	86.94
229.496	82.94
229.73	92.94
229.964	101.94
230.199	101.94
230.433	83.94
230.667	104.94
230.901	84.94
231.136	93.94
231.37	79.94
231.604	89.94
231.838	77.94
232.072	98.94
232.306	89.94
232.541	88.94
232.775	84.94
233.009	80.94
233.243	101.94
233.477	90.94
233.711	94.94
233.945	92.94
234.179	82.94
234.413	100.94
234.647	118.94
234.881	93.94
235.115	101.94
235.349	87.94
235.583	105.94
235.817	87.94
236.051	88.94
236.285	87.94
236.519	99.94
236.753	105.94
236.987	118.94
237.221	122.94
237.455	141.94
237.689	115.94
237.922	90.94
238.156	93.94
238.39	87.94
238.624	93.94
238.858	80.94
239.091	73.94
239.325	100.94
239.559	105.94
239.793	104.94
240.027	99.94
240.26	101.94
240.494	92.94
240.728	90.94
240.961	105.94
241.195	100.94
241.429	91.94
241.662	100.94
241.896	101.94
242.13	90.94
242.363	99.94
242.597	109.94
242.83	103.94
243.064	100.94
243.298	102.94
243.531	107.94
243.765	112.94
243.998	109.94
244.232	85.94
244.465	105.94
244.699	94.94
244.932	97.94
245.166	98.94
245.399	101.94
245.633	88.94
245.866	93.94
246.099	88.94
246.333	107.94
246.566	105.94
246.8	116.94
247.033	114.94
247.266	100.94
247.5	119.94
247.733	114.94
247.966	101.94
248.2	133.94
248.433	122.94
248.666	122.94
248.899	115.94
249.133	131.94
249.366	137.94
249.599	130.94
249.832	126.94
250.066	127.94
250.299	125.94
250.532	116.94
250.765	138.94
250.998	142.94
251.231	142.94
251.465	118.94
251.698	124.94
251.931	123.94
252.164	128.94
252.397	120.94
252.63	132.94
252.863	121.94
253.096	135.94
253.329	144.94
253.562	152.94
253.795	128.94
254.028	140.94
254.261	129.94
254.494	136.94
254.727	165.94
254.96	166.94
255.193	156.94
255.426	142.94
255.659	146.94
255.892	134.94
256.124	152.94
256.357	136.94
256.59	140.94
256.823	142.94
257.056	133.94
257.289	121.94
257.521	130.94
257.754	137.94
257.987	128.94
258.22	148.94
258.452	120.94
258.685	127.94
258.918	136.94
259.151	130.94
259.383	157.94
259.616	144.94
259.849	140.94
260.081	154.94
260.314	163.94
260.547	151.94
260.779	155.94
261.012	130.94
261.244	138.94
261.477	134.94
261.71	134.94
261.942	151.94
262.175	152.94
262.407	129.94
262.64	121.94
262.872	128.94
263.105	141.94
263.337	143.94
263.57	130.94
263.802	130.94
264.035	124.94
264.267	141.94
264.499	139.94
264.732	131.94
264.964	124.94
265.197	132.94
265.429	141.94
265.661	145.94
265.894	132.94
266.126	144.94
266.358	135.94
266.591	130.94
266.823	134.94
267.055	148.94
267.287	137.94
267.52	120.94
267.752	141.94
267.984	142.94
268.216	156.94
268.448	155.94
268.681	150.94
268.913	152.94
269.145	164.94
269.377	153.94
269.609	165.94
269.841	164.94
270.073	157.94
270.306	172.94
270.538	172.94
270.77	169.94
271.002	164.94
271.234	168.94
271.466	164.94
271.698	173.94
271.93	196.94
272.162	169.94
272.394	176.94
272.626	184.94
272.858	169.94
273.09	163.94
273.322	154.94
273.553	161.94
273.785	161.94
274.017	164.94
274.249	153.94
274.481	152.94
274.713	154.94
274.945	161.94
275.176	159.94
275.408	159.94
275.64	156.94
275.872	161.94
276.104	162.94
276.335	162.94
276.567	151.94
276.799	171.94
277.031	164.94
277.262	181.94
277.494	183.94
277.726	167.94
277.957	161.94
278.189	161.94
278.421	152.94
278.652	150.94
278.884	153.94
279.115	169.94
279.347	149.94
279.579	156.94
279.81	149.94
280.042	150.94
280.273	152.94
280.505	153.94
280.736	150.94
280.968	154.94
281.199	154.94
281.431	166.94
281.662	152.94
281.894	151.94
282.125	155.94
282.356	172.94
282.588	167.94
282.819	171.94
283.051	167.94
283.282	156.94
283.513	146.94
283.745	156.94
283.976	183.94
284.207	173.94
284.439	179.94
284.67	169.94
284.901	160.94
285.132	177.94
285.364	161.94
285.595	169.94
285.826	150.94
286.057	158.94
286.288	167.94
286.52	165.94
286.751	155.94
286.982	162.94
287.213	152.94
287.444	164.94
287.675	176.94
287.906	173.94
288.138	182.94
288.369	171.94
288.6	164.94
288.831	176.94
289.062	159.94
289.293	180.94
289.524	172.94
289.755	173.94
289.986	163.94
290.217	157.94
290.448	162.94
290.679	174.94
290.91	166.94
291.141	166.94
291.371	142.94
291.602	160.94
291.833	166.94
292.064	155.94
292.295	170.94
292.526	164.94
292.757	175.94
292.987	162.94
293.218	165.94
293.449	159.94
293.68	162.94
293.91	171.94
294.141	168.94
294.372	180.94
294.603	156.94
294.833	164.94
295.064	171.94
295.295	173.94
295.525	152.94
295.756	173.94
295.987	181.94
296.217	202.94
296.448	190.94
296.679	176.94
296.909	166.94
297.14	174.94
297.37	167.94
297.601	167.94
297.831	164.94
298.062	157.94
298.292	171.94
298.523	175.94
298.753	176.94
298.984	192.94
299.214	185.94
299.445	164.94
299.675	176.94
299.905	171.94
300.136	184.94
300.366	173.94
300.597	161.94
300.827	186.94
301.057	197.94
301.288	182.94
301.518	184.94
301.748	185.94
301.979	181.94
302.209	187.94
302.439	184.94
302.669	194.94
302.9	182.94
303.13	182.94
303.36	185.94
303.59	192.94
303.82	180.94
304.051	195.94
304.281	191.94
304.511	176.94
304.741	169.94
304.971	181.94
305.201	186.94
305.431	174.94
305.661	197.94
305.891	172.94
306.121	190.94
306.352	195.94
306.582	185.94
306.812	173.94
307.042	174.94
307.272	177.94
307.502	182.94
307.731	185.94
307.961	184.94
308.191	187.94
308.421	192.94
308.651	174.94
308.881	182.94
309.111	184.94
309.341	201.94
309.571	213.94
309.8	212.94
310.03	209.94
310.26	200.94
310.49	205.94
310.72	209.94
310.949	214.94
311.179	207.94
311.409	210.94
311.639	200.94
311.868	192.94
312.098	210.94
312.328	210.94
312.557	212.94
312.787	224.94
313.017	218.94
313.246	227.94
313.476	206.94
313.706	201.94
313.935	173.94
314.165	226.94
314.394	208.94
314.624	218.94
314.853	214.94
315.083	201.94
315.312	203.94
315.542	192.94
315.771	196.94
316.001	194.94
316.23	192.94
316.46	189.94
316.689	210.94
316.919	202.94
317.148	205.94
317.377	220.94
317.607	222.94
317.836	206.94
318.065	195.94
318.295	193.94
318.524	203.94
318.753	207.94
318.983	210.94
319.212	189.94
319.441	196.94
319.67	225.94
319.9	202.94
320.129	210.94
320.358	202.94
320.587	196.94
320.816	219.94
321.046	197.94
321.275	206.94
321.504	217.94
321.733	206.94
321.962	197.94
322.191	210.94
322.42	232.94
322.649	245.94
322.878	225.94
323.108	225.94
323.337	226.94
323.566	250.94
323.795	297.94
324.024	278.94
324.253	340.94
324.482	519.94
324.71	770.94
324.939	1004.94
325.168	838.94
325.397	418.94
325.626	301.94
325.855	262.94
326.084	265.94
326.313	251.94
326.542	256.94
326.77	286.94
326.999	333.94
327.228	444.94
327.457	681.94
327.686	772.94
327.914	505.94
328.143	352.94
328.372	308.94
328.6	295.94
328.829	290.94
329.058	293.94
329.287	317.94
329.515	280.94
329.744	274.94
329.972	285.94
330.201	290.94
330.43	325.94
330.658	318.94
330.887	346.94
331.115	313.94
331.344	277.94
331.572	251.94
331.801	246.94
332.03	243.94
332.258	245.94
332.486	232.94
332.715	237.94
332.943	235.94
333.172	220.94
333.4	245.94
333.629	252.94
333.857	254.94
334.085	260.94
334.314	269.94
334.542	288.94
334.771	309.94
334.999	265.94
335.227	246.94
335.455	230.94
335.684	226.94
335.912	238.94
336.14	228.94
336.369	223.94
336.597	233.94
336.825	228.94
337.053	215.94
337.281	233.94
337.51	220.94
337.738	219.94
337.966	241.94
338.194	229.94
338.422	222.94
338.65	225.94
338.878	219.94
339.106	233.94
339.334	222.94
339.562	249.94
339.79	219.94
340.018	214.94
340.246	217.94
340.474	228.94
340.702	241.94
340.93	222.94
341.158	226.94
341.386	214.94
341.614	222.94
341.842	232.94
342.07	221.94
342.298	208.94
342.526	211.94
342.754	213.94
342.981	224.94
343.209	204.94
343.437	214.94
343.665	233.94
343.893	220.94
344.12	231.94
344.348	228.94
344.576	225.94
344.804	231.94
345.031	230.94
345.259	228.94
345.487	218.94
345.714	209.94
345.942	228.94
346.17	216.94
346.397	227.94
346.625	227.94
346.853	220.94
347.08	216.94
347.308	216.94
347.535	208.94
347.763	229.94
347.99	224.94
348.218	216.94
348.445	237.94
348.673	218.94
348.9	231.94
349.128	212.94
349.355	206.94
349.583	209.94
349.81	198.94
350.037	211.94
350.265	223.94
350.492	215.94
350.72	209.94
350.947	214.94
351.174	211.94
351.402	223.94
351.629	214.94
351.856	216.94
352.083	202.94
352.311	227.94
352.538	226.94
352.765	243.94
352.992	205.94
353.22	210.94
353.447	214.94
353.674	202.94
353.901	200.94
354.128	194.94
354.355	210.94
354.583	189.94
354.81	208.94
355.037	205.94
355.264	212.94
355.491	189.94
355.718	192.94
355.945	193.94
356.172	216.94
356.399	210.94
356.626	199.94
356.853	198.94
357.08	191.94
357.307	196.94
357.534	189.94
357.761	205.94
357.988	212.94
358.215	194.94
358.441	203.94
358.668	216.94
358.895	185.94
359.122	216.94
359.349	211.94
359.576	216.94
359.802	220.94
360.029	262.94
360.256	255.94
360.483	247.94
360.709	227.94
360.936	194.94
361.163	214.94
361.39	214.94
361.616	212.94
361.843	197.94
362.07	230.94
362.296	231.94
362.523	220.94
362.749	217.94
362.976	236.94
363.203	222.94
363.429	205.94
363.656	189.94
363.882	197.94
364.109	205.94
364.335	219.94
364.562	213.94
364.788	204.94
365.015	209.94
365.241	198.94
365.468	214.94
365.694	204.94
365.92	224.94
366.147	204.94
366.373	200.94
366.599	202.94
366.826	195.94
367.052	221.94
367.278	201.94
367.505	193.94
367.731	206.94
367.957	222.94
368.184	195.94
368.41	229.94
368.636	202.94
368.862	216.94
369.089	208.94
369.315	210.94
369.541	203.94
369.767	200.94
369.993	212.94
370.219	197.94
370.445	200.94
370.672	208.94
370.898	198.94
371.124	209.94
371.35	199.94
371.576	200.94
371.802	208.94
372.028	190.94
372.254	207.94
372.48	197.94
372.706	203.94
372.932	210.94
373.158	209.94
373.384	223.94
373.61	216.94
373.835	204.94
374.061	195.94
374.287	218.94
374.513	214.94
374.739	203.94
374.965	193.94
375.191	211.94
375.416	197.94
375.642	205.94
375.868	210.94
376.094	205.94
376.319	216.94
376.545	200.94
376.771	208.94
376.997	209.94
377.222	220.94
377.448	201.94
377.674	188.94
377.899	197.94
378.125	203.94
378.35	203.94
378.576	192.94
378.802	180.94
379.027	188.94
379.253	204.94
379.478	197.94
379.704	193.94
379.929	201.94
380.155	197.94
380.38	204.94
380.606	208.94
380.831	193.94
381.057	204.94
381.282	218.94
381.507	176.94
381.733	189.94
381.958	195.94
382.184	206.94
382.409	216.94
382.634	204.94
382.86	202.94
383.085	205.94
383.31	179.94
383.535	220.94
383.761	204.94
383.986	213.94
384.211	218.94
384.436	211.94
384.662	205.94
384.887	207.94
385.112	223.94
385.337	196.94
385.562	214.94
385.787	227.94
386.013	222.94
386.238	201.94
386.463	217.94
386.688	224.94
386.913	206.94
387.138	217.94
387.363	226.94
387.588	228.94
387.813	212.94
388.038	231.94
388.263	215.94
388.488	200.94
388.713	216.94
388.938	229.94
389.163	217.94
389.387	217.94
389.612	202.94
389.837	225.94
390.062	226.94
390.287	210.94
390.512	225.94
390.736	218.94
390.961	208.94
391.186	205.94
391.411	224.94
391.636	215.94
391.86	217.94
392.085	232.94
392.31	213.94
392.534	231.94
392.759	227.94
392.984	230.94
393.208	229.94
393.433	217.94
393.658	221.94
393.882	215.94
394.107	209.94
394.331	236.94
394.556	220.94
394.78	197.94
395.005	220.94
395.229	217.94
395.454	230.94
395.678	226.94
395.903	219.94
396.127	236.94
396.352	254.94
396.576	213.94
396.801	230.94
397.025	235.94
397.249	229.94
397.474	225.94
397.698	227.94
397.922	247.94
398.147	260.94
398.371	248.94
398.595	228.94
398.82	260.94
399.044	246.94
399.268	244.94
399.492	278.94
399.717	280.94
399.941	288.94
400.165	306.94
400.389	283.94
400.613	266.94
400.837	262.94
401.062	241.94
401.286	250.94
401.51	254.94
401.734	237.94
401.958	241.94
402.182	262.94
402.406	260.94
402.63	259.94
402.854	254.94
403.078	252.94
403.302	245.94
403.526	267.94
403.75	255.94
403.974	258.94
404.198	250.94
404.422	266.94
404.645	263.94
404.869	253.94
405.093	254.94
405.317	289.94
405.541	304.94
405.765	299.94
405.988	266.94
406.212	280.94
406.436	296.94
406.66	306.94
406.883	280.94
407.107	289.94
407.331	305.94
407.555	325.94
407.778	310.94
408.002	310.94
408.226	278.94
408.449	304.94
408.673	281.94
408.896	299.94
409.12	298.94
409.344	290.94
409.567	268.94
409.791	252.94
410.014	272.94
410.238	257.94
410.461	258.94
410.685	250.94
410.908	262.94
411.132	301.94
411.355	290.94
411.578	269.94
411.802	268.94
412.025	260.94
412.249	261.94
412.472	274.94
412.695	264.94
412.919	298.94
413.142	266.94
413.365	257.94
413.589	265.94
413.812	255.94
414.035	264.94
414.258	233.94
414.482	257.94
414.705	256.94
414.928	244.94
415.151	231.94
415.374	258.94
415.597	248.94
415.821	243.94
416.044	224.94
416.267	256.94
416.49	246.94
416.713	254.94
416.936	234.94
417.159	237.94
417.382	232.94
417.605	251.94
417.828	244.94
418.051	260.94
418.274	259.94
418.497	253.94
418.72	237.94
418.943	245.94
419.166	245.94
419.389	277.94
419.611	243.94
419.834	256.94
420.057	270.94
420.28	260.94
420.503	240.94
420.726	265.94
420.948	268.94
421.171	288.94
421.394	302.94
421.617	261.94
421.839	239.94
422.062	263.94
422.285	269.94
422.507	292.94
422.73	309.94
422.953	304.94
423.175	268.94
423.398	264.94
423.621	272.94
423.843	283.94
424.066	283.94
424.288	284.94
424.511	285.94
424.733	293.94
424.956	328.94
425.178	334.94
425.401	334.94
425.623	335.94
425.846	269.94
426.068	269.94
426.291	260.94
426.513	269.94
426.735	272.94
426.958	300.94
427.18	324.94
427.402	375.94
427.625	418.94
427.847	354.94
428.069	315.94
428.292	284.94
428.514	280.94
428.736	247.94
428.958	276.94
429.181	250.94
429.403	250.94
429.625	260.94
429.847	271.94
430.069	293.94
430.292	294.94
430.514	271.94
430.736	282.94
430.958	259.94
431.18	254.94
431.402	255.94
431.624	242.94
431.846	237.94
432.068	224.94
432.29	232.94
432.512	257.94
432.734	255.94
432.956	276.94
433.178	242.94
433.4	240.94
433.622	256.94
433.844	243.94
434.066	262.94
434.287	245.94
434.509	240.94
434.731	246.94
434.953	268.94
435.175	261.94
435.397	287.94
435.618	277.94
435.84	276.94
436.062	328.94
436.284	344.94
436.505	322.94
436.727	270.94
436.949	251.94
437.17	254.94
437.392	250.94
437.614	265.94
437.835	277.94
438.057	339.94
438.278	358.94
438.5	344.94
438.721	386.94
438.943	370.94
439.165	310.94
439.386	294.94
439.608	276.94
439.829	269.94
440.05	286.94
440.272	328.94
440.493	286.94
440.715	270.94
440.936	245.94
441.158	251.94
441.379	250.94
441.6	277.94
441.822	285.94
442.043	298.94
442.264	331.94
442.486	338.94
442.707	290.94
442.928	286.94
443.149	289.94
443.371	311.94
443.592	314.94
443.813	342.94
444.034	368.94
444.255	302.94
444.476	280.94
444.698	275.94
444.919	270.94
445.14	381.94
445.361	323.94
445.582	297.94
445.803	334.94
446.024	374.94
446.245	391.94
446.466	324.94
446.687	285.94
446.908	276.94
447.129	265.94
447.35	264.94
447.571	282.94
447.792	267.94
448.013	263.94
448.234	255.94
448.455	293.94
448.675	344.94
448.896	353.94
449.117	318.94
449.338	304.94
449.559	352.94
449.779	384.94
450	307.94
450.221	256.94
450.442	285.94
450.662	272.94
450.883	261.94
451.104	270.94
451.324	275.94
451.545	244.94
451.766	237.94
451.986	232.94
452.207	231.94
452.428	225.94
452.648	233.94
452.869	230.94
453.089	242.94
453.31	241.94
453.53	242.94
453.751	252.94
453.971	241.94
454.192	247.94
454.412	237.94
454.633	227.94
454.853	218.94
455.073	219.94
455.294	233.94
455.514	267.94
455.734	278.94
455.955	225.94
456.175	211.94
456.395	218.94
456.616	208.94
456.836	211.94
457.056	221.94
457.276	223.94
457.497	203.94
457.717	218.94
457.937	232.94
458.157	233.94
458.377	229.94
458.598	244.94
458.818	276.94
459.038	316.94
459.258	313.94
459.478	253.94
459.698	257.94
459.918	243.94
460.138	249.94
460.358	241.94
460.578	251.94
460.798	256.94
461.018	236.94
461.238	244.94
461.458	258.94
461.678	242.94
461.898	244.94
462.118	253.94
462.338	247.94
462.558	262.94
462.777	226.94
462.997	269.94
463.217	256.94
463.437	253.94
463.657	249.94
463.876	262.94
464.096	252.94
464.316	260.94
464.536	280.94
464.755	277.94
464.975	262.94
465.195	300.94
465.414	340.94
465.634	289.94
465.854	262.94
466.073	244.94
466.293	227.94
466.512	235.94
466.732	252.94
466.951	242.94
467.171	235.94
467.391	235.94
467.61	263.94
467.829	255.94
468.049	242.94
468.268	258.94
468.488	248.94
468.707	227.94
468.927	226.94
469.146	233.94
469.365	241.94
469.585	225.94
469.804	238.94
470.023	236.94
470.243	243.94
470.462	228.94
470.681	257.94
470.901	232.94
471.12	256.94
471.339	242.94
471.558	244.94
471.777	235.94
471.997	230.94
472.216	241.94
472.435	259.94
472.654	258.94
472.873	229.94
473.092	223.94
473.311	238.94
473.53	241.94
473.749	218.94
473.968	266.94
474.187	317.94
474.406	320.94
474.625	263.94
474.844	246.94
475.063	243.94
475.282	212.94
475.501	220.94
475.72	252.94
475.939	236.94
476.158	219.94
476.377	238.94
476.596	255.94
476.814	249.94
477.033	277.94
477.252	241.94
477.471	248.94
477.69	238.94
477.908	250.94
478.127	262.94
478.346	251.94
478.564	273.94
478.783	275.94
479.002	266.94
479.22	283.94
479.439	282.94
479.658	268.94
479.876	296.94
480.095	283.94
480.313	290.94
480.532	295.94
480.751	289.94
480.969	294.94
481.188	354.94
481.406	377.94
481.624	318.94
481.843	288.94
482.061	269.94
482.28	282.94
482.498	288.94
482.717	245.94
482.935	264.94
483.153	266.94
483.372	282.94
483.59	287.94
483.808	250.94
484.027	256.94
484.245	280.94
484.463	268.94
484.681	292.94
484.9	282.94
485.118	275.94
485.336	288.94
485.554	289.94
485.772	278.94
485.99	262.94
486.209	283.94
486.427	292.94
486.645	291.94
486.863	313.94
487.081	308.94
487.299	294.94
487.517	289.94
487.735	290.94
487.953	290.94
488.171	315.94
488.389	306.94
488.607	282.94
488.825	260.94
489.043	288.94
489.261	288.94
489.479	294.94
489.696	311.94
489.914	283.94
490.132	298.94
490.35	339.94
490.568	324.94
490.786	320.94
491.003	332.94
491.221	341.94
491.439	339.94
491.657	360.94
491.874	353.94
492.092	344.94
492.31	356.94
492.527	331.94
492.745	343.94
492.963	348.94
493.18	310.94
493.398	335.94
493.615	369.94
493.833	349.94
494.05	333.94
494.268	349.94
494.485	344.94
494.703	340.94
494.92	351.94
495.138	334.94
495.355	354.94
495.573	347.94
495.79	346.94
496.008	364.94
496.225	355.94
496.442	339.94
496.66	353.94
496.877	361.94
497.094	332.94
497.312	361.94
497.529	356.94
497.746	351.94
497.963	341.94
498.181	369.94
498.398	356.94
498.615	392.94
498.832	372.94
499.049	376.94
499.267	389.94
499.484	408.94
499.701	404.94
499.918	407.94
500.135	426.94
500.352	455.94
500.569	470.94
500.786	460.94
501.003	447.94
501.22	458.94
501.437	418.94
501.654	420.94
501.871	428.94
502.088	396.94
502.305	391.94
502.522	381.94
