Data from 1966.PennyLincolnUp.Lamp.En5.5.200Scan.071719.P1._HRD10591_14-13-17-913.txt Node
Date: Thu Jul 18 14:13:17 EDT 2019
User: cochatt
Spectrometer: HR+D1059
Trigger mode: 1
Integration Time (sec): 1.000000E-1
Scans to average: 1
Electric dark correction enabled: true
Nonlinearity correction enabled: false
Boxcar width: 0
XAxis mode: Wavelengths
Number of Pixels in Spectrum: 2048
>>>>>Begin Spectral Data<<<<<
223.165	-17.75
223.4	-17.75
223.635	-17.75
223.869	-13.75
224.104	-20.75
224.338	-13.75
224.573	-8.75
224.808	-2.75
225.042	-12.75
225.277	-7.75
225.511	8.25
225.746	10.25
225.98	-2.75
226.215	5.25
226.449	12.25
226.683	20.25
226.918	23.25
227.152	21.25
227.387	46.25
227.621	40.25
227.856	30.25
228.09	48.25
228.324	50.25
228.559	52.25
228.793	53.25
229.027	70.25
229.262	83.25
229.496	81.25
229.73	93.25
229.964	108.25
230.199	85.25
230.433	86.25
230.667	86.25
230.901	105.25
231.136	98.25
231.37	105.25
231.604	91.25
231.838	82.25
232.072	84.25
232.306	102.25
232.541	89.25
232.775	100.25
233.009	95.25
233.243	82.25
233.477	81.25
233.711	94.25
233.945	94.25
234.179	98.25
234.413	96.25
234.647	91.25
234.881	99.25
235.115	99.25
235.349	101.25
235.583	94.25
235.817	86.25
236.051	106.25
236.285	99.25
236.519	102.25
236.753	106.25
236.987	111.25
237.221	126.25
237.455	144.25
237.689	124.25
237.922	107.25
238.156	98.25
238.39	99.25
238.624	106.25
238.858	98.25
239.091	102.25
239.325	102.25
239.559	93.25
239.793	102.25
240.027	100.25
240.26	118.25
240.494	111.25
240.728	107.25
240.961	111.25
241.195	102.25
241.429	102.25
241.662	101.25
241.896	108.25
242.13	96.25
242.363	110.25
242.597	123.25
242.83	110.25
243.064	81.25
243.298	113.25
243.531	104.25
243.765	102.25
243.998	101.25
244.232	107.25
244.465	112.25
244.699	114.25
244.932	108.25
245.166	92.25
245.399	100.25
245.633	101.25
245.866	106.25
246.099	100.25
246.333	117.25
246.566	129.25
246.8	112.25
247.033	122.25
247.266	106.25
247.5	112.25
247.733	99.25
247.966	116.25
248.2	126.25
248.433	123.25
248.666	122.25
248.899	122.25
249.133	120.25
249.366	140.25
249.599	120.25
249.832	126.25
250.066	109.25
250.299	114.25
250.532	116.25
250.765	138.25
250.998	138.25
251.231	138.25
251.465	126.25
251.698	127.25
251.931	126.25
252.164	129.25
252.397	119.25
252.63	111.25
252.863	135.25
253.096	134.25
253.329	140.25
253.562	135.25
253.795	115.25
254.028	143.25
254.261	123.25
254.494	140.25
254.727	160.25
254.96	167.25
255.193	158.25
255.426	154.25
255.659	140.25
255.892	137.25
256.124	128.25
256.357	139.25
256.59	144.25
256.823	128.25
257.056	127.25
257.289	104.25
257.521	118.25
257.754	118.25
257.987	134.25
258.22	123.25
258.452	128.25
258.685	128.25
258.918	126.25
259.151	121.25
259.383	122.25
259.616	136.25
259.849	125.25
260.081	142.25
260.314	149.25
260.547	155.25
260.779	150.25
261.012	137.25
261.244	144.25
261.477	138.25
261.71	126.25
261.942	127.25
262.175	147.25
262.407	159.25
262.64	114.25
262.872	134.25
263.105	130.25
263.337	127.25
263.57	146.25
263.802	136.25
264.035	125.25
264.267	137.25
264.499	131.25
264.732	132.25
264.964	131.25
265.197	126.25
265.429	130.25
265.661	134.25
265.894	135.25
266.126	124.25
266.358	134.25
266.591	140.25
266.823	136.25
267.055	123.25
267.287	137.25
267.52	120.25
267.752	141.25
267.984	142.25
268.216	134.25
268.448	140.25
268.681	132.25
268.913	154.25
269.145	151.25
269.377	166.25
269.609	170.25
269.841	163.25
270.073	167.25
270.306	178.25
270.538	171.25
270.77	174.25
271.002	186.25
271.234	166.25
271.466	175.25
271.698	167.25
271.93	173.25
272.162	167.25
272.394	173.25
272.626	156.25
272.858	161.25
273.09	173.25
273.322	150.25
273.553	144.25
273.785	152.25
274.017	142.25
274.249	159.25
274.481	133.25
274.713	159.25
274.945	157.25
275.176	157.25
275.408	151.25
275.64	149.25
275.872	138.25
276.104	145.25
276.335	152.25
276.567	162.25
276.799	174.25
277.031	176.25
277.262	193.25
277.494	183.25
277.726	167.25
277.957	171.25
278.189	159.25
278.421	161.25
278.652	148.25
278.884	163.25
279.115	157.25
279.347	162.25
279.579	159.25
279.81	140.25
280.042	164.25
280.273	159.25
280.505	156.25
280.736	158.25
280.968	159.25
281.199	149.25
281.431	159.25
281.662	165.25
281.894	162.25
282.125	157.25
282.356	153.25
282.588	166.25
282.819	181.25
283.051	157.25
283.282	149.25
283.513	155.25
283.745	166.25
283.976	167.25
284.207	156.25
284.439	156.25
284.67	160.25
284.901	159.25
285.132	166.25
285.364	163.25
285.595	158.25
285.826	166.25
286.057	156.25
286.288	162.25
286.52	157.25
286.751	161.25
286.982	155.25
287.213	162.25
287.444	173.25
287.675	166.25
287.906	162.25
288.138	161.25
288.369	173.25
288.6	166.25
288.831	169.25
289.062	181.25
289.293	174.25
289.524	163.25
289.755	158.25
289.986	161.25
290.217	162.25
290.448	153.25
290.679	160.25
290.91	165.25
291.141	178.25
291.371	171.25
291.602	180.25
291.833	159.25
292.064	152.25
292.295	172.25
292.526	170.25
292.757	161.25
292.987	151.25
293.218	158.25
293.449	164.25
293.68	160.25
293.91	166.25
294.141	147.25
294.372	162.25
294.603	151.25
294.833	177.25
295.064	166.25
295.295	157.25
295.525	183.25
295.756	169.25
295.987	173.25
296.217	192.25
296.448	192.25
296.679	179.25
296.909	170.25
297.14	167.25
297.37	180.25
297.601	171.25
297.831	165.25
298.062	179.25
298.292	165.25
298.523	174.25
298.753	159.25
298.984	174.25
299.214	174.25
299.445	169.25
299.675	175.25
299.905	184.25
300.136	171.25
300.366	172.25
300.597	159.25
300.827	171.25
301.057	182.25
301.288	183.25
301.518	186.25
301.748	178.25
301.979	180.25
302.209	186.25
302.439	170.25
302.669	185.25
302.9	187.25
303.13	206.25
303.36	175.25
303.59	184.25
303.82	174.25
304.051	186.25
304.281	179.25
304.511	187.25
304.741	187.25
304.971	175.25
305.201	169.25
305.431	187.25
305.661	185.25
305.891	194.25
306.121	190.25
306.352	193.25
306.582	188.25
306.812	196.25
307.042	178.25
307.272	179.25
307.502	188.25
307.731	176.25
307.961	187.25
308.191	182.25
308.421	178.25
308.651	189.25
308.881	179.25
309.111	196.25
309.341	195.25
309.571	193.25
309.8	186.25
310.03	189.25
310.26	192.25
310.49	200.25
310.72	204.25
310.949	210.25
311.179	215.25
311.409	204.25
311.639	212.25
311.868	196.25
312.098	206.25
312.328	206.25
312.557	228.25
312.787	234.25
313.017	204.25
313.246	208.25
313.476	202.25
313.706	217.25
313.935	219.25
314.165	218.25
314.394	220.25
314.624	211.25
314.853	200.25
315.083	212.25
315.312	206.25
315.542	201.25
315.771	182.25
316.001	200.25
316.23	207.25
316.46	208.25
316.689	201.25
316.919	219.25
317.148	205.25
317.377	212.25
317.607	196.25
317.836	207.25
318.065	218.25
318.295	186.25
318.524	199.25
318.753	203.25
318.983	198.25
319.212	198.25
319.441	199.25
319.67	193.25
319.9	203.25
320.129	198.25
320.358	194.25
320.587	194.25
320.816	197.25
321.046	191.25
321.275	219.25
321.504	204.25
321.733	207.25
321.962	214.25
322.191	216.25
322.42	218.25
322.649	216.25
322.878	228.25
323.108	245.25
323.337	236.25
323.566	239.25
323.795	265.25
324.024	294.25
324.253	362.25
324.482	507.25
324.71	716.25
324.939	956.25
325.168	779.25
325.397	403.25
325.626	292.25
325.855	238.25
326.084	228.25
326.313	228.25
326.542	265.25
326.77	290.25
326.999	337.25
327.228	451.25
327.457	675.25
327.686	732.25
327.914	487.25
328.143	353.25
328.372	325.25
328.6	308.25
328.829	278.25
329.058	281.25
329.287	297.25
329.515	261.25
329.744	260.25
329.972	271.25
330.201	284.25
330.43	302.25
330.658	309.25
330.887	300.25
331.115	322.25
331.344	250.25
331.572	238.25
331.801	261.25
332.03	243.25
332.258	250.25
332.486	237.25
332.715	220.25
332.943	230.25
333.172	238.25
333.4	236.25
333.629	249.25
333.857	260.25
334.085	254.25
334.314	263.25
334.542	288.25
334.771	298.25
334.999	267.25
335.227	237.25
335.455	238.25
335.684	233.25
335.912	226.25
336.14	224.25
336.369	218.25
336.597	239.25
336.825	246.25
337.053	236.25
337.281	227.25
337.51	223.25
337.738	216.25
337.966	210.25
338.194	217.25
338.422	213.25
338.65	214.25
338.878	217.25
339.106	231.25
339.334	228.25
339.562	206.25
339.79	207.25
340.018	214.25
340.246	202.25
340.474	223.25
340.702	217.25
340.93	226.25
341.158	212.25
341.386	223.25
341.614	219.25
341.842	219.25
342.07	214.25
342.298	232.25
342.526	214.25
342.754	218.25
342.981	218.25
343.209	207.25
343.437	214.25
343.665	218.25
343.893	219.25
344.12	228.25
344.348	217.25
344.576	235.25
344.804	219.25
345.031	207.25
345.259	246.25
345.487	234.25
345.714	219.25
345.942	223.25
346.17	211.25
346.397	187.25
346.625	215.25
346.853	212.25
347.08	211.25
347.308	214.25
347.535	206.25
347.763	215.25
347.99	223.25
348.218	223.25
348.445	214.25
348.673	208.25
348.9	211.25
349.128	224.25
349.355	206.25
349.583	211.25
349.81	206.25
350.037	222.25
350.265	204.25
350.492	207.25
350.72	202.25
350.947	200.25
351.174	214.25
351.402	217.25
351.629	224.25
351.856	228.25
352.083	228.25
352.311	224.25
352.538	205.25
352.765	239.25
352.992	209.25
353.22	223.25
353.447	221.25
353.674	207.25
353.901	206.25
354.128	215.25
354.355	200.25
354.583	202.25
354.81	208.25
355.037	199.25
355.264	192.25
355.491	206.25
355.718	216.25
355.945	197.25
356.172	196.25
356.399	204.25
356.626	201.25
356.853	202.25
357.08	193.25
357.307	218.25
357.534	187.25
357.761	206.25
357.988	201.25
358.215	200.25
358.441	200.25
358.668	194.25
358.895	199.25
359.122	211.25
359.349	224.25
359.576	219.25
359.802	232.25
360.029	250.25
360.256	250.25
360.483	254.25
360.709	199.25
360.936	218.25
361.163	223.25
361.39	187.25
361.616	215.25
361.843	204.25
362.07	199.25
362.296	215.25
362.523	220.25
362.749	198.25
362.976	211.25
363.203	204.25
363.429	198.25
363.656	210.25
363.882	210.25
364.109	195.25
364.335	197.25
364.562	196.25
364.788	194.25
365.015	214.25
365.241	210.25
365.468	187.25
365.694	201.25
365.92	223.25
366.147	202.25
366.373	202.25
366.599	197.25
366.826	211.25
367.052	198.25
367.278	213.25
367.505	202.25
367.731	210.25
367.957	213.25
368.184	184.25
368.41	217.25
368.636	214.25
368.862	215.25
369.089	200.25
369.315	199.25
369.541	185.25
369.767	200.25
369.993	190.25
370.219	201.25
370.445	190.25
370.672	196.25
370.898	194.25
371.124	186.25
371.35	193.25
371.576	201.25
371.802	204.25
372.028	207.25
372.254	206.25
372.48	189.25
372.706	171.25
372.932	211.25
373.158	200.25
373.384	208.25
373.61	212.25
373.835	205.25
374.061	192.25
374.287	203.25
374.513	219.25
374.739	204.25
374.965	202.25
375.191	223.25
375.416	208.25
375.642	222.25
375.868	200.25
376.094	204.25
376.319	191.25
376.545	202.25
376.771	194.25
376.997	184.25
377.222	186.25
377.448	199.25
377.674	186.25
377.899	198.25
378.125	190.25
378.35	207.25
378.576	186.25
378.802	199.25
379.027	201.25
379.253	211.25
379.478	182.25
379.704	187.25
379.929	198.25
380.155	202.25
380.38	196.25
380.606	212.25
380.831	200.25
381.057	206.25
381.282	188.25
381.507	193.25
381.733	201.25
381.958	190.25
382.184	183.25
382.409	190.25
382.634	198.25
382.86	211.25
383.085	204.25
383.31	207.25
383.535	195.25
383.761	204.25
383.986	224.25
384.211	218.25
384.436	220.25
384.662	218.25
384.887	205.25
385.112	212.25
385.337	219.25
385.562	206.25
385.787	209.25
386.013	217.25
386.238	218.25
386.463	209.25
386.688	211.25
386.913	213.25
387.138	217.25
387.363	206.25
387.588	204.25
387.813	210.25
388.038	218.25
388.263	219.25
388.488	209.25
388.713	214.25
388.938	222.25
389.163	229.25
389.387	235.25
389.612	218.25
389.837	244.25
390.062	218.25
390.287	208.25
390.512	213.25
390.736	210.25
390.961	218.25
391.186	206.25
391.411	209.25
391.636	227.25
391.86	214.25
392.085	214.25
392.31	222.25
392.534	219.25
392.759	211.25
392.984	218.25
393.208	223.25
393.433	206.25
393.658	218.25
393.882	217.25
394.107	225.25
394.331	223.25
394.556	220.25
394.78	222.25
395.005	225.25
395.229	212.25
395.454	222.25
395.678	237.25
395.903	227.25
396.127	226.25
396.352	231.25
396.576	216.25
396.801	224.25
397.025	231.25
397.249	238.25
397.474	235.25
397.698	238.25
397.922	259.25
398.147	228.25
398.371	235.25
398.595	227.25
398.82	225.25
399.044	237.25
399.268	251.25
399.492	276.25
399.717	298.25
399.941	290.25
400.165	282.25
400.389	276.25
400.613	277.25
400.837	252.25
401.062	262.25
401.286	235.25
401.51	237.25
401.734	254.25
401.958	236.25
402.182	252.25
402.406	253.25
402.63	268.25
402.854	269.25
403.078	235.25
403.302	254.25
403.526	262.25
403.75	253.25
403.974	232.25
404.198	248.25
404.422	246.25
404.645	261.25
404.869	243.25
405.093	246.25
405.317	295.25
405.541	271.25
405.765	268.25
405.988	243.25
406.212	284.25
406.436	291.25
406.66	304.25
406.883	278.25
407.107	278.25
407.331	295.25
407.555	308.25
407.778	316.25
408.002	294.25
408.226	284.25
408.449	272.25
408.673	269.25
408.896	296.25
409.12	300.25
409.344	270.25
409.567	240.25
409.791	240.25
410.014	267.25
410.238	250.25
410.461	259.25
410.685	255.25
410.908	259.25
411.132	272.25
411.355	287.25
411.578	266.25
411.802	266.25
412.025	259.25
412.249	259.25
412.472	253.25
412.695	271.25
412.919	264.25
413.142	256.25
413.365	235.25
413.589	231.25
413.812	228.25
414.035	228.25
414.258	239.25
414.482	223.25
414.705	238.25
414.928	254.25
415.151	230.25
415.374	223.25
415.597	233.25
415.821	237.25
416.044	237.25
416.267	224.25
416.49	258.25
416.713	234.25
416.936	231.25
417.159	246.25
417.382	226.25
417.605	230.25
417.828	254.25
418.051	234.25
418.274	250.25
418.497	247.25
418.72	237.25
418.943	242.25
419.166	261.25
419.389	239.25
419.611	245.25
419.834	247.25
420.057	258.25
420.28	262.25
420.503	269.25
420.726	256.25
420.948	259.25
421.171	263.25
421.394	291.25
421.617	266.25
421.839	234.25
422.062	246.25
422.285	256.25
422.507	287.25
422.73	296.25
422.953	287.25
423.175	272.25
423.398	247.25
423.621	266.25
423.843	266.25
424.066	265.25
424.288	255.25
424.511	285.25
424.733	281.25
424.956	326.25
425.178	294.25
425.401	285.25
425.623	311.25
425.846	276.25
426.068	262.25
426.291	254.25
426.513	248.25
426.735	253.25
426.958	288.25
427.18	320.25
427.402	395.25
427.625	423.25
427.847	359.25
428.069	342.25
428.292	292.25
428.514	243.25
428.736	249.25
428.958	233.25
429.181	259.25
429.403	252.25
429.625	247.25
429.847	266.25
430.069	280.25
430.292	278.25
430.514	253.25
430.736	277.25
430.958	245.25
431.18	228.25
431.402	250.25
431.624	237.25
431.846	240.25
432.068	235.25
432.29	234.25
432.512	244.25
432.734	235.25
432.956	235.25
433.178	244.25
433.4	234.25
433.622	238.25
433.844	247.25
434.066	246.25
434.287	244.25
434.509	245.25
434.731	246.25
434.953	235.25
435.175	264.25
435.397	296.25
435.618	272.25
435.84	284.25
436.062	329.25
436.284	355.25
436.505	301.25
436.727	272.25
436.949	255.25
437.17	240.25
437.392	252.25
437.614	241.25
437.835	271.25
438.057	325.25
438.278	348.25
438.5	335.25
438.721	365.25
438.943	354.25
439.165	286.25
439.386	271.25
439.608	278.25
439.829	267.25
440.05	284.25
440.272	293.25
440.493	276.25
440.715	262.25
440.936	252.25
441.158	237.25
441.379	254.25
441.6	246.25
441.822	279.25
442.043	294.25
442.264	327.25
442.486	324.25
442.707	289.25
442.928	276.25
443.149	285.25
443.371	302.25
443.592	301.25
443.813	332.25
444.034	352.25
444.255	312.25
444.476	264.25
444.698	256.25
444.919	259.25
445.14	353.25
445.361	322.25
445.582	293.25
445.803	324.25
446.024	350.25
446.245	346.25
446.466	331.25
446.687	290.25
446.908	249.25
447.129	281.25
447.35	257.25
447.571	244.25
447.792	250.25
448.013	250.25
448.234	263.25
448.455	268.25
448.675	324.25
448.896	358.25
449.117	307.25
449.338	280.25
449.559	338.25
449.779	382.25
450	295.25
450.221	235.25
450.442	253.25
450.662	252.25
450.883	235.25
451.104	271.25
451.324	232.25
451.545	222.25
451.766	227.25
451.986	233.25
452.207	229.25
452.428	235.25
452.648	217.25
452.869	234.25
453.089	238.25
453.31	231.25
453.53	229.25
453.751	227.25
453.971	217.25
454.192	245.25
454.412	230.25
454.633	227.25
454.853	232.25
455.073	231.25
455.294	228.25
455.514	257.25
455.734	269.25
455.955	234.25
456.175	216.25
456.395	210.25
456.616	216.25
456.836	213.25
457.056	208.25
457.276	210.25
457.497	210.25
457.717	198.25
457.937	223.25
458.157	217.25
458.377	221.25
458.598	224.25
458.818	284.25
459.038	290.25
459.258	299.25
459.478	262.25
459.698	219.25
459.918	214.25
460.138	239.25
460.358	229.25
460.578	238.25
460.798	238.25
461.018	237.25
461.238	247.25
461.458	231.25
461.678	238.25
461.898	231.25
462.118	232.25
462.338	229.25
462.558	239.25
462.777	235.25
462.997	265.25
463.217	260.25
463.437	252.25
463.657	259.25
463.876	246.25
464.096	251.25
464.316	247.25
464.536	250.25
464.755	256.25
464.975	263.25
465.195	312.25
465.414	320.25
465.634	307.25
465.854	234.25
466.073	235.25
466.293	234.25
466.512	224.25
466.732	219.25
466.951	239.25
467.171	226.25
467.391	240.25
467.61	260.25
467.829	243.25
468.049	244.25
468.268	235.25
468.488	221.25
468.707	217.25
468.927	219.25
469.146	219.25
469.365	220.25
469.585	232.25
469.804	220.25
470.023	242.25
470.243	239.25
470.462	226.25
470.681	260.25
470.901	237.25
471.12	228.25
471.339	221.25
471.558	243.25
471.777	244.25
471.997	236.25
472.216	251.25
472.435	276.25
472.654	236.25
472.873	235.25
473.092	235.25
473.311	223.25
473.53	230.25
473.749	226.25
473.968	255.25
474.187	302.25
474.406	333.25
474.625	251.25
474.844	236.25
475.063	233.25
475.282	214.25
475.501	232.25
475.72	238.25
475.939	239.25
476.158	222.25
476.377	239.25
476.596	220.25
476.814	242.25
477.033	252.25
477.252	266.25
477.471	242.25
477.69	240.25
477.908	230.25
478.127	250.25
478.346	254.25
478.564	241.25
478.783	247.25
479.002	269.25
479.22	248.25
479.439	260.25
479.658	297.25
479.876	267.25
480.095	285.25
480.313	300.25
480.532	273.25
480.751	284.25
480.969	308.25
481.188	358.25
481.406	344.25
481.624	302.25
481.843	279.25
482.061	269.25
482.28	267.25
482.498	256.25
482.717	272.25
482.935	244.25
483.153	270.25
483.372	260.25
483.59	263.25
483.808	270.25
484.027	265.25
484.245	260.25
484.463	272.25
484.681	276.25
484.9	261.25
485.118	277.25
485.336	270.25
485.554	291.25
485.772	290.25
485.99	260.25
486.209	286.25
486.427	295.25
486.645	274.25
486.863	300.25
487.081	281.25
487.299	282.25
487.517	285.25
487.735	295.25
487.953	281.25
488.171	286.25
488.389	293.25
488.607	290.25
488.825	270.25
489.043	302.25
489.261	280.25
489.479	300.25
489.696	301.25
489.914	275.25
490.132	292.25
490.35	317.25
490.568	282.25
490.786	293.25
491.003	308.25
491.221	319.25
491.439	314.25
491.657	331.25
491.874	330.25
492.092	340.25
492.31	334.25
492.527	347.25
492.745	329.25
492.963	351.25
493.18	339.25
493.398	336.25
493.615	346.25
493.833	347.25
494.05	348.25
494.268	342.25
494.485	327.25
494.703	341.25
494.92	338.25
495.138	311.25
495.355	333.25
495.573	335.25
495.79	337.25
496.008	320.25
496.225	330.25
496.442	324.25
496.66	330.25
496.877	336.25
497.094	335.25
497.312	331.25
497.529	335.25
497.746	322.25
497.963	345.25
498.181	352.25
498.398	357.25
498.615	348.25
498.832	359.25
499.049	381.25
499.267	380.25
499.484	391.25
499.701	394.25
499.918	404.25
500.135	431.25
500.352	438.25
500.569	437.25
500.786	457.25
501.003	436.25
501.22	418.25
501.437	434.25
501.654	408.25
501.871	426.25
502.088	397.25
502.305	362.25
502.522	359.25
