Data from 1966.PennyLincolnUp.Lamp.En5.5.200Scan.071719.P1._HRD10591_14-14-47-914.txt Node
Date: Thu Jul 18 14:14:47 EDT 2019
User: cochatt
Spectrometer: HR+D1059
Trigger mode: 1
Integration Time (sec): 1.000000E-1
Scans to average: 1
Electric dark correction enabled: true
Nonlinearity correction enabled: false
Boxcar width: 0
XAxis mode: Wavelengths
Number of Pixels in Spectrum: 2048
>>>>>Begin Spectral Data<<<<<
223.165	-7.94
223.4	-7.94
223.635	-7.94
223.869	-1.94
224.104	-9.94
224.338	-14.94
224.573	-2.94
224.808	-15.94
225.042	-15.94
225.277	-17.94
225.511	4.06
225.746	0.06
225.98	0.06
226.215	18.06
226.449	16.06
226.683	12.06
226.918	20.06
227.152	17.06
227.387	27.06
227.621	24.06
227.856	42.06
228.09	38.06
228.324	48.06
228.559	48.06
228.793	64.06
229.027	64.06
229.262	70.06
229.496	90.06
229.73	104.06
229.964	93.06
230.199	102.06
230.433	95.06
230.667	92.06
230.901	84.06
231.136	105.06
231.37	94.06
231.604	96.06
231.838	95.06
232.072	97.06
232.306	80.06
232.541	100.06
232.775	84.06
233.009	92.06
233.243	90.06
233.477	105.06
233.711	104.06
233.945	100.06
234.179	101.06
234.413	97.06
234.647	107.06
234.881	104.06
235.115	79.06
235.349	90.06
235.583	89.06
235.817	96.06
236.051	89.06
236.285	92.06
236.519	93.06
236.753	104.06
236.987	116.06
237.221	127.06
237.455	154.06
237.689	128.06
237.922	90.06
238.156	96.06
238.39	101.06
238.624	88.06
238.858	86.06
239.091	88.06
239.325	92.06
239.559	90.06
239.793	105.06
240.027	112.06
240.26	114.06
240.494	104.06
240.728	107.06
240.961	121.06
241.195	102.06
241.429	110.06
241.662	90.06
241.896	100.06
242.13	96.06
242.363	101.06
242.597	91.06
242.83	99.06
243.064	110.06
243.298	84.06
243.531	102.06
243.765	106.06
243.998	103.06
244.232	103.06
244.465	98.06
244.699	96.06
244.932	110.06
245.166	102.06
245.399	110.06
245.633	99.06
245.866	106.06
246.099	107.06
246.333	100.06
246.566	100.06
246.8	115.06
247.033	106.06
247.266	111.06
247.5	114.06
247.733	109.06
247.966	116.06
248.2	116.06
248.433	113.06
248.666	113.06
248.899	125.06
249.133	134.06
249.366	142.06
249.599	131.06
249.832	108.06
250.066	110.06
250.299	111.06
250.532	124.06
250.765	135.06
250.998	145.06
251.231	128.06
251.465	119.06
251.698	132.06
251.931	114.06
252.164	106.06
252.397	125.06
252.63	132.06
252.863	127.06
253.096	132.06
253.329	138.06
253.562	130.06
253.795	146.06
254.028	135.06
254.261	140.06
254.494	153.06
254.727	170.06
254.96	153.06
255.193	166.06
255.426	157.06
255.659	149.06
255.892	134.06
256.124	146.06
256.357	135.06
256.59	146.06
256.823	134.06
257.056	122.06
257.289	117.06
257.521	128.06
257.754	128.06
257.987	137.06
258.22	132.06
258.452	141.06
258.685	120.06
258.918	134.06
259.151	129.06
259.383	124.06
259.616	136.06
259.849	135.06
260.081	157.06
260.314	173.06
260.547	172.06
260.779	151.06
261.012	128.06
261.244	128.06
261.477	128.06
261.71	132.06
261.942	120.06
262.175	140.06
262.407	149.06
262.64	144.06
262.872	142.06
263.105	137.06
263.337	115.06
263.57	124.06
263.802	141.06
264.035	138.06
264.267	129.06
264.499	124.06
264.732	141.06
264.964	135.06
265.197	137.06
265.429	134.06
265.661	121.06
265.894	133.06
266.126	122.06
266.358	142.06
266.591	142.06
266.823	134.06
267.055	145.06
267.287	132.06
267.52	138.06
267.752	144.06
267.984	131.06
268.216	130.06
268.448	137.06
268.681	137.06
268.913	151.06
269.145	145.06
269.377	178.06
269.609	164.06
269.841	158.06
270.073	168.06
270.306	173.06
270.538	180.06
270.77	188.06
271.002	173.06
271.234	172.06
271.466	175.06
271.698	181.06
271.93	198.06
272.162	196.06
272.394	195.06
272.626	174.06
272.858	181.06
273.09	162.06
273.322	159.06
273.553	153.06
273.785	152.06
274.017	146.06
274.249	161.06
274.481	151.06
274.713	156.06
274.945	156.06
275.176	161.06
275.408	136.06
275.64	157.06
275.872	152.06
276.104	158.06
276.335	168.06
276.567	171.06
276.799	172.06
277.031	176.06
277.262	186.06
277.494	194.06
277.726	173.06
277.957	160.06
278.189	169.06
278.421	167.06
278.652	162.06
278.884	161.06
279.115	161.06
279.347	149.06
279.579	159.06
279.81	165.06
280.042	168.06
280.273	152.06
280.505	156.06
280.736	163.06
280.968	174.06
281.199	153.06
281.431	163.06
281.662	167.06
281.894	148.06
282.125	154.06
282.356	158.06
282.588	164.06
282.819	182.06
283.051	180.06
283.282	153.06
283.513	161.06
283.745	170.06
283.976	172.06
284.207	168.06
284.439	173.06
284.67	148.06
284.901	166.06
285.132	172.06
285.364	152.06
285.595	172.06
285.826	177.06
286.057	166.06
286.288	174.06
286.52	159.06
286.751	155.06
286.982	158.06
287.213	156.06
287.444	153.06
287.675	180.06
287.906	160.06
288.138	182.06
288.369	170.06
288.6	159.06
288.831	173.06
289.062	167.06
289.293	166.06
289.524	196.06
289.755	176.06
289.986	169.06
290.217	162.06
290.448	172.06
290.679	170.06
290.91	163.06
291.141	163.06
291.371	168.06
291.602	171.06
291.833	164.06
292.064	152.06
292.295	152.06
292.526	153.06
292.757	172.06
292.987	165.06
293.218	175.06
293.449	172.06
293.68	168.06
293.91	158.06
294.141	176.06
294.372	165.06
294.603	170.06
294.833	184.06
295.064	151.06
295.295	158.06
295.525	169.06
295.756	182.06
295.987	184.06
296.217	182.06
296.448	187.06
296.679	176.06
296.909	181.06
297.14	173.06
297.37	178.06
297.601	176.06
297.831	181.06
298.062	169.06
298.292	180.06
298.523	178.06
298.753	171.06
298.984	187.06
299.214	182.06
299.445	181.06
299.675	195.06
299.905	196.06
300.136	181.06
300.366	161.06
300.597	173.06
300.827	171.06
301.057	181.06
301.288	195.06
301.518	191.06
301.748	181.06
301.979	182.06
302.209	184.06
302.439	172.06
302.669	174.06
302.9	169.06
303.13	180.06
303.36	183.06
303.59	178.06
303.82	193.06
304.051	182.06
304.281	185.06
304.511	169.06
304.741	182.06
304.971	179.06
305.201	181.06
305.431	187.06
305.661	195.06
305.891	181.06
306.121	199.06
306.352	189.06
306.582	179.06
306.812	187.06
307.042	191.06
307.272	190.06
307.502	190.06
307.731	180.06
307.961	172.06
308.191	187.06
308.421	194.06
308.651	178.06
308.881	179.06
309.111	180.06
309.341	203.06
309.571	212.06
309.8	196.06
310.03	196.06
310.26	188.06
310.49	194.06
310.72	205.06
310.949	215.06
311.179	225.06
311.409	224.06
311.639	206.06
311.868	214.06
312.098	202.06
312.328	207.06
312.557	213.06
312.787	211.06
313.017	213.06
313.246	227.06
313.476	215.06
313.706	213.06
313.935	208.06
314.165	201.06
314.394	210.06
314.624	219.06
314.853	207.06
315.083	198.06
315.312	192.06
315.542	199.06
315.771	197.06
316.001	217.06
316.23	210.06
316.46	183.06
316.689	210.06
316.919	219.06
317.148	211.06
317.377	212.06
317.607	220.06
317.836	192.06
318.065	215.06
318.295	207.06
318.524	204.06
318.753	210.06
318.983	200.06
319.212	212.06
319.441	201.06
319.67	225.06
319.9	200.06
320.129	197.06
320.358	198.06
320.587	220.06
320.816	220.06
321.046	200.06
321.275	220.06
321.504	210.06
321.733	216.06
321.962	209.06
322.191	216.06
322.42	236.06
322.649	244.06
322.878	233.06
323.108	235.06
323.337	267.06
323.566	261.06
323.795	291.06
324.024	298.06
324.253	362.06
324.482	526.06
324.71	794.06
324.939	1048.06
325.168	874.06
325.397	444.06
325.626	292.06
325.855	263.06
326.084	242.06
326.313	253.06
326.542	263.06
326.77	295.06
326.999	338.06
327.228	470.06
327.457	700.06
327.686	789.06
327.914	528.06
328.143	373.06
328.372	324.06
328.6	312.06
328.829	302.06
329.058	291.06
329.287	300.06
329.515	293.06
329.744	289.06
329.972	279.06
330.201	287.06
330.43	327.06
330.658	343.06
330.887	347.06
331.115	328.06
331.344	301.06
331.572	276.06
331.801	269.06
332.03	251.06
332.258	246.06
332.486	232.06
332.715	248.06
332.943	228.06
333.172	245.06
333.4	235.06
333.629	261.06
333.857	260.06
334.085	276.06
334.314	279.06
334.542	308.06
334.771	300.06
334.999	287.06
335.227	243.06
335.455	254.06
335.684	256.06
335.912	240.06
336.14	232.06
336.369	218.06
336.597	223.06
336.825	236.06
337.053	240.06
337.281	241.06
337.51	230.06
337.738	234.06
337.966	247.06
338.194	240.06
338.422	235.06
338.65	235.06
338.878	224.06
339.106	225.06
339.334	225.06
339.562	217.06
339.79	229.06
340.018	220.06
340.246	216.06
340.474	218.06
340.702	224.06
340.93	227.06
341.158	231.06
341.386	230.06
341.614	230.06
341.842	237.06
342.07	214.06
342.298	224.06
342.526	202.06
342.754	207.06
342.981	214.06
343.209	221.06
343.437	212.06
343.665	221.06
343.893	224.06
344.12	243.06
344.348	228.06
344.576	221.06
344.804	244.06
345.031	233.06
345.259	230.06
345.487	226.06
345.714	227.06
345.942	212.06
346.17	233.06
346.397	227.06
346.625	230.06
346.853	227.06
347.08	225.06
347.308	217.06
347.535	245.06
347.763	230.06
347.99	225.06
348.218	214.06
348.445	213.06
348.673	228.06
348.9	215.06
349.128	210.06
349.355	225.06
349.583	206.06
349.81	200.06
350.037	228.06
350.265	203.06
350.492	215.06
350.72	202.06
350.947	216.06
351.174	228.06
351.402	236.06
351.629	223.06
351.856	226.06
352.083	235.06
352.311	247.06
352.538	236.06
352.765	228.06
352.992	221.06
353.22	214.06
353.447	230.06
353.674	219.06
353.901	199.06
354.128	210.06
354.355	195.06
354.583	205.06
354.81	213.06
355.037	201.06
355.264	208.06
355.491	197.06
355.718	198.06
355.945	209.06
356.172	176.06
356.399	199.06
356.626	209.06
356.853	197.06
357.08	212.06
357.307	200.06
357.534	201.06
357.761	194.06
357.988	213.06
358.215	205.06
358.441	206.06
358.668	213.06
358.895	204.06
359.122	194.06
359.349	213.06
359.576	215.06
359.802	224.06
360.029	245.06
360.256	246.06
360.483	240.06
360.709	218.06
360.936	227.06
361.163	228.06
361.39	208.06
361.616	232.06
361.843	215.06
362.07	213.06
362.296	216.06
362.523	212.06
362.749	215.06
362.976	225.06
363.203	221.06
363.429	220.06
363.656	196.06
363.882	199.06
364.109	207.06
364.335	213.06
364.562	212.06
364.788	184.06
365.015	218.06
365.241	206.06
365.468	227.06
365.694	216.06
365.92	226.06
366.147	211.06
366.373	204.06
366.599	199.06
366.826	190.06
367.052	212.06
367.278	208.06
367.505	205.06
367.731	209.06
367.957	201.06
368.184	211.06
368.41	229.06
368.636	210.06
368.862	224.06
369.089	212.06
369.315	194.06
369.541	196.06
369.767	206.06
369.993	198.06
370.219	202.06
370.445	212.06
370.672	212.06
370.898	197.06
371.124	213.06
371.35	204.06
371.576	213.06
371.802	197.06
372.028	209.06
372.254	202.06
372.48	211.06
372.706	202.06
372.932	203.06
373.158	208.06
373.384	210.06
373.61	204.06
373.835	180.06
374.061	198.06
374.287	211.06
374.513	219.06
374.739	217.06
374.965	212.06
375.191	210.06
375.416	220.06
375.642	198.06
375.868	205.06
376.094	211.06
376.319	204.06
376.545	215.06
376.771	198.06
376.997	203.06
377.222	202.06
377.448	216.06
377.674	196.06
377.899	209.06
378.125	211.06
378.35	212.06
378.576	205.06
378.802	204.06
379.027	201.06
379.253	196.06
379.478	195.06
379.704	201.06
379.929	203.06
380.155	192.06
380.38	209.06
380.606	205.06
380.831	213.06
381.057	205.06
381.282	195.06
381.507	189.06
381.733	214.06
381.958	210.06
382.184	217.06
382.409	209.06
382.634	212.06
382.86	203.06
383.085	208.06
383.31	212.06
383.535	197.06
383.761	208.06
383.986	213.06
384.211	203.06
384.436	199.06
384.662	218.06
384.887	208.06
385.112	217.06
385.337	217.06
385.562	226.06
385.787	206.06
386.013	231.06
386.238	215.06
386.463	231.06
386.688	231.06
386.913	224.06
387.138	237.06
387.363	228.06
387.588	220.06
387.813	208.06
388.038	206.06
388.263	221.06
388.488	196.06
388.713	198.06
388.938	209.06
389.163	239.06
389.387	220.06
389.612	212.06
389.837	223.06
390.062	222.06
390.287	216.06
390.512	202.06
390.736	222.06
390.961	217.06
391.186	230.06
391.411	210.06
391.636	219.06
391.86	234.06
392.085	225.06
392.31	241.06
392.534	252.06
392.759	217.06
392.984	224.06
393.208	223.06
393.433	230.06
393.658	234.06
393.882	203.06
394.107	217.06
394.331	225.06
394.556	218.06
394.78	225.06
395.005	225.06
395.229	219.06
395.454	233.06
395.678	239.06
395.903	250.06
396.127	233.06
396.352	265.06
396.576	233.06
396.801	205.06
397.025	229.06
397.249	220.06
397.474	240.06
397.698	229.06
397.922	249.06
398.147	232.06
398.371	229.06
398.595	228.06
398.82	256.06
399.044	240.06
399.268	268.06
399.492	284.06
399.717	246.06
399.941	281.06
400.165	278.06
400.389	297.06
400.613	280.06
400.837	237.06
401.062	253.06
401.286	245.06
401.51	232.06
401.734	237.06
401.958	256.06
402.182	250.06
402.406	248.06
402.63	261.06
402.854	244.06
403.078	237.06
403.302	254.06
403.526	253.06
403.75	241.06
403.974	262.06
404.198	247.06
404.422	271.06
404.645	263.06
404.869	253.06
405.093	258.06
405.317	312.06
405.541	292.06
405.765	286.06
405.988	267.06
406.212	268.06
406.436	284.06
406.66	305.06
406.883	285.06
407.107	295.06
407.331	293.06
407.555	352.06
407.778	316.06
408.002	282.06
408.226	293.06
408.449	267.06
408.673	278.06
408.896	284.06
409.12	279.06
409.344	282.06
409.567	266.06
409.791	261.06
410.014	246.06
410.238	262.06
410.461	258.06
410.685	236.06
410.908	260.06
411.132	271.06
411.355	286.06
411.578	294.06
411.802	255.06
412.025	251.06
412.249	258.06
412.472	257.06
412.695	281.06
412.919	280.06
413.142	248.06
413.365	252.06
413.589	237.06
413.812	226.06
414.035	249.06
414.258	249.06
414.482	244.06
414.705	246.06
414.928	235.06
415.151	233.06
415.374	238.06
415.597	252.06
415.821	232.06
416.044	248.06
416.267	245.06
416.49	249.06
416.713	251.06
416.936	245.06
417.159	246.06
417.382	256.06
417.605	224.06
417.828	253.06
418.051	264.06
418.274	258.06
418.497	236.06
418.72	255.06
418.943	240.06
419.166	242.06
419.389	290.06
419.611	251.06
419.834	270.06
420.057	265.06
420.28	235.06
420.503	258.06
420.726	254.06
420.948	262.06
421.171	283.06
421.394	286.06
421.617	269.06
421.839	262.06
422.062	251.06
422.285	256.06
422.507	286.06
422.73	326.06
422.953	298.06
423.175	272.06
423.398	273.06
423.621	254.06
423.843	286.06
424.066	271.06
424.288	285.06
424.511	273.06
424.733	313.06
424.956	333.06
425.178	334.06
425.401	310.06
425.623	341.06
425.846	284.06
426.068	265.06
426.291	271.06
426.513	268.06
426.735	295.06
426.958	293.06
427.18	334.06
427.402	375.06
427.625	414.06
427.847	381.06
428.069	343.06
428.292	296.06
428.514	265.06
428.736	255.06
428.958	253.06
429.181	262.06
429.403	255.06
429.625	258.06
429.847	275.06
430.069	315.06
430.292	285.06
430.514	286.06
430.736	240.06
430.958	258.06
431.18	250.06
431.402	257.06
431.624	229.06
431.846	240.06
432.068	228.06
432.29	243.06
432.512	238.06
432.734	240.06
432.956	270.06
433.178	265.06
433.4	258.06
433.622	240.06
433.844	250.06
434.066	256.06
434.287	224.06
434.509	233.06
434.731	234.06
434.953	238.06
435.175	241.06
435.397	267.06
435.618	269.06
435.84	296.06
436.062	322.06
436.284	343.06
436.505	308.06
436.727	268.06
436.949	261.06
437.17	264.06
437.392	258.06
437.614	262.06
437.835	278.06
438.057	317.06
438.278	338.06
438.5	347.06
438.721	373.06
438.943	366.06
439.165	298.06
439.386	279.06
439.608	297.06
439.829	285.06
440.05	284.06
440.272	305.06
440.493	276.06
440.715	262.06
440.936	244.06
441.158	255.06
441.379	252.06
441.6	270.06
441.822	274.06
442.043	311.06
442.264	324.06
442.486	345.06
442.707	304.06
442.928	274.06
443.149	282.06
443.371	312.06
443.592	299.06
443.813	350.06
444.034	365.06
444.255	302.06
444.476	311.06
444.698	272.06
444.919	264.06
445.14	361.06
445.361	328.06
445.582	300.06
445.803	318.06
446.024	363.06
446.245	360.06
446.466	308.06
446.687	289.06
446.908	270.06
447.129	256.06
447.35	242.06
447.571	261.06
447.792	266.06
448.013	262.06
448.234	258.06
448.455	285.06
448.675	338.06
448.896	367.06
449.117	316.06
449.338	310.06
449.559	345.06
449.779	386.06
450	304.06
450.221	260.06
450.442	266.06
450.662	267.06
450.883	254.06
451.104	281.06
451.324	263.06
451.545	250.06
451.766	229.06
451.986	237.06
452.207	218.06
452.428	220.06
452.648	239.06
452.869	236.06
453.089	250.06
453.31	248.06
453.53	234.06
453.751	229.06
453.971	225.06
454.192	219.06
454.412	238.06
454.633	205.06
454.853	213.06
455.073	219.06
455.294	230.06
455.514	283.06
455.734	269.06
455.955	230.06
456.175	236.06
456.395	209.06
456.616	213.06
456.836	221.06
457.056	207.06
457.276	189.06
457.497	213.06
457.717	216.06
457.937	219.06
458.157	220.06
458.377	222.06
458.598	260.06
458.818	285.06
459.038	307.06
459.258	317.06
459.478	253.06
459.698	222.06
459.918	245.06
460.138	230.06
460.358	253.06
460.578	254.06
460.798	246.06
461.018	256.06
461.238	234.06
461.458	240.06
461.678	229.06
461.898	240.06
462.118	236.06
462.338	238.06
462.558	237.06
462.777	239.06
462.997	257.06
463.217	269.06
463.437	254.06
463.657	259.06
463.876	265.06
464.096	265.06
464.316	249.06
464.536	269.06
464.755	259.06
464.975	264.06
465.195	288.06
465.414	340.06
465.634	293.06
465.854	259.06
466.073	234.06
466.293	234.06
466.512	236.06
466.732	235.06
466.951	236.06
467.171	234.06
467.391	227.06
467.61	241.06
467.829	241.06
468.049	236.06
468.268	252.06
468.488	221.06
468.707	251.06
468.927	250.06
469.146	233.06
469.365	215.06
469.585	231.06
469.804	229.06
470.023	235.06
470.243	256.06
470.462	258.06
470.681	262.06
470.901	254.06
471.12	244.06
471.339	233.06
471.558	244.06
471.777	238.06
471.997	243.06
472.216	244.06
472.435	296.06
472.654	250.06
472.873	230.06
473.092	251.06
473.311	224.06
473.53	235.06
473.749	245.06
473.968	243.06
474.187	310.06
474.406	293.06
474.625	266.06
474.844	253.06
475.063	252.06
475.282	225.06
475.501	231.06
475.72	217.06
475.939	234.06
476.158	260.06
476.377	233.06
476.596	244.06
476.814	244.06
477.033	243.06
477.252	251.06
477.471	247.06
477.69	260.06
477.908	246.06
478.127	280.06
478.346	264.06
478.564	254.06
478.783	241.06
479.002	278.06
479.22	268.06
479.439	249.06
479.658	295.06
479.876	281.06
480.095	284.06
480.313	309.06
480.532	279.06
480.751	289.06
480.969	283.06
481.188	345.06
481.406	371.06
481.624	324.06
481.843	290.06
482.061	288.06
482.28	277.06
482.498	267.06
482.717	266.06
482.935	263.06
483.153	271.06
483.372	267.06
483.59	286.06
483.808	275.06
484.027	278.06
484.245	268.06
484.463	268.06
484.681	280.06
484.9	272.06
485.118	249.06
485.336	277.06
485.554	283.06
485.772	285.06
485.99	268.06
486.209	280.06
486.427	269.06
486.645	276.06
486.863	310.06
487.081	316.06
487.299	280.06
487.517	275.06
487.735	317.06
487.953	299.06
488.171	297.06
488.389	286.06
488.607	293.06
488.825	290.06
489.043	315.06
489.261	299.06
489.479	296.06
489.696	296.06
489.914	300.06
490.132	305.06
490.35	308.06
490.568	317.06
490.786	320.06
491.003	310.06
491.221	331.06
491.439	324.06
491.657	332.06
491.874	356.06
492.092	327.06
492.31	353.06
492.527	347.06
492.745	350.06
492.963	342.06
493.18	336.06
493.398	362.06
493.615	344.06
493.833	353.06
494.05	346.06
494.268	360.06
494.485	347.06
494.703	338.06
494.92	345.06
495.138	344.06
495.355	344.06
495.573	336.06
495.79	344.06
496.008	333.06
496.225	338.06
496.442	352.06
496.66	341.06
496.877	347.06
497.094	343.06
497.312	351.06
497.529	340.06
497.746	358.06
497.963	360.06
498.181	354.06
498.398	352.06
498.615	352.06
498.832	378.06
499.049	381.06
499.267	379.06
499.484	388.06
499.701	392.06
499.918	399.06
500.135	462.06
500.352	443.06
500.569	449.06
500.786	459.06
501.003	440.06
501.22	449.06
501.437	429.06
501.654	416.06
501.871	416.06
502.088	393.06
502.305	376.06
502.522	348.06
