Data from 1966.PennyLincolnUp.Lamp.En5.5.200Scan.071719.P1._HRD10591_14-13-59-914.txt Node
Date: Thu Jul 18 14:13:59 EDT 2019
User: cochatt
Spectrometer: HR+D1059
Trigger mode: 1
Integration Time (sec): 1.000000E-1
Scans to average: 1
Electric dark correction enabled: true
Nonlinearity correction enabled: false
Boxcar width: 0
XAxis mode: Wavelengths
Number of Pixels in Spectrum: 2048
>>>>>Begin Spectral Data<<<<<
223.165	-14.94
223.4	-14.94
223.635	-14.94
223.869	-18.94
224.104	-15.94
224.338	-10.94
224.573	-15.94
224.808	-11.94
225.042	-9.94
225.277	-0.94
225.511	-16.94
225.746	7.06
225.98	9.06
226.215	11.06
226.449	12.06
226.683	22.06
226.918	24.06
227.152	31.06
227.387	37.06
227.621	43.06
227.856	52.06
228.09	48.06
228.324	40.06
228.559	65.06
228.793	60.06
229.027	76.06
229.262	97.06
229.496	92.06
229.73	94.06
229.964	104.06
230.199	106.06
230.433	74.06
230.667	98.06
230.901	101.06
231.136	85.06
231.37	99.06
231.604	88.06
231.838	90.06
232.072	97.06
232.306	95.06
232.541	100.06
232.775	104.06
233.009	110.06
233.243	97.06
233.477	88.06
233.711	86.06
233.945	86.06
234.179	88.06
234.413	93.06
234.647	87.06
234.881	92.06
235.115	86.06
235.349	91.06
235.583	106.06
235.817	100.06
236.051	109.06
236.285	101.06
236.519	100.06
236.753	108.06
236.987	113.06
237.221	125.06
237.455	142.06
237.689	120.06
237.922	110.06
238.156	106.06
238.39	91.06
238.624	97.06
238.858	101.06
239.091	94.06
239.325	107.06
239.559	95.06
239.793	95.06
240.027	97.06
240.26	102.06
240.494	129.06
240.728	119.06
240.961	110.06
241.195	104.06
241.429	109.06
241.662	91.06
241.896	85.06
242.13	89.06
242.363	102.06
242.597	106.06
242.83	109.06
243.064	104.06
243.298	111.06
243.531	110.06
243.765	107.06
243.998	109.06
244.232	104.06
244.465	118.06
244.699	105.06
244.932	100.06
245.166	103.06
245.399	110.06
245.633	103.06
245.866	103.06
246.099	100.06
246.333	121.06
246.566	105.06
246.8	112.06
247.033	98.06
247.266	105.06
247.5	118.06
247.733	116.06
247.966	121.06
248.2	122.06
248.433	109.06
248.666	134.06
248.899	133.06
249.133	132.06
249.366	129.06
249.599	141.06
249.832	126.06
250.066	125.06
250.299	109.06
250.532	126.06
250.765	124.06
250.998	132.06
251.231	140.06
251.465	132.06
251.698	114.06
251.931	124.06
252.164	131.06
252.397	127.06
252.63	116.06
252.863	137.06
253.096	142.06
253.329	132.06
253.562	120.06
253.795	127.06
254.028	142.06
254.261	152.06
254.494	146.06
254.727	162.06
254.96	181.06
255.193	165.06
255.426	148.06
255.659	127.06
255.892	158.06
256.124	155.06
256.357	163.06
256.59	150.06
256.823	137.06
257.056	123.06
257.289	146.06
257.521	140.06
257.754	130.06
257.987	121.06
258.22	128.06
258.452	132.06
258.685	140.06
258.918	131.06
259.151	132.06
259.383	145.06
259.616	136.06
259.849	133.06
260.081	165.06
260.314	151.06
260.547	159.06
260.779	144.06
261.012	143.06
261.244	135.06
261.477	147.06
261.71	138.06
261.942	129.06
262.175	159.06
262.407	136.06
262.64	130.06
262.872	128.06
263.105	141.06
263.337	143.06
263.57	127.06
263.802	139.06
264.035	140.06
264.267	144.06
264.499	114.06
264.732	134.06
264.964	129.06
265.197	128.06
265.429	145.06
265.661	124.06
265.894	140.06
266.126	134.06
266.358	143.06
266.591	136.06
266.823	141.06
267.055	124.06
267.287	129.06
267.52	134.06
267.752	145.06
267.984	147.06
268.216	141.06
268.448	141.06
268.681	155.06
268.913	170.06
269.145	187.06
269.377	173.06
269.609	174.06
269.841	161.06
270.073	173.06
270.306	176.06
270.538	194.06
270.77	193.06
271.002	173.06
271.234	172.06
271.466	182.06
271.698	194.06
271.93	184.06
272.162	188.06
272.394	178.06
272.626	182.06
272.858	176.06
273.09	153.06
273.322	154.06
273.553	151.06
273.785	151.06
274.017	169.06
274.249	161.06
274.481	153.06
274.713	152.06
274.945	162.06
275.176	162.06
275.408	156.06
275.64	164.06
275.872	174.06
276.104	158.06
276.335	134.06
276.567	174.06
276.799	167.06
277.031	193.06
277.262	197.06
277.494	183.06
277.726	170.06
277.957	153.06
278.189	131.06
278.421	164.06
278.652	178.06
278.884	161.06
279.115	161.06
279.347	168.06
279.579	153.06
279.81	167.06
280.042	160.06
280.273	158.06
280.505	159.06
280.736	145.06
280.968	154.06
281.199	177.06
281.431	156.06
281.662	155.06
281.894	160.06
282.125	159.06
282.356	168.06
282.588	166.06
282.819	192.06
283.051	166.06
283.282	159.06
283.513	172.06
283.745	147.06
283.976	161.06
284.207	160.06
284.439	167.06
284.67	148.06
284.901	180.06
285.132	178.06
285.364	158.06
285.595	154.06
285.826	161.06
286.057	170.06
286.288	162.06
286.52	166.06
286.751	162.06
286.982	151.06
287.213	173.06
287.444	168.06
287.675	179.06
287.906	168.06
288.138	176.06
288.369	175.06
288.6	188.06
288.831	182.06
289.062	177.06
289.293	182.06
289.524	170.06
289.755	171.06
289.986	177.06
290.217	164.06
290.448	164.06
290.679	173.06
290.91	165.06
291.141	182.06
291.371	176.06
291.602	158.06
291.833	160.06
292.064	167.06
292.295	144.06
292.526	164.06
292.757	163.06
292.987	181.06
293.218	164.06
293.449	181.06
293.68	160.06
293.91	173.06
294.141	178.06
294.372	168.06
294.603	168.06
294.833	177.06
295.064	165.06
295.295	181.06
295.525	185.06
295.756	187.06
295.987	184.06
296.217	178.06
296.448	207.06
296.679	188.06
296.909	172.06
297.14	162.06
297.37	171.06
297.601	163.06
297.831	174.06
298.062	166.06
298.292	190.06
298.523	203.06
298.753	185.06
298.984	169.06
299.214	183.06
299.445	174.06
299.675	177.06
299.905	188.06
300.136	182.06
300.366	180.06
300.597	186.06
300.827	171.06
301.057	201.06
301.288	186.06
301.518	182.06
301.748	172.06
301.979	171.06
302.209	180.06
302.439	195.06
302.669	169.06
302.9	184.06
303.13	187.06
303.36	175.06
303.59	170.06
303.82	192.06
304.051	202.06
304.281	188.06
304.511	200.06
304.741	177.06
304.971	182.06
305.201	182.06
305.431	169.06
305.661	170.06
305.891	174.06
306.121	180.06
306.352	172.06
306.582	186.06
306.812	187.06
307.042	177.06
307.272	192.06
307.502	184.06
307.731	206.06
307.961	170.06
308.191	187.06
308.421	188.06
308.651	211.06
308.881	184.06
309.111	180.06
309.341	189.06
309.571	189.06
309.8	193.06
310.03	220.06
310.26	221.06
310.49	196.06
310.72	184.06
310.949	215.06
311.179	209.06
311.409	197.06
311.639	204.06
311.868	212.06
312.098	210.06
312.328	229.06
312.557	203.06
312.787	219.06
313.017	228.06
313.246	223.06
313.476	205.06
313.706	213.06
313.935	229.06
314.165	211.06
314.394	221.06
314.624	225.06
314.853	228.06
315.083	211.06
315.312	216.06
315.542	209.06
315.771	215.06
316.001	205.06
316.23	199.06
316.46	180.06
316.689	195.06
316.919	204.06
317.148	224.06
317.377	194.06
317.607	197.06
317.836	210.06
318.065	202.06
318.295	196.06
318.524	210.06
318.753	190.06
318.983	207.06
319.212	202.06
319.441	206.06
319.67	203.06
319.9	217.06
320.129	200.06
320.358	198.06
320.587	209.06
320.816	202.06
321.046	214.06
321.275	208.06
321.504	215.06
321.733	226.06
321.962	206.06
322.191	229.06
322.42	262.06
322.649	235.06
322.878	229.06
323.108	244.06
323.337	263.06
323.566	232.06
323.795	280.06
324.024	305.06
324.253	365.06
324.482	513.06
324.71	754.06
324.939	1035.06
325.168	816.06
325.397	413.06
325.626	290.06
325.855	260.06
326.084	250.06
326.313	231.06
326.542	270.06
326.77	299.06
326.999	354.06
327.228	452.06
327.457	664.06
327.686	764.06
327.914	500.06
328.143	363.06
328.372	326.06
328.6	297.06
328.829	309.06
329.058	288.06
329.287	292.06
329.515	293.06
329.744	265.06
329.972	267.06
330.201	296.06
330.43	322.06
330.658	330.06
330.887	338.06
331.115	320.06
331.344	275.06
331.572	260.06
331.801	248.06
332.03	274.06
332.258	271.06
332.486	228.06
332.715	244.06
332.943	237.06
333.172	225.06
333.4	246.06
333.629	241.06
333.857	260.06
334.085	256.06
334.314	265.06
334.542	308.06
334.771	324.06
334.999	274.06
335.227	257.06
335.455	264.06
335.684	226.06
335.912	231.06
336.14	237.06
336.369	223.06
336.597	240.06
336.825	237.06
337.053	233.06
337.281	235.06
337.51	239.06
337.738	266.06
337.966	228.06
338.194	236.06
338.422	239.06
338.65	231.06
338.878	229.06
339.106	245.06
339.334	218.06
339.562	241.06
339.79	213.06
340.018	225.06
340.246	231.06
340.474	213.06
340.702	229.06
340.93	223.06
341.158	228.06
341.386	241.06
341.614	208.06
341.842	218.06
342.07	218.06
342.298	241.06
342.526	216.06
342.754	228.06
342.981	213.06
343.209	226.06
343.437	246.06
343.665	233.06
343.893	229.06
344.12	239.06
344.348	222.06
344.576	239.06
344.804	230.06
345.031	236.06
345.259	238.06
345.487	227.06
345.714	229.06
345.942	216.06
346.17	228.06
346.397	214.06
346.625	218.06
346.853	222.06
347.08	219.06
347.308	218.06
347.535	229.06
347.763	232.06
347.99	237.06
348.218	221.06
348.445	217.06
348.673	232.06
348.9	224.06
349.128	214.06
349.355	217.06
349.583	209.06
349.81	209.06
350.037	230.06
350.265	224.06
350.492	217.06
350.72	231.06
350.947	223.06
351.174	218.06
351.402	230.06
351.629	202.06
351.856	214.06
352.083	222.06
352.311	232.06
352.538	233.06
352.765	228.06
352.992	220.06
353.22	233.06
353.447	231.06
353.674	209.06
353.901	228.06
354.128	210.06
354.355	216.06
354.583	225.06
354.81	221.06
355.037	234.06
355.264	210.06
355.491	204.06
355.718	200.06
355.945	200.06
356.172	203.06
356.399	189.06
356.626	205.06
356.853	208.06
357.08	207.06
357.307	193.06
357.534	216.06
357.761	216.06
357.988	206.06
358.215	202.06
358.441	201.06
358.668	193.06
358.895	201.06
359.122	220.06
359.349	228.06
359.576	209.06
359.802	226.06
360.029	254.06
360.256	273.06
360.483	216.06
360.709	211.06
360.936	225.06
361.163	222.06
361.39	201.06
361.616	208.06
361.843	213.06
362.07	241.06
362.296	228.06
362.523	219.06
362.749	204.06
362.976	213.06
363.203	230.06
363.429	214.06
363.656	228.06
363.882	206.06
364.109	206.06
364.335	207.06
364.562	205.06
364.788	199.06
365.015	203.06
365.241	196.06
365.468	209.06
365.694	216.06
365.92	210.06
366.147	202.06
366.373	216.06
366.599	212.06
366.826	207.06
367.052	212.06
367.278	202.06
367.505	196.06
367.731	199.06
367.957	219.06
368.184	200.06
368.41	203.06
368.636	220.06
368.862	221.06
369.089	214.06
369.315	231.06
369.541	201.06
369.767	214.06
369.993	213.06
370.219	219.06
370.445	214.06
370.672	205.06
370.898	195.06
371.124	205.06
371.35	206.06
371.576	196.06
371.802	201.06
372.028	216.06
372.254	220.06
372.48	196.06
372.706	207.06
372.932	208.06
373.158	206.06
373.384	209.06
373.61	194.06
373.835	196.06
374.061	212.06
374.287	205.06
374.513	214.06
374.739	225.06
374.965	208.06
375.191	200.06
375.416	202.06
375.642	218.06
375.868	207.06
376.094	207.06
376.319	188.06
376.545	213.06
376.771	204.06
376.997	207.06
377.222	219.06
377.448	196.06
377.674	202.06
377.899	205.06
378.125	199.06
378.35	208.06
378.576	210.06
378.802	199.06
379.027	210.06
379.253	219.06
379.478	209.06
379.704	224.06
379.929	227.06
380.155	214.06
380.38	217.06
380.606	214.06
380.831	197.06
381.057	215.06
381.282	211.06
381.507	202.06
381.733	200.06
381.958	221.06
382.184	211.06
382.409	209.06
382.634	204.06
382.86	228.06
383.085	205.06
383.31	218.06
383.535	220.06
383.761	202.06
383.986	207.06
384.211	194.06
384.436	216.06
384.662	219.06
384.887	230.06
385.112	219.06
385.337	225.06
385.562	198.06
385.787	210.06
386.013	246.06
386.238	224.06
386.463	233.06
386.688	224.06
386.913	208.06
387.138	229.06
387.363	221.06
387.588	237.06
387.813	208.06
388.038	216.06
388.263	222.06
388.488	232.06
388.713	214.06
388.938	209.06
389.163	233.06
389.387	217.06
389.612	209.06
389.837	212.06
390.062	224.06
390.287	228.06
390.512	233.06
390.736	218.06
390.961	222.06
391.186	222.06
391.411	224.06
391.636	220.06
391.86	225.06
392.085	214.06
392.31	227.06
392.534	212.06
392.759	227.06
392.984	222.06
393.208	234.06
393.433	233.06
393.658	213.06
393.882	231.06
394.107	214.06
394.331	224.06
394.556	224.06
394.78	211.06
395.005	205.06
395.229	232.06
395.454	236.06
395.678	214.06
395.903	236.06
396.127	266.06
396.352	227.06
396.576	223.06
396.801	225.06
397.025	233.06
397.249	224.06
397.474	256.06
397.698	217.06
397.922	253.06
398.147	248.06
398.371	227.06
398.595	235.06
398.82	238.06
399.044	256.06
399.268	239.06
399.492	269.06
399.717	268.06
399.941	293.06
400.165	288.06
400.389	283.06
400.613	270.06
400.837	246.06
401.062	252.06
401.286	256.06
401.51	250.06
401.734	251.06
401.958	246.06
402.182	253.06
402.406	256.06
402.63	261.06
402.854	256.06
403.078	268.06
403.302	245.06
403.526	247.06
403.75	253.06
403.974	264.06
404.198	265.06
404.422	265.06
404.645	273.06
404.869	262.06
405.093	276.06
405.317	305.06
405.541	304.06
405.765	282.06
405.988	280.06
406.212	274.06
406.436	287.06
406.66	283.06
406.883	269.06
407.107	290.06
407.331	317.06
407.555	324.06
407.778	331.06
408.002	296.06
408.226	279.06
408.449	262.06
408.673	276.06
408.896	311.06
409.12	293.06
409.344	283.06
409.567	265.06
409.791	254.06
410.014	269.06
410.238	255.06
410.461	266.06
410.685	273.06
410.908	255.06
411.132	297.06
411.355	318.06
411.578	271.06
411.802	271.06
412.025	270.06
412.249	262.06
412.472	287.06
412.695	282.06
412.919	285.06
413.142	256.06
413.365	254.06
413.589	251.06
413.812	255.06
414.035	253.06
414.258	237.06
414.482	241.06
414.705	244.06
414.928	251.06
415.151	237.06
415.374	257.06
415.597	248.06
415.821	245.06
416.044	263.06
416.267	265.06
416.49	266.06
416.713	247.06
416.936	266.06
417.159	263.06
417.382	270.06
417.605	254.06
417.828	261.06
418.051	271.06
418.274	266.06
418.497	260.06
418.72	246.06
418.943	261.06
419.166	245.06
419.389	264.06
419.611	248.06
419.834	266.06
420.057	266.06
420.28	272.06
420.503	263.06
420.726	255.06
420.948	280.06
421.171	297.06
421.394	288.06
421.617	260.06
421.839	247.06
422.062	253.06
422.285	264.06
422.507	278.06
422.73	316.06
422.953	311.06
423.175	269.06
423.398	268.06
423.621	270.06
423.843	253.06
424.066	286.06
424.288	271.06
424.511	296.06
424.733	304.06
424.956	337.06
425.178	328.06
425.401	323.06
425.623	308.06
425.846	290.06
426.068	270.06
426.291	282.06
426.513	279.06
426.735	274.06
426.958	308.06
427.18	330.06
427.402	374.06
427.625	420.06
427.847	378.06
428.069	334.06
428.292	278.06
428.514	264.06
428.736	269.06
428.958	254.06
429.181	260.06
429.403	252.06
429.625	256.06
429.847	261.06
430.069	301.06
430.292	299.06
430.514	267.06
430.736	268.06
430.958	241.06
431.18	251.06
431.402	247.06
431.624	264.06
431.846	246.06
432.068	237.06
432.29	246.06
432.512	235.06
432.734	236.06
432.956	248.06
433.178	244.06
433.4	249.06
433.622	262.06
433.844	260.06
434.066	235.06
434.287	246.06
434.509	239.06
434.731	258.06
434.953	248.06
435.175	285.06
435.397	277.06
435.618	271.06
435.84	274.06
436.062	323.06
436.284	343.06
436.505	303.06
436.727	287.06
436.949	287.06
437.17	269.06
437.392	252.06
437.614	272.06
437.835	254.06
438.057	325.06
438.278	375.06
438.5	340.06
438.721	370.06
438.943	364.06
439.165	310.06
439.386	278.06
439.608	266.06
439.829	279.06
440.05	283.06
440.272	298.06
440.493	304.06
440.715	261.06
440.936	267.06
441.158	274.06
441.379	256.06
441.6	260.06
441.822	286.06
442.043	295.06
442.264	326.06
442.486	360.06
442.707	285.06
442.928	306.06
443.149	295.06
443.371	300.06
443.592	302.06
443.813	354.06
444.034	368.06
444.255	326.06
444.476	282.06
444.698	278.06
444.919	267.06
445.14	382.06
445.361	332.06
445.582	303.06
445.803	343.06
446.024	366.06
446.245	359.06
446.466	329.06
446.687	287.06
446.908	286.06
447.129	262.06
447.35	247.06
447.571	235.06
447.792	251.06
448.013	241.06
448.234	260.06
448.455	288.06
448.675	329.06
448.896	367.06
449.117	312.06
449.338	286.06
449.559	356.06
449.779	386.06
450	314.06
450.221	282.06
450.442	264.06
450.662	268.06
450.883	276.06
451.104	267.06
451.324	263.06
451.545	249.06
451.766	229.06
451.986	220.06
452.207	220.06
452.428	218.06
452.648	230.06
452.869	240.06
453.089	258.06
453.31	240.06
453.53	241.06
453.751	241.06
453.971	249.06
454.192	264.06
454.412	261.06
454.633	237.06
454.853	220.06
455.073	228.06
455.294	255.06
455.514	276.06
455.734	270.06
455.955	241.06
456.175	224.06
456.395	209.06
456.616	213.06
456.836	225.06
457.056	225.06
457.276	204.06
457.497	218.06
457.717	219.06
457.937	223.06
458.157	207.06
458.377	223.06
458.598	238.06
458.818	268.06
459.038	335.06
459.258	305.06
459.478	261.06
459.698	259.06
459.918	246.06
460.138	241.06
460.358	234.06
460.578	239.06
460.798	240.06
461.018	251.06
461.238	236.06
461.458	246.06
461.678	232.06
461.898	249.06
462.118	253.06
462.338	240.06
462.558	268.06
462.777	255.06
462.997	269.06
463.217	261.06
463.437	261.06
463.657	251.06
463.876	254.06
464.096	266.06
464.316	259.06
464.536	265.06
464.755	259.06
464.975	276.06
465.195	302.06
465.414	354.06
465.634	297.06
465.854	261.06
466.073	247.06
466.293	249.06
466.512	246.06
466.732	228.06
466.951	217.06
467.171	239.06
467.391	244.06
467.61	238.06
467.829	261.06
468.049	248.06
468.268	223.06
468.488	233.06
468.707	219.06
468.927	226.06
469.146	229.06
469.365	236.06
469.585	225.06
469.804	246.06
470.023	238.06
470.243	237.06
470.462	244.06
470.681	261.06
470.901	267.06
471.12	236.06
471.339	236.06
471.558	247.06
471.777	239.06
471.997	240.06
472.216	250.06
472.435	294.06
472.654	284.06
472.873	246.06
473.092	242.06
473.311	231.06
473.53	253.06
473.749	244.06
473.968	280.06
474.187	310.06
474.406	329.06
474.625	268.06
474.844	260.06
475.063	224.06
475.282	225.06
475.501	241.06
475.72	239.06
475.939	237.06
476.158	258.06
476.377	248.06
476.596	234.06
476.814	266.06
477.033	249.06
477.252	250.06
477.471	256.06
477.69	263.06
477.908	278.06
478.127	256.06
478.346	250.06
478.564	248.06
478.783	273.06
479.002	270.06
479.22	269.06
479.439	280.06
479.658	288.06
479.876	283.06
480.095	303.06
480.313	307.06
480.532	297.06
480.751	303.06
480.969	301.06
481.188	353.06
481.406	348.06
481.624	313.06
481.843	298.06
482.061	295.06
482.28	277.06
482.498	266.06
482.717	286.06
482.935	309.06
483.153	286.06
483.372	271.06
483.59	269.06
483.808	280.06
484.027	282.06
484.245	270.06
484.463	277.06
484.681	284.06
484.9	280.06
485.118	289.06
485.336	285.06
485.554	272.06
485.772	279.06
485.99	279.06
486.209	278.06
486.427	299.06
486.645	269.06
486.863	304.06
487.081	294.06
487.299	292.06
487.517	295.06
487.735	294.06
487.953	285.06
488.171	284.06
488.389	300.06
488.607	314.06
488.825	309.06
489.043	319.06
489.261	313.06
489.479	300.06
489.696	302.06
489.914	305.06
490.132	300.06
490.35	308.06
490.568	304.06
490.786	329.06
491.003	313.06
491.221	316.06
491.439	339.06
491.657	334.06
491.874	363.06
492.092	334.06
492.31	357.06
492.527	359.06
492.745	342.06
492.963	350.06
493.18	353.06
493.398	351.06
493.615	349.06
493.833	349.06
494.05	369.06
494.268	350.06
494.485	332.06
494.703	353.06
494.92	365.06
495.138	349.06
495.355	345.06
495.573	356.06
495.79	344.06
496.008	346.06
496.225	350.06
496.442	348.06
496.66	346.06
496.877	350.06
497.094	343.06
497.312	360.06
497.529	360.06
497.746	353.06
497.963	364.06
498.181	356.06
498.398	360.06
498.615	364.06
498.832	379.06
499.049	397.06
499.267	382.06
499.484	397.06
499.701	413.06
499.918	436.06
500.135	441.06
500.352	457.06
500.569	474.06
500.786	450.06
501.003	449.06
501.22	450.06
501.437	435.06
501.654	438.06
501.871	428.06
502.088	412.06
502.305	381.06
