Data from 1966.PennyLincolnUp.Lamp.En5.5.200Scan.071719.P1._HRD10591_14-14-51-914.txt Node
Date: Thu Jul 18 14:14:51 EDT 2019
User: cochatt
Spectrometer: HR+D1059
Trigger mode: 1
Integration Time (sec): 1.000000E-1
Scans to average: 1
Electric dark correction enabled: true
Nonlinearity correction enabled: false
Boxcar width: 0
XAxis mode: Wavelengths
Number of Pixels in Spectrum: 2048
>>>>>Begin Spectral Data<<<<<
223.165	-11.25
223.4	-11.25
223.635	-11.25
223.869	-23.25
224.104	-31.25
224.338	-5.25
224.573	-1.25
224.808	8.75
225.042	-15.25
225.277	-13.25
225.511	-6.25
225.746	3.75
225.98	-6.25
226.215	22.75
226.449	14.75
226.683	10.75
226.918	20.75
227.152	31.75
227.387	23.75
227.621	46.75
227.856	37.75
228.09	52.75
228.324	51.75
228.559	39.75
228.793	60.75
229.027	76.75
229.262	71.75
229.496	81.75
229.73	102.75
229.964	114.75
230.199	78.75
230.433	87.75
230.667	90.75
230.901	82.75
231.136	96.75
231.37	107.75
231.604	85.75
231.838	90.75
232.072	83.75
232.306	102.75
232.541	82.75
232.775	94.75
233.009	92.75
233.243	104.75
233.477	95.75
233.711	99.75
233.945	100.75
234.179	96.75
234.413	94.75
234.647	91.75
234.881	95.75
235.115	96.75
235.349	100.75
235.583	99.75
235.817	95.75
236.051	92.75
236.285	94.75
236.519	98.75
236.753	108.75
236.987	119.75
237.221	130.75
237.455	143.75
237.689	135.75
237.922	99.75
238.156	101.75
238.39	99.75
238.624	99.75
238.858	95.75
239.091	96.75
239.325	81.75
239.559	105.75
239.793	105.75
240.027	91.75
240.26	94.75
240.494	121.75
240.728	106.75
240.961	102.75
241.195	104.75
241.429	100.75
241.662	87.75
241.896	101.75
242.13	93.75
242.363	108.75
242.597	91.75
242.83	115.75
243.064	85.75
243.298	102.75
243.531	95.75
243.765	99.75
243.998	104.75
244.232	110.75
244.465	101.75
244.699	100.75
244.932	115.75
245.166	92.75
245.399	102.75
245.633	93.75
245.866	108.75
246.099	98.75
246.333	106.75
246.566	103.75
246.8	107.75
247.033	115.75
247.266	109.75
247.5	121.75
247.733	99.75
247.966	111.75
248.2	110.75
248.433	107.75
248.666	98.75
248.899	115.75
249.133	139.75
249.366	125.75
249.599	125.75
249.832	120.75
250.066	129.75
250.299	123.75
250.532	140.75
250.765	119.75
250.998	130.75
251.231	134.75
251.465	119.75
251.698	122.75
251.931	130.75
252.164	111.75
252.397	136.75
252.63	123.75
252.863	133.75
253.096	122.75
253.329	140.75
253.562	131.75
253.795	121.75
254.028	138.75
254.261	136.75
254.494	145.75
254.727	153.75
254.96	165.75
255.193	158.75
255.426	135.75
255.659	144.75
255.892	140.75
256.124	137.75
256.357	142.75
256.59	136.75
256.823	135.75
257.056	117.75
257.289	117.75
257.521	132.75
257.754	134.75
257.987	135.75
258.22	135.75
258.452	131.75
258.685	139.75
258.918	127.75
259.151	126.75
259.383	128.75
259.616	142.75
259.849	138.75
260.081	140.75
260.314	142.75
260.547	149.75
260.779	164.75
261.012	141.75
261.244	144.75
261.477	140.75
261.71	138.75
261.942	130.75
262.175	134.75
262.407	153.75
262.64	134.75
262.872	130.75
263.105	144.75
263.337	134.75
263.57	131.75
263.802	142.75
264.035	116.75
264.267	134.75
264.499	137.75
264.732	131.75
264.964	130.75
265.197	147.75
265.429	137.75
265.661	137.75
265.894	138.75
266.126	126.75
266.358	137.75
266.591	137.75
266.823	152.75
267.055	142.75
267.287	141.75
267.52	154.75
267.752	156.75
267.984	155.75
268.216	143.75
268.448	150.75
268.681	145.75
268.913	148.75
269.145	168.75
269.377	164.75
269.609	166.75
269.841	168.75
270.073	155.75
270.306	168.75
270.538	188.75
270.77	192.75
271.002	166.75
271.234	174.75
271.466	163.75
271.698	192.75
271.93	202.75
272.162	184.75
272.394	184.75
272.626	175.75
272.858	166.75
273.09	155.75
273.322	165.75
273.553	140.75
273.785	168.75
274.017	148.75
274.249	148.75
274.481	157.75
274.713	158.75
274.945	150.75
275.176	152.75
275.408	182.75
275.64	154.75
275.872	160.75
276.104	164.75
276.335	159.75
276.567	163.75
276.799	179.75
277.031	182.75
277.262	188.75
277.494	182.75
277.726	169.75
277.957	168.75
278.189	168.75
278.421	173.75
278.652	157.75
278.884	169.75
279.115	158.75
279.347	154.75
279.579	164.75
279.81	151.75
280.042	166.75
280.273	159.75
280.505	158.75
280.736	156.75
280.968	149.75
281.199	146.75
281.431	156.75
281.662	158.75
281.894	146.75
282.125	150.75
282.356	177.75
282.588	190.75
282.819	181.75
283.051	168.75
283.282	146.75
283.513	171.75
283.745	148.75
283.976	170.75
284.207	180.75
284.439	171.75
284.67	155.75
284.901	164.75
285.132	164.75
285.364	161.75
285.595	169.75
285.826	146.75
286.057	163.75
286.288	176.75
286.52	180.75
286.751	151.75
286.982	156.75
287.213	164.75
287.444	171.75
287.675	171.75
287.906	171.75
288.138	169.75
288.369	183.75
288.6	165.75
288.831	171.75
289.062	179.75
289.293	169.75
289.524	170.75
289.755	169.75
289.986	160.75
290.217	173.75
290.448	188.75
290.679	162.75
290.91	158.75
291.141	166.75
291.371	169.75
291.602	166.75
291.833	154.75
292.064	150.75
292.295	180.75
292.526	158.75
292.757	176.75
292.987	182.75
293.218	189.75
293.449	153.75
293.68	160.75
293.91	168.75
294.141	163.75
294.372	188.75
294.603	154.75
294.833	172.75
295.064	180.75
295.295	171.75
295.525	155.75
295.756	171.75
295.987	186.75
296.217	191.75
296.448	189.75
296.679	166.75
296.909	166.75
297.14	173.75
297.37	182.75
297.601	173.75
297.831	175.75
298.062	174.75
298.292	192.75
298.523	189.75
298.753	163.75
298.984	178.75
299.214	174.75
299.445	188.75
299.675	167.75
299.905	167.75
300.136	164.75
300.366	172.75
300.597	166.75
300.827	179.75
301.057	189.75
301.288	191.75
301.518	183.75
301.748	196.75
301.979	178.75
302.209	195.75
302.439	197.75
302.669	189.75
302.9	184.75
303.13	187.75
303.36	174.75
303.59	190.75
303.82	183.75
304.051	181.75
304.281	194.75
304.511	184.75
304.741	182.75
304.971	199.75
305.201	184.75
305.431	181.75
305.661	180.75
305.891	183.75
306.121	175.75
306.352	200.75
306.582	184.75
306.812	195.75
307.042	185.75
307.272	188.75
307.502	176.75
307.731	192.75
307.961	192.75
308.191	187.75
308.421	202.75
308.651	182.75
308.881	195.75
309.111	204.75
309.341	208.75
309.571	194.75
309.8	200.75
310.03	204.75
310.26	221.75
310.49	215.75
310.72	215.75
310.949	225.75
311.179	223.75
311.409	199.75
311.639	212.75
311.868	220.75
312.098	214.75
312.328	222.75
312.557	233.75
312.787	216.75
313.017	231.75
313.246	211.75
313.476	194.75
313.706	203.75
313.935	214.75
314.165	222.75
314.394	217.75
314.624	215.75
314.853	211.75
315.083	211.75
315.312	204.75
315.542	214.75
315.771	198.75
316.001	204.75
316.23	198.75
316.46	206.75
316.689	205.75
316.919	222.75
317.148	211.75
317.377	207.75
317.607	218.75
317.836	220.75
318.065	221.75
318.295	206.75
318.524	211.75
318.753	204.75
318.983	200.75
319.212	188.75
319.441	222.75
319.67	211.75
319.9	223.75
320.129	206.75
320.358	190.75
320.587	210.75
320.816	220.75
321.046	211.75
321.275	220.75
321.504	210.75
321.733	220.75
321.962	222.75
322.191	208.75
322.42	223.75
322.649	231.75
322.878	251.75
323.108	232.75
323.337	249.75
323.566	262.75
323.795	276.75
324.024	316.75
324.253	381.75
324.482	529.75
324.71	802.75
324.939	1059.75
325.168	871.75
325.397	467.75
325.626	333.75
325.855	258.75
326.084	246.75
326.313	242.75
326.542	273.75
326.77	294.75
326.999	331.75
327.228	486.75
327.457	694.75
327.686	816.75
327.914	514.75
328.143	358.75
328.372	351.75
328.6	322.75
328.829	288.75
329.058	317.75
329.287	319.75
329.515	290.75
329.744	274.75
329.972	282.75
330.201	278.75
330.43	309.75
330.658	328.75
330.887	327.75
331.115	328.75
331.344	278.75
331.572	276.75
331.801	253.75
332.03	258.75
332.258	274.75
332.486	252.75
332.715	230.75
332.943	232.75
333.172	263.75
333.4	234.75
333.629	259.75
333.857	260.75
334.085	270.75
334.314	292.75
334.542	317.75
334.771	313.75
334.999	289.75
335.227	259.75
335.455	226.75
335.684	224.75
335.912	244.75
336.14	237.75
336.369	251.75
336.597	237.75
336.825	228.75
337.053	234.75
337.281	236.75
337.51	230.75
337.738	228.75
337.966	216.75
338.194	233.75
338.422	231.75
338.65	243.75
338.878	225.75
339.106	225.75
339.334	224.75
339.562	221.75
339.79	227.75
340.018	228.75
340.246	236.75
340.474	236.75
340.702	236.75
340.93	214.75
341.158	226.75
341.386	226.75
341.614	229.75
341.842	245.75
342.07	226.75
342.298	223.75
342.526	211.75
342.754	213.75
342.981	216.75
343.209	217.75
343.437	223.75
343.665	216.75
343.893	210.75
344.12	232.75
344.348	233.75
344.576	236.75
344.804	251.75
345.031	242.75
345.259	233.75
345.487	229.75
345.714	219.75
345.942	232.75
346.17	233.75
346.397	228.75
346.625	229.75
346.853	209.75
347.08	234.75
347.308	225.75
347.535	226.75
347.763	231.75
347.99	232.75
348.218	224.75
348.445	232.75
348.673	216.75
348.9	222.75
349.128	212.75
349.355	207.75
349.583	207.75
349.81	223.75
350.037	205.75
350.265	226.75
350.492	210.75
350.72	223.75
350.947	226.75
351.174	216.75
351.402	240.75
351.629	222.75
351.856	242.75
352.083	236.75
352.311	239.75
352.538	235.75
352.765	239.75
352.992	225.75
353.22	231.75
353.447	223.75
353.674	223.75
353.901	203.75
354.128	198.75
354.355	199.75
354.583	208.75
354.81	197.75
355.037	201.75
355.264	194.75
355.491	217.75
355.718	204.75
355.945	198.75
356.172	208.75
356.399	205.75
356.626	195.75
356.853	180.75
357.08	200.75
357.307	198.75
357.534	200.75
357.761	188.75
357.988	213.75
358.215	214.75
358.441	196.75
358.668	194.75
358.895	213.75
359.122	208.75
359.349	218.75
359.576	212.75
359.802	227.75
360.029	252.75
360.256	273.75
360.483	245.75
360.709	231.75
360.936	215.75
361.163	222.75
361.39	227.75
361.616	222.75
361.843	210.75
362.07	218.75
362.296	242.75
362.523	221.75
362.749	219.75
362.976	213.75
363.203	212.75
363.429	205.75
363.656	225.75
363.882	208.75
364.109	215.75
364.335	236.75
364.562	220.75
364.788	199.75
365.015	204.75
365.241	207.75
365.468	211.75
365.694	199.75
365.92	217.75
366.147	214.75
366.373	214.75
366.599	197.75
366.826	219.75
367.052	212.75
367.278	229.75
367.505	212.75
367.731	217.75
367.957	218.75
368.184	218.75
368.41	205.75
368.636	232.75
368.862	217.75
369.089	216.75
369.315	200.75
369.541	209.75
369.767	214.75
369.993	222.75
370.219	204.75
370.445	207.75
370.672	208.75
370.898	195.75
371.124	211.75
371.35	205.75
371.576	200.75
371.802	203.75
372.028	218.75
372.254	236.75
372.48	223.75
372.706	217.75
372.932	206.75
373.158	210.75
373.384	217.75
373.61	205.75
373.835	207.75
374.061	201.75
374.287	204.75
374.513	221.75
374.739	211.75
374.965	210.75
375.191	211.75
375.416	188.75
375.642	194.75
375.868	218.75
376.094	205.75
376.319	215.75
376.545	217.75
376.771	206.75
376.997	187.75
377.222	192.75
377.448	211.75
377.674	215.75
377.899	197.75
378.125	198.75
378.35	208.75
378.576	203.75
378.802	206.75
379.027	200.75
379.253	197.75
379.478	202.75
379.704	202.75
379.929	211.75
380.155	208.75
380.38	219.75
380.606	195.75
380.831	203.75
381.057	226.75
381.282	222.75
381.507	207.75
381.733	198.75
381.958	203.75
382.184	201.75
382.409	200.75
382.634	197.75
382.86	211.75
383.085	210.75
383.31	225.75
383.535	218.75
383.761	194.75
383.986	230.75
384.211	211.75
384.436	196.75
384.662	226.75
384.887	216.75
385.112	212.75
385.337	215.75
385.562	222.75
385.787	227.75
386.013	232.75
386.238	215.75
386.463	188.75
386.688	210.75
386.913	223.75
387.138	211.75
387.363	232.75
387.588	220.75
387.813	221.75
388.038	215.75
388.263	213.75
388.488	205.75
388.713	211.75
388.938	224.75
389.163	208.75
389.387	212.75
389.612	226.75
389.837	221.75
390.062	220.75
390.287	224.75
390.512	214.75
390.736	217.75
390.961	204.75
391.186	213.75
391.411	226.75
391.636	212.75
391.86	236.75
392.085	231.75
392.31	231.75
392.534	227.75
392.759	240.75
392.984	221.75
393.208	225.75
393.433	226.75
393.658	226.75
393.882	224.75
394.107	209.75
394.331	221.75
394.556	237.75
394.78	220.75
395.005	232.75
395.229	211.75
395.454	226.75
395.678	224.75
395.903	227.75
396.127	234.75
396.352	235.75
396.576	239.75
396.801	228.75
397.025	232.75
397.249	225.75
397.474	228.75
397.698	231.75
397.922	245.75
398.147	232.75
398.371	252.75
398.595	243.75
398.82	238.75
399.044	271.75
399.268	254.75
399.492	254.75
399.717	285.75
399.941	309.75
400.165	288.75
400.389	308.75
400.613	286.75
400.837	273.75
401.062	253.75
401.286	254.75
401.51	244.75
401.734	236.75
401.958	239.75
402.182	261.75
402.406	276.75
402.63	280.75
402.854	262.75
403.078	257.75
403.302	270.75
403.526	248.75
403.75	284.75
403.974	249.75
404.198	240.75
404.422	244.75
404.645	256.75
404.869	278.75
405.093	263.75
405.317	290.75
405.541	318.75
405.765	307.75
405.988	275.75
406.212	272.75
406.436	286.75
406.66	302.75
406.883	300.75
407.107	287.75
407.331	296.75
407.555	326.75
407.778	340.75
408.002	306.75
408.226	287.75
408.449	292.75
408.673	272.75
408.896	290.75
409.12	309.75
409.344	300.75
409.567	258.75
409.791	264.75
410.014	269.75
410.238	250.75
410.461	252.75
410.685	266.75
410.908	257.75
411.132	298.75
411.355	295.75
411.578	294.75
411.802	269.75
412.025	263.75
412.249	245.75
412.472	270.75
412.695	257.75
412.919	280.75
413.142	245.75
413.365	240.75
413.589	246.75
413.812	220.75
414.035	238.75
414.258	260.75
414.482	251.75
414.705	246.75
414.928	246.75
415.151	251.75
415.374	229.75
415.597	226.75
415.821	250.75
416.044	256.75
416.267	258.75
416.49	245.75
416.713	229.75
416.936	252.75
417.159	252.75
417.382	250.75
417.605	250.75
417.828	247.75
418.051	280.75
418.274	270.75
418.497	257.75
418.72	244.75
418.943	235.75
419.166	258.75
419.389	248.75
419.611	274.75
419.834	257.75
420.057	270.75
420.28	264.75
420.503	270.75
420.726	283.75
420.948	263.75
421.171	299.75
421.394	298.75
421.617	278.75
421.839	276.75
422.062	263.75
422.285	252.75
422.507	287.75
422.73	344.75
422.953	298.75
423.175	272.75
423.398	268.75
423.621	272.75
423.843	282.75
424.066	270.75
424.288	280.75
424.511	286.75
424.733	305.75
424.956	337.75
425.178	325.75
425.401	330.75
425.623	338.75
425.846	295.75
426.068	276.75
426.291	267.75
426.513	278.75
426.735	274.75
426.958	293.75
427.18	325.75
427.402	386.75
427.625	412.75
427.847	383.75
428.069	330.75
428.292	298.75
428.514	261.75
428.736	261.75
428.958	264.75
429.181	249.75
429.403	244.75
429.625	256.75
429.847	284.75
430.069	305.75
430.292	302.75
430.514	270.75
430.736	261.75
430.958	259.75
431.18	234.75
431.402	223.75
431.624	244.75
431.846	241.75
432.068	226.75
432.29	249.75
432.512	252.75
432.734	254.75
432.956	247.75
433.178	263.75
433.4	250.75
433.622	253.75
433.844	238.75
434.066	255.75
434.287	231.75
434.509	242.75
434.731	242.75
434.953	259.75
435.175	245.75
435.397	286.75
435.618	270.75
435.84	291.75
436.062	333.75
436.284	376.75
436.505	294.75
436.727	278.75
436.949	262.75
437.17	261.75
437.392	274.75
437.614	259.75
437.835	271.75
438.057	332.75
438.278	351.75
438.5	345.75
438.721	368.75
438.943	364.75
439.165	290.75
439.386	272.75
439.608	277.75
439.829	284.75
440.05	327.75
440.272	301.75
440.493	300.75
440.715	264.75
440.936	245.75
441.158	263.75
441.379	257.75
441.6	267.75
441.822	273.75
442.043	281.75
442.264	320.75
442.486	330.75
442.707	294.75
442.928	291.75
443.149	297.75
443.371	302.75
443.592	324.75
443.813	376.75
444.034	372.75
444.255	308.75
444.476	294.75
444.698	276.75
444.919	271.75
445.14	367.75
445.361	314.75
445.582	306.75
445.803	332.75
446.024	370.75
446.245	366.75
446.466	327.75
446.687	299.75
446.908	291.75
447.129	281.75
447.35	258.75
447.571	240.75
447.792	246.75
448.013	269.75
448.234	272.75
448.455	269.75
448.675	322.75
448.896	401.75
449.117	326.75
449.338	324.75
449.559	375.75
449.779	382.75
450	315.75
450.221	262.75
450.442	275.75
450.662	263.75
450.883	258.75
451.104	282.75
451.324	270.75
451.545	247.75
451.766	245.75
451.986	226.75
452.207	217.75
452.428	218.75
452.648	249.75
452.869	231.75
453.089	230.75
453.31	235.75
453.53	239.75
453.751	237.75
453.971	242.75
454.192	266.75
454.412	233.75
454.633	232.75
454.853	215.75
455.073	232.75
455.294	232.75
455.514	272.75
455.734	280.75
455.955	231.75
456.175	215.75
456.395	218.75
456.616	223.75
456.836	223.75
457.056	226.75
457.276	224.75
457.497	212.75
457.717	215.75
457.937	214.75
458.157	220.75
458.377	227.75
458.598	231.75
458.818	288.75
459.038	319.75
459.258	307.75
459.478	262.75
459.698	259.75
459.918	242.75
460.138	258.75
460.358	249.75
460.578	254.75
460.798	256.75
461.018	240.75
461.238	242.75
461.458	257.75
461.678	245.75
461.898	245.75
462.118	261.75
462.338	246.75
462.558	260.75
462.777	260.75
462.997	266.75
463.217	272.75
463.437	256.75
463.657	258.75
463.876	250.75
464.096	254.75
464.316	262.75
464.536	264.75
464.755	269.75
464.975	261.75
465.195	309.75
465.414	360.75
465.634	286.75
465.854	276.75
466.073	256.75
466.293	268.75
466.512	230.75
466.732	238.75
466.951	242.75
467.171	232.75
467.391	253.75
467.61	248.75
467.829	250.75
468.049	258.75
468.268	253.75
468.488	248.75
468.707	231.75
468.927	237.75
469.146	226.75
469.365	247.75
469.585	247.75
469.804	248.75
470.023	251.75
470.243	244.75
470.462	227.75
470.681	254.75
470.901	264.75
471.12	247.75
471.339	238.75
471.558	239.75
471.777	255.75
471.997	247.75
472.216	261.75
472.435	283.75
472.654	260.75
472.873	245.75
473.092	233.75
473.311	235.75
473.53	233.75
473.749	236.75
473.968	279.75
474.187	317.75
474.406	295.75
474.625	253.75
474.844	248.75
475.063	230.75
475.282	245.75
475.501	238.75
475.72	250.75
475.939	254.75
476.158	246.75
476.377	237.75
476.596	244.75
476.814	239.75
477.033	254.75
477.252	243.75
477.471	262.75
477.69	262.75
477.908	259.75
478.127	284.75
478.346	257.75
478.564	272.75
478.783	249.75
479.002	278.75
479.22	274.75
479.439	287.75
479.658	304.75
479.876	263.75
480.095	278.75
480.313	299.75
480.532	288.75
480.751	287.75
480.969	293.75
481.188	371.75
481.406	383.75
481.624	321.75
481.843	310.75
482.061	286.75
482.28	272.75
482.498	278.75
482.717	281.75
482.935	247.75
483.153	260.75
483.372	273.75
483.59	277.75
483.808	263.75
484.027	282.75
484.245	261.75
484.463	276.75
484.681	290.75
484.9	284.75
485.118	280.75
485.336	287.75
485.554	254.75
485.772	294.75
485.99	306.75
486.209	285.75
486.427	292.75
486.645	296.75
486.863	291.75
487.081	303.75
487.299	308.75
487.517	298.75
487.735	309.75
487.953	284.75
488.171	301.75
488.389	282.75
488.607	285.75
488.825	287.75
489.043	292.75
489.261	292.75
489.479	284.75
489.696	302.75
489.914	311.75
490.132	313.75
490.35	301.75
490.568	315.75
490.786	333.75
491.003	338.75
491.221	326.75
491.439	347.75
491.657	365.75
491.874	353.75
492.092	357.75
492.31	349.75
492.527	360.75
492.745	344.75
492.963	343.75
493.18	355.75
493.398	352.75
493.615	359.75
493.833	345.75
494.05	356.75
494.268	343.75
494.485	346.75
494.703	336.75
494.92	358.75
495.138	362.75
495.355	347.75
495.573	352.75
495.79	336.75
496.008	345.75
496.225	333.75
496.442	360.75
496.66	349.75
496.877	344.75
497.094	347.75
497.312	365.75
497.529	341.75
497.746	365.75
497.963	359.75
498.181	357.75
498.398	340.75
498.615	370.75
498.832	384.75
499.049	376.75
499.267	397.75
499.484	405.75
499.701	408.75
499.918	411.75
500.135	436.75
500.352	440.75
500.569	463.75
500.786	470.75
501.003	447.75
501.22	446.75
501.437	422.75
501.654	408.75
501.871	415.75
502.088	406.75
502.305	388.75
502.522	375.75
