Data from 1966.PennyLincolnUp.Lamp.En5.5.200Scan.071719.P1._HRD10591_14-13-15-914.txt Node
Date: Thu Jul 18 14:13:15 EDT 2019
User: cochatt
Spectrometer: HR+D1059
Trigger mode: 1
Integration Time (sec): 1.000000E-1
Scans to average: 1
Electric dark correction enabled: true
Nonlinearity correction enabled: false
Boxcar width: 0
XAxis mode: Wavelengths
Number of Pixels in Spectrum: 2048
>>>>>Begin Spectral Data<<<<<
223.165	-9.94
223.4	-9.94
223.635	-9.94
223.869	-8.94
224.104	-22.94
224.338	-18.94
224.573	-15.94
224.808	-18.94
225.042	-14.94
225.277	-0.94
225.511	-8.94
225.746	10.06
225.98	6.06
226.215	15.06
226.449	16.06
226.683	18.06
226.918	22.06
227.152	33.06
227.387	26.06
227.621	34.06
227.856	34.06
228.09	45.06
228.324	60.06
228.559	52.06
228.793	58.06
229.027	83.06
229.262	99.06
229.496	83.06
229.73	96.06
229.964	111.06
230.199	106.06
230.433	82.06
230.667	78.06
230.901	86.06
231.136	73.06
231.37	87.06
231.604	89.06
231.838	106.06
232.072	99.06
232.306	83.06
232.541	91.06
232.775	94.06
233.009	108.06
233.243	103.06
233.477	92.06
233.711	87.06
233.945	81.06
234.179	102.06
234.413	100.06
234.647	114.06
234.881	99.06
235.115	102.06
235.349	94.06
235.583	103.06
235.817	110.06
236.051	88.06
236.285	102.06
236.519	94.06
236.753	85.06
236.987	115.06
237.221	113.06
237.455	144.06
237.689	118.06
237.922	105.06
238.156	98.06
238.39	107.06
238.624	102.06
238.858	93.06
239.091	87.06
239.325	97.06
239.559	104.06
239.793	97.06
240.027	97.06
240.26	116.06
240.494	121.06
240.728	113.06
240.961	117.06
241.195	92.06
241.429	106.06
241.662	87.06
241.896	101.06
242.13	105.06
242.363	93.06
242.597	93.06
242.83	103.06
243.064	104.06
243.298	100.06
243.531	93.06
243.765	100.06
243.998	78.06
244.232	110.06
244.465	103.06
244.699	103.06
244.932	103.06
245.166	108.06
245.399	112.06
245.633	106.06
245.866	104.06
246.099	101.06
246.333	97.06
246.566	125.06
246.8	95.06
247.033	119.06
247.266	131.06
247.5	106.06
247.733	116.06
247.966	122.06
248.2	113.06
248.433	117.06
248.666	112.06
248.899	122.06
249.133	119.06
249.366	130.06
249.599	124.06
249.832	106.06
250.066	120.06
250.299	109.06
250.532	109.06
250.765	134.06
250.998	143.06
251.231	146.06
251.465	130.06
251.698	128.06
251.931	132.06
252.164	134.06
252.397	129.06
252.63	146.06
252.863	121.06
253.096	128.06
253.329	141.06
253.562	140.06
253.795	141.06
254.028	135.06
254.261	138.06
254.494	141.06
254.727	165.06
254.96	160.06
255.193	144.06
255.426	159.06
255.659	127.06
255.892	129.06
256.124	136.06
256.357	153.06
256.59	130.06
256.823	142.06
257.056	141.06
257.289	139.06
257.521	127.06
257.754	120.06
257.987	138.06
258.22	143.06
258.452	129.06
258.685	140.06
258.918	142.06
259.151	139.06
259.383	146.06
259.616	132.06
259.849	137.06
260.081	147.06
260.314	145.06
260.547	156.06
260.779	156.06
261.012	140.06
261.244	154.06
261.477	144.06
261.71	136.06
261.942	140.06
262.175	164.06
262.407	128.06
262.64	128.06
262.872	137.06
263.105	131.06
263.337	146.06
263.57	138.06
263.802	149.06
264.035	143.06
264.267	132.06
264.499	143.06
264.732	152.06
264.964	137.06
265.197	127.06
265.429	152.06
265.661	138.06
265.894	129.06
266.126	136.06
266.358	145.06
266.591	150.06
266.823	148.06
267.055	129.06
267.287	134.06
267.52	141.06
267.752	135.06
267.984	147.06
268.216	145.06
268.448	160.06
268.681	140.06
268.913	137.06
269.145	160.06
269.377	169.06
269.609	151.06
269.841	159.06
270.073	163.06
270.306	181.06
270.538	175.06
270.77	192.06
271.002	172.06
271.234	169.06
271.466	176.06
271.698	184.06
271.93	167.06
272.162	190.06
272.394	178.06
272.626	156.06
272.858	172.06
273.09	158.06
273.322	169.06
273.553	159.06
273.785	148.06
274.017	146.06
274.249	157.06
274.481	145.06
274.713	165.06
274.945	143.06
275.176	170.06
275.408	154.06
275.64	158.06
275.872	148.06
276.104	152.06
276.335	143.06
276.567	164.06
276.799	185.06
277.031	182.06
277.262	189.06
277.494	186.06
277.726	188.06
277.957	170.06
278.189	165.06
278.421	154.06
278.652	156.06
278.884	158.06
279.115	157.06
279.347	144.06
279.579	145.06
279.81	146.06
280.042	160.06
280.273	164.06
280.505	154.06
280.736	146.06
280.968	158.06
281.199	166.06
281.431	154.06
281.662	151.06
281.894	154.06
282.125	179.06
282.356	160.06
282.588	184.06
282.819	176.06
283.051	171.06
283.282	169.06
283.513	173.06
283.745	161.06
283.976	163.06
284.207	161.06
284.439	161.06
284.67	163.06
284.901	168.06
285.132	167.06
285.364	162.06
285.595	148.06
285.826	145.06
286.057	159.06
286.288	161.06
286.52	171.06
286.751	155.06
286.982	169.06
287.213	166.06
287.444	159.06
287.675	160.06
287.906	159.06
288.138	167.06
288.369	181.06
288.6	164.06
288.831	173.06
289.062	171.06
289.293	162.06
289.524	175.06
289.755	153.06
289.986	158.06
290.217	157.06
290.448	190.06
290.679	187.06
290.91	171.06
291.141	159.06
291.371	159.06
291.602	184.06
291.833	156.06
292.064	157.06
292.295	150.06
292.526	164.06
292.757	162.06
292.987	162.06
293.218	158.06
293.449	163.06
293.68	143.06
293.91	177.06
294.141	172.06
294.372	154.06
294.603	170.06
294.833	184.06
295.064	176.06
295.295	177.06
295.525	166.06
295.756	160.06
295.987	192.06
296.217	175.06
296.448	202.06
296.679	171.06
296.909	166.06
297.14	169.06
297.37	171.06
297.601	184.06
297.831	167.06
298.062	182.06
298.292	182.06
298.523	175.06
298.753	149.06
298.984	175.06
299.214	176.06
299.445	172.06
299.675	167.06
299.905	177.06
300.136	172.06
300.366	180.06
300.597	174.06
300.827	169.06
301.057	177.06
301.288	191.06
301.518	172.06
301.748	174.06
301.979	180.06
302.209	176.06
302.439	182.06
302.669	178.06
302.9	197.06
303.13	179.06
303.36	182.06
303.59	189.06
303.82	194.06
304.051	192.06
304.281	183.06
304.511	183.06
304.741	181.06
304.971	186.06
305.201	169.06
305.431	181.06
305.661	170.06
305.891	180.06
306.121	183.06
306.352	199.06
306.582	202.06
306.812	178.06
307.042	174.06
307.272	174.06
307.502	190.06
307.731	182.06
307.961	168.06
308.191	178.06
308.421	185.06
308.651	198.06
308.881	189.06
309.111	169.06
309.341	174.06
309.571	191.06
309.8	177.06
310.03	204.06
310.26	207.06
310.49	210.06
310.72	219.06
310.949	214.06
311.179	214.06
311.409	201.06
311.639	210.06
311.868	207.06
312.098	201.06
312.328	207.06
312.557	219.06
312.787	225.06
313.017	230.06
313.246	197.06
313.476	191.06
313.706	208.06
313.935	203.06
314.165	220.06
314.394	196.06
314.624	220.06
314.853	212.06
315.083	209.06
315.312	205.06
315.542	205.06
315.771	191.06
316.001	205.06
316.23	186.06
316.46	203.06
316.689	206.06
316.919	200.06
317.148	211.06
317.377	210.06
317.607	192.06
317.836	211.06
318.065	204.06
318.295	205.06
318.524	197.06
318.753	193.06
318.983	208.06
319.212	209.06
319.441	216.06
319.67	205.06
319.9	200.06
320.129	168.06
320.358	193.06
320.587	191.06
320.816	219.06
321.046	218.06
321.275	205.06
321.504	197.06
321.733	197.06
321.962	209.06
322.191	223.06
322.42	237.06
322.649	217.06
322.878	218.06
323.108	232.06
323.337	236.06
323.566	249.06
323.795	260.06
324.024	294.06
324.253	344.06
324.482	502.06
324.71	763.06
324.939	963.06
325.168	795.06
325.397	409.06
325.626	279.06
325.855	248.06
326.084	238.06
326.313	257.06
326.542	233.06
326.77	267.06
326.999	326.06
327.228	464.06
327.457	622.06
327.686	775.06
327.914	479.06
328.143	329.06
328.372	324.06
328.6	295.06
328.829	285.06
329.058	304.06
329.287	298.06
329.515	271.06
329.744	258.06
329.972	257.06
330.201	286.06
330.43	295.06
330.658	301.06
330.887	302.06
331.115	317.06
331.344	266.06
331.572	255.06
331.801	252.06
332.03	244.06
332.258	238.06
332.486	230.06
332.715	228.06
332.943	244.06
333.172	228.06
333.4	236.06
333.629	264.06
333.857	248.06
334.085	245.06
334.314	277.06
334.542	280.06
334.771	290.06
334.999	273.06
335.227	254.06
335.455	235.06
335.684	238.06
335.912	228.06
336.14	217.06
336.369	232.06
336.597	238.06
336.825	245.06
337.053	230.06
337.281	222.06
337.51	221.06
337.738	210.06
337.966	231.06
338.194	223.06
338.422	224.06
338.65	220.06
338.878	224.06
339.106	217.06
339.334	211.06
339.562	227.06
339.79	230.06
340.018	233.06
340.246	228.06
340.474	213.06
340.702	229.06
340.93	221.06
341.158	212.06
341.386	217.06
341.614	223.06
341.842	225.06
342.07	202.06
342.298	201.06
342.526	210.06
342.754	222.06
342.981	214.06
343.209	208.06
343.437	220.06
343.665	208.06
343.893	206.06
344.12	224.06
344.348	221.06
344.576	229.06
344.804	230.06
345.031	230.06
345.259	230.06
345.487	231.06
345.714	209.06
345.942	218.06
346.17	210.06
346.397	201.06
346.625	213.06
346.853	212.06
347.08	211.06
347.308	217.06
347.535	218.06
347.763	217.06
347.99	224.06
348.218	223.06
348.445	225.06
348.673	222.06
348.9	203.06
349.128	204.06
349.355	201.06
349.583	198.06
349.81	200.06
350.037	202.06
350.265	207.06
350.492	196.06
350.72	207.06
350.947	219.06
351.174	218.06
351.402	209.06
351.629	212.06
351.856	217.06
352.083	214.06
352.311	227.06
352.538	225.06
352.765	218.06
352.992	213.06
353.22	232.06
353.447	205.06
353.674	221.06
353.901	214.06
354.128	190.06
354.355	200.06
354.583	204.06
354.81	209.06
355.037	196.06
355.264	194.06
355.491	200.06
355.718	197.06
355.945	194.06
356.172	186.06
356.399	206.06
356.626	210.06
356.853	192.06
357.08	188.06
357.307	204.06
357.534	201.06
357.761	196.06
357.988	209.06
358.215	196.06
358.441	208.06
358.668	204.06
358.895	210.06
359.122	210.06
359.349	214.06
359.576	227.06
359.802	224.06
360.029	251.06
360.256	243.06
360.483	248.06
360.709	202.06
360.936	216.06
361.163	225.06
361.39	226.06
361.616	211.06
361.843	220.06
362.07	204.06
362.296	214.06
362.523	227.06
362.749	202.06
362.976	205.06
363.203	202.06
363.429	204.06
363.656	214.06
363.882	209.06
364.109	204.06
364.335	196.06
364.562	208.06
364.788	203.06
365.015	198.06
365.241	213.06
365.468	220.06
365.694	208.06
365.92	212.06
366.147	207.06
366.373	211.06
366.599	186.06
366.826	204.06
367.052	200.06
367.278	194.06
367.505	203.06
367.731	202.06
367.957	209.06
368.184	214.06
368.41	196.06
368.636	216.06
368.862	209.06
369.089	212.06
369.315	214.06
369.541	203.06
369.767	219.06
369.993	202.06
370.219	200.06
370.445	202.06
370.672	188.06
370.898	214.06
371.124	190.06
371.35	193.06
371.576	188.06
371.802	196.06
372.028	202.06
372.254	214.06
372.48	205.06
372.706	208.06
372.932	200.06
373.158	206.06
373.384	196.06
373.61	213.06
373.835	197.06
374.061	207.06
374.287	216.06
374.513	201.06
374.739	200.06
374.965	193.06
375.191	204.06
375.416	203.06
375.642	203.06
375.868	207.06
376.094	212.06
376.319	198.06
376.545	202.06
376.771	219.06
376.997	210.06
377.222	201.06
377.448	203.06
377.674	223.06
377.899	194.06
378.125	202.06
378.35	207.06
378.576	205.06
378.802	191.06
379.027	190.06
379.253	201.06
379.478	214.06
379.704	201.06
379.929	205.06
380.155	197.06
380.38	195.06
380.606	200.06
380.831	216.06
381.057	204.06
381.282	214.06
381.507	209.06
381.733	222.06
381.958	211.06
382.184	205.06
382.409	194.06
382.634	200.06
382.86	190.06
383.085	209.06
383.31	207.06
383.535	221.06
383.761	212.06
383.986	211.06
384.211	202.06
384.436	197.06
384.662	218.06
384.887	232.06
385.112	209.06
385.337	233.06
385.562	208.06
385.787	218.06
386.013	237.06
386.238	235.06
386.463	213.06
386.688	215.06
386.913	224.06
387.138	204.06
387.363	221.06
387.588	218.06
387.813	196.06
388.038	223.06
388.263	212.06
388.488	214.06
388.713	224.06
388.938	218.06
389.163	227.06
389.387	231.06
389.612	222.06
389.837	227.06
390.062	228.06
390.287	194.06
390.512	217.06
390.736	200.06
390.961	202.06
391.186	201.06
391.411	207.06
391.636	230.06
391.86	220.06
392.085	212.06
392.31	223.06
392.534	241.06
392.759	225.06
392.984	231.06
393.208	211.06
393.433	223.06
393.658	228.06
393.882	222.06
394.107	209.06
394.331	210.06
394.556	210.06
394.78	221.06
395.005	222.06
395.229	226.06
395.454	201.06
395.678	202.06
395.903	216.06
396.127	245.06
396.352	225.06
396.576	237.06
396.801	212.06
397.025	221.06
397.249	228.06
397.474	224.06
397.698	231.06
397.922	236.06
398.147	220.06
398.371	247.06
398.595	228.06
398.82	249.06
399.044	259.06
399.268	257.06
399.492	251.06
399.717	289.06
399.941	296.06
400.165	272.06
400.389	305.06
400.613	272.06
400.837	246.06
401.062	254.06
401.286	273.06
401.51	265.06
401.734	239.06
401.958	228.06
402.182	242.06
402.406	248.06
402.63	256.06
402.854	252.06
403.078	245.06
403.302	269.06
403.526	249.06
403.75	263.06
403.974	272.06
404.198	242.06
404.422	278.06
404.645	248.06
404.869	279.06
405.093	267.06
405.317	302.06
405.541	298.06
405.765	289.06
405.988	277.06
406.212	264.06
406.436	272.06
406.66	301.06
406.883	288.06
407.107	287.06
407.331	299.06
407.555	336.06
407.778	315.06
408.002	304.06
408.226	267.06
408.449	251.06
408.673	282.06
408.896	288.06
409.12	274.06
409.344	275.06
409.567	263.06
409.791	260.06
410.014	236.06
410.238	246.06
410.461	260.06
410.685	262.06
410.908	279.06
411.132	270.06
411.355	290.06
411.578	261.06
411.802	265.06
412.025	249.06
412.249	263.06
412.472	268.06
412.695	265.06
412.919	273.06
413.142	261.06
413.365	251.06
413.589	253.06
413.812	251.06
414.035	245.06
414.258	219.06
414.482	252.06
414.705	250.06
414.928	262.06
415.151	224.06
415.374	242.06
415.597	244.06
415.821	253.06
416.044	226.06
416.267	251.06
416.49	233.06
416.713	236.06
416.936	236.06
417.159	254.06
417.382	248.06
417.605	229.06
417.828	250.06
418.051	249.06
418.274	256.06
418.497	247.06
418.72	231.06
418.943	236.06
419.166	248.06
419.389	256.06
419.611	269.06
419.834	265.06
420.057	260.06
420.28	259.06
420.503	251.06
420.726	247.06
420.948	257.06
421.171	265.06
421.394	300.06
421.617	248.06
421.839	260.06
422.062	246.06
422.285	272.06
422.507	291.06
422.73	316.06
422.953	303.06
423.175	259.06
423.398	273.06
423.621	288.06
423.843	292.06
424.066	267.06
424.288	267.06
424.511	266.06
424.733	320.06
424.956	335.06
425.178	318.06
425.401	293.06
425.623	338.06
425.846	279.06
426.068	271.06
426.291	267.06
426.513	270.06
426.735	260.06
426.958	280.06
427.18	329.06
427.402	381.06
427.625	398.06
427.847	343.06
428.069	304.06
428.292	285.06
428.514	260.06
428.736	246.06
428.958	246.06
429.181	260.06
429.403	250.06
429.625	266.06
429.847	274.06
430.069	309.06
430.292	274.06
430.514	283.06
430.736	244.06
430.958	253.06
431.18	244.06
431.402	239.06
431.624	246.06
431.846	244.06
432.068	227.06
432.29	233.06
432.512	240.06
432.734	237.06
432.956	241.06
433.178	262.06
433.4	252.06
433.622	250.06
433.844	240.06
434.066	248.06
434.287	241.06
434.509	232.06
434.731	222.06
434.953	254.06
435.175	268.06
435.397	252.06
435.618	289.06
435.84	292.06
436.062	313.06
436.284	349.06
436.505	295.06
436.727	276.06
436.949	257.06
437.17	252.06
437.392	248.06
437.614	255.06
437.835	275.06
438.057	324.06
438.278	357.06
438.5	346.06
438.721	373.06
438.943	353.06
439.165	272.06
439.386	268.06
439.608	267.06
439.829	268.06
440.05	277.06
440.272	305.06
440.493	290.06
440.715	270.06
440.936	283.06
441.158	251.06
441.379	270.06
441.6	257.06
441.822	268.06
442.043	266.06
442.264	326.06
442.486	342.06
442.707	297.06
442.928	261.06
443.149	293.06
443.371	302.06
443.592	303.06
443.813	340.06
444.034	347.06
444.255	295.06
444.476	300.06
444.698	272.06
444.919	262.06
445.14	344.06
445.361	320.06
445.582	286.06
445.803	314.06
446.024	372.06
446.245	363.06
446.466	346.06
446.687	299.06
446.908	268.06
447.129	249.06
447.35	239.06
447.571	255.06
447.792	226.06
448.013	250.06
448.234	254.06
448.455	288.06
448.675	337.06
448.896	354.06
449.117	303.06
449.338	304.06
449.559	333.06
449.779	358.06
450	294.06
450.221	253.06
450.442	236.06
450.662	234.06
450.883	244.06
451.104	257.06
451.324	260.06
451.545	236.06
451.766	250.06
451.986	223.06
452.207	240.06
452.428	231.06
452.648	240.06
452.869	229.06
453.089	250.06
453.31	247.06
453.53	230.06
453.751	235.06
453.971	241.06
454.192	242.06
454.412	231.06
454.633	234.06
454.853	237.06
455.073	222.06
455.294	246.06
455.514	289.06
455.734	257.06
455.955	224.06
456.175	216.06
456.395	206.06
456.616	204.06
456.836	203.06
457.056	191.06
457.276	200.06
457.497	207.06
457.717	218.06
457.937	221.06
458.157	215.06
458.377	216.06
458.598	222.06
458.818	278.06
459.038	310.06
459.258	299.06
459.478	246.06
459.698	248.06
459.918	234.06
460.138	241.06
460.358	225.06
460.578	261.06
460.798	223.06
461.018	246.06
461.238	233.06
461.458	241.06
461.678	235.06
461.898	235.06
462.118	238.06
462.338	245.06
462.558	239.06
462.777	236.06
462.997	256.06
463.217	258.06
463.437	255.06
463.657	258.06
463.876	244.06
464.096	247.06
464.316	260.06
464.536	271.06
464.755	260.06
464.975	250.06
465.195	288.06
465.414	338.06
465.634	292.06
465.854	251.06
466.073	238.06
466.293	237.06
466.512	227.06
466.732	238.06
466.951	210.06
467.171	225.06
467.391	257.06
467.61	255.06
467.829	251.06
468.049	239.06
468.268	233.06
468.488	217.06
468.707	217.06
468.927	221.06
469.146	217.06
469.365	222.06
469.585	226.06
469.804	236.06
470.023	237.06
470.243	244.06
470.462	244.06
470.681	260.06
470.901	244.06
471.12	232.06
471.339	253.06
471.558	234.06
471.777	237.06
471.997	225.06
472.216	236.06
472.435	266.06
472.654	248.06
472.873	238.06
473.092	223.06
473.311	233.06
473.53	230.06
473.749	238.06
473.968	254.06
474.187	313.06
474.406	296.06
474.625	253.06
474.844	238.06
475.063	220.06
475.282	225.06
475.501	224.06
475.72	260.06
475.939	217.06
476.158	222.06
476.377	227.06
476.596	235.06
476.814	247.06
477.033	259.06
477.252	241.06
477.471	248.06
477.69	245.06
477.908	262.06
478.127	255.06
478.346	264.06
478.564	253.06
478.783	251.06
479.002	260.06
479.22	263.06
479.439	272.06
479.658	267.06
479.876	281.06
480.095	290.06
480.313	278.06
480.532	274.06
480.751	271.06
480.969	311.06
481.188	350.06
481.406	358.06
481.624	320.06
481.843	287.06
482.061	269.06
482.28	285.06
482.498	254.06
482.717	257.06
482.935	254.06
483.153	272.06
483.372	260.06
483.59	252.06
483.808	274.06
484.027	273.06
484.245	265.06
484.463	289.06
484.681	285.06
484.9	273.06
485.118	289.06
485.336	265.06
485.554	280.06
485.772	267.06
485.99	258.06
486.209	272.06
486.427	280.06
486.645	279.06
486.863	312.06
487.081	304.06
487.299	283.06
487.517	294.06
487.735	284.06
487.953	273.06
488.171	294.06
488.389	286.06
488.607	286.06
488.825	291.06
489.043	280.06
489.261	298.06
489.479	280.06
489.696	299.06
489.914	300.06
490.132	290.06
490.35	311.06
490.568	282.06
490.786	308.06
491.003	325.06
491.221	321.06
491.439	328.06
491.657	343.06
491.874	342.06
492.092	343.06
492.31	336.06
492.527	331.06
492.745	333.06
492.963	356.06
493.18	341.06
493.398	349.06
493.615	353.06
493.833	353.06
494.05	343.06
494.268	342.06
494.485	357.06
494.703	337.06
494.92	354.06
495.138	349.06
495.355	336.06
495.573	350.06
495.79	324.06
496.008	323.06
496.225	340.06
496.442	356.06
496.66	331.06
496.877	333.06
497.094	330.06
497.312	335.06
497.529	338.06
497.746	355.06
497.963	337.06
498.181	343.06
498.398	335.06
498.615	374.06
498.832	364.06
499.049	347.06
499.267	367.06
499.484	376.06
499.701	395.06
499.918	385.06
500.135	447.06
500.352	421.06
500.569	448.06
500.786	463.06
501.003	433.06
501.22	440.06
501.437	424.06
501.654	430.06
501.871	435.06
502.088	394.06
502.305	386.06
502.522	360.06
