Data from 1966.PennyLincolnUp.Lamp.En5.5.200Scan.071719.P1.Scan2.head_HRD10591_14-19-43-290.txt Node
Date: Thu Jul 18 14:19:43 EDT 2019
User: cochatt
Spectrometer: HR+D1059
Trigger mode: 1
Integration Time (sec): 1.000000E-1
Scans to average: 1
Electric dark correction enabled: true
Nonlinearity correction enabled: false
Boxcar width: 0
XAxis mode: Wavelengths
Number of Pixels in Spectrum: 2048
>>>>>Begin Spectral Data<<<<<
223.165	-11.62
223.4	-11.62
223.635	-11.62
223.869	-12.62
224.104	-21.62
224.338	-2.62
224.573	-14.62
224.808	-20.62
225.042	-20.62
225.277	-14.62
225.511	12.38
225.746	11.38
225.98	19.38
226.215	9.38
226.449	7.38
226.683	12.38
226.918	8.38
227.152	38.38
227.387	32.38
227.621	30.38
227.856	24.38
228.09	38.38
228.324	45.38
228.559	50.38
228.793	58.38
229.027	89.38
229.262	116.38
229.496	116.38
229.73	134.38
229.964	162.38
230.199	134.38
230.433	118.38
230.667	105.38
230.901	121.38
231.136	121.38
231.37	123.38
231.604	114.38
231.838	120.38
232.072	111.38
232.306	109.38
232.541	122.38
232.775	103.38
233.009	105.38
233.243	107.38
233.477	127.38
233.711	102.38
233.945	121.38
234.179	107.38
234.413	121.38
234.647	126.38
234.881	115.38
235.115	106.38
235.349	113.38
235.583	126.38
235.817	130.38
236.051	130.38
236.285	123.38
236.519	129.38
236.753	141.38
236.987	138.38
237.221	178.38
237.455	230.38
237.689	183.38
237.922	138.38
238.156	135.38
238.39	126.38
238.624	129.38
238.858	124.38
239.091	127.38
239.325	125.38
239.559	138.38
239.793	127.38
240.027	130.38
240.26	135.38
240.494	168.38
240.728	153.38
240.961	148.38
241.195	150.38
241.429	150.38
241.662	150.38
241.896	136.38
242.13	141.38
242.363	135.38
242.597	146.38
242.83	131.38
243.064	132.38
243.298	145.38
243.531	149.38
243.765	139.38
243.998	142.38
244.232	142.38
244.465	157.38
244.699	142.38
244.932	151.38
245.166	146.38
245.399	150.38
245.633	162.38
245.866	152.38
246.099	154.38
246.333	160.38
246.566	161.38
246.8	153.38
247.033	154.38
247.266	174.38
247.5	166.38
247.733	158.38
247.966	165.38
248.2	161.38
248.433	167.38
248.666	187.38
248.899	184.38
249.133	197.38
249.366	210.38
249.599	197.38
249.832	198.38
250.066	191.38
250.299	193.38
250.532	215.38
250.765	209.38
250.998	238.38
251.231	220.38
251.465	212.38
251.698	209.38
251.931	204.38
252.164	222.38
252.397	205.38
252.63	216.38
252.863	222.38
253.096	218.38
253.329	237.38
253.562	219.38
253.795	227.38
254.028	212.38
254.261	217.38
254.494	215.38
254.727	268.38
254.96	289.38
255.193	287.38
255.426	265.38
255.659	249.38
255.892	252.38
256.124	234.38
256.357	255.38
256.59	228.38
256.823	222.38
257.056	220.38
257.289	224.38
257.521	225.38
257.754	208.38
257.987	221.38
258.22	206.38
258.452	215.38
258.685	219.38
258.918	204.38
259.151	214.38
259.383	222.38
259.616	222.38
259.849	235.38
260.081	260.38
260.314	259.38
260.547	257.38
260.779	234.38
261.012	249.38
261.244	236.38
261.477	213.38
261.71	215.38
261.942	224.38
262.175	232.38
262.407	231.38
262.64	229.38
262.872	212.38
263.105	234.38
263.337	219.38
263.57	220.38
263.802	206.38
264.035	210.38
264.267	216.38
264.499	201.38
264.732	218.38
264.964	221.38
265.197	195.38
265.429	224.38
265.661	225.38
265.894	228.38
266.126	210.38
266.358	226.38
266.591	229.38
266.823	230.38
267.055	220.38
267.287	245.38
267.52	241.38
267.752	237.38
267.984	231.38
268.216	232.38
268.448	251.38
268.681	229.38
268.913	242.38
269.145	275.38
269.377	275.38
269.609	279.38
269.841	281.38
270.073	278.38
270.306	297.38
270.538	303.38
270.77	319.38
271.002	307.38
271.234	296.38
271.466	290.38
271.698	314.38
271.93	323.38
272.162	324.38
272.394	309.38
272.626	310.38
272.858	291.38
273.09	276.38
273.322	267.38
273.553	283.38
273.785	282.38
274.017	279.38
274.249	279.38
274.481	263.38
274.713	255.38
274.945	284.38
275.176	284.38
275.408	259.38
275.64	267.38
275.872	268.38
276.104	266.38
276.335	271.38
276.567	283.38
276.799	297.38
277.031	313.38
277.262	327.38
277.494	352.38
277.726	299.38
277.957	295.38
278.189	291.38
278.421	283.38
278.652	306.38
278.884	275.38
279.115	273.38
279.347	274.38
279.579	281.38
279.81	259.38
280.042	279.38
280.273	269.38
280.505	282.38
280.736	272.38
280.968	264.38
281.199	285.38
281.431	270.38
281.662	259.38
281.894	268.38
282.125	279.38
282.356	306.38
282.588	319.38
282.819	315.38
283.051	283.38
283.282	275.38
283.513	283.38
283.745	287.38
283.976	290.38
284.207	284.38
284.439	292.38
284.67	278.38
284.901	301.38
285.132	272.38
285.364	277.38
285.595	292.38
285.826	277.38
286.057	277.38
286.288	278.38
286.52	268.38
286.751	287.38
286.982	284.38
287.213	282.38
287.444	289.38
287.675	299.38
287.906	314.38
288.138	309.38
288.369	319.38
288.6	334.38
288.831	296.38
289.062	286.38
289.293	307.38
289.524	272.38
289.755	297.38
289.986	302.38
290.217	315.38
290.448	282.38
290.679	301.38
290.91	285.38
291.141	298.38
291.371	285.38
291.602	284.38
291.833	310.38
292.064	271.38
292.295	305.38
292.526	297.38
292.757	301.38
292.987	306.38
293.218	294.38
293.449	280.38
293.68	299.38
293.91	278.38
294.141	314.38
294.372	305.38
294.603	302.38
294.833	306.38
295.064	302.38
295.295	299.38
295.525	322.38
295.756	311.38
295.987	311.38
296.217	316.38
296.448	340.38
296.679	312.38
296.909	296.38
297.14	305.38
297.37	312.38
297.601	294.38
297.831	289.38
298.062	303.38
298.292	321.38
298.523	316.38
298.753	302.38
298.984	297.38
299.214	323.38
299.445	316.38
299.675	303.38
299.905	321.38
300.136	306.38
300.366	327.38
300.597	324.38
300.827	303.38
301.057	337.38
301.288	352.38
301.518	334.38
301.748	341.38
301.979	345.38
302.209	338.38
302.439	339.38
302.669	358.38
302.9	322.38
303.13	327.38
303.36	329.38
303.59	334.38
303.82	347.38
304.051	341.38
304.281	345.38
304.511	330.38
304.741	338.38
304.971	319.38
305.201	356.38
305.431	334.38
305.661	358.38
305.891	339.38
306.121	358.38
306.352	348.38
306.582	356.38
306.812	349.38
307.042	357.38
307.272	329.38
307.502	335.38
307.731	351.38
307.961	334.38
308.191	330.38
308.421	341.38
308.651	361.38
308.881	342.38
309.111	347.38
309.341	363.38
309.571	353.38
309.8	354.38
310.03	394.38
310.26	389.38
310.49	395.38
310.72	394.38
310.949	396.38
311.179	424.38
311.409	400.38
311.639	379.38
311.868	382.38
312.098	387.38
312.328	399.38
312.557	411.38
312.787	408.38
313.017	407.38
313.246	414.38
313.476	377.38
313.706	393.38
313.935	398.38
314.165	386.38
314.394	403.38
314.624	408.38
314.853	408.38
315.083	386.38
315.312	389.38
315.542	379.38
315.771	385.38
316.001	362.38
316.23	379.38
316.46	371.38
316.689	378.38
316.919	404.38
317.148	390.38
317.377	376.38
317.607	385.38
317.836	385.38
318.065	373.38
318.295	388.38
318.524	396.38
318.753	385.38
318.983	393.38
319.212	381.38
319.441	402.38
319.67	410.38
319.9	414.38
320.129	382.38
320.358	407.38
320.587	390.38
320.816	399.38
321.046	399.38
321.275	408.38
321.504	403.38
321.733	418.38
321.962	423.38
322.191	426.38
322.42	424.38
322.649	445.38
322.878	442.38
323.108	451.38
323.337	462.38
323.566	492.38
323.795	535.38
324.024	587.38
324.253	700.38
324.482	965.38
324.71	1548.38
324.939	2348.38
325.168	2028.38
325.397	986.38
325.626	643.38
325.855	558.38
326.084	512.38
326.313	511.38
326.542	488.38
326.77	577.38
326.999	661.38
327.228	905.38
327.457	1374.38
327.686	1754.38
327.914	1132.38
328.143	709.38
328.372	620.38
328.6	606.38
328.829	555.38
329.058	574.38
329.287	597.38
329.515	558.38
329.744	528.38
329.972	533.38
330.201	538.38
330.43	581.38
330.658	622.38
330.887	620.38
331.115	632.38
331.344	550.38
331.572	529.38
331.801	486.38
332.03	497.38
332.258	486.38
332.486	478.38
332.715	483.38
332.943	484.38
333.172	477.38
333.4	480.38
333.629	496.38
333.857	511.38
334.085	515.38
334.314	525.38
334.542	583.38
334.771	609.38
334.999	546.38
335.227	498.38
335.455	479.38
335.684	481.38
335.912	469.38
336.14	486.38
336.369	477.38
336.597	483.38
336.825	481.38
337.053	449.38
337.281	471.38
337.51	448.38
337.738	482.38
337.966	466.38
338.194	487.38
338.422	469.38
338.65	460.38
338.878	458.38
339.106	446.38
339.334	457.38
339.562	449.38
339.79	427.38
340.018	454.38
340.246	457.38
340.474	458.38
340.702	458.38
340.93	455.38
341.158	443.38
341.386	453.38
341.614	474.38
341.842	441.38
342.07	460.38
342.298	442.38
342.526	428.38
342.754	446.38
342.981	408.38
343.209	436.38
343.437	442.38
343.665	437.38
343.893	443.38
344.12	459.38
344.348	444.38
344.576	447.38
344.804	463.38
345.031	475.38
345.259	470.38
345.487	465.38
345.714	451.38
345.942	439.38
346.17	439.38
346.397	413.38
346.625	433.38
346.853	409.38
347.08	435.38
347.308	429.38
347.535	445.38
347.763	456.38
347.99	423.38
348.218	448.38
348.445	470.38
348.673	474.38
348.9	439.38
349.128	433.38
349.355	427.38
349.583	425.38
349.81	412.38
350.037	421.38
350.265	417.38
350.492	423.38
350.72	443.38
350.947	449.38
351.174	437.38
351.402	460.38
351.629	443.38
351.856	453.38
352.083	431.38
352.311	459.38
352.538	471.38
352.765	433.38
352.992	437.38
353.22	446.38
353.447	458.38
353.674	439.38
353.901	439.38
354.128	409.38
354.355	409.38
354.583	398.38
354.81	398.38
355.037	420.38
355.264	430.38
355.491	405.38
355.718	393.38
355.945	405.38
356.172	426.38
356.399	430.38
356.626	408.38
356.853	417.38
357.08	422.38
357.307	407.38
357.534	420.38
357.761	425.38
357.988	398.38
358.215	417.38
358.441	408.38
358.668	422.38
358.895	417.38
359.122	445.38
359.349	422.38
359.576	451.38
359.802	455.38
360.029	475.38
360.256	509.38
360.483	490.38
360.709	459.38
360.936	468.38
361.163	441.38
361.39	444.38
361.616	445.38
361.843	455.38
362.07	433.38
362.296	463.38
362.523	443.38
362.749	447.38
362.976	435.38
363.203	438.38
363.429	423.38
363.656	437.38
363.882	415.38
364.109	426.38
364.335	445.38
364.562	425.38
364.788	431.38
365.015	412.38
365.241	419.38
365.468	444.38
365.694	451.38
365.92	434.38
366.147	433.38
366.373	421.38
366.599	436.38
366.826	430.38
367.052	419.38
367.278	422.38
367.505	423.38
367.731	435.38
367.957	434.38
368.184	434.38
368.41	420.38
368.636	478.38
368.862	443.38
369.089	441.38
369.315	439.38
369.541	427.38
369.767	440.38
369.993	431.38
370.219	430.38
370.445	430.38
370.672	411.38
370.898	414.38
371.124	423.38
371.35	449.38
371.576	419.38
371.802	452.38
372.028	451.38
372.254	436.38
372.48	429.38
372.706	445.38
372.932	451.38
373.158	455.38
373.384	441.38
373.61	442.38
373.835	437.38
374.061	429.38
374.287	427.38
374.513	451.38
374.739	425.38
374.965	442.38
375.191	441.38
375.416	428.38
375.642	438.38
375.868	417.38
376.094	435.38
376.319	429.38
376.545	439.38
376.771	436.38
376.997	427.38
377.222	435.38
377.448	430.38
377.674	420.38
377.899	433.38
378.125	425.38
378.35	422.38
378.576	413.38
378.802	423.38
379.027	429.38
379.253	427.38
379.478	435.38
379.704	427.38
379.929	421.38
380.155	442.38
380.38	439.38
380.606	448.38
380.831	439.38
381.057	425.38
381.282	420.38
381.507	452.38
381.733	449.38
381.958	443.38
382.184	434.38
382.409	447.38
382.634	423.38
382.86	435.38
383.085	451.38
383.31	447.38
383.535	471.38
383.761	451.38
383.986	470.38
384.211	453.38
384.436	457.38
384.662	474.38
384.887	471.38
385.112	463.38
385.337	474.38
385.562	482.38
385.787	492.38
386.013	507.38
386.238	495.38
386.463	494.38
386.688	481.38
386.913	492.38
387.138	478.38
387.363	475.38
387.588	471.38
387.813	441.38
388.038	475.38
388.263	470.38
388.488	461.38
388.713	475.38
388.938	495.38
389.163	477.38
389.387	503.38
389.612	485.38
389.837	473.38
390.062	469.38
390.287	463.38
390.512	461.38
390.736	487.38
390.961	482.38
391.186	500.38
391.411	527.38
391.636	487.38
391.86	499.38
392.085	527.38
392.31	516.38
392.534	523.38
392.759	501.38
392.984	498.38
393.208	494.38
393.433	489.38
393.658	499.38
393.882	493.38
394.107	492.38
394.331	483.38
394.556	482.38
394.78	501.38
395.005	499.38
395.229	484.38
395.454	493.38
395.678	520.38
395.903	528.38
396.127	539.38
396.352	537.38
396.576	521.38
396.801	502.38
397.025	497.38
397.249	511.38
397.474	530.38
397.698	542.38
397.922	559.38
398.147	539.38
398.371	552.38
398.595	541.38
398.82	559.38
399.044	597.38
399.268	585.38
399.492	612.38
399.717	677.38
399.941	667.38
400.165	679.38
400.389	714.38
400.613	629.38
400.837	588.38
401.062	595.38
401.286	581.38
401.51	585.38
401.734	570.38
401.958	554.38
402.182	577.38
402.406	589.38
402.63	590.38
402.854	573.38
403.078	575.38
403.302	589.38
403.526	597.38
403.75	579.38
403.974	595.38
404.198	558.38
404.422	589.38
404.645	598.38
404.869	612.38
405.093	642.38
405.317	693.38
405.541	731.38
405.765	633.38
405.988	612.38
406.212	633.38
406.436	658.38
406.66	634.38
406.883	642.38
407.107	676.38
407.331	701.38
407.555	781.38
407.778	766.38
408.002	728.38
408.226	661.38
408.449	638.38
408.673	644.38
408.896	686.38
409.12	713.38
409.344	704.38
409.567	637.38
409.791	598.38
410.014	590.38
410.238	612.38
410.461	598.38
410.685	604.38
410.908	636.38
411.132	669.38
411.355	679.38
411.578	636.38
411.802	603.38
412.025	588.38
412.249	615.38
412.472	635.38
412.695	689.38
412.919	670.38
413.142	615.38
413.365	602.38
413.589	577.38
413.812	587.38
414.035	568.38
414.258	591.38
414.482	569.38
414.705	556.38
414.928	555.38
415.151	535.38
415.374	532.38
415.597	547.38
415.821	535.38
416.044	563.38
416.267	563.38
416.49	554.38
416.713	552.38
416.936	548.38
417.159	520.38
417.382	541.38
417.605	571.38
417.828	553.38
418.051	605.38
418.274	589.38
418.497	566.38
418.72	563.38
418.943	537.38
419.166	568.38
419.389	627.38
419.611	585.38
419.834	605.38
420.057	606.38
420.28	624.38
420.503	598.38
420.726	582.38
420.948	580.38
421.171	637.38
421.394	670.38
421.617	610.38
421.839	575.38
422.062	585.38
422.285	612.38
422.507	666.38
422.73	753.38
422.953	714.38
423.175	635.38
423.398	623.38
423.621	595.38
423.843	628.38
424.066	643.38
424.288	619.38
424.511	650.38
424.733	715.38
424.956	813.38
425.178	785.38
425.401	732.38
425.623	806.38
425.846	671.38
426.068	623.38
426.291	651.38
426.513	609.38
426.735	639.38
426.958	685.38
427.18	777.38
427.402	937.38
427.625	994.38
427.847	881.38
428.069	754.38
428.292	685.38
428.514	584.38
428.736	591.38
428.958	578.38
429.181	597.38
429.403	580.38
429.625	591.38
429.847	625.38
430.069	712.38
430.292	686.38
430.514	589.38
430.736	571.38
430.958	575.38
431.18	570.38
431.402	537.38
431.624	527.38
431.846	556.38
432.068	547.38
432.29	539.38
432.512	546.38
432.734	541.38
432.956	565.38
433.178	579.38
433.4	586.38
433.622	589.38
433.844	559.38
434.066	552.38
434.287	541.38
434.509	568.38
434.731	580.38
434.953	574.38
435.175	596.38
435.397	610.38
435.618	635.38
435.84	675.38
436.062	783.38
436.284	871.38
436.505	717.38
436.727	643.38
436.949	609.38
437.17	595.38
437.392	594.38
437.614	596.38
437.835	630.38
438.057	724.38
438.278	850.38
438.5	833.38
438.721	935.38
438.943	923.38
439.165	733.38
439.386	649.38
439.608	630.38
439.829	666.38
440.05	661.38
440.272	729.38
440.493	656.38
440.715	631.38
440.936	589.38
441.158	619.38
441.379	577.38
441.6	600.38
441.822	619.38
442.043	678.38
442.264	761.38
442.486	823.38
442.707	716.38
442.928	675.38
443.149	646.38
443.371	660.38
443.592	733.38
443.813	838.38
444.034	917.38
444.255	719.38
444.476	658.38
444.698	625.38
444.919	658.38
445.14	751.38
445.361	708.38
445.582	665.38
445.803	760.38
446.024	874.38
446.245	891.38
446.466	783.38
446.687	685.38
446.908	641.38
447.129	599.38
447.35	584.38
447.571	582.38
447.792	577.38
448.013	568.38
448.234	598.38
448.455	686.38
448.675	769.38
448.896	921.38
449.117	775.38
449.338	735.38
449.559	837.38
449.779	925.38
450	755.38
450.221	630.38
450.442	589.38
450.662	585.38
450.883	574.38
451.104	587.38
451.324	574.38
451.545	522.38
451.766	536.38
451.986	539.38
452.207	536.38
452.428	528.38
452.648	556.38
452.869	542.38
453.089	552.38
453.31	547.38
453.53	535.38
453.751	520.38
453.971	524.38
454.192	547.38
454.412	517.38
454.633	504.38
454.853	498.38
455.073	498.38
455.294	535.38
455.514	606.38
455.734	620.38
455.955	527.38
456.175	487.38
456.395	495.38
456.616	499.38
456.836	486.38
457.056	481.38
457.276	484.38
457.497	507.38
457.717	497.38
457.937	511.38
458.157	517.38
458.377	516.38
458.598	549.38
458.818	608.38
459.038	647.38
459.258	702.38
459.478	619.38
459.698	578.38
459.918	552.38
460.138	547.38
460.358	573.38
460.578	573.38
460.798	571.38
461.018	559.38
461.238	563.38
461.458	554.38
461.678	569.38
461.898	565.38
462.118	574.38
462.338	575.38
462.558	592.38
462.777	595.38
462.997	596.38
463.217	611.38
463.437	641.38
463.657	622.38
463.876	601.38
464.096	603.38
464.316	605.38
464.536	609.38
464.755	621.38
464.975	609.38
465.195	647.38
465.414	709.38
465.634	636.38
465.854	594.38
466.073	567.38
466.293	555.38
466.512	551.38
466.732	553.38
466.951	541.38
467.171	541.38
467.391	535.38
467.61	550.38
467.829	551.38
468.049	556.38
468.268	553.38
468.488	526.38
468.707	523.38
468.927	540.38
469.146	550.38
469.365	533.38
469.585	527.38
469.804	566.38
470.023	548.38
470.243	536.38
470.462	553.38
470.681	546.38
470.901	563.38
471.12	546.38
471.339	548.38
471.558	570.38
471.777	549.38
471.997	535.38
472.216	545.38
472.435	578.38
472.654	572.38
472.873	565.38
473.092	528.38
473.311	538.38
473.53	545.38
473.749	577.38
473.968	598.38
474.187	699.38
474.406	709.38
474.625	602.38
474.844	567.38
475.063	562.38
475.282	527.38
475.501	577.38
475.72	581.38
475.939	551.38
476.158	548.38
476.377	563.38
476.596	557.38
476.814	577.38
477.033	583.38
477.252	568.38
477.471	563.38
477.69	600.38
477.908	606.38
478.127	592.38
478.346	587.38
478.564	586.38
478.783	627.38
479.002	618.38
479.22	611.38
479.439	626.38
479.658	653.38
479.876	670.38
480.095	657.38
480.313	689.38
480.532	690.38
480.751	669.38
480.969	687.38
481.188	769.38
481.406	812.38
481.624	708.38
481.843	691.38
482.061	653.38
482.28	656.38
482.498	635.38
482.717	649.38
482.935	637.38
483.153	630.38
483.372	643.38
483.59	641.38
483.808	637.38
484.027	647.38
484.245	633.38
484.463	638.38
484.681	669.38
484.9	663.38
485.118	647.38
485.336	665.38
485.554	649.38
485.772	690.38
485.99	659.38
486.209	665.38
486.427	664.38
486.645	673.38
486.863	694.38
487.081	684.38
487.299	677.38
487.517	679.38
487.735	678.38
487.953	667.38
488.171	696.38
488.389	682.38
488.607	694.38
488.825	679.38
489.043	684.38
489.261	713.38
489.479	686.38
489.696	705.38
489.914	701.38
490.132	715.38
490.35	728.38
490.568	731.38
490.786	710.38
491.003	759.38
491.221	767.38
491.439	772.38
491.657	759.38
491.874	778.38
492.092	787.38
492.31	777.38
492.527	806.38
492.745	797.38
492.963	817.38
493.18	824.38
493.398	805.38
493.615	825.38
493.833	847.38
494.05	863.38
494.268	828.38
494.485	814.38
494.703	805.38
494.92	801.38
495.138	827.38
495.355	827.38
495.573	783.38
495.79	802.38
496.008	825.38
496.225	829.38
496.442	824.38
496.66	813.38
496.877	829.38
497.094	823.38
497.312	820.38
497.529	860.38
497.746	851.38
497.963	852.38
498.181	855.38
498.398	909.38
498.615	910.38
498.832	936.38
499.049	968.38
499.267	972.38
499.484	982.38
499.701	1057.38
499.918	1086.38
500.135	1128.38
500.352	1159.38
500.569	1201.38
500.786	1199.38
501.003	1169.38
501.22	1163.38
501.437	1102.38
501.654	1079.38
