Data from 1966.PennyLincolnUp.Lamp.En5.5.200Scan.071719.P1._HRD10591_14-13-24-914.txt Node
Date: Thu Jul 18 14:13:24 EDT 2019
User: cochatt
Spectrometer: HR+D1059
Trigger mode: 1
Integration Time (sec): 1.000000E-1
Scans to average: 1
Electric dark correction enabled: true
Nonlinearity correction enabled: false
Boxcar width: 0
XAxis mode: Wavelengths
Number of Pixels in Spectrum: 2048
>>>>>Begin Spectral Data<<<<<
223.165	-18.88
223.4	-18.88
223.635	-18.88
223.869	-11.88
224.104	-25.88
224.338	-16.88
224.573	-5.88
224.808	-7.88
225.042	-6.88
225.277	-8.88
225.511	-10.88
225.746	1.12
225.98	10.12
226.215	6.12
226.449	13.12
226.683	22.12
226.918	41.12
227.152	20.12
227.387	20.12
227.621	38.12
227.856	49.12
228.09	39.12
228.324	56.12
228.559	54.12
228.793	71.12
229.027	78.12
229.262	82.12
229.496	90.12
229.73	91.12
229.964	101.12
230.199	96.12
230.433	109.12
230.667	83.12
230.901	85.12
231.136	91.12
231.37	90.12
231.604	82.12
231.838	94.12
232.072	112.12
232.306	88.12
232.541	102.12
232.775	97.12
233.009	88.12
233.243	101.12
233.477	93.12
233.711	90.12
233.945	97.12
234.179	93.12
234.413	99.12
234.647	114.12
234.881	97.12
235.115	92.12
235.349	105.12
235.583	96.12
235.817	97.12
236.051	93.12
236.285	99.12
236.519	88.12
236.753	100.12
236.987	109.12
237.221	120.12
237.455	133.12
237.689	107.12
237.922	98.12
238.156	94.12
238.39	95.12
238.624	95.12
238.858	89.12
239.091	104.12
239.325	91.12
239.559	86.12
239.793	93.12
240.027	97.12
240.26	89.12
240.494	125.12
240.728	116.12
240.961	105.12
241.195	94.12
241.429	104.12
241.662	105.12
241.896	98.12
242.13	101.12
242.363	100.12
242.597	97.12
242.83	106.12
243.064	105.12
243.298	113.12
243.531	93.12
243.765	105.12
243.998	106.12
244.232	95.12
244.465	94.12
244.699	98.12
244.932	103.12
245.166	97.12
245.399	101.12
245.633	101.12
245.866	119.12
246.099	109.12
246.333	103.12
246.566	100.12
246.8	90.12
247.033	111.12
247.266	109.12
247.5	107.12
247.733	125.12
247.966	124.12
248.2	115.12
248.433	116.12
248.666	116.12
248.899	120.12
249.133	137.12
249.366	122.12
249.599	130.12
249.832	130.12
250.066	115.12
250.299	127.12
250.532	132.12
250.765	123.12
250.998	145.12
251.231	137.12
251.465	136.12
251.698	133.12
251.931	140.12
252.164	129.12
252.397	123.12
252.63	148.12
252.863	117.12
253.096	134.12
253.329	147.12
253.562	137.12
253.795	129.12
254.028	134.12
254.261	140.12
254.494	149.12
254.727	161.12
254.96	164.12
255.193	152.12
255.426	142.12
255.659	125.12
255.892	137.12
256.124	127.12
256.357	153.12
256.59	131.12
256.823	122.12
257.056	126.12
257.289	148.12
257.521	138.12
257.754	150.12
257.987	133.12
258.22	133.12
258.452	134.12
258.685	121.12
258.918	134.12
259.151	123.12
259.383	131.12
259.616	138.12
259.849	145.12
260.081	135.12
260.314	157.12
260.547	160.12
260.779	151.12
261.012	141.12
261.244	141.12
261.477	143.12
261.71	135.12
261.942	154.12
262.175	149.12
262.407	137.12
262.64	155.12
262.872	131.12
263.105	126.12
263.337	137.12
263.57	129.12
263.802	135.12
264.035	139.12
264.267	144.12
264.499	134.12
264.732	142.12
264.964	143.12
265.197	130.12
265.429	134.12
265.661	132.12
265.894	138.12
266.126	122.12
266.358	130.12
266.591	133.12
266.823	147.12
267.055	145.12
267.287	144.12
267.52	145.12
267.752	156.12
267.984	130.12
268.216	137.12
268.448	145.12
268.681	144.12
268.913	154.12
269.145	165.12
269.377	171.12
269.609	145.12
269.841	149.12
270.073	162.12
270.306	165.12
270.538	186.12
270.77	191.12
271.002	155.12
271.234	177.12
271.466	180.12
271.698	173.12
271.93	177.12
272.162	171.12
272.394	168.12
272.626	181.12
272.858	154.12
273.09	168.12
273.322	159.12
273.553	149.12
273.785	157.12
274.017	147.12
274.249	158.12
274.481	152.12
274.713	150.12
274.945	170.12
275.176	155.12
275.408	149.12
275.64	154.12
275.872	152.12
276.104	156.12
276.335	161.12
276.567	157.12
276.799	169.12
277.031	183.12
277.262	183.12
277.494	191.12
277.726	178.12
277.957	164.12
278.189	179.12
278.421	157.12
278.652	165.12
278.884	148.12
279.115	155.12
279.347	146.12
279.579	165.12
279.81	157.12
280.042	158.12
280.273	159.12
280.505	169.12
280.736	162.12
280.968	159.12
281.199	151.12
281.431	155.12
281.662	141.12
281.894	166.12
282.125	154.12
282.356	172.12
282.588	187.12
282.819	180.12
283.051	163.12
283.282	157.12
283.513	156.12
283.745	164.12
283.976	172.12
284.207	165.12
284.439	169.12
284.67	155.12
284.901	171.12
285.132	157.12
285.364	157.12
285.595	151.12
285.826	158.12
286.057	158.12
286.288	166.12
286.52	170.12
286.751	161.12
286.982	164.12
287.213	177.12
287.444	166.12
287.675	171.12
287.906	173.12
288.138	184.12
288.369	177.12
288.6	179.12
288.831	174.12
289.062	174.12
289.293	164.12
289.524	177.12
289.755	160.12
289.986	177.12
290.217	162.12
290.448	179.12
290.679	159.12
290.91	155.12
291.141	155.12
291.371	163.12
291.602	152.12
291.833	182.12
292.064	159.12
292.295	169.12
292.526	157.12
292.757	160.12
292.987	169.12
293.218	173.12
293.449	180.12
293.68	171.12
293.91	167.12
294.141	177.12
294.372	179.12
294.603	162.12
294.833	149.12
295.064	173.12
295.295	158.12
295.525	185.12
295.756	173.12
295.987	174.12
296.217	182.12
296.448	204.12
296.679	184.12
296.909	174.12
297.14	177.12
297.37	175.12
297.601	154.12
297.831	163.12
298.062	178.12
298.292	185.12
298.523	172.12
298.753	189.12
298.984	170.12
299.214	171.12
299.445	172.12
299.675	187.12
299.905	182.12
300.136	187.12
300.366	193.12
300.597	186.12
300.827	187.12
301.057	193.12
301.288	183.12
301.518	194.12
301.748	185.12
301.979	177.12
302.209	202.12
302.439	196.12
302.669	183.12
302.9	179.12
303.13	196.12
303.36	185.12
303.59	198.12
303.82	204.12
304.051	186.12
304.281	182.12
304.511	188.12
304.741	185.12
304.971	183.12
305.201	180.12
305.431	189.12
305.661	181.12
305.891	173.12
306.121	180.12
306.352	198.12
306.582	186.12
306.812	186.12
307.042	192.12
307.272	198.12
307.502	180.12
307.731	193.12
307.961	181.12
308.191	181.12
308.421	199.12
308.651	180.12
308.881	198.12
309.111	200.12
309.341	193.12
309.571	187.12
309.8	216.12
310.03	198.12
310.26	202.12
310.49	197.12
310.72	205.12
310.949	212.12
311.179	235.12
311.409	234.12
311.639	202.12
311.868	206.12
312.098	217.12
312.328	220.12
312.557	224.12
312.787	235.12
313.017	223.12
313.246	195.12
313.476	218.12
313.706	213.12
313.935	186.12
314.165	222.12
314.394	207.12
314.624	207.12
314.853	207.12
315.083	221.12
315.312	214.12
315.542	218.12
315.771	210.12
316.001	198.12
316.23	215.12
316.46	204.12
316.689	217.12
316.919	203.12
317.148	233.12
317.377	218.12
317.607	198.12
317.836	209.12
318.065	198.12
318.295	207.12
318.524	199.12
318.753	216.12
318.983	221.12
319.212	221.12
319.441	215.12
319.67	208.12
319.9	202.12
320.129	191.12
320.358	210.12
320.587	214.12
320.816	195.12
321.046	219.12
321.275	220.12
321.504	214.12
321.733	199.12
321.962	209.12
322.191	218.12
322.42	207.12
322.649	232.12
322.878	236.12
323.108	246.12
323.337	253.12
323.566	265.12
323.795	281.12
324.024	284.12
324.253	361.12
324.482	503.12
324.71	755.12
324.939	1012.12
325.168	813.12
325.397	424.12
325.626	313.12
325.855	255.12
326.084	245.12
326.313	252.12
326.542	266.12
326.77	295.12
326.999	327.12
327.228	442.12
327.457	647.12
327.686	728.12
327.914	490.12
328.143	338.12
328.372	331.12
328.6	300.12
328.829	285.12
329.058	294.12
329.287	299.12
329.515	278.12
329.744	262.12
329.972	281.12
330.201	293.12
330.43	303.12
330.658	314.12
330.887	341.12
331.115	321.12
331.344	275.12
331.572	243.12
331.801	254.12
332.03	263.12
332.258	226.12
332.486	229.12
332.715	234.12
332.943	219.12
333.172	238.12
333.4	227.12
333.629	233.12
333.857	247.12
334.085	245.12
334.314	290.12
334.542	305.12
334.771	312.12
334.999	265.12
335.227	251.12
335.455	260.12
335.684	238.12
335.912	224.12
336.14	222.12
336.369	223.12
336.597	243.12
336.825	236.12
337.053	230.12
337.281	233.12
337.51	216.12
337.738	218.12
337.966	233.12
338.194	225.12
338.422	231.12
338.65	219.12
338.878	213.12
339.106	218.12
339.334	223.12
339.562	219.12
339.79	242.12
340.018	221.12
340.246	213.12
340.474	229.12
340.702	209.12
340.93	247.12
341.158	221.12
341.386	229.12
341.614	236.12
341.842	227.12
342.07	225.12
342.298	231.12
342.526	206.12
342.754	207.12
342.981	222.12
343.209	213.12
343.437	222.12
343.665	232.12
343.893	222.12
344.12	238.12
344.348	233.12
344.576	231.12
344.804	222.12
345.031	235.12
345.259	215.12
345.487	236.12
345.714	225.12
345.942	246.12
346.17	219.12
346.397	208.12
346.625	227.12
346.853	217.12
347.08	213.12
347.308	207.12
347.535	213.12
347.763	215.12
347.99	229.12
348.218	228.12
348.445	239.12
348.673	257.12
348.9	232.12
349.128	221.12
349.355	227.12
349.583	208.12
349.81	200.12
350.037	209.12
350.265	218.12
350.492	197.12
350.72	213.12
350.947	220.12
351.174	205.12
351.402	217.12
351.629	218.12
351.856	217.12
352.083	223.12
352.311	234.12
352.538	224.12
352.765	223.12
352.992	227.12
353.22	218.12
353.447	220.12
353.674	210.12
353.901	227.12
354.128	214.12
354.355	192.12
354.583	200.12
354.81	204.12
355.037	216.12
355.264	214.12
355.491	189.12
355.718	209.12
355.945	193.12
356.172	183.12
356.399	193.12
356.626	196.12
356.853	202.12
357.08	192.12
357.307	214.12
357.534	196.12
357.761	202.12
357.988	209.12
358.215	207.12
358.441	197.12
358.668	220.12
358.895	207.12
359.122	201.12
359.349	216.12
359.576	228.12
359.802	225.12
360.029	250.12
360.256	265.12
360.483	229.12
360.709	216.12
360.936	213.12
361.163	211.12
361.39	222.12
361.616	217.12
361.843	217.12
362.07	212.12
362.296	222.12
362.523	210.12
362.749	224.12
362.976	193.12
363.203	210.12
363.429	195.12
363.656	215.12
363.882	218.12
364.109	206.12
364.335	205.12
364.562	191.12
364.788	205.12
365.015	205.12
365.241	208.12
365.468	203.12
365.694	200.12
365.92	203.12
366.147	222.12
366.373	217.12
366.599	210.12
366.826	198.12
367.052	202.12
367.278	208.12
367.505	222.12
367.731	214.12
367.957	218.12
368.184	196.12
368.41	213.12
368.636	226.12
368.862	220.12
369.089	197.12
369.315	221.12
369.541	194.12
369.767	210.12
369.993	218.12
370.219	203.12
370.445	197.12
370.672	207.12
370.898	182.12
371.124	211.12
371.35	212.12
371.576	213.12
371.802	203.12
372.028	202.12
372.254	195.12
372.48	195.12
372.706	201.12
372.932	212.12
373.158	213.12
373.384	212.12
373.61	216.12
373.835	199.12
374.061	213.12
374.287	213.12
374.513	203.12
374.739	200.12
374.965	216.12
375.191	201.12
375.416	213.12
375.642	211.12
375.868	193.12
376.094	209.12
376.319	202.12
376.545	207.12
376.771	203.12
376.997	203.12
377.222	195.12
377.448	210.12
377.674	204.12
377.899	203.12
378.125	214.12
378.35	224.12
378.576	204.12
378.802	206.12
379.027	193.12
379.253	206.12
379.478	193.12
379.704	211.12
379.929	212.12
380.155	207.12
380.38	202.12
380.606	209.12
380.831	206.12
381.057	209.12
381.282	203.12
381.507	213.12
381.733	211.12
381.958	201.12
382.184	205.12
382.409	198.12
382.634	215.12
382.86	212.12
383.085	200.12
383.31	232.12
383.535	220.12
383.761	224.12
383.986	222.12
384.211	214.12
384.436	223.12
384.662	201.12
384.887	226.12
385.112	217.12
385.337	212.12
385.562	210.12
385.787	229.12
386.013	244.12
386.238	237.12
386.463	230.12
386.688	234.12
386.913	210.12
387.138	228.12
387.363	228.12
387.588	221.12
387.813	214.12
388.038	222.12
388.263	212.12
388.488	219.12
388.713	214.12
388.938	214.12
389.163	220.12
389.387	233.12
389.612	225.12
389.837	213.12
390.062	220.12
390.287	226.12
390.512	219.12
390.736	229.12
390.961	214.12
391.186	235.12
391.411	210.12
391.636	221.12
391.86	225.12
392.085	236.12
392.31	227.12
392.534	235.12
392.759	232.12
392.984	233.12
393.208	225.12
393.433	218.12
393.658	231.12
393.882	220.12
394.107	221.12
394.331	237.12
394.556	226.12
394.78	216.12
395.005	218.12
395.229	217.12
395.454	230.12
395.678	238.12
395.903	236.12
396.127	237.12
396.352	242.12
396.576	221.12
396.801	214.12
397.025	225.12
397.249	244.12
397.474	263.12
397.698	220.12
397.922	253.12
398.147	244.12
398.371	246.12
398.595	234.12
398.82	248.12
399.044	235.12
399.268	255.12
399.492	268.12
399.717	271.12
399.941	300.12
400.165	302.12
400.389	287.12
400.613	274.12
400.837	252.12
401.062	252.12
401.286	268.12
401.51	246.12
401.734	256.12
401.958	246.12
402.182	259.12
402.406	279.12
402.63	269.12
402.854	241.12
403.078	256.12
403.302	237.12
403.526	248.12
403.75	269.12
403.974	262.12
404.198	252.12
404.422	245.12
404.645	279.12
404.869	279.12
405.093	278.12
405.317	300.12
405.541	302.12
405.765	278.12
405.988	264.12
406.212	279.12
406.436	300.12
406.66	299.12
406.883	293.12
407.107	309.12
407.331	285.12
407.555	325.12
407.778	340.12
408.002	296.12
408.226	292.12
408.449	274.12
408.673	275.12
408.896	287.12
409.12	302.12
409.344	276.12
409.567	262.12
409.791	265.12
410.014	267.12
410.238	257.12
410.461	255.12
410.685	274.12
410.908	276.12
411.132	308.12
411.355	295.12
411.578	292.12
411.802	267.12
412.025	245.12
412.249	266.12
412.472	273.12
412.695	287.12
412.919	283.12
413.142	254.12
413.365	246.12
413.589	257.12
413.812	269.12
414.035	242.12
414.258	246.12
414.482	248.12
414.705	236.12
414.928	233.12
415.151	265.12
415.374	247.12
415.597	248.12
415.821	244.12
416.044	223.12
416.267	248.12
416.49	228.12
416.713	250.12
416.936	269.12
417.159	232.12
417.382	260.12
417.605	267.12
417.828	283.12
418.051	269.12
418.274	254.12
418.497	236.12
418.72	251.12
418.943	258.12
419.166	253.12
419.389	277.12
419.611	253.12
419.834	266.12
420.057	261.12
420.28	258.12
420.503	251.12
420.726	246.12
420.948	255.12
421.171	292.12
421.394	280.12
421.617	252.12
421.839	263.12
422.062	249.12
422.285	266.12
422.507	283.12
422.73	323.12
422.953	294.12
423.175	275.12
423.398	283.12
423.621	285.12
423.843	281.12
424.066	280.12
424.288	278.12
424.511	293.12
424.733	302.12
424.956	323.12
425.178	321.12
425.401	313.12
425.623	330.12
425.846	286.12
426.068	279.12
426.291	271.12
426.513	272.12
426.735	269.12
426.958	303.12
427.18	327.12
427.402	378.12
427.625	418.12
427.847	361.12
428.069	325.12
428.292	283.12
428.514	253.12
428.736	249.12
428.958	241.12
429.181	267.12
429.403	262.12
429.625	249.12
429.847	267.12
430.069	326.12
430.292	292.12
430.514	259.12
430.736	274.12
430.958	256.12
431.18	255.12
431.402	254.12
431.624	245.12
431.846	244.12
432.068	257.12
432.29	243.12
432.512	257.12
432.734	259.12
432.956	225.12
433.178	253.12
433.4	248.12
433.622	226.12
433.844	229.12
434.066	244.12
434.287	235.12
434.509	243.12
434.731	246.12
434.953	255.12
435.175	254.12
435.397	277.12
435.618	261.12
435.84	282.12
436.062	331.12
436.284	370.12
436.505	275.12
436.727	267.12
436.949	264.12
437.17	238.12
437.392	240.12
437.614	259.12
437.835	274.12
438.057	341.12
438.278	363.12
438.5	368.12
438.721	371.12
438.943	369.12
439.165	303.12
439.386	305.12
439.608	266.12
439.829	269.12
440.05	287.12
440.272	314.12
440.493	278.12
440.715	282.12
440.936	277.12
441.158	251.12
441.379	246.12
441.6	263.12
441.822	270.12
442.043	310.12
442.264	326.12
442.486	358.12
442.707	297.12
442.928	261.12
443.149	282.12
443.371	293.12
443.592	317.12
443.813	329.12
444.034	354.12
444.255	313.12
444.476	287.12
444.698	259.12
444.919	273.12
445.14	364.12
445.361	328.12
445.582	301.12
445.803	346.12
446.024	354.12
446.245	379.12
446.466	329.12
446.687	284.12
446.908	265.12
447.129	258.12
447.35	242.12
447.571	258.12
447.792	252.12
448.013	271.12
448.234	274.12
448.455	297.12
448.675	331.12
448.896	369.12
449.117	306.12
449.338	309.12
449.559	365.12
449.779	389.12
450	311.12
450.221	268.12
450.442	265.12
450.662	246.12
450.883	263.12
451.104	261.12
451.324	259.12
451.545	259.12
451.766	235.12
451.986	243.12
452.207	223.12
452.428	228.12
452.648	221.12
452.869	238.12
453.089	228.12
453.31	246.12
453.53	236.12
453.751	233.12
453.971	236.12
454.192	246.12
454.412	246.12
454.633	218.12
454.853	235.12
455.073	237.12
455.294	251.12
455.514	263.12
455.734	263.12
455.955	230.12
456.175	221.12
456.395	222.12
456.616	207.12
456.836	237.12
457.056	218.12
457.276	215.12
457.497	207.12
457.717	211.12
457.937	231.12
458.157	207.12
458.377	234.12
458.598	236.12
458.818	262.12
459.038	310.12
459.258	310.12
459.478	272.12
459.698	237.12
459.918	217.12
460.138	257.12
460.358	233.12
460.578	272.12
460.798	265.12
461.018	245.12
461.238	249.12
461.458	233.12
461.678	233.12
461.898	210.12
462.118	236.12
462.338	242.12
462.558	250.12
462.777	271.12
462.997	264.12
463.217	264.12
463.437	275.12
463.657	251.12
463.876	254.12
464.096	272.12
464.316	259.12
464.536	272.12
464.755	281.12
464.975	265.12
465.195	320.12
465.414	364.12
465.634	280.12
465.854	249.12
466.073	248.12
466.293	228.12
466.512	245.12
466.732	233.12
466.951	244.12
467.171	226.12
467.391	248.12
467.61	258.12
467.829	253.12
468.049	262.12
468.268	257.12
468.488	233.12
468.707	229.12
468.927	240.12
469.146	239.12
469.365	234.12
469.585	234.12
469.804	237.12
470.023	242.12
470.243	247.12
470.462	255.12
470.681	267.12
470.901	258.12
471.12	242.12
471.339	261.12
471.558	245.12
471.777	232.12
471.997	228.12
472.216	244.12
472.435	276.12
472.654	258.12
472.873	232.12
473.092	236.12
473.311	236.12
473.53	232.12
473.749	246.12
473.968	275.12
474.187	321.12
474.406	310.12
474.625	245.12
474.844	245.12
475.063	245.12
475.282	252.12
475.501	236.12
475.72	251.12
475.939	254.12
476.158	257.12
476.377	244.12
476.596	246.12
476.814	241.12
477.033	248.12
477.252	265.12
477.471	269.12
477.69	244.12
477.908	257.12
478.127	254.12
478.346	247.12
478.564	267.12
478.783	270.12
479.002	269.12
479.22	284.12
479.439	279.12
479.658	281.12
479.876	274.12
480.095	290.12
480.313	298.12
480.532	301.12
480.751	293.12
480.969	294.12
481.188	331.12
481.406	374.12
481.624	307.12
481.843	297.12
482.061	277.12
482.28	271.12
482.498	282.12
482.717	272.12
482.935	284.12
483.153	276.12
483.372	270.12
483.59	269.12
483.808	288.12
484.027	281.12
484.245	269.12
484.463	280.12
484.681	289.12
484.9	277.12
485.118	301.12
485.336	274.12
485.554	292.12
485.772	283.12
485.99	285.12
486.209	277.12
486.427	282.12
486.645	302.12
486.863	306.12
487.081	306.12
487.299	295.12
487.517	283.12
487.735	298.12
487.953	292.12
488.171	316.12
488.389	294.12
488.607	275.12
488.825	281.12
489.043	309.12
489.261	290.12
489.479	284.12
489.696	289.12
489.914	293.12
490.132	307.12
490.35	286.12
490.568	307.12
490.786	297.12
491.003	318.12
491.221	329.12
491.439	320.12
491.657	342.12
491.874	343.12
492.092	373.12
492.31	366.12
492.527	353.12
492.745	351.12
492.963	354.12
493.18	348.12
493.398	351.12
493.615	366.12
493.833	338.12
494.05	350.12
494.268	340.12
494.485	334.12
494.703	353.12
494.92	350.12
495.138	349.12
495.355	354.12
495.573	354.12
495.79	362.12
496.008	354.12
496.225	338.12
496.442	321.12
496.66	339.12
496.877	325.12
497.094	352.12
497.312	358.12
497.529	333.12
497.746	349.12
497.963	347.12
498.181	366.12
498.398	362.12
498.615	367.12
498.832	375.12
499.049	394.12
499.267	385.12
499.484	421.12
499.701	411.12
499.918	432.12
500.135	435.12
500.352	454.12
500.569	446.12
500.786	462.12
501.003	429.12
501.22	450.12
501.437	442.12
501.654	415.12
501.871	406.12
502.088	429.12
502.305	376.12
502.522	371.12
