Data from 1966.PennyLincolnUp.Lamp.En5.5.200Scan.071719.P1._HRD10591_14-14-42-914.txt Node
Date: Thu Jul 18 14:14:42 EDT 2019
User: cochatt
Spectrometer: HR+D1059
Trigger mode: 1
Integration Time (sec): 1.000000E-1
Scans to average: 1
Electric dark correction enabled: true
Nonlinearity correction enabled: false
Boxcar width: 0
XAxis mode: Wavelengths
Number of Pixels in Spectrum: 2048
>>>>>Begin Spectral Data<<<<<
223.165	-9.06
223.4	-9.06
223.635	-9.06
223.869	-23.06
224.104	-22.06
224.338	-10.06
224.573	-11.06
224.808	-12.06
225.042	-23.06
225.277	-21.06
225.511	3.94
225.746	1.94
225.98	-0.06
226.215	6.94
226.449	33.94
226.683	22.94
226.918	25.94
227.152	35.94
227.387	17.94
227.621	28.94
227.856	29.94
228.09	44.94
228.324	56.94
228.559	61.94
228.793	68.94
229.027	80.94
229.262	71.94
229.496	91.94
229.73	109.94
229.964	105.94
230.199	100.94
230.433	83.94
230.667	93.94
230.901	100.94
231.136	95.94
231.37	87.94
231.604	98.94
231.838	93.94
232.072	84.94
232.306	96.94
232.541	82.94
232.775	100.94
233.009	105.94
233.243	90.94
233.477	90.94
233.711	91.94
233.945	89.94
234.179	77.94
234.413	89.94
234.647	85.94
234.881	85.94
235.115	94.94
235.349	89.94
235.583	86.94
235.817	94.94
236.051	93.94
236.285	82.94
236.519	100.94
236.753	101.94
236.987	100.94
237.221	115.94
237.455	142.94
237.689	123.94
237.922	94.94
238.156	94.94
238.39	90.94
238.624	73.94
238.858	87.94
239.091	84.94
239.325	94.94
239.559	91.94
239.793	95.94
240.027	106.94
240.26	112.94
240.494	102.94
240.728	109.94
240.961	113.94
241.195	108.94
241.429	92.94
241.662	95.94
241.896	92.94
242.13	101.94
242.363	91.94
242.597	94.94
242.83	101.94
243.064	102.94
243.298	98.94
243.531	107.94
243.765	92.94
243.998	94.94
244.232	104.94
244.465	101.94
244.699	90.94
244.932	101.94
245.166	101.94
245.399	97.94
245.633	106.94
245.866	91.94
246.099	94.94
246.333	119.94
246.566	105.94
246.8	102.94
247.033	98.94
247.266	99.94
247.5	93.94
247.733	117.94
247.966	99.94
248.2	115.94
248.433	117.94
248.666	122.94
248.899	112.94
249.133	128.94
249.366	144.94
249.599	124.94
249.832	106.94
250.066	124.94
250.299	124.94
250.532	119.94
250.765	132.94
250.998	149.94
251.231	152.94
251.465	127.94
251.698	129.94
251.931	130.94
252.164	131.94
252.397	122.94
252.63	126.94
252.863	118.94
253.096	132.94
253.329	146.94
253.562	141.94
253.795	136.94
254.028	128.94
254.261	129.94
254.494	150.94
254.727	152.94
254.96	146.94
255.193	150.94
255.426	160.94
255.659	147.94
255.892	150.94
256.124	146.94
256.357	148.94
256.59	136.94
256.823	129.94
257.056	125.94
257.289	132.94
257.521	117.94
257.754	135.94
257.987	128.94
258.22	132.94
258.452	132.94
258.685	113.94
258.918	126.94
259.151	136.94
259.383	125.94
259.616	125.94
259.849	129.94
260.081	148.94
260.314	142.94
260.547	154.94
260.779	148.94
261.012	141.94
261.244	125.94
261.477	126.94
261.71	131.94
261.942	140.94
262.175	141.94
262.407	141.94
262.64	127.94
262.872	148.94
263.105	124.94
263.337	139.94
263.57	120.94
263.802	127.94
264.035	130.94
264.267	135.94
264.499	125.94
264.732	138.94
264.964	136.94
265.197	123.94
265.429	126.94
265.661	132.94
265.894	138.94
266.126	142.94
266.358	143.94
266.591	147.94
266.823	139.94
267.055	140.94
267.287	155.94
267.52	126.94
267.752	133.94
267.984	130.94
268.216	143.94
268.448	132.94
268.681	131.94
268.913	155.94
269.145	160.94
269.377	164.94
269.609	157.94
269.841	142.94
270.073	144.94
270.306	173.94
270.538	177.94
270.77	176.94
271.002	164.94
271.234	157.94
271.466	176.94
271.698	168.94
271.93	190.94
272.162	182.94
272.394	181.94
272.626	169.94
272.858	172.94
273.09	151.94
273.322	148.94
273.553	140.94
273.785	155.94
274.017	149.94
274.249	147.94
274.481	154.94
274.713	157.94
274.945	153.94
275.176	158.94
275.408	145.94
275.64	170.94
275.872	147.94
276.104	162.94
276.335	155.94
276.567	176.94
276.799	161.94
277.031	170.94
277.262	191.94
277.494	181.94
277.726	177.94
277.957	164.94
278.189	166.94
278.421	134.94
278.652	161.94
278.884	146.94
279.115	166.94
279.347	160.94
279.579	166.94
279.81	154.94
280.042	148.94
280.273	149.94
280.505	160.94
280.736	153.94
280.968	156.94
281.199	160.94
281.431	168.94
281.662	142.94
281.894	165.94
282.125	161.94
282.356	154.94
282.588	170.94
282.819	158.94
283.051	155.94
283.282	155.94
283.513	180.94
283.745	162.94
283.976	166.94
284.207	173.94
284.439	177.94
284.67	161.94
284.901	154.94
285.132	138.94
285.364	159.94
285.595	161.94
285.826	174.94
286.057	153.94
286.288	154.94
286.52	167.94
286.751	165.94
286.982	138.94
287.213	162.94
287.444	163.94
287.675	166.94
287.906	178.94
288.138	172.94
288.369	172.94
288.6	168.94
288.831	169.94
289.062	182.94
289.293	173.94
289.524	181.94
289.755	164.94
289.986	160.94
290.217	172.94
290.448	163.94
290.679	168.94
290.91	170.94
291.141	162.94
291.371	171.94
291.602	173.94
291.833	151.94
292.064	166.94
292.295	152.94
292.526	166.94
292.757	152.94
292.987	156.94
293.218	165.94
293.449	167.94
293.68	160.94
293.91	160.94
294.141	152.94
294.372	181.94
294.603	177.94
294.833	154.94
295.064	171.94
295.295	171.94
295.525	164.94
295.756	157.94
295.987	176.94
296.217	171.94
296.448	171.94
296.679	174.94
296.909	166.94
297.14	175.94
297.37	160.94
297.601	165.94
297.831	169.94
298.062	158.94
298.292	180.94
298.523	166.94
298.753	171.94
298.984	173.94
299.214	171.94
299.445	169.94
299.675	168.94
299.905	174.94
300.136	173.94
300.366	156.94
300.597	173.94
300.827	173.94
301.057	179.94
301.288	181.94
301.518	170.94
301.748	170.94
301.979	168.94
302.209	205.94
302.439	187.94
302.669	176.94
302.9	187.94
303.13	165.94
303.36	176.94
303.59	170.94
303.82	186.94
304.051	183.94
304.281	153.94
304.511	174.94
304.741	188.94
304.971	189.94
305.201	178.94
305.431	192.94
305.661	165.94
305.891	179.94
306.121	186.94
306.352	189.94
306.582	180.94
306.812	194.94
307.042	176.94
307.272	187.94
307.502	184.94
307.731	179.94
307.961	176.94
308.191	187.94
308.421	182.94
308.651	185.94
308.881	191.94
309.111	203.94
309.341	198.94
309.571	200.94
309.8	194.94
310.03	206.94
310.26	206.94
310.49	201.94
310.72	202.94
310.949	211.94
311.179	222.94
311.409	181.94
311.639	216.94
311.868	210.94
312.098	192.94
312.328	213.94
312.557	216.94
312.787	210.94
313.017	217.94
313.246	205.94
313.476	203.94
313.706	206.94
313.935	229.94
314.165	209.94
314.394	217.94
314.624	213.94
314.853	205.94
315.083	207.94
315.312	189.94
315.542	203.94
315.771	198.94
316.001	206.94
316.23	199.94
316.46	193.94
316.689	201.94
316.919	208.94
317.148	210.94
317.377	213.94
317.607	198.94
317.836	201.94
318.065	207.94
318.295	197.94
318.524	200.94
318.753	216.94
318.983	199.94
319.212	205.94
319.441	205.94
319.67	202.94
319.9	197.94
320.129	203.94
320.358	196.94
320.587	219.94
320.816	221.94
321.046	197.94
321.275	197.94
321.504	204.94
321.733	204.94
321.962	214.94
322.191	227.94
322.42	218.94
322.649	220.94
322.878	226.94
323.108	244.94
323.337	256.94
323.566	241.94
323.795	282.94
324.024	296.94
324.253	366.94
324.482	509.94
324.71	756.94
324.939	1029.94
325.168	849.94
325.397	422.94
325.626	312.94
325.855	252.94
326.084	236.94
326.313	246.94
326.542	269.94
326.77	281.94
326.999	338.94
327.228	474.94
327.457	672.94
327.686	779.94
327.914	492.94
328.143	375.94
328.372	320.94
328.6	310.94
328.829	292.94
329.058	290.94
329.287	309.94
329.515	300.94
329.744	264.94
329.972	268.94
330.201	273.94
330.43	325.94
330.658	330.94
330.887	341.94
331.115	332.94
331.344	279.94
331.572	262.94
331.801	267.94
332.03	256.94
332.258	241.94
332.486	217.94
332.715	229.94
332.943	229.94
333.172	242.94
333.4	249.94
333.629	242.94
333.857	235.94
334.085	256.94
334.314	299.94
334.542	298.94
334.771	304.94
334.999	287.94
335.227	257.94
335.455	245.94
335.684	232.94
335.912	223.94
336.14	246.94
336.369	219.94
336.597	231.94
336.825	245.94
337.053	226.94
337.281	225.94
337.51	219.94
337.738	230.94
337.966	235.94
338.194	230.94
338.422	239.94
338.65	226.94
338.878	227.94
339.106	203.94
339.334	228.94
339.562	227.94
339.79	208.94
340.018	238.94
340.246	235.94
340.474	216.94
340.702	226.94
340.93	224.94
341.158	211.94
341.386	208.94
341.614	215.94
341.842	229.94
342.07	223.94
342.298	201.94
342.526	218.94
342.754	206.94
342.981	214.94
343.209	207.94
343.437	209.94
343.665	210.94
343.893	221.94
344.12	222.94
344.348	221.94
344.576	221.94
344.804	223.94
345.031	228.94
345.259	231.94
345.487	226.94
345.714	214.94
345.942	209.94
346.17	213.94
346.397	204.94
346.625	206.94
346.853	207.94
347.08	222.94
347.308	213.94
347.535	208.94
347.763	220.94
347.99	219.94
348.218	211.94
348.445	219.94
348.673	219.94
348.9	217.94
349.128	202.94
349.355	202.94
349.583	206.94
349.81	201.94
350.037	223.94
350.265	206.94
350.492	208.94
350.72	215.94
350.947	209.94
351.174	218.94
351.402	214.94
351.629	205.94
351.856	204.94
352.083	219.94
352.311	227.94
352.538	221.94
352.765	209.94
352.992	217.94
353.22	209.94
353.447	221.94
353.674	225.94
353.901	201.94
354.128	197.94
354.355	207.94
354.583	205.94
354.81	218.94
355.037	205.94
355.264	191.94
355.491	192.94
355.718	184.94
355.945	189.94
356.172	194.94
356.399	201.94
356.626	212.94
356.853	203.94
357.08	193.94
357.307	202.94
357.534	187.94
357.761	194.94
357.988	188.94
358.215	206.94
358.441	192.94
358.668	200.94
358.895	199.94
359.122	191.94
359.349	201.94
359.576	211.94
359.802	216.94
360.029	245.94
360.256	260.94
360.483	235.94
360.709	224.94
360.936	211.94
361.163	210.94
361.39	203.94
361.616	228.94
361.843	213.94
362.07	225.94
362.296	205.94
362.523	215.94
362.749	216.94
362.976	230.94
363.203	208.94
363.429	204.94
363.656	205.94
363.882	203.94
364.109	195.94
364.335	214.94
364.562	196.94
364.788	211.94
365.015	203.94
365.241	207.94
365.468	199.94
365.694	202.94
365.92	203.94
366.147	225.94
366.373	198.94
366.599	206.94
366.826	187.94
367.052	184.94
367.278	196.94
367.505	181.94
367.731	197.94
367.957	190.94
368.184	216.94
368.41	190.94
368.636	185.94
368.862	214.94
369.089	210.94
369.315	195.94
369.541	192.94
369.767	205.94
369.993	198.94
370.219	211.94
370.445	209.94
370.672	190.94
370.898	206.94
371.124	192.94
371.35	187.94
371.576	201.94
371.802	186.94
372.028	212.94
372.254	194.94
372.48	210.94
372.706	211.94
372.932	195.94
373.158	200.94
373.384	192.94
373.61	201.94
373.835	210.94
374.061	197.94
374.287	209.94
374.513	196.94
374.739	194.94
374.965	188.94
375.191	190.94
375.416	210.94
375.642	201.94
375.868	206.94
376.094	194.94
376.319	201.94
376.545	193.94
376.771	196.94
376.997	182.94
377.222	202.94
377.448	210.94
377.674	198.94
377.899	195.94
378.125	189.94
378.35	208.94
378.576	206.94
378.802	199.94
379.027	195.94
379.253	197.94
379.478	194.94
379.704	203.94
379.929	205.94
380.155	190.94
380.38	202.94
380.606	193.94
380.831	205.94
381.057	210.94
381.282	199.94
381.507	192.94
381.733	200.94
381.958	204.94
382.184	196.94
382.409	200.94
382.634	186.94
382.86	203.94
383.085	204.94
383.31	217.94
383.535	203.94
383.761	215.94
383.986	200.94
384.211	207.94
384.436	202.94
384.662	219.94
384.887	212.94
385.112	200.94
385.337	212.94
385.562	206.94
385.787	227.94
386.013	217.94
386.238	224.94
386.463	221.94
386.688	222.94
386.913	221.94
387.138	207.94
387.363	216.94
387.588	226.94
387.813	229.94
388.038	212.94
388.263	232.94
388.488	202.94
388.713	202.94
388.938	225.94
389.163	209.94
389.387	213.94
389.612	206.94
389.837	204.94
390.062	219.94
390.287	196.94
390.512	208.94
390.736	203.94
390.961	211.94
391.186	222.94
391.411	214.94
391.636	210.94
391.86	220.94
392.085	222.94
392.31	219.94
392.534	212.94
392.759	220.94
392.984	197.94
393.208	212.94
393.433	221.94
393.658	230.94
393.882	214.94
394.107	222.94
394.331	212.94
394.556	197.94
394.78	235.94
395.005	208.94
395.229	206.94
395.454	225.94
395.678	219.94
395.903	211.94
396.127	238.94
396.352	243.94
396.576	228.94
396.801	219.94
397.025	194.94
397.249	217.94
397.474	215.94
397.698	225.94
397.922	221.94
398.147	227.94
398.371	234.94
398.595	228.94
398.82	235.94
399.044	227.94
399.268	265.94
399.492	242.94
399.717	277.94
399.941	271.94
400.165	282.94
400.389	272.94
400.613	266.94
400.837	267.94
401.062	261.94
401.286	236.94
401.51	219.94
401.734	254.94
401.958	250.94
402.182	246.94
402.406	248.94
402.63	269.94
402.854	254.94
403.078	257.94
403.302	261.94
403.526	229.94
403.75	255.94
403.974	239.94
404.198	242.94
404.422	246.94
404.645	256.94
404.869	260.94
405.093	256.94
405.317	278.94
405.541	297.94
405.765	292.94
405.988	260.94
406.212	282.94
406.436	278.94
406.66	290.94
406.883	287.94
407.107	289.94
407.331	292.94
407.555	309.94
407.778	329.94
408.002	273.94
408.226	259.94
408.449	258.94
408.673	264.94
408.896	302.94
409.12	284.94
409.344	273.94
409.567	252.94
409.791	235.94
410.014	276.94
410.238	250.94
410.461	244.94
410.685	268.94
410.908	257.94
411.132	266.94
411.355	276.94
411.578	261.94
411.802	262.94
412.025	251.94
412.249	248.94
412.472	278.94
412.695	283.94
412.919	270.94
413.142	258.94
413.365	241.94
413.589	242.94
413.812	254.94
414.035	248.94
414.258	236.94
414.482	226.94
414.705	229.94
414.928	237.94
415.151	240.94
415.374	229.94
415.597	234.94
415.821	232.94
416.044	249.94
416.267	244.94
416.49	237.94
416.713	233.94
416.936	234.94
417.159	235.94
417.382	233.94
417.605	232.94
417.828	244.94
418.051	251.94
418.274	237.94
418.497	256.94
418.72	238.94
418.943	238.94
419.166	236.94
419.389	253.94
419.611	257.94
419.834	251.94
420.057	258.94
420.28	247.94
420.503	243.94
420.726	243.94
420.948	270.94
421.171	278.94
421.394	293.94
421.617	245.94
421.839	253.94
422.062	252.94
422.285	247.94
422.507	284.94
422.73	301.94
422.953	301.94
423.175	258.94
423.398	256.94
423.621	244.94
423.843	253.94
424.066	262.94
424.288	269.94
424.511	268.94
424.733	308.94
424.956	329.94
425.178	306.94
425.401	308.94
425.623	317.94
425.846	260.94
426.068	258.94
426.291	247.94
426.513	272.94
426.735	261.94
426.958	274.94
427.18	307.94
427.402	392.94
427.625	412.94
427.847	374.94
428.069	326.94
428.292	276.94
428.514	256.94
428.736	266.94
428.958	260.94
429.181	245.94
429.403	241.94
429.625	261.94
429.847	269.94
430.069	311.94
430.292	283.94
430.514	255.94
430.736	238.94
430.958	252.94
431.18	240.94
431.402	250.94
431.624	249.94
431.846	209.94
432.068	230.94
432.29	241.94
432.512	244.94
432.734	227.94
432.956	235.94
433.178	257.94
433.4	251.94
433.622	224.94
433.844	231.94
434.066	234.94
434.287	232.94
434.509	238.94
434.731	257.94
434.953	251.94
435.175	266.94
435.397	257.94
435.618	269.94
435.84	286.94
436.062	322.94
436.284	345.94
436.505	286.94
436.727	258.94
436.949	255.94
437.17	243.94
437.392	253.94
437.614	250.94
437.835	272.94
438.057	312.94
438.278	378.94
438.5	345.94
438.721	362.94
438.943	333.94
439.165	285.94
439.386	275.94
439.608	262.94
439.829	268.94
440.05	289.94
440.272	296.94
440.493	273.94
440.715	267.94
440.936	269.94
441.158	240.94
441.379	244.94
441.6	257.94
441.822	277.94
442.043	307.94
442.264	319.94
442.486	344.94
442.707	283.94
442.928	261.94
443.149	285.94
443.371	298.94
443.592	302.94
443.813	354.94
444.034	343.94
444.255	307.94
444.476	281.94
444.698	285.94
444.919	275.94
445.14	363.94
445.361	312.94
445.582	298.94
445.803	332.94
446.024	364.94
446.245	362.94
446.466	322.94
446.687	289.94
446.908	268.94
447.129	244.94
447.35	227.94
447.571	253.94
447.792	232.94
448.013	234.94
448.234	249.94
448.455	286.94
448.675	325.94
448.896	369.94
449.117	304.94
449.338	291.94
449.559	338.94
449.779	381.94
450	300.94
450.221	266.94
450.442	240.94
450.662	246.94
450.883	241.94
451.104	261.94
451.324	250.94
451.545	254.94
451.766	241.94
451.986	213.94
452.207	201.94
452.428	235.94
452.648	225.94
452.869	236.94
453.089	241.94
453.31	246.94
453.53	227.94
453.751	213.94
453.971	226.94
454.192	240.94
454.412	217.94
454.633	231.94
454.853	208.94
455.073	217.94
455.294	231.94
455.514	253.94
455.734	260.94
455.955	231.94
456.175	224.94
456.395	221.94
456.616	210.94
456.836	211.94
457.056	226.94
457.276	208.94
457.497	211.94
457.717	226.94
457.937	226.94
458.157	221.94
458.377	227.94
458.598	229.94
458.818	258.94
459.038	324.94
459.258	312.94
459.478	266.94
459.698	229.94
459.918	226.94
460.138	238.94
460.358	232.94
460.578	238.94
460.798	237.94
461.018	233.94
461.238	248.94
461.458	221.94
461.678	235.94
461.898	233.94
462.118	230.94
462.338	238.94
462.558	256.94
462.777	252.94
462.997	256.94
463.217	248.94
463.437	256.94
463.657	244.94
463.876	253.94
464.096	267.94
464.316	261.94
464.536	249.94
464.755	258.94
464.975	280.94
465.195	310.94
465.414	370.94
465.634	281.94
465.854	260.94
466.073	260.94
466.293	247.94
466.512	238.94
466.732	237.94
466.951	219.94
467.171	232.94
467.391	242.94
467.61	231.94
467.829	254.94
468.049	254.94
468.268	233.94
468.488	233.94
468.707	221.94
468.927	214.94
469.146	234.94
469.365	245.94
469.585	236.94
469.804	228.94
470.023	240.94
470.243	240.94
470.462	252.94
470.681	247.94
470.901	231.94
471.12	242.94
471.339	232.94
471.558	232.94
471.777	242.94
471.997	240.94
472.216	236.94
472.435	275.94
472.654	261.94
472.873	237.94
473.092	231.94
473.311	235.94
473.53	236.94
473.749	237.94
473.968	258.94
474.187	320.94
474.406	325.94
474.625	264.94
474.844	235.94
475.063	240.94
475.282	230.94
475.501	227.94
475.72	258.94
475.939	213.94
476.158	221.94
476.377	229.94
476.596	234.94
476.814	246.94
477.033	236.94
477.252	254.94
477.471	248.94
477.69	245.94
477.908	232.94
478.127	247.94
478.346	257.94
478.564	276.94
478.783	244.94
479.002	278.94
479.22	259.94
479.439	268.94
479.658	251.94
479.876	291.94
480.095	285.94
480.313	281.94
480.532	293.94
480.751	284.94
480.969	286.94
481.188	350.94
481.406	363.94
481.624	310.94
481.843	273.94
482.061	278.94
482.28	285.94
482.498	255.94
482.717	268.94
482.935	268.94
483.153	259.94
483.372	271.94
483.59	259.94
483.808	282.94
484.027	274.94
484.245	261.94
484.463	287.94
484.681	260.94
484.9	259.94
485.118	258.94
485.336	281.94
485.554	276.94
485.772	258.94
485.99	264.94
486.209	272.94
486.427	260.94
486.645	267.94
486.863	320.94
487.081	292.94
487.299	289.94
487.517	283.94
487.735	288.94
487.953	269.94
488.171	295.94
488.389	294.94
488.607	286.94
488.825	302.94
489.043	292.94
489.261	283.94
489.479	314.94
489.696	293.94
489.914	296.94
490.132	315.94
490.35	293.94
490.568	306.94
490.786	297.94
491.003	329.94
491.221	319.94
491.439	324.94
491.657	323.94
491.874	357.94
492.092	345.94
492.31	353.94
492.527	346.94
492.745	341.94
492.963	345.94
493.18	333.94
493.398	355.94
493.615	360.94
493.833	361.94
494.05	342.94
494.268	359.94
494.485	352.94
494.703	334.94
494.92	325.94
495.138	346.94
495.355	342.94
495.573	330.94
495.79	336.94
496.008	343.94
496.225	331.94
496.442	329.94
496.66	334.94
496.877	343.94
497.094	338.94
497.312	324.94
497.529	344.94
497.746	340.94
497.963	324.94
498.181	345.94
498.398	350.94
498.615	370.94
498.832	370.94
499.049	385.94
499.267	370.94
499.484	390.94
499.701	397.94
499.918	424.94
500.135	413.94
500.352	435.94
500.569	448.94
500.786	438.94
501.003	431.94
501.22	428.94
501.437	421.94
501.654	417.94
501.871	410.94
502.088	378.94
502.305	374.94
502.522	373.94
502.739	348.94
