Data from 1966.PennyLincolnUp.Lamp.En5.5.200Scan.071719.P1._HRD10591_14-12-30-912.txt Node
Date: Thu Jul 18 14:12:30 EDT 2019
User: cochatt
Spectrometer: HR+D1059
Trigger mode: 1
Integration Time (sec): 1.000000E-1
Scans to average: 1
Electric dark correction enabled: true
Nonlinearity correction enabled: false
Boxcar width: 0
XAxis mode: Wavelengths
Number of Pixels in Spectrum: 2048
>>>>>Begin Spectral Data<<<<<
223.165	-15.88
223.4	-15.88
223.635	-15.88
223.869	-2.88
224.104	-20.88
224.338	8.12
224.573	-6.88
224.808	-17.88
225.042	-21.88
225.277	-20.88
225.511	-8.88
225.746	-7.88
225.98	15.12
226.215	-5.88
226.449	25.12
226.683	29.12
226.918	36.12
227.152	16.12
227.387	25.12
227.621	39.12
227.856	41.12
228.09	46.12
228.324	49.12
228.559	40.12
228.793	59.12
229.027	72.12
229.262	83.12
229.496	74.12
229.73	90.12
229.964	108.12
230.199	92.12
230.433	82.12
230.667	101.12
230.901	96.12
231.136	80.12
231.37	88.12
231.604	92.12
231.838	87.12
232.072	86.12
232.306	88.12
232.541	90.12
232.775	85.12
233.009	89.12
233.243	93.12
233.477	97.12
233.711	104.12
233.945	84.12
234.179	96.12
234.413	91.12
234.647	96.12
234.881	112.12
235.115	93.12
235.349	107.12
235.583	94.12
235.817	86.12
236.051	94.12
236.285	84.12
236.519	102.12
236.753	97.12
236.987	93.12
237.221	116.12
237.455	128.12
237.689	109.12
237.922	105.12
238.156	98.12
238.39	99.12
238.624	91.12
238.858	106.12
239.091	93.12
239.325	98.12
239.559	97.12
239.793	97.12
240.027	103.12
240.26	108.12
240.494	103.12
240.728	100.12
240.961	94.12
241.195	106.12
241.429	95.12
241.662	101.12
241.896	92.12
242.13	97.12
242.363	79.12
242.597	99.12
242.83	97.12
243.064	97.12
243.298	101.12
243.531	89.12
243.765	97.12
243.998	93.12
244.232	106.12
244.465	80.12
244.699	99.12
244.932	99.12
245.166	99.12
245.399	99.12
245.633	95.12
245.866	103.12
246.099	103.12
246.333	90.12
246.566	86.12
246.8	104.12
247.033	89.12
247.266	106.12
247.5	100.12
247.733	120.12
247.966	105.12
248.2	112.12
248.433	108.12
248.666	113.12
248.899	114.12
249.133	101.12
249.366	124.12
249.599	120.12
249.832	109.12
250.066	120.12
250.299	113.12
250.532	119.12
250.765	131.12
250.998	123.12
251.231	127.12
251.465	124.12
251.698	102.12
251.931	108.12
252.164	108.12
252.397	132.12
252.63	131.12
252.863	130.12
253.096	136.12
253.329	126.12
253.562	130.12
253.795	117.12
254.028	129.12
254.261	119.12
254.494	107.12
254.727	144.12
254.96	144.12
255.193	155.12
255.426	137.12
255.659	132.12
255.892	138.12
256.124	125.12
256.357	138.12
256.59	141.12
256.823	113.12
257.056	136.12
257.289	128.12
257.521	128.12
257.754	107.12
257.987	124.12
258.22	123.12
258.452	117.12
258.685	148.12
258.918	128.12
259.151	120.12
259.383	126.12
259.616	123.12
259.849	138.12
260.081	135.12
260.314	134.12
260.547	142.12
260.779	136.12
261.012	125.12
261.244	125.12
261.477	131.12
261.71	135.12
261.942	133.12
262.175	133.12
262.407	136.12
262.64	123.12
262.872	120.12
263.105	122.12
263.337	142.12
263.57	120.12
263.802	133.12
264.035	141.12
264.267	130.12
264.499	122.12
264.732	144.12
264.964	133.12
265.197	120.12
265.429	140.12
265.661	132.12
265.894	129.12
266.126	126.12
266.358	130.12
266.591	122.12
266.823	121.12
267.055	133.12
267.287	117.12
267.52	132.12
267.752	125.12
267.984	120.12
268.216	138.12
268.448	134.12
268.681	147.12
268.913	138.12
269.145	151.12
269.377	137.12
269.609	141.12
269.841	154.12
270.073	163.12
270.306	164.12
270.538	165.12
270.77	164.12
271.002	148.12
271.234	148.12
271.466	162.12
271.698	147.12
271.93	150.12
272.162	167.12
272.394	163.12
272.626	152.12
272.858	150.12
273.09	149.12
273.322	140.12
273.553	158.12
273.785	136.12
274.017	148.12
274.249	148.12
274.481	129.12
274.713	139.12
274.945	157.12
275.176	152.12
275.408	145.12
275.64	157.12
275.872	147.12
276.104	160.12
276.335	148.12
276.567	152.12
276.799	164.12
277.031	156.12
277.262	182.12
277.494	178.12
277.726	164.12
277.957	164.12
278.189	153.12
278.421	150.12
278.652	157.12
278.884	133.12
279.115	146.12
279.347	136.12
279.579	154.12
279.81	129.12
280.042	135.12
280.273	139.12
280.505	145.12
280.736	141.12
280.968	153.12
281.199	157.12
281.431	136.12
281.662	144.12
281.894	142.12
282.125	138.12
282.356	154.12
282.588	164.12
282.819	162.12
283.051	153.12
283.282	153.12
283.513	149.12
283.745	141.12
283.976	143.12
284.207	146.12
284.439	153.12
284.67	150.12
284.901	155.12
285.132	148.12
285.364	164.12
285.595	143.12
285.826	148.12
286.057	161.12
286.288	156.12
286.52	158.12
286.751	149.12
286.982	147.12
287.213	148.12
287.444	157.12
287.675	166.12
287.906	159.12
288.138	172.12
288.369	156.12
288.6	164.12
288.831	152.12
289.062	138.12
289.293	170.12
289.524	160.12
289.755	153.12
289.986	142.12
290.217	141.12
290.448	159.12
290.679	154.12
290.91	137.12
291.141	173.12
291.371	147.12
291.602	150.12
291.833	167.12
292.064	144.12
292.295	160.12
292.526	156.12
292.757	158.12
292.987	148.12
293.218	155.12
293.449	148.12
293.68	160.12
293.91	160.12
294.141	156.12
294.372	141.12
294.603	152.12
294.833	168.12
295.064	146.12
295.295	154.12
295.525	155.12
295.756	144.12
295.987	178.12
296.217	179.12
296.448	173.12
296.679	166.12
296.909	170.12
297.14	158.12
297.37	156.12
297.601	165.12
297.831	161.12
298.062	153.12
298.292	149.12
298.523	161.12
298.753	168.12
298.984	160.12
299.214	157.12
299.445	165.12
299.675	163.12
299.905	160.12
300.136	149.12
300.366	165.12
300.597	168.12
300.827	166.12
301.057	162.12
301.288	173.12
301.518	171.12
301.748	174.12
301.979	170.12
302.209	174.12
302.439	179.12
302.669	166.12
302.9	166.12
303.13	180.12
303.36	185.12
303.59	168.12
303.82	167.12
304.051	182.12
304.281	176.12
304.511	165.12
304.741	162.12
304.971	163.12
305.201	187.12
305.431	177.12
305.661	154.12
305.891	168.12
306.121	160.12
306.352	171.12
306.582	181.12
306.812	178.12
307.042	177.12
307.272	169.12
307.502	164.12
307.731	191.12
307.961	180.12
308.191	162.12
308.421	164.12
308.651	164.12
308.881	164.12
309.111	169.12
309.341	160.12
309.571	181.12
309.8	196.12
310.03	168.12
310.26	185.12
310.49	170.12
310.72	194.12
310.949	193.12
311.179	190.12
311.409	183.12
311.639	167.12
311.868	192.12
312.098	184.12
312.328	210.12
312.557	215.12
312.787	203.12
313.017	221.12
313.246	190.12
313.476	183.12
313.706	185.12
313.935	187.12
314.165	185.12
314.394	188.12
314.624	205.12
314.853	200.12
315.083	194.12
315.312	190.12
315.542	180.12
315.771	196.12
316.001	185.12
316.23	176.12
316.46	197.12
316.689	182.12
316.919	184.12
317.148	206.12
317.377	198.12
317.607	187.12
317.836	198.12
318.065	175.12
318.295	171.12
318.524	178.12
318.753	201.12
318.983	196.12
319.212	205.12
319.441	189.12
319.67	189.12
319.9	172.12
320.129	196.12
320.358	174.12
320.587	193.12
320.816	194.12
321.046	200.12
321.275	210.12
321.504	188.12
321.733	201.12
321.962	200.12
322.191	200.12
322.42	203.12
322.649	204.12
322.878	210.12
323.108	209.12
323.337	227.12
323.566	229.12
323.795	255.12
324.024	275.12
324.253	334.12
324.482	446.12
324.71	645.12
324.939	890.12
325.168	729.12
325.397	378.12
325.626	268.12
325.855	237.12
326.084	228.12
326.313	210.12
326.542	224.12
326.77	258.12
326.999	286.12
327.228	394.12
327.457	576.12
327.686	651.12
327.914	434.12
328.143	318.12
328.372	290.12
328.6	257.12
328.829	261.12
329.058	281.12
329.287	278.12
329.515	284.12
329.744	252.12
329.972	242.12
330.201	246.12
330.43	261.12
330.658	292.12
330.887	300.12
331.115	293.12
331.344	257.12
331.572	228.12
331.801	228.12
332.03	215.12
332.258	226.12
332.486	191.12
332.715	198.12
332.943	213.12
333.172	220.12
333.4	230.12
333.629	223.12
333.857	219.12
334.085	235.12
334.314	238.12
334.542	270.12
334.771	266.12
334.999	245.12
335.227	227.12
335.455	244.12
335.684	212.12
335.912	228.12
336.14	219.12
336.369	224.12
336.597	213.12
336.825	214.12
337.053	208.12
337.281	223.12
337.51	218.12
337.738	188.12
337.966	207.12
338.194	228.12
338.422	220.12
338.65	217.12
338.878	205.12
339.106	192.12
339.334	203.12
339.562	218.12
339.79	203.12
340.018	200.12
340.246	210.12
340.474	199.12
340.702	218.12
340.93	192.12
341.158	198.12
341.386	208.12
341.614	217.12
341.842	214.12
342.07	215.12
342.298	203.12
342.526	199.12
342.754	201.12
342.981	190.12
343.209	198.12
343.437	205.12
343.665	204.12
343.893	213.12
344.12	224.12
344.348	196.12
344.576	209.12
344.804	208.12
345.031	212.12
345.259	224.12
345.487	210.12
345.714	217.12
345.942	202.12
346.17	222.12
346.397	203.12
346.625	202.12
346.853	191.12
347.08	177.12
347.308	192.12
347.535	182.12
347.763	213.12
347.99	220.12
348.218	201.12
348.445	204.12
348.673	224.12
348.9	201.12
349.128	182.12
349.355	201.12
349.583	198.12
349.81	190.12
350.037	186.12
350.265	196.12
350.492	188.12
350.72	197.12
350.947	199.12
351.174	213.12
351.402	205.12
351.629	199.12
351.856	199.12
352.083	197.12
352.311	223.12
352.538	209.12
352.765	196.12
352.992	212.12
353.22	198.12
353.447	198.12
353.674	179.12
353.901	189.12
354.128	187.12
354.355	186.12
354.583	185.12
354.81	192.12
355.037	195.12
355.264	176.12
355.491	183.12
355.718	188.12
355.945	192.12
356.172	186.12
356.399	184.12
356.626	171.12
356.853	199.12
357.08	178.12
357.307	195.12
357.534	183.12
357.761	189.12
357.988	180.12
358.215	198.12
358.441	189.12
358.668	189.12
358.895	193.12
359.122	207.12
359.349	204.12
359.576	199.12
359.802	217.12
360.029	240.12
360.256	228.12
360.483	224.12
360.709	194.12
360.936	192.12
361.163	195.12
361.39	194.12
361.616	173.12
361.843	200.12
362.07	195.12
362.296	205.12
362.523	198.12
362.749	202.12
362.976	189.12
363.203	210.12
363.429	199.12
363.656	196.12
363.882	184.12
364.109	177.12
364.335	186.12
364.562	185.12
364.788	196.12
365.015	208.12
365.241	191.12
365.468	200.12
365.694	193.12
365.92	203.12
366.147	193.12
366.373	201.12
366.599	199.12
366.826	197.12
367.052	194.12
367.278	192.12
367.505	200.12
367.731	197.12
367.957	174.12
368.184	188.12
368.41	205.12
368.636	200.12
368.862	200.12
369.089	197.12
369.315	208.12
369.541	195.12
369.767	198.12
369.993	218.12
370.219	194.12
370.445	194.12
370.672	191.12
370.898	203.12
371.124	185.12
371.35	198.12
371.576	206.12
371.802	178.12
372.028	184.12
372.254	186.12
372.48	190.12
372.706	194.12
372.932	190.12
373.158	190.12
373.384	184.12
373.61	203.12
373.835	202.12
374.061	204.12
374.287	199.12
374.513	189.12
374.739	211.12
374.965	195.12
375.191	208.12
375.416	200.12
375.642	201.12
375.868	198.12
376.094	186.12
376.319	185.12
376.545	210.12
376.771	194.12
376.997	176.12
377.222	209.12
377.448	186.12
377.674	189.12
377.899	192.12
378.125	186.12
378.35	188.12
378.576	169.12
378.802	186.12
379.027	210.12
379.253	172.12
379.478	188.12
379.704	211.12
379.929	179.12
380.155	186.12
380.38	184.12
380.606	196.12
380.831	198.12
381.057	174.12
381.282	188.12
381.507	191.12
381.733	196.12
381.958	190.12
382.184	216.12
382.409	206.12
382.634	192.12
382.86	194.12
383.085	203.12
383.31	194.12
383.535	191.12
383.761	194.12
383.986	201.12
384.211	204.12
384.436	205.12
384.662	199.12
384.887	208.12
385.112	200.12
385.337	188.12
385.562	202.12
385.787	208.12
386.013	205.12
386.238	202.12
386.463	226.12
386.688	220.12
386.913	180.12
387.138	204.12
387.363	210.12
387.588	220.12
387.813	213.12
388.038	218.12
388.263	214.12
388.488	224.12
388.713	197.12
388.938	213.12
389.163	195.12
389.387	192.12
389.612	194.12
389.837	214.12
390.062	205.12
390.287	200.12
390.512	215.12
390.736	201.12
390.961	192.12
391.186	212.12
391.411	206.12
391.636	221.12
391.86	195.12
392.085	217.12
392.31	219.12
392.534	210.12
392.759	219.12
392.984	214.12
393.208	213.12
393.433	221.12
393.658	222.12
393.882	205.12
394.107	194.12
394.331	202.12
394.556	221.12
394.78	193.12
395.005	218.12
395.229	204.12
395.454	206.12
395.678	216.12
395.903	235.12
396.127	218.12
396.352	215.12
396.576	218.12
396.801	210.12
397.025	224.12
397.249	202.12
397.474	226.12
397.698	207.12
397.922	224.12
398.147	228.12
398.371	231.12
398.595	223.12
398.82	215.12
399.044	221.12
399.268	249.12
399.492	240.12
399.717	244.12
399.941	279.12
400.165	284.12
400.389	270.12
400.613	256.12
400.837	236.12
401.062	239.12
401.286	228.12
401.51	214.12
401.734	226.12
401.958	240.12
402.182	221.12
402.406	231.12
402.63	249.12
402.854	243.12
403.078	244.12
403.302	218.12
403.526	237.12
403.75	260.12
403.974	248.12
404.198	265.12
404.422	244.12
404.645	260.12
404.869	258.12
405.093	274.12
405.317	263.12
405.541	292.12
405.765	246.12
405.988	258.12
406.212	248.12
406.436	268.12
406.66	275.12
406.883	263.12
407.107	286.12
407.331	293.12
407.555	304.12
407.778	300.12
408.002	293.12
408.226	273.12
408.449	273.12
408.673	250.12
408.896	276.12
409.12	307.12
409.344	286.12
409.567	249.12
409.791	242.12
410.014	242.12
410.238	234.12
410.461	230.12
410.685	225.12
410.908	233.12
411.132	268.12
411.355	277.12
411.578	254.12
411.802	260.12
412.025	235.12
412.249	252.12
412.472	269.12
412.695	260.12
412.919	245.12
413.142	244.12
413.365	228.12
413.589	214.12
413.812	235.12
414.035	232.12
414.258	225.12
414.482	230.12
414.705	224.12
414.928	229.12
415.151	224.12
415.374	222.12
415.597	201.12
415.821	225.12
416.044	221.12
416.267	232.12
416.49	229.12
416.713	231.12
416.936	229.12
417.159	230.12
417.382	228.12
417.605	238.12
417.828	269.12
418.051	246.12
418.274	232.12
418.497	215.12
418.72	240.12
418.943	236.12
419.166	248.12
419.389	233.12
419.611	241.12
419.834	254.12
420.057	255.12
420.28	234.12
420.503	240.12
420.726	226.12
420.948	246.12
421.171	244.12
421.394	259.12
421.617	251.12
421.839	224.12
422.062	233.12
422.285	245.12
422.507	268.12
422.73	298.12
422.953	294.12
423.175	243.12
423.398	264.12
423.621	257.12
423.843	262.12
424.066	267.12
424.288	235.12
424.511	270.12
424.733	288.12
424.956	309.12
425.178	289.12
425.401	285.12
425.623	291.12
425.846	257.12
426.068	259.12
426.291	245.12
426.513	265.12
426.735	262.12
426.958	277.12
427.18	298.12
427.402	352.12
427.625	362.12
427.847	338.12
428.069	305.12
428.292	276.12
428.514	263.12
428.736	237.12
428.958	235.12
429.181	255.12
429.403	233.12
429.625	254.12
429.847	248.12
430.069	283.12
430.292	275.12
430.514	248.12
430.736	234.12
430.958	262.12
431.18	219.12
431.402	218.12
431.624	229.12
431.846	226.12
432.068	244.12
432.29	229.12
432.512	216.12
432.734	244.12
432.956	213.12
433.178	227.12
433.4	230.12
433.622	244.12
433.844	225.12
434.066	218.12
434.287	222.12
434.509	230.12
434.731	252.12
434.953	242.12
435.175	255.12
435.397	248.12
435.618	237.12
435.84	271.12
436.062	314.12
436.284	322.12
436.505	247.12
436.727	273.12
436.949	241.12
437.17	228.12
437.392	236.12
437.614	235.12
437.835	260.12
438.057	300.12
438.278	332.12
438.5	325.12
438.721	337.12
438.943	335.12
439.165	271.12
439.386	262.12
439.608	254.12
439.829	249.12
440.05	272.12
440.272	295.12
440.493	286.12
440.715	261.12
440.936	228.12
441.158	240.12
441.379	230.12
441.6	236.12
441.822	261.12
442.043	270.12
442.264	304.12
442.486	309.12
442.707	265.12
442.928	265.12
443.149	286.12
443.371	279.12
443.592	260.12
443.813	328.12
444.034	345.12
444.255	281.12
444.476	251.12
444.698	247.12
444.919	264.12
445.14	361.12
445.361	304.12
445.582	269.12
445.803	312.12
446.024	353.12
446.245	354.12
446.466	328.12
446.687	262.12
446.908	250.12
447.129	244.12
447.35	254.12
447.571	224.12
447.792	240.12
448.013	243.12
448.234	260.12
448.455	262.12
448.675	312.12
448.896	333.12
449.117	290.12
449.338	286.12
449.559	327.12
449.779	372.12
450	290.12
450.221	242.12
450.442	245.12
450.662	249.12
450.883	243.12
451.104	243.12
451.324	225.12
451.545	234.12
451.766	225.12
451.986	216.12
452.207	228.12
452.428	211.12
452.648	208.12
452.869	216.12
453.089	213.12
453.31	233.12
453.53	210.12
453.751	218.12
453.971	233.12
454.192	234.12
454.412	224.12
454.633	221.12
454.853	216.12
455.073	191.12
455.294	229.12
455.514	265.12
455.734	240.12
455.955	210.12
456.175	216.12
456.395	203.12
456.616	210.12
456.836	200.12
457.056	188.12
457.276	204.12
457.497	224.12
457.717	201.12
457.937	192.12
458.157	200.12
458.377	213.12
458.598	234.12
458.818	265.12
459.038	278.12
459.258	306.12
459.478	244.12
459.698	228.12
459.918	234.12
460.138	228.12
460.358	212.12
460.578	245.12
460.798	240.12
461.018	256.12
461.238	225.12
461.458	224.12
461.678	238.12
461.898	231.12
462.118	221.12
462.338	244.12
462.558	229.12
462.777	244.12
462.997	258.12
463.217	258.12
463.437	251.12
463.657	245.12
463.876	252.12
464.096	241.12
464.316	236.12
464.536	254.12
464.755	262.12
464.975	249.12
465.195	290.12
465.414	315.12
465.634	273.12
465.854	242.12
466.073	232.12
466.293	211.12
466.512	216.12
466.732	236.12
466.951	235.12
467.171	225.12
467.391	206.12
467.61	229.12
467.829	235.12
468.049	222.12
468.268	227.12
468.488	222.12
468.707	208.12
468.927	203.12
469.146	203.12
469.365	226.12
469.585	217.12
469.804	228.12
470.023	233.12
470.243	232.12
470.462	238.12
470.681	248.12
470.901	230.12
471.12	225.12
471.339	214.12
471.558	221.12
471.777	223.12
471.997	231.12
472.216	224.12
472.435	247.12
472.654	242.12
472.873	211.12
473.092	216.12
473.311	210.12
473.53	216.12
473.749	225.12
473.968	258.12
474.187	294.12
474.406	283.12
474.625	229.12
474.844	219.12
475.063	223.12
475.282	234.12
475.501	226.12
475.72	216.12
475.939	208.12
476.158	231.12
476.377	213.12
476.596	203.12
476.814	241.12
477.033	228.12
477.252	256.12
477.471	232.12
477.69	211.12
477.908	249.12
478.127	256.12
478.346	244.12
478.564	252.12
478.783	253.12
479.002	242.12
479.22	260.12
479.439	276.12
479.658	270.12
479.876	267.12
480.095	264.12
480.313	285.12
480.532	284.12
480.751	263.12
480.969	270.12
481.188	311.12
481.406	333.12
481.624	260.12
481.843	256.12
482.061	258.12
482.28	275.12
482.498	271.12
482.717	253.12
482.935	265.12
483.153	240.12
483.372	246.12
483.59	256.12
483.808	261.12
484.027	276.12
484.245	254.12
484.463	264.12
484.681	250.12
484.9	252.12
485.118	257.12
485.336	272.12
485.554	280.12
485.772	260.12
485.99	253.12
486.209	281.12
486.427	270.12
486.645	262.12
486.863	273.12
487.081	279.12
487.299	278.12
487.517	280.12
487.735	277.12
487.953	280.12
488.171	274.12
488.389	272.12
488.607	284.12
488.825	259.12
489.043	291.12
489.261	274.12
489.479	274.12
489.696	280.12
489.914	289.12
490.132	293.12
490.35	276.12
490.568	305.12
490.786	308.12
491.003	307.12
491.221	304.12
491.439	298.12
491.657	326.12
491.874	314.12
492.092	314.12
492.31	308.12
492.527	320.12
492.745	313.12
492.963	317.12
493.18	312.12
493.398	314.12
493.615	316.12
493.833	340.12
494.05	322.12
494.268	314.12
494.485	310.12
494.703	313.12
494.92	325.12
495.138	328.12
495.355	325.12
495.573	315.12
495.79	310.12
496.008	314.12
496.225	315.12
496.442	308.12
496.66	304.12
496.877	318.12
497.094	304.12
497.312	286.12
497.529	336.12
497.746	313.12
497.963	318.12
498.181	338.12
498.398	338.12
498.615	331.12
498.832	364.12
499.049	348.12
499.267	357.12
499.484	372.12
499.701	375.12
499.918	384.12
500.135	390.12
500.352	415.12
500.569	412.12
500.786	404.12
501.003	404.12
501.22	435.12
501.437	390.12
501.654	397.12
501.871	377.12
502.088	364.12
502.305	354.12
502.522	338.12
502.739	318.12
