Data from 1966.PennyLincolnUp.Lamp.En5.5.200Scan.071719.P1._HRD10591_14-15-28-953.txt Node
Date: Thu Jul 18 14:15:28 EDT 2019
User: cochatt
Spectrometer: HR+D1059
Trigger mode: 1
Integration Time (sec): 1.000000E-1
Scans to average: 1
Electric dark correction enabled: true
Nonlinearity correction enabled: false
Boxcar width: 0
XAxis mode: Wavelengths
Number of Pixels in Spectrum: 2048
>>>>>Begin Spectral Data<<<<<
223.165	-16.38
223.4	-16.38
223.635	-16.38
223.869	-18.38
224.104	-28.38
224.338	0.62
224.573	-11.38
224.808	-17.38
225.042	-4.38
225.277	4.62
225.511	3.62
225.746	-6.38
225.98	6.62
226.215	11.62
226.449	17.62
226.683	15.62
226.918	21.62
227.152	20.62
227.387	41.62
227.621	58.62
227.856	37.62
228.09	43.62
228.324	44.62
228.559	45.62
228.793	77.62
229.027	101.62
229.262	88.62
229.496	84.62
229.73	95.62
229.964	117.62
230.199	82.62
230.433	100.62
230.667	96.62
230.901	105.62
231.136	87.62
231.37	105.62
231.604	93.62
231.838	100.62
232.072	104.62
232.306	108.62
232.541	100.62
232.775	88.62
233.009	89.62
233.243	93.62
233.477	101.62
233.711	97.62
233.945	89.62
234.179	98.62
234.413	94.62
234.647	93.62
234.881	100.62
235.115	105.62
235.349	81.62
235.583	108.62
235.817	105.62
236.051	96.62
236.285	102.62
236.519	95.62
236.753	99.62
236.987	112.62
237.221	134.62
237.455	147.62
237.689	123.62
237.922	93.62
238.156	101.62
238.39	109.62
238.624	92.62
238.858	103.62
239.091	81.62
239.325	100.62
239.559	102.62
239.793	97.62
240.027	105.62
240.26	106.62
240.494	125.62
240.728	110.62
240.961	109.62
241.195	122.62
241.429	102.62
241.662	104.62
241.896	101.62
242.13	101.62
242.363	97.62
242.597	119.62
242.83	106.62
243.064	105.62
243.298	102.62
243.531	114.62
243.765	95.62
243.998	104.62
244.232	110.62
244.465	91.62
244.699	106.62
244.932	105.62
245.166	109.62
245.399	110.62
245.633	97.62
245.866	100.62
246.099	111.62
246.333	102.62
246.566	118.62
246.8	111.62
247.033	114.62
247.266	109.62
247.5	112.62
247.733	114.62
247.966	114.62
248.2	109.62
248.433	117.62
248.666	108.62
248.899	132.62
249.133	138.62
249.366	146.62
249.599	150.62
249.832	128.62
250.066	122.62
250.299	122.62
250.532	123.62
250.765	138.62
250.998	167.62
251.231	136.62
251.465	139.62
251.698	134.62
251.931	135.62
252.164	132.62
252.397	126.62
252.63	132.62
252.863	132.62
253.096	134.62
253.329	146.62
253.562	143.62
253.795	156.62
254.028	142.62
254.261	143.62
254.494	148.62
254.727	170.62
254.96	193.62
255.193	168.62
255.426	155.62
255.659	147.62
255.892	139.62
256.124	150.62
256.357	132.62
256.59	124.62
256.823	141.62
257.056	142.62
257.289	143.62
257.521	137.62
257.754	132.62
257.987	137.62
258.22	129.62
258.452	138.62
258.685	134.62
258.918	145.62
259.151	136.62
259.383	146.62
259.616	160.62
259.849	140.62
260.081	141.62
260.314	154.62
260.547	158.62
260.779	159.62
261.012	151.62
261.244	146.62
261.477	149.62
261.71	140.62
261.942	148.62
262.175	157.62
262.407	144.62
262.64	138.62
262.872	137.62
263.105	125.62
263.337	131.62
263.57	150.62
263.802	152.62
264.035	131.62
264.267	136.62
264.499	149.62
264.732	118.62
264.964	150.62
265.197	134.62
265.429	130.62
265.661	140.62
265.894	133.62
266.126	161.62
266.358	135.62
266.591	144.62
266.823	145.62
267.055	145.62
267.287	161.62
267.52	160.62
267.752	169.62
267.984	138.62
268.216	141.62
268.448	144.62
268.681	127.62
268.913	141.62
269.145	174.62
269.377	168.62
269.609	165.62
269.841	167.62
270.073	173.62
270.306	189.62
270.538	204.62
270.77	187.62
271.002	190.62
271.234	175.62
271.466	175.62
271.698	199.62
271.93	199.62
272.162	193.62
272.394	194.62
272.626	182.62
272.858	174.62
273.09	169.62
273.322	178.62
273.553	158.62
273.785	159.62
274.017	162.62
274.249	168.62
274.481	133.62
274.713	150.62
274.945	186.62
275.176	174.62
275.408	169.62
275.64	175.62
275.872	156.62
276.104	177.62
276.335	171.62
276.567	171.62
276.799	170.62
277.031	201.62
277.262	205.62
277.494	202.62
277.726	191.62
277.957	173.62
278.189	173.62
278.421	150.62
278.652	183.62
278.884	160.62
279.115	152.62
279.347	149.62
279.579	149.62
279.81	150.62
280.042	166.62
280.273	172.62
280.505	151.62
280.736	173.62
280.968	176.62
281.199	159.62
281.431	168.62
281.662	148.62
281.894	174.62
282.125	176.62
282.356	172.62
282.588	168.62
282.819	177.62
283.051	164.62
283.282	159.62
283.513	160.62
283.745	181.62
283.976	176.62
284.207	164.62
284.439	165.62
284.67	175.62
284.901	177.62
285.132	167.62
285.364	150.62
285.595	165.62
285.826	154.62
286.057	168.62
286.288	177.62
286.52	170.62
286.751	171.62
286.982	169.62
287.213	169.62
287.444	183.62
287.675	169.62
287.906	185.62
288.138	182.62
288.369	189.62
288.6	172.62
288.831	174.62
289.062	178.62
289.293	173.62
289.524	182.62
289.755	176.62
289.986	176.62
290.217	170.62
290.448	175.62
290.679	169.62
290.91	176.62
291.141	162.62
291.371	170.62
291.602	177.62
291.833	148.62
292.064	175.62
292.295	177.62
292.526	165.62
292.757	163.62
292.987	174.62
293.218	172.62
293.449	154.62
293.68	182.62
293.91	164.62
294.141	176.62
294.372	181.62
294.603	178.62
294.833	179.62
295.064	180.62
295.295	157.62
295.525	180.62
295.756	180.62
295.987	202.62
296.217	210.62
296.448	199.62
296.679	184.62
296.909	170.62
297.14	176.62
297.37	187.62
297.601	180.62
297.831	181.62
298.062	179.62
298.292	184.62
298.523	186.62
298.753	196.62
298.984	170.62
299.214	189.62
299.445	199.62
299.675	173.62
299.905	190.62
300.136	174.62
300.366	176.62
300.597	183.62
300.827	195.62
301.057	189.62
301.288	193.62
301.518	194.62
301.748	186.62
301.979	181.62
302.209	191.62
302.439	193.62
302.669	194.62
302.9	184.62
303.13	178.62
303.36	208.62
303.59	203.62
303.82	221.62
304.051	189.62
304.281	188.62
304.511	201.62
304.741	184.62
304.971	192.62
305.201	181.62
305.431	189.62
305.661	191.62
305.891	169.62
306.121	190.62
306.352	192.62
306.582	188.62
306.812	193.62
307.042	189.62
307.272	190.62
307.502	190.62
307.731	202.62
307.961	199.62
308.191	187.62
308.421	204.62
308.651	192.62
308.881	208.62
309.111	210.62
309.341	203.62
309.571	209.62
309.8	204.62
310.03	199.62
310.26	202.62
310.49	205.62
310.72	202.62
310.949	229.62
311.179	229.62
311.409	211.62
311.639	209.62
311.868	214.62
312.098	213.62
312.328	214.62
312.557	235.62
312.787	236.62
313.017	240.62
313.246	236.62
313.476	226.62
313.706	210.62
313.935	241.62
314.165	205.62
314.394	243.62
314.624	225.62
314.853	228.62
315.083	218.62
315.312	224.62
315.542	218.62
315.771	217.62
316.001	204.62
316.23	222.62
316.46	194.62
316.689	205.62
316.919	205.62
317.148	219.62
317.377	232.62
317.607	221.62
317.836	204.62
318.065	216.62
318.295	207.62
318.524	210.62
318.753	209.62
318.983	200.62
319.212	208.62
319.441	212.62
319.67	207.62
319.9	221.62
320.129	220.62
320.358	224.62
320.587	210.62
320.816	207.62
321.046	210.62
321.275	226.62
321.504	210.62
321.733	226.62
321.962	216.62
322.191	258.62
322.42	232.62
322.649	276.62
322.878	254.62
323.108	244.62
323.337	270.62
323.566	277.62
323.795	310.62
324.024	323.62
324.253	381.62
324.482	542.62
324.71	846.62
324.939	1087.62
325.168	888.62
325.397	448.62
325.626	317.62
325.855	274.62
326.084	252.62
326.313	259.62
326.542	257.62
326.77	308.62
326.999	372.62
327.228	498.62
327.457	718.62
327.686	830.62
327.914	518.62
328.143	388.62
328.372	338.62
328.6	332.62
328.829	305.62
329.058	320.62
329.287	336.62
329.515	288.62
329.744	300.62
329.972	287.62
330.201	287.62
330.43	341.62
330.658	355.62
330.887	338.62
331.115	336.62
331.344	288.62
331.572	277.62
331.801	264.62
332.03	265.62
332.258	260.62
332.486	261.62
332.715	251.62
332.943	258.62
333.172	252.62
333.4	267.62
333.629	264.62
333.857	258.62
334.085	279.62
334.314	286.62
334.542	336.62
334.771	332.62
334.999	291.62
335.227	262.62
335.455	264.62
335.684	245.62
335.912	248.62
336.14	225.62
336.369	247.62
336.597	254.62
336.825	244.62
337.053	228.62
337.281	251.62
337.51	214.62
337.738	252.62
337.966	227.62
338.194	245.62
338.422	247.62
338.65	256.62
338.878	243.62
339.106	223.62
339.334	232.62
339.562	230.62
339.79	229.62
340.018	242.62
340.246	257.62
340.474	226.62
340.702	237.62
340.93	225.62
341.158	243.62
341.386	241.62
341.614	238.62
341.842	235.62
342.07	225.62
342.298	220.62
342.526	226.62
342.754	224.62
342.981	214.62
343.209	225.62
343.437	228.62
343.665	226.62
343.893	217.62
344.12	236.62
344.348	236.62
344.576	238.62
344.804	243.62
345.031	228.62
345.259	240.62
345.487	241.62
345.714	231.62
345.942	238.62
346.17	241.62
346.397	218.62
346.625	229.62
346.853	223.62
347.08	223.62
347.308	236.62
347.535	235.62
347.763	217.62
347.99	224.62
348.218	229.62
348.445	234.62
348.673	231.62
348.9	240.62
349.128	235.62
349.355	239.62
349.583	208.62
349.81	211.62
350.037	228.62
350.265	219.62
350.492	201.62
350.72	215.62
350.947	238.62
351.174	238.62
351.402	232.62
351.629	244.62
351.856	225.62
352.083	237.62
352.311	235.62
352.538	232.62
352.765	234.62
352.992	236.62
353.22	234.62
353.447	219.62
353.674	220.62
353.901	208.62
354.128	213.62
354.355	205.62
354.583	209.62
354.81	222.62
355.037	207.62
355.264	229.62
355.491	206.62
355.718	214.62
355.945	209.62
356.172	223.62
356.399	221.62
356.626	214.62
356.853	217.62
357.08	203.62
357.307	209.62
357.534	211.62
357.761	213.62
357.988	233.62
358.215	214.62
358.441	193.62
358.668	218.62
358.895	204.62
359.122	223.62
359.349	219.62
359.576	238.62
359.802	226.62
360.029	263.62
360.256	275.62
360.483	257.62
360.709	226.62
360.936	219.62
361.163	222.62
361.39	223.62
361.616	223.62
361.843	235.62
362.07	236.62
362.296	247.62
362.523	216.62
362.749	202.62
362.976	220.62
363.203	211.62
363.429	210.62
363.656	238.62
363.882	209.62
364.109	223.62
364.335	214.62
364.562	223.62
364.788	199.62
365.015	215.62
365.241	222.62
365.468	237.62
365.694	214.62
365.92	205.62
366.147	205.62
366.373	212.62
366.599	228.62
366.826	206.62
367.052	216.62
367.278	204.62
367.505	216.62
367.731	220.62
367.957	217.62
368.184	221.62
368.41	222.62
368.636	213.62
368.862	222.62
369.089	225.62
369.315	215.62
369.541	199.62
369.767	208.62
369.993	212.62
370.219	228.62
370.445	222.62
370.672	201.62
370.898	204.62
371.124	210.62
371.35	206.62
371.576	206.62
371.802	221.62
372.028	220.62
372.254	216.62
372.48	222.62
372.706	229.62
372.932	203.62
373.158	228.62
373.384	214.62
373.61	216.62
373.835	215.62
374.061	188.62
374.287	224.62
374.513	213.62
374.739	213.62
374.965	223.62
375.191	220.62
375.416	211.62
375.642	218.62
375.868	223.62
376.094	211.62
376.319	216.62
376.545	209.62
376.771	198.62
376.997	200.62
377.222	207.62
377.448	194.62
377.674	201.62
377.899	206.62
378.125	206.62
378.35	227.62
378.576	203.62
378.802	204.62
379.027	222.62
379.253	203.62
379.478	223.62
379.704	207.62
379.929	219.62
380.155	214.62
380.38	194.62
380.606	213.62
380.831	223.62
381.057	213.62
381.282	215.62
381.507	213.62
381.733	215.62
381.958	184.62
382.184	218.62
382.409	209.62
382.634	217.62
382.86	231.62
383.085	215.62
383.31	219.62
383.535	217.62
383.761	230.62
383.986	210.62
384.211	221.62
384.436	233.62
384.662	217.62
384.887	229.62
385.112	224.62
385.337	214.62
385.562	227.62
385.787	246.62
386.013	250.62
386.238	221.62
386.463	229.62
386.688	219.62
386.913	236.62
387.138	221.62
387.363	230.62
387.588	237.62
387.813	214.62
388.038	242.62
388.263	235.62
388.488	219.62
388.713	216.62
388.938	221.62
389.163	229.62
389.387	240.62
389.612	225.62
389.837	228.62
390.062	233.62
390.287	231.62
390.512	207.62
390.736	221.62
390.961	226.62
391.186	240.62
391.411	222.62
391.636	233.62
391.86	220.62
392.085	228.62
392.31	228.62
392.534	221.62
392.759	234.62
392.984	228.62
393.208	228.62
393.433	231.62
393.658	229.62
393.882	222.62
394.107	240.62
394.331	230.62
394.556	224.62
394.78	230.62
395.005	227.62
395.229	219.62
395.454	225.62
395.678	239.62
395.903	236.62
396.127	247.62
396.352	236.62
396.576	239.62
396.801	239.62
397.025	226.62
397.249	225.62
397.474	241.62
397.698	244.62
397.922	247.62
398.147	250.62
398.371	234.62
398.595	251.62
398.82	241.62
399.044	246.62
399.268	260.62
399.492	277.62
399.717	280.62
399.941	294.62
400.165	299.62
400.389	295.62
400.613	292.62
400.837	269.62
401.062	261.62
401.286	265.62
401.51	259.62
401.734	265.62
401.958	260.62
402.182	267.62
402.406	278.62
402.63	271.62
402.854	280.62
403.078	262.62
403.302	295.62
403.526	277.62
403.75	263.62
403.974	279.62
404.198	256.62
404.422	273.62
404.645	280.62
404.869	297.62
405.093	296.62
405.317	290.62
405.541	316.62
405.765	291.62
405.988	276.62
406.212	304.62
406.436	301.62
406.66	319.62
406.883	298.62
407.107	292.62
407.331	318.62
407.555	347.62
407.778	340.62
408.002	289.62
408.226	291.62
408.449	280.62
408.673	274.62
408.896	305.62
409.12	308.62
409.344	291.62
409.567	256.62
409.791	268.62
410.014	268.62
410.238	277.62
410.461	265.62
410.685	280.62
410.908	268.62
411.132	304.62
411.355	308.62
411.578	280.62
411.802	273.62
412.025	280.62
412.249	290.62
412.472	277.62
412.695	288.62
412.919	274.62
413.142	276.62
413.365	272.62
413.589	274.62
413.812	249.62
414.035	260.62
414.258	248.62
414.482	258.62
414.705	259.62
414.928	264.62
415.151	255.62
415.374	239.62
415.597	237.62
415.821	261.62
416.044	238.62
416.267	267.62
416.49	237.62
416.713	251.62
416.936	259.62
417.159	261.62
417.382	267.62
417.605	244.62
417.828	276.62
418.051	259.62
418.274	245.62
418.497	251.62
418.72	252.62
418.943	267.62
419.166	250.62
419.389	267.62
419.611	275.62
419.834	261.62
420.057	281.62
420.28	273.62
420.503	271.62
420.726	274.62
420.948	282.62
421.171	294.62
421.394	309.62
421.617	285.62
421.839	266.62
422.062	270.62
422.285	276.62
422.507	305.62
422.73	309.62
422.953	298.62
423.175	283.62
423.398	274.62
423.621	273.62
423.843	281.62
424.066	281.62
424.288	278.62
424.511	281.62
424.733	335.62
424.956	346.62
425.178	328.62
425.401	323.62
425.623	347.62
425.846	282.62
426.068	278.62
426.291	273.62
426.513	292.62
426.735	292.62
426.958	297.62
427.18	361.62
427.402	389.62
427.625	433.62
427.847	402.62
428.069	361.62
428.292	297.62
428.514	283.62
428.736	268.62
428.958	249.62
429.181	265.62
429.403	273.62
429.625	259.62
429.847	274.62
430.069	308.62
430.292	302.62
430.514	267.62
430.736	258.62
430.958	266.62
431.18	266.62
431.402	252.62
431.624	244.62
431.846	222.62
432.068	251.62
432.29	238.62
432.512	256.62
432.734	266.62
432.956	253.62
433.178	258.62
433.4	240.62
433.622	248.62
433.844	262.62
434.066	266.62
434.287	247.62
434.509	246.62
434.731	259.62
434.953	268.62
435.175	285.62
435.397	277.62
435.618	287.62
435.84	305.62
436.062	342.62
436.284	360.62
436.505	312.62
436.727	287.62
436.949	267.62
437.17	260.62
437.392	265.62
437.614	258.62
437.835	282.62
438.057	352.62
438.278	382.62
438.5	372.62
438.721	385.62
438.943	372.62
439.165	301.62
439.386	280.62
439.608	303.62
439.829	293.62
440.05	304.62
440.272	319.62
440.493	289.62
440.715	279.62
440.936	267.62
441.158	271.62
441.379	270.62
441.6	280.62
441.822	293.62
442.043	319.62
442.264	344.62
442.486	372.62
442.707	310.62
442.928	292.62
443.149	301.62
443.371	302.62
443.592	317.62
443.813	342.62
444.034	388.62
444.255	296.62
444.476	293.62
444.698	294.62
444.919	271.62
445.14	380.62
445.361	328.62
445.582	329.62
445.803	321.62
446.024	387.62
446.245	382.62
446.466	351.62
446.687	308.62
446.908	273.62
447.129	268.62
447.35	254.62
447.571	273.62
447.792	265.62
448.013	255.62
448.234	250.62
448.455	301.62
448.675	353.62
448.896	374.62
449.117	324.62
449.338	306.62
449.559	354.62
449.779	401.62
450	328.62
450.221	276.62
450.442	263.62
450.662	246.62
450.883	253.62
451.104	289.62
451.324	245.62
451.545	246.62
451.766	240.62
451.986	223.62
452.207	237.62
452.428	229.62
452.648	237.62
452.869	246.62
453.089	250.62
453.31	252.62
453.53	258.62
453.751	237.62
453.971	230.62
454.192	264.62
454.412	234.62
454.633	239.62
454.853	244.62
455.073	226.62
455.294	250.62
455.514	302.62
455.734	286.62
455.955	249.62
456.175	220.62
456.395	204.62
456.616	212.62
456.836	218.62
457.056	221.62
457.276	219.62
457.497	217.62
457.717	234.62
457.937	242.62
458.157	236.62
458.377	239.62
458.598	235.62
458.818	294.62
459.038	342.62
459.258	323.62
459.478	265.62
459.698	267.62
459.918	260.62
460.138	245.62
460.358	265.62
460.578	268.62
460.798	260.62
461.018	252.62
461.238	245.62
461.458	262.62
461.678	238.62
461.898	237.62
462.118	252.62
462.338	253.62
462.558	255.62
462.777	265.62
462.997	270.62
463.217	265.62
463.437	270.62
463.657	271.62
463.876	269.62
464.096	280.62
464.316	278.62
464.536	273.62
464.755	259.62
464.975	283.62
465.195	295.62
465.414	357.62
465.634	314.62
465.854	272.62
466.073	237.62
466.293	230.62
466.512	238.62
466.732	253.62
466.951	250.62
467.171	248.62
467.391	239.62
467.61	258.62
467.829	257.62
468.049	257.62
468.268	253.62
468.488	255.62
468.707	243.62
468.927	261.62
469.146	247.62
469.365	257.62
469.585	228.62
469.804	249.62
470.023	265.62
470.243	248.62
470.462	258.62
470.681	276.62
470.901	253.62
471.12	250.62
471.339	249.62
471.558	238.62
471.777	257.62
471.997	244.62
472.216	244.62
472.435	290.62
472.654	275.62
472.873	244.62
473.092	243.62
473.311	241.62
473.53	233.62
473.749	247.62
473.968	272.62
474.187	337.62
474.406	327.62
474.625	274.62
474.844	272.62
475.063	242.62
475.282	241.62
475.501	232.62
475.72	252.62
475.939	246.62
476.158	252.62
476.377	244.62
476.596	240.62
476.814	252.62
477.033	274.62
477.252	264.62
477.471	234.62
477.69	275.62
477.908	271.62
478.127	281.62
478.346	248.62
478.564	263.62
478.783	274.62
479.002	280.62
479.22	292.62
479.439	285.62
479.658	279.62
479.876	289.62
480.095	310.62
480.313	326.62
480.532	288.62
480.751	315.62
480.969	320.62
481.188	388.62
481.406	390.62
481.624	304.62
481.843	290.62
482.061	300.62
482.28	286.62
482.498	287.62
482.717	280.62
482.935	269.62
483.153	283.62
483.372	281.62
483.59	297.62
483.808	295.62
484.027	292.62
484.245	299.62
484.463	286.62
484.681	293.62
484.9	296.62
485.118	292.62
485.336	290.62
485.554	300.62
485.772	285.62
485.99	291.62
486.209	290.62
486.427	288.62
486.645	306.62
486.863	302.62
487.081	301.62
487.299	292.62
487.517	296.62
487.735	308.62
487.953	312.62
488.171	290.62
488.389	302.62
488.607	310.62
488.825	301.62
489.043	308.62
489.261	299.62
489.479	309.62
489.696	296.62
489.914	314.62
490.132	319.62
490.35	315.62
490.568	325.62
490.786	318.62
491.003	331.62
491.221	359.62
491.439	334.62
491.657	359.62
491.874	335.62
492.092	343.62
492.31	373.62
492.527	363.62
492.745	355.62
492.963	361.62
493.18	376.62
493.398	377.62
493.615	360.62
493.833	361.62
494.05	357.62
494.268	362.62
494.485	368.62
494.703	365.62
494.92	366.62
495.138	357.62
495.355	337.62
495.573	352.62
495.79	359.62
496.008	369.62
496.225	358.62
496.442	364.62
496.66	345.62
496.877	356.62
497.094	353.62
497.312	354.62
497.529	373.62
497.746	367.62
497.963	372.62
498.181	380.62
498.398	361.62
498.615	376.62
498.832	379.62
499.049	379.62
499.267	382.62
499.484	412.62
499.701	417.62
499.918	437.62
500.135	438.62
500.352	457.62
500.569	451.62
500.786	480.62
501.003	448.62
501.22	462.62
501.437	439.62
501.654	424.62
501.871	430.62
502.088	418.62
502.305	397.62
