Data from 1966.PennyLincolnUp.Lamp.En5.5.200Scan.071719.P1._HRD10591_14-14-46-915.txt Node
Date: Thu Jul 18 14:14:46 EDT 2019
User: cochatt
Spectrometer: HR+D1059
Trigger mode: 1
Integration Time (sec): 1.000000E-1
Scans to average: 1
Electric dark correction enabled: true
Nonlinearity correction enabled: false
Boxcar width: 0
XAxis mode: Wavelengths
Number of Pixels in Spectrum: 2048
>>>>>Begin Spectral Data<<<<<
223.165	-12.44
223.4	-12.44
223.635	-12.44
223.869	-24.44
224.104	-25.44
224.338	-13.44
224.573	-12.44
224.808	0.56
225.042	8.56
225.277	3.56
225.511	-6.44
225.746	1.56
225.98	-5.44
226.215	12.56
226.449	9.56
226.683	15.56
226.918	20.56
227.152	27.56
227.387	41.56
227.621	53.56
227.856	47.56
228.09	48.56
228.324	44.56
228.559	31.56
228.793	46.56
229.027	57.56
229.262	86.56
229.496	90.56
229.73	92.56
229.964	117.56
230.199	96.56
230.433	98.56
230.667	85.56
230.901	92.56
231.136	97.56
231.37	82.56
231.604	105.56
231.838	103.56
232.072	102.56
232.306	115.56
232.541	91.56
232.775	93.56
233.009	94.56
233.243	97.56
233.477	86.56
233.711	94.56
233.945	98.56
234.179	105.56
234.413	101.56
234.647	88.56
234.881	94.56
235.115	91.56
235.349	108.56
235.583	107.56
235.817	99.56
236.051	94.56
236.285	98.56
236.519	110.56
236.753	105.56
236.987	120.56
237.221	125.56
237.455	146.56
237.689	123.56
237.922	88.56
238.156	90.56
238.39	89.56
238.624	102.56
238.858	89.56
239.091	79.56
239.325	81.56
239.559	103.56
239.793	107.56
240.027	99.56
240.26	108.56
240.494	115.56
240.728	101.56
240.961	111.56
241.195	106.56
241.429	98.56
241.662	105.56
241.896	99.56
242.13	105.56
242.363	95.56
242.597	109.56
242.83	111.56
243.064	113.56
243.298	109.56
243.531	107.56
243.765	125.56
243.998	106.56
244.232	113.56
244.465	83.56
244.699	91.56
244.932	85.56
245.166	101.56
245.399	103.56
245.633	102.56
245.866	108.56
246.099	118.56
246.333	105.56
246.566	93.56
246.8	97.56
247.033	111.56
247.266	101.56
247.5	117.56
247.733	120.56
247.966	106.56
248.2	116.56
248.433	113.56
248.666	122.56
248.899	141.56
249.133	138.56
249.366	134.56
249.599	134.56
249.832	113.56
250.066	126.56
250.299	128.56
250.532	125.56
250.765	137.56
250.998	151.56
251.231	147.56
251.465	147.56
251.698	131.56
251.931	122.56
252.164	126.56
252.397	131.56
252.63	125.56
252.863	131.56
253.096	146.56
253.329	142.56
253.562	154.56
253.795	143.56
254.028	149.56
254.261	132.56
254.494	131.56
254.727	153.56
254.96	175.56
255.193	174.56
255.426	149.56
255.659	159.56
255.892	138.56
256.124	144.56
256.357	137.56
256.59	126.56
256.823	140.56
257.056	143.56
257.289	131.56
257.521	138.56
257.754	136.56
257.987	121.56
258.22	140.56
258.452	123.56
258.685	133.56
258.918	142.56
259.151	123.56
259.383	136.56
259.616	138.56
259.849	139.56
260.081	144.56
260.314	155.56
260.547	156.56
260.779	140.56
261.012	135.56
261.244	142.56
261.477	131.56
261.71	141.56
261.942	149.56
262.175	140.56
262.407	135.56
262.64	129.56
262.872	143.56
263.105	133.56
263.337	121.56
263.57	134.56
263.802	137.56
264.035	138.56
264.267	133.56
264.499	148.56
264.732	141.56
264.964	142.56
265.197	138.56
265.429	143.56
265.661	127.56
265.894	124.56
266.126	128.56
266.358	127.56
266.591	141.56
266.823	123.56
267.055	145.56
267.287	139.56
267.52	159.56
267.752	144.56
267.984	129.56
268.216	137.56
268.448	163.56
268.681	149.56
268.913	161.56
269.145	161.56
269.377	158.56
269.609	160.56
269.841	157.56
270.073	181.56
270.306	180.56
270.538	175.56
270.77	181.56
271.002	180.56
271.234	175.56
271.466	175.56
271.698	198.56
271.93	185.56
272.162	187.56
272.394	175.56
272.626	153.56
272.858	173.56
273.09	171.56
273.322	170.56
273.553	154.56
273.785	141.56
274.017	161.56
274.249	153.56
274.481	157.56
274.713	170.56
274.945	163.56
275.176	164.56
275.408	165.56
275.64	162.56
275.872	166.56
276.104	165.56
276.335	153.56
276.567	158.56
276.799	190.56
277.031	195.56
277.262	197.56
277.494	179.56
277.726	172.56
277.957	178.56
278.189	169.56
278.421	157.56
278.652	165.56
278.884	153.56
279.115	160.56
279.347	142.56
279.579	156.56
279.81	151.56
280.042	158.56
280.273	161.56
280.505	168.56
280.736	167.56
280.968	154.56
281.199	156.56
281.431	157.56
281.662	168.56
281.894	156.56
282.125	166.56
282.356	174.56
282.588	198.56
282.819	176.56
283.051	158.56
283.282	166.56
283.513	167.56
283.745	166.56
283.976	165.56
284.207	175.56
284.439	188.56
284.67	165.56
284.901	163.56
285.132	160.56
285.364	169.56
285.595	160.56
285.826	170.56
286.057	164.56
286.288	158.56
286.52	166.56
286.751	175.56
286.982	165.56
287.213	173.56
287.444	160.56
287.675	159.56
287.906	184.56
288.138	166.56
288.369	188.56
288.6	183.56
288.831	172.56
289.062	172.56
289.293	169.56
289.524	172.56
289.755	164.56
289.986	144.56
290.217	185.56
290.448	156.56
290.679	189.56
290.91	178.56
291.141	164.56
291.371	177.56
291.602	169.56
291.833	160.56
292.064	165.56
292.295	166.56
292.526	156.56
292.757	187.56
292.987	173.56
293.218	164.56
293.449	163.56
293.68	169.56
293.91	166.56
294.141	181.56
294.372	161.56
294.603	174.56
294.833	179.56
295.064	179.56
295.295	173.56
295.525	179.56
295.756	177.56
295.987	179.56
296.217	200.56
296.448	190.56
296.679	185.56
296.909	175.56
297.14	173.56
297.37	168.56
297.601	178.56
297.831	161.56
298.062	183.56
298.292	166.56
298.523	182.56
298.753	171.56
298.984	189.56
299.214	191.56
299.445	168.56
299.675	190.56
299.905	178.56
300.136	173.56
300.366	157.56
300.597	170.56
300.827	182.56
301.057	190.56
301.288	179.56
301.518	190.56
301.748	178.56
301.979	193.56
302.209	172.56
302.439	190.56
302.669	192.56
302.9	190.56
303.13	169.56
303.36	191.56
303.59	201.56
303.82	203.56
304.051	182.56
304.281	197.56
304.511	191.56
304.741	191.56
304.971	190.56
305.201	187.56
305.431	196.56
305.661	181.56
305.891	201.56
306.121	185.56
306.352	190.56
306.582	184.56
306.812	177.56
307.042	164.56
307.272	181.56
307.502	187.56
307.731	203.56
307.961	184.56
308.191	184.56
308.421	181.56
308.651	196.56
308.881	202.56
309.111	189.56
309.341	179.56
309.571	203.56
309.8	193.56
310.03	190.56
310.26	200.56
310.49	207.56
310.72	221.56
310.949	216.56
311.179	231.56
311.409	208.56
311.639	206.56
311.868	206.56
312.098	208.56
312.328	203.56
312.557	205.56
312.787	218.56
313.017	236.56
313.246	215.56
313.476	194.56
313.706	210.56
313.935	229.56
314.165	216.56
314.394	225.56
314.624	215.56
314.853	225.56
315.083	211.56
315.312	221.56
315.542	206.56
315.771	189.56
316.001	219.56
316.23	205.56
316.46	205.56
316.689	204.56
316.919	215.56
317.148	221.56
317.377	214.56
317.607	211.56
317.836	207.56
318.065	205.56
318.295	195.56
318.524	196.56
318.753	187.56
318.983	193.56
319.212	204.56
319.441	212.56
319.67	217.56
319.9	233.56
320.129	211.56
320.358	209.56
320.587	193.56
320.816	207.56
321.046	223.56
321.275	204.56
321.504	225.56
321.733	199.56
321.962	222.56
322.191	218.56
322.42	235.56
322.649	261.56
322.878	246.56
323.108	238.56
323.337	248.56
323.566	264.56
323.795	259.56
324.024	325.56
324.253	378.56
324.482	525.56
324.71	772.56
324.939	1089.56
325.168	886.56
325.397	433.56
325.626	312.56
325.855	271.56
326.084	254.56
326.313	265.56
326.542	261.56
326.77	288.56
326.999	353.56
327.228	479.56
327.457	719.56
327.686	798.56
327.914	521.56
328.143	367.56
328.372	330.56
328.6	342.56
328.829	308.56
329.058	322.56
329.287	318.56
329.515	313.56
329.744	292.56
329.972	287.56
330.201	297.56
330.43	315.56
330.658	323.56
330.887	342.56
331.115	354.56
331.344	284.56
331.572	279.56
331.801	267.56
332.03	273.56
332.258	263.56
332.486	255.56
332.715	247.56
332.943	245.56
333.172	223.56
333.4	258.56
333.629	245.56
333.857	257.56
334.085	261.56
334.314	280.56
334.542	289.56
334.771	306.56
334.999	281.56
335.227	269.56
335.455	256.56
335.684	247.56
335.912	238.56
336.14	253.56
336.369	253.56
336.597	229.56
336.825	246.56
337.053	235.56
337.281	232.56
337.51	248.56
337.738	235.56
337.966	221.56
338.194	254.56
338.422	237.56
338.65	215.56
338.878	220.56
339.106	213.56
339.334	230.56
339.562	230.56
339.79	229.56
340.018	222.56
340.246	228.56
340.474	249.56
340.702	222.56
340.93	214.56
341.158	218.56
341.386	218.56
341.614	234.56
341.842	229.56
342.07	232.56
342.298	223.56
342.526	208.56
342.754	206.56
342.981	232.56
343.209	216.56
343.437	226.56
343.665	218.56
343.893	237.56
344.12	244.56
344.348	236.56
344.576	231.56
344.804	230.56
345.031	235.56
345.259	245.56
345.487	229.56
345.714	217.56
345.942	230.56
346.17	217.56
346.397	241.56
346.625	215.56
346.853	225.56
347.08	189.56
347.308	225.56
347.535	217.56
347.763	208.56
347.99	236.56
348.218	231.56
348.445	254.56
348.673	245.56
348.9	210.56
349.128	220.56
349.355	222.56
349.583	222.56
349.81	220.56
350.037	212.56
350.265	217.56
350.492	201.56
350.72	225.56
350.947	220.56
351.174	220.56
351.402	221.56
351.629	241.56
351.856	243.56
352.083	242.56
352.311	251.56
352.538	245.56
352.765	230.56
352.992	224.56
353.22	234.56
353.447	212.56
353.674	228.56
353.901	208.56
354.128	210.56
354.355	205.56
354.583	221.56
354.81	197.56
355.037	214.56
355.264	208.56
355.491	210.56
355.718	200.56
355.945	216.56
356.172	206.56
356.399	198.56
356.626	203.56
356.853	202.56
357.08	202.56
357.307	216.56
357.534	215.56
357.761	206.56
357.988	193.56
358.215	204.56
358.441	219.56
358.668	213.56
358.895	206.56
359.122	215.56
359.349	226.56
359.576	221.56
359.802	247.56
360.029	255.56
360.256	260.56
360.483	259.56
360.709	227.56
360.936	222.56
361.163	216.56
361.39	235.56
361.616	216.56
361.843	227.56
362.07	222.56
362.296	232.56
362.523	233.56
362.749	227.56
362.976	211.56
363.203	220.56
363.429	207.56
363.656	214.56
363.882	215.56
364.109	201.56
364.335	223.56
364.562	211.56
364.788	229.56
365.015	207.56
365.241	222.56
365.468	242.56
365.694	223.56
365.92	229.56
366.147	225.56
366.373	209.56
366.599	206.56
366.826	206.56
367.052	208.56
367.278	201.56
367.505	214.56
367.731	205.56
367.957	201.56
368.184	220.56
368.41	198.56
368.636	204.56
368.862	219.56
369.089	225.56
369.315	200.56
369.541	212.56
369.767	216.56
369.993	218.56
370.219	206.56
370.445	204.56
370.672	201.56
370.898	215.56
371.124	211.56
371.35	225.56
371.576	213.56
371.802	198.56
372.028	210.56
372.254	203.56
372.48	207.56
372.706	218.56
372.932	194.56
373.158	211.56
373.384	207.56
373.61	193.56
373.835	204.56
374.061	211.56
374.287	226.56
374.513	206.56
374.739	217.56
374.965	221.56
375.191	237.56
375.416	212.56
375.642	209.56
375.868	211.56
376.094	205.56
376.319	216.56
376.545	193.56
376.771	222.56
376.997	202.56
377.222	203.56
377.448	207.56
377.674	211.56
377.899	202.56
378.125	215.56
378.35	201.56
378.576	217.56
378.802	211.56
379.027	206.56
379.253	197.56
379.478	194.56
379.704	209.56
379.929	218.56
380.155	214.56
380.38	213.56
380.606	207.56
380.831	218.56
381.057	231.56
381.282	207.56
381.507	193.56
381.733	210.56
381.958	219.56
382.184	214.56
382.409	195.56
382.634	210.56
382.86	207.56
383.085	219.56
383.31	211.56
383.535	213.56
383.761	200.56
383.986	218.56
384.211	217.56
384.436	218.56
384.662	217.56
384.887	235.56
385.112	222.56
385.337	234.56
385.562	211.56
385.787	222.56
386.013	214.56
386.238	228.56
386.463	229.56
386.688	234.56
386.913	225.56
387.138	219.56
387.363	225.56
387.588	211.56
387.813	220.56
388.038	234.56
388.263	215.56
388.488	224.56
388.713	218.56
388.938	232.56
389.163	235.56
389.387	207.56
389.612	224.56
389.837	216.56
390.062	219.56
390.287	217.56
390.512	220.56
390.736	208.56
390.961	224.56
391.186	233.56
391.411	215.56
391.636	215.56
391.86	235.56
392.085	219.56
392.31	227.56
392.534	237.56
392.759	242.56
392.984	227.56
393.208	222.56
393.433	241.56
393.658	248.56
393.882	234.56
394.107	229.56
394.331	221.56
394.556	218.56
394.78	231.56
395.005	212.56
395.229	221.56
395.454	245.56
395.678	229.56
395.903	227.56
396.127	241.56
396.352	245.56
396.576	233.56
396.801	235.56
397.025	236.56
397.249	235.56
397.474	220.56
397.698	221.56
397.922	239.56
398.147	244.56
398.371	257.56
398.595	257.56
398.82	237.56
399.044	268.56
399.268	269.56
399.492	278.56
399.717	289.56
399.941	294.56
400.165	292.56
400.389	295.56
400.613	275.56
400.837	259.56
401.062	261.56
401.286	257.56
401.51	261.56
401.734	259.56
401.958	260.56
402.182	250.56
402.406	267.56
402.63	260.56
402.854	245.56
403.078	261.56
403.302	283.56
403.526	266.56
403.75	271.56
403.974	267.56
404.198	240.56
404.422	258.56
404.645	257.56
404.869	269.56
405.093	282.56
405.317	285.56
405.541	299.56
405.765	270.56
405.988	265.56
406.212	303.56
406.436	316.56
406.66	300.56
406.883	285.56
407.107	307.56
407.331	332.56
407.555	340.56
407.778	321.56
408.002	299.56
408.226	289.56
408.449	278.56
408.673	279.56
408.896	269.56
409.12	299.56
409.344	292.56
409.567	276.56
409.791	265.56
410.014	256.56
410.238	251.56
410.461	254.56
410.685	270.56
410.908	258.56
411.132	299.56
411.355	289.56
411.578	293.56
411.802	257.56
412.025	269.56
412.249	255.56
412.472	277.56
412.695	279.56
412.919	272.56
413.142	266.56
413.365	257.56
413.589	261.56
413.812	249.56
414.035	260.56
414.258	239.56
414.482	250.56
414.705	245.56
414.928	258.56
415.151	237.56
415.374	256.56
415.597	258.56
415.821	232.56
416.044	245.56
416.267	250.56
416.49	245.56
416.713	233.56
416.936	249.56
417.159	242.56
417.382	245.56
417.605	269.56
417.828	273.56
418.051	266.56
418.274	258.56
418.497	272.56
418.72	257.56
418.943	235.56
419.166	270.56
419.389	277.56
419.611	279.56
419.834	267.56
420.057	263.56
420.28	250.56
420.503	255.56
420.726	266.56
420.948	271.56
421.171	312.56
421.394	305.56
421.617	256.56
421.839	278.56
422.062	262.56
422.285	252.56
422.507	302.56
422.73	330.56
422.953	307.56
423.175	282.56
423.398	279.56
423.621	263.56
423.843	283.56
424.066	277.56
424.288	284.56
424.511	287.56
424.733	323.56
424.956	328.56
425.178	344.56
425.401	332.56
425.623	337.56
425.846	284.56
426.068	293.56
426.291	275.56
426.513	275.56
426.735	296.56
426.958	293.56
427.18	323.56
427.402	387.56
427.625	441.56
427.847	384.56
428.069	332.56
428.292	295.56
428.514	287.56
428.736	263.56
428.958	282.56
429.181	261.56
429.403	263.56
429.625	277.56
429.847	280.56
430.069	321.56
430.292	323.56
430.514	284.56
430.736	273.56
430.958	243.56
431.18	261.56
431.402	246.56
431.624	234.56
431.846	230.56
432.068	249.56
432.29	251.56
432.512	231.56
432.734	245.56
432.956	247.56
433.178	260.56
433.4	268.56
433.622	244.56
433.844	233.56
434.066	230.56
434.287	251.56
434.509	246.56
434.731	255.56
434.953	263.56
435.175	272.56
435.397	273.56
435.618	276.56
435.84	311.56
436.062	341.56
436.284	371.56
436.505	300.56
436.727	281.56
436.949	235.56
437.17	245.56
437.392	272.56
437.614	242.56
437.835	285.56
438.057	329.56
438.278	380.56
438.5	357.56
438.721	389.56
438.943	372.56
439.165	321.56
439.386	295.56
439.608	288.56
439.829	275.56
440.05	297.56
440.272	317.56
440.493	291.56
440.715	275.56
440.936	266.56
441.158	241.56
441.379	257.56
441.6	262.56
441.822	281.56
442.043	298.56
442.264	328.56
442.486	357.56
442.707	299.56
442.928	294.56
443.149	282.56
443.371	283.56
443.592	341.56
443.813	365.56
444.034	371.56
444.255	315.56
444.476	291.56
444.698	287.56
444.919	282.56
445.14	384.56
445.361	352.56
445.582	301.56
445.803	354.56
446.024	388.56
446.245	389.56
446.466	353.56
446.687	307.56
446.908	295.56
447.129	264.56
447.35	255.56
447.571	245.56
447.792	260.56
448.013	273.56
448.234	279.56
448.455	309.56
448.675	343.56
448.896	392.56
449.117	338.56
449.338	318.56
449.559	357.56
449.779	396.56
450	317.56
450.221	290.56
450.442	245.56
450.662	254.56
450.883	266.56
451.104	279.56
451.324	269.56
451.545	246.56
451.766	250.56
451.986	247.56
452.207	240.56
452.428	227.56
452.648	238.56
452.869	246.56
453.089	232.56
453.31	249.56
453.53	230.56
453.751	236.56
453.971	261.56
454.192	258.56
454.412	241.56
454.633	238.56
454.853	241.56
455.073	225.56
455.294	253.56
455.514	288.56
455.734	271.56
455.955	230.56
456.175	224.56
456.395	227.56
456.616	217.56
456.836	229.56
457.056	218.56
457.276	217.56
457.497	228.56
457.717	226.56
457.937	241.56
458.157	221.56
458.377	203.56
458.598	245.56
458.818	281.56
459.038	331.56
459.258	323.56
459.478	265.56
459.698	255.56
459.918	236.56
460.138	253.56
460.358	246.56
460.578	234.56
460.798	250.56
461.018	259.56
461.238	250.56
461.458	249.56
461.678	241.56
461.898	254.56
462.118	248.56
462.338	261.56
462.558	272.56
462.777	256.56
462.997	242.56
463.217	263.56
463.437	276.56
463.657	265.56
463.876	270.56
464.096	261.56
464.316	267.56
464.536	271.56
464.755	274.56
464.975	277.56
465.195	318.56
465.414	360.56
465.634	317.56
465.854	271.56
466.073	234.56
466.293	261.56
466.512	231.56
466.732	231.56
466.951	241.56
467.171	247.56
467.391	248.56
467.61	250.56
467.829	261.56
468.049	236.56
468.268	264.56
468.488	253.56
468.707	211.56
468.927	243.56
469.146	226.56
469.365	212.56
469.585	218.56
469.804	248.56
470.023	252.56
470.243	244.56
470.462	252.56
470.681	274.56
470.901	264.56
471.12	246.56
471.339	235.56
471.558	259.56
471.777	251.56
471.997	224.56
472.216	259.56
472.435	293.56
472.654	272.56
472.873	237.56
473.092	243.56
473.311	242.56
473.53	221.56
473.749	238.56
473.968	264.56
474.187	295.56
474.406	339.56
474.625	261.56
474.844	248.56
475.063	253.56
475.282	255.56
475.501	239.56
475.72	243.56
475.939	233.56
476.158	249.56
476.377	243.56
476.596	229.56
476.814	243.56
477.033	273.56
477.252	254.56
477.471	259.56
477.69	251.56
477.908	269.56
478.127	268.56
478.346	262.56
478.564	256.56
478.783	274.56
479.002	269.56
479.22	268.56
479.439	277.56
479.658	271.56
479.876	291.56
480.095	286.56
480.313	296.56
480.532	291.56
480.751	307.56
480.969	311.56
481.188	360.56
481.406	392.56
481.624	321.56
481.843	295.56
482.061	275.56
482.28	279.56
482.498	283.56
482.717	269.56
482.935	276.56
483.153	277.56
483.372	283.56
483.59	276.56
483.808	291.56
484.027	276.56
484.245	291.56
484.463	291.56
484.681	296.56
484.9	292.56
485.118	305.56
485.336	285.56
485.554	298.56
485.772	321.56
485.99	285.56
486.209	305.56
486.427	283.56
486.645	287.56
486.863	324.56
487.081	299.56
487.299	289.56
487.517	303.56
487.735	301.56
487.953	318.56
488.171	297.56
488.389	293.56
488.607	312.56
488.825	295.56
489.043	326.56
489.261	314.56
489.479	318.56
489.696	312.56
489.914	309.56
490.132	326.56
490.35	309.56
490.568	329.56
490.786	323.56
491.003	343.56
491.221	345.56
491.439	350.56
491.657	365.56
491.874	357.56
492.092	359.56
492.31	359.56
492.527	357.56
492.745	340.56
492.963	366.56
493.18	373.56
493.398	370.56
493.615	359.56
493.833	367.56
494.05	360.56
494.268	361.56
494.485	338.56
494.703	361.56
494.92	352.56
495.138	350.56
495.355	343.56
495.573	380.56
495.79	373.56
496.008	354.56
496.225	359.56
496.442	351.56
496.66	350.56
496.877	353.56
497.094	345.56
497.312	334.56
497.529	350.56
497.746	366.56
497.963	361.56
498.181	369.56
498.398	361.56
498.615	385.56
498.832	352.56
499.049	377.56
499.267	379.56
499.484	388.56
499.701	403.56
499.918	424.56
500.135	436.56
500.352	446.56
500.569	461.56
500.786	456.56
501.003	449.56
501.22	439.56
501.437	428.56
501.654	430.56
501.871	429.56
502.088	414.56
502.305	425.56
502.522	391.56
