Data from 1966.PennyLincolnUp.Lamp.En5.5.200Scan.071719.P1.Scan2.head_HRD10591_14-17-45-133.txt Node
Date: Thu Jul 18 14:17:45 EDT 2019
User: cochatt
Spectrometer: HR+D1059
Trigger mode: 1
Integration Time (sec): 1.000000E-1
Scans to average: 1
Electric dark correction enabled: true
Nonlinearity correction enabled: false
Boxcar width: 0
XAxis mode: Wavelengths
Number of Pixels in Spectrum: 2048
>>>>>Begin Spectral Data<<<<<
223.165	-15.25
223.4	-15.25
223.635	-15.25
223.869	-7.25
224.104	-15.25
224.338	-17.25
224.573	-28.25
224.808	-13.25
225.042	-4.25
225.277	0.75
225.511	-0.25
225.746	-6.25
225.98	9.75
226.215	23.75
226.449	11.75
226.683	9.75
226.918	26.75
227.152	24.75
227.387	30.75
227.621	27.75
227.856	41.75
228.09	46.75
228.324	52.75
228.559	50.75
228.793	66.75
229.027	102.75
229.262	97.75
229.496	98.75
229.73	128.75
229.964	162.75
230.199	130.75
230.433	118.75
230.667	122.75
230.901	107.75
231.136	103.75
231.37	103.75
231.604	98.75
231.838	114.75
232.072	130.75
232.306	122.75
232.541	114.75
232.775	103.75
233.009	100.75
233.243	120.75
233.477	116.75
233.711	108.75
233.945	100.75
234.179	122.75
234.413	116.75
234.647	108.75
234.881	122.75
235.115	118.75
235.349	128.75
235.583	118.75
235.817	119.75
236.051	130.75
236.285	123.75
236.519	113.75
236.753	125.75
236.987	135.75
237.221	169.75
237.455	236.75
237.689	188.75
237.922	149.75
238.156	128.75
238.39	116.75
238.624	110.75
238.858	117.75
239.091	122.75
239.325	123.75
239.559	126.75
239.793	139.75
240.027	121.75
240.26	136.75
240.494	151.75
240.728	138.75
240.961	145.75
241.195	139.75
241.429	133.75
241.662	135.75
241.896	140.75
242.13	130.75
242.363	125.75
242.597	138.75
242.83	140.75
243.064	133.75
243.298	134.75
243.531	138.75
243.765	147.75
243.998	127.75
244.232	132.75
244.465	142.75
244.699	136.75
244.932	152.75
245.166	140.75
245.399	153.75
245.633	138.75
245.866	139.75
246.099	135.75
246.333	143.75
246.566	144.75
246.8	144.75
247.033	147.75
247.266	152.75
247.5	149.75
247.733	161.75
247.966	159.75
248.2	170.75
248.433	168.75
248.666	193.75
248.899	178.75
249.133	205.75
249.366	189.75
249.599	188.75
249.832	179.75
250.066	167.75
250.299	176.75
250.532	178.75
250.765	201.75
250.998	218.75
251.231	217.75
251.465	189.75
251.698	208.75
251.931	180.75
252.164	194.75
252.397	192.75
252.63	192.75
252.863	193.75
253.096	192.75
253.329	227.75
253.562	205.75
253.795	201.75
254.028	218.75
254.261	211.75
254.494	212.75
254.727	254.75
254.96	282.75
255.193	260.75
255.426	231.75
255.659	226.75
255.892	216.75
256.124	234.75
256.357	225.75
256.59	221.75
256.823	205.75
257.056	201.75
257.289	226.75
257.521	214.75
257.754	204.75
257.987	211.75
258.22	196.75
258.452	195.75
258.685	195.75
258.918	200.75
259.151	203.75
259.383	206.75
259.616	225.75
259.849	214.75
260.081	233.75
260.314	245.75
260.547	238.75
260.779	230.75
261.012	208.75
261.244	224.75
261.477	200.75
261.71	211.75
261.942	210.75
262.175	212.75
262.407	212.75
262.64	213.75
262.872	227.75
263.105	225.75
263.337	216.75
263.57	205.75
263.802	205.75
264.035	196.75
264.267	201.75
264.499	201.75
264.732	192.75
264.964	204.75
265.197	216.75
265.429	212.75
265.661	212.75
265.894	208.75
266.126	214.75
266.358	204.75
266.591	201.75
266.823	211.75
267.055	219.75
267.287	221.75
267.52	224.75
267.752	224.75
267.984	200.75
268.216	226.75
268.448	235.75
268.681	218.75
268.913	235.75
269.145	254.75
269.377	252.75
269.609	268.75
269.841	248.75
270.073	243.75
270.306	268.75
270.538	291.75
270.77	308.75
271.002	282.75
271.234	280.75
271.466	289.75
271.698	301.75
271.93	293.75
272.162	306.75
272.394	306.75
272.626	291.75
272.858	270.75
273.09	275.75
273.322	261.75
273.553	256.75
273.785	262.75
274.017	271.75
274.249	252.75
274.481	254.75
274.713	263.75
274.945	242.75
275.176	248.75
275.408	257.75
275.64	249.75
275.872	258.75
276.104	252.75
276.335	281.75
276.567	252.75
276.799	258.75
277.031	310.75
277.262	308.75
277.494	306.75
277.726	274.75
277.957	285.75
278.189	260.75
278.421	260.75
278.652	259.75
278.884	279.75
279.115	249.75
279.347	241.75
279.579	265.75
279.81	254.75
280.042	253.75
280.273	269.75
280.505	269.75
280.736	253.75
280.968	254.75
281.199	272.75
281.431	259.75
281.662	253.75
281.894	267.75
282.125	252.75
282.356	302.75
282.588	284.75
282.819	299.75
283.051	259.75
283.282	265.75
283.513	265.75
283.745	279.75
283.976	267.75
284.207	273.75
284.439	271.75
284.67	277.75
284.901	264.75
285.132	281.75
285.364	282.75
285.595	269.75
285.826	274.75
286.057	274.75
286.288	273.75
286.52	251.75
286.751	264.75
286.982	265.75
287.213	289.75
287.444	284.75
287.675	284.75
287.906	284.75
288.138	301.75
288.369	293.75
288.6	284.75
288.831	294.75
289.062	287.75
289.293	291.75
289.524	275.75
289.755	284.75
289.986	286.75
290.217	296.75
290.448	293.75
290.679	286.75
290.91	277.75
291.141	260.75
291.371	261.75
291.602	271.75
291.833	289.75
292.064	279.75
292.295	294.75
292.526	290.75
292.757	304.75
292.987	293.75
293.218	301.75
293.449	299.75
293.68	292.75
293.91	280.75
294.141	273.75
294.372	276.75
294.603	280.75
294.833	304.75
295.064	270.75
295.295	310.75
295.525	310.75
295.756	291.75
295.987	300.75
296.217	324.75
296.448	318.75
296.679	293.75
296.909	285.75
297.14	294.75
297.37	304.75
297.601	297.75
297.831	312.75
298.062	280.75
298.292	291.75
298.523	291.75
298.753	296.75
298.984	297.75
299.214	301.75
299.445	309.75
299.675	301.75
299.905	307.75
300.136	290.75
300.366	321.75
300.597	296.75
300.827	311.75
301.057	313.75
301.288	329.75
301.518	297.75
301.748	321.75
301.979	334.75
302.209	327.75
302.439	335.75
302.669	336.75
302.9	330.75
303.13	316.75
303.36	331.75
303.59	311.75
303.82	341.75
304.051	325.75
304.281	341.75
304.511	314.75
304.741	313.75
304.971	319.75
305.201	308.75
305.431	312.75
305.661	318.75
305.891	296.75
306.121	314.75
306.352	328.75
306.582	339.75
306.812	345.75
307.042	345.75
307.272	311.75
307.502	333.75
307.731	356.75
307.961	335.75
308.191	331.75
308.421	328.75
308.651	322.75
308.881	329.75
309.111	345.75
309.341	331.75
309.571	340.75
309.8	325.75
310.03	343.75
310.26	349.75
310.49	353.75
310.72	365.75
310.949	389.75
311.179	388.75
311.409	357.75
311.639	378.75
311.868	374.75
312.098	363.75
312.328	368.75
312.557	384.75
312.787	381.75
313.017	377.75
313.246	397.75
313.476	354.75
313.706	378.75
313.935	370.75
314.165	383.75
314.394	370.75
314.624	376.75
314.853	362.75
315.083	370.75
315.312	361.75
315.542	349.75
315.771	356.75
316.001	359.75
316.23	365.75
316.46	360.75
316.689	350.75
316.919	365.75
317.148	377.75
317.377	360.75
317.607	378.75
317.836	363.75
318.065	380.75
318.295	391.75
318.524	377.75
318.753	342.75
318.983	362.75
319.212	368.75
319.441	383.75
319.67	388.75
319.9	372.75
320.129	388.75
320.358	388.75
320.587	368.75
320.816	390.75
321.046	383.75
321.275	385.75
321.504	371.75
321.733	381.75
321.962	385.75
322.191	395.75
322.42	424.75
322.649	433.75
322.878	438.75
323.108	430.75
323.337	450.75
323.566	490.75
323.795	484.75
324.024	529.75
324.253	632.75
324.482	874.75
324.71	1362.75
324.939	2067.75
325.168	1754.75
325.397	873.75
325.626	595.75
325.855	535.75
326.084	496.75
326.313	479.75
326.542	485.75
326.77	502.75
326.999	555.75
327.228	811.75
327.457	1211.75
327.686	1564.75
327.914	1004.75
328.143	658.75
328.372	618.75
328.6	563.75
328.829	542.75
329.058	554.75
329.287	556.75
329.515	498.75
329.744	485.75
329.972	489.75
330.201	490.75
330.43	535.75
330.658	550.75
330.887	570.75
331.115	561.75
331.344	503.75
331.572	483.75
331.801	465.75
332.03	480.75
332.258	464.75
332.486	450.75
332.715	459.75
332.943	453.75
333.172	458.75
333.4	450.75
333.629	470.75
333.857	483.75
334.085	469.75
334.314	491.75
334.542	530.75
334.771	544.75
334.999	524.75
335.227	477.75
335.455	461.75
335.684	446.75
335.912	450.75
336.14	432.75
336.369	439.75
336.597	455.75
336.825	449.75
337.053	440.75
337.281	429.75
337.51	438.75
337.738	440.75
337.966	454.75
338.194	443.75
338.422	450.75
338.65	444.75
338.878	430.75
339.106	427.75
339.334	442.75
339.562	445.75
339.79	420.75
340.018	425.75
340.246	438.75
340.474	436.75
340.702	422.75
340.93	408.75
341.158	419.75
341.386	418.75
341.614	418.75
341.842	436.75
342.07	430.75
342.298	422.75
342.526	418.75
342.754	405.75
342.981	413.75
343.209	412.75
343.437	413.75
343.665	432.75
343.893	433.75
344.12	452.75
344.348	450.75
344.576	445.75
344.804	428.75
345.031	442.75
345.259	455.75
345.487	450.75
345.714	427.75
345.942	422.75
346.17	428.75
346.397	406.75
346.625	400.75
346.853	414.75
347.08	425.75
347.308	421.75
347.535	433.75
347.763	450.75
347.99	400.75
348.218	430.75
348.445	424.75
348.673	412.75
348.9	417.75
349.128	434.75
349.355	424.75
349.583	408.75
349.81	415.75
350.037	410.75
350.265	397.75
350.492	408.75
350.72	409.75
350.947	424.75
351.174	410.75
351.402	438.75
351.629	414.75
351.856	415.75
352.083	432.75
352.311	426.75
352.538	441.75
352.765	435.75
352.992	391.75
353.22	418.75
353.447	416.75
353.674	408.75
353.901	404.75
354.128	396.75
354.355	401.75
354.583	394.75
354.81	392.75
355.037	390.75
355.264	397.75
355.491	373.75
355.718	392.75
355.945	384.75
356.172	385.75
356.399	398.75
356.626	385.75
356.853	396.75
357.08	406.75
357.307	402.75
357.534	390.75
357.761	400.75
357.988	395.75
358.215	421.75
358.441	406.75
358.668	399.75
358.895	392.75
359.122	391.75
359.349	404.75
359.576	413.75
359.802	426.75
360.029	455.75
360.256	456.75
360.483	452.75
360.709	437.75
360.936	422.75
361.163	436.75
361.39	402.75
361.616	435.75
361.843	422.75
362.07	426.75
362.296	421.75
362.523	408.75
362.749	418.75
362.976	423.75
363.203	435.75
363.429	378.75
363.656	404.75
363.882	410.75
364.109	393.75
364.335	407.75
364.562	411.75
364.788	414.75
365.015	404.75
365.241	415.75
365.468	399.75
365.694	406.75
365.92	425.75
366.147	409.75
366.373	424.75
366.599	407.75
366.826	409.75
367.052	394.75
367.278	395.75
367.505	418.75
367.731	404.75
367.957	399.75
368.184	405.75
368.41	422.75
368.636	419.75
368.862	432.75
369.089	409.75
369.315	418.75
369.541	418.75
369.767	423.75
369.993	418.75
370.219	419.75
370.445	414.75
370.672	411.75
370.898	416.75
371.124	403.75
371.35	410.75
371.576	405.75
371.802	412.75
372.028	413.75
372.254	433.75
372.48	412.75
372.706	394.75
372.932	405.75
373.158	406.75
373.384	424.75
373.61	441.75
373.835	421.75
374.061	399.75
374.287	412.75
374.513	433.75
374.739	419.75
374.965	428.75
375.191	401.75
375.416	437.75
375.642	427.75
375.868	415.75
376.094	415.75
376.319	436.75
376.545	409.75
376.771	404.75
376.997	410.75
377.222	410.75
377.448	404.75
377.674	410.75
377.899	407.75
378.125	396.75
378.35	420.75
378.576	398.75
378.802	397.75
379.027	412.75
379.253	382.75
379.478	418.75
379.704	403.75
379.929	418.75
380.155	420.75
380.38	414.75
380.606	385.75
380.831	423.75
381.057	438.75
381.282	404.75
381.507	433.75
381.733	405.75
381.958	430.75
382.184	439.75
382.409	418.75
382.634	421.75
382.86	431.75
383.085	429.75
383.31	440.75
383.535	426.75
383.761	434.75
383.986	436.75
384.211	449.75
384.436	418.75
384.662	455.75
384.887	452.75
385.112	438.75
385.337	464.75
385.562	458.75
385.787	454.75
386.013	454.75
386.238	476.75
386.463	475.75
386.688	471.75
386.913	483.75
387.138	452.75
387.363	456.75
387.588	440.75
387.813	475.75
388.038	462.75
388.263	477.75
388.488	490.75
388.713	458.75
388.938	466.75
389.163	466.75
389.387	483.75
389.612	471.75
389.837	465.75
390.062	440.75
390.287	473.75
390.512	462.75
390.736	453.75
390.961	469.75
391.186	478.75
391.411	487.75
391.636	471.75
391.86	470.75
392.085	460.75
392.31	486.75
392.534	488.75
392.759	481.75
392.984	490.75
393.208	496.75
393.433	494.75
393.658	473.75
393.882	477.75
394.107	492.75
394.331	480.75
394.556	468.75
394.78	467.75
395.005	507.75
395.229	504.75
395.454	478.75
395.678	482.75
395.903	494.75
396.127	536.75
396.352	512.75
396.576	482.75
396.801	477.75
397.025	496.75
397.249	484.75
397.474	527.75
397.698	504.75
397.922	514.75
398.147	542.75
398.371	536.75
398.595	545.75
398.82	554.75
399.044	562.75
399.268	579.75
399.492	593.75
399.717	613.75
399.941	655.75
400.165	693.75
400.389	667.75
400.613	594.75
400.837	581.75
401.062	546.75
401.286	549.75
401.51	561.75
401.734	566.75
401.958	543.75
402.182	564.75
402.406	566.75
402.63	550.75
402.854	545.75
403.078	553.75
403.302	540.75
403.526	549.75
403.75	530.75
403.974	575.75
404.198	568.75
404.422	578.75
404.645	601.75
404.869	579.75
405.093	612.75
405.317	659.75
405.541	662.75
405.765	650.75
405.988	594.75
406.212	594.75
406.436	609.75
406.66	649.75
406.883	602.75
407.107	619.75
407.331	684.75
407.555	717.75
407.778	744.75
408.002	688.75
408.226	646.75
408.449	626.75
408.673	601.75
408.896	624.75
409.12	686.75
409.344	649.75
409.567	610.75
409.791	586.75
410.014	580.75
410.238	560.75
410.461	583.75
410.685	578.75
410.908	587.75
411.132	634.75
411.355	651.75
411.578	620.75
411.802	558.75
412.025	554.75
412.249	593.75
412.472	605.75
412.695	653.75
412.919	621.75
413.142	573.75
413.365	557.75
413.589	550.75
413.812	531.75
414.035	561.75
414.258	534.75
414.482	530.75
414.705	545.75
414.928	525.75
415.151	543.75
415.374	545.75
415.597	546.75
415.821	537.75
416.044	534.75
416.267	527.75
416.49	524.75
416.713	528.75
416.936	545.75
417.159	515.75
417.382	520.75
417.605	534.75
417.828	547.75
418.051	557.75
418.274	540.75
418.497	517.75
418.72	535.75
418.943	539.75
419.166	540.75
419.389	568.75
419.611	576.75
419.834	569.75
420.057	576.75
420.28	577.75
420.503	558.75
420.726	562.75
420.948	550.75
421.171	618.75
421.394	655.75
421.617	602.75
421.839	573.75
422.062	553.75
422.285	560.75
422.507	640.75
422.73	708.75
422.953	689.75
423.175	598.75
423.398	570.75
423.621	605.75
423.843	617.75
424.066	601.75
424.288	601.75
424.511	598.75
424.733	665.75
424.956	753.75
425.178	709.75
425.401	702.75
425.623	733.75
425.846	632.75
426.068	611.75
426.291	589.75
426.513	612.75
426.735	598.75
426.958	645.75
427.18	708.75
427.402	856.75
427.625	922.75
427.847	796.75
428.069	717.75
428.292	645.75
428.514	601.75
428.736	574.75
428.958	555.75
429.181	547.75
429.403	565.75
429.625	540.75
429.847	589.75
430.069	665.75
430.292	670.75
430.514	568.75
430.736	540.75
430.958	536.75
431.18	530.75
431.402	522.75
431.624	503.75
431.846	536.75
432.068	527.75
432.29	549.75
432.512	518.75
432.734	539.75
432.956	534.75
433.178	525.75
433.4	544.75
433.622	538.75
433.844	522.75
434.066	531.75
434.287	530.75
434.509	539.75
434.731	567.75
434.953	575.75
435.175	562.75
435.397	609.75
435.618	600.75
435.84	641.75
436.062	714.75
436.284	799.75
436.505	659.75
436.727	608.75
436.949	575.75
437.17	568.75
437.392	558.75
437.614	583.75
437.835	586.75
438.057	711.75
438.278	796.75
438.5	795.75
438.721	854.75
438.943	849.75
439.165	683.75
439.386	602.75
439.608	585.75
439.829	619.75
440.05	628.75
440.272	682.75
440.493	635.75
440.715	578.75
440.936	580.75
441.158	559.75
441.379	557.75
441.6	584.75
441.822	590.75
442.043	628.75
442.264	701.75
442.486	759.75
442.707	640.75
442.928	647.75
443.149	627.75
443.371	636.75
443.592	650.75
443.813	791.75
444.034	819.75
444.255	696.75
444.476	619.75
444.698	604.75
444.919	603.75
445.14	681.75
445.361	643.75
445.582	657.75
445.803	711.75
446.024	818.75
446.245	801.75
446.466	738.75
446.687	620.75
446.908	603.75
447.129	550.75
447.35	585.75
447.571	557.75
447.792	549.75
448.013	537.75
448.234	566.75
448.455	633.75
448.675	725.75
448.896	844.75
449.117	756.75
449.338	664.75
449.559	763.75
449.779	883.75
450	736.75
450.221	600.75
450.442	556.75
450.662	565.75
450.883	532.75
451.104	568.75
451.324	548.75
451.545	525.75
451.766	503.75
451.986	505.75
452.207	493.75
452.428	482.75
452.648	482.75
452.869	492.75
453.089	508.75
453.31	517.75
453.53	496.75
453.751	474.75
453.971	495.75
454.192	536.75
454.412	507.75
454.633	491.75
454.853	500.75
455.073	498.75
455.294	499.75
455.514	587.75
455.734	568.75
455.955	478.75
456.175	480.75
456.395	485.75
456.616	479.75
456.836	474.75
457.056	452.75
457.276	456.75
457.497	487.75
457.717	468.75
457.937	474.75
458.157	483.75
458.377	506.75
458.598	494.75
458.818	572.75
459.038	636.75
459.258	633.75
459.478	586.75
459.698	525.75
459.918	538.75
460.138	532.75
460.358	548.75
460.578	549.75
460.798	545.75
461.018	551.75
461.238	554.75
461.458	541.75
461.678	554.75
461.898	537.75
462.118	553.75
462.338	566.75
462.558	548.75
462.777	579.75
462.997	591.75
463.217	606.75
463.437	594.75
463.657	576.75
463.876	584.75
464.096	591.75
464.316	584.75
464.536	584.75
464.755	605.75
464.975	580.75
465.195	591.75
465.414	669.75
465.634	612.75
465.854	570.75
466.073	530.75
466.293	518.75
466.512	501.75
466.732	509.75
466.951	525.75
467.171	504.75
467.391	501.75
467.61	531.75
467.829	518.75
468.049	510.75
468.268	516.75
468.488	508.75
468.707	481.75
468.927	502.75
469.146	498.75
469.365	469.75
469.585	488.75
469.804	508.75
470.023	516.75
470.243	512.75
470.462	540.75
470.681	524.75
470.901	565.75
471.12	529.75
471.339	503.75
471.558	503.75
471.777	548.75
471.997	524.75
472.216	522.75
472.435	561.75
472.654	540.75
472.873	522.75
473.092	526.75
473.311	501.75
473.53	491.75
473.749	538.75
473.968	560.75
474.187	628.75
474.406	663.75
474.625	557.75
474.844	518.75
475.063	508.75
475.282	533.75
475.501	514.75
475.72	530.75
475.939	540.75
476.158	547.75
476.377	524.75
476.596	546.75
476.814	555.75
477.033	575.75
477.252	538.75
477.471	548.75
477.69	570.75
477.908	565.75
478.127	598.75
478.346	593.75
478.564	602.75
478.783	577.75
479.002	587.75
479.22	598.75
479.439	618.75
479.658	606.75
479.876	616.75
480.095	628.75
480.313	660.75
480.532	632.75
480.751	655.75
480.969	642.75
481.188	710.75
481.406	745.75
481.624	661.75
481.843	611.75
482.061	610.75
482.28	602.75
482.498	614.75
482.717	591.75
482.935	598.75
483.153	601.75
483.372	617.75
483.59	604.75
483.808	608.75
484.027	600.75
484.245	619.75
484.463	596.75
484.681	637.75
484.9	604.75
485.118	638.75
485.336	617.75
485.554	632.75
485.772	642.75
485.99	633.75
486.209	642.75
486.427	639.75
486.645	679.75
486.863	661.75
487.081	682.75
487.299	652.75
487.517	654.75
487.735	664.75
487.953	653.75
488.171	644.75
488.389	668.75
488.607	669.75
488.825	652.75
489.043	664.75
489.261	669.75
489.479	690.75
489.696	664.75
489.914	680.75
490.132	681.75
490.35	706.75
490.568	685.75
490.786	675.75
491.003	708.75
491.221	722.75
491.439	738.75
491.657	722.75
491.874	708.75
492.092	748.75
492.31	734.75
492.527	717.75
492.745	758.75
492.963	788.75
493.18	748.75
493.398	774.75
493.615	778.75
493.833	757.75
494.05	770.75
494.268	766.75
494.485	736.75
494.703	733.75
494.92	756.75
495.138	770.75
495.355	768.75
495.573	792.75
495.79	760.75
496.008	796.75
496.225	801.75
496.442	776.75
496.66	760.75
496.877	778.75
497.094	794.75
497.312	818.75
497.529	812.75
497.746	820.75
497.963	831.75
498.181	873.75
498.398	873.75
498.615	864.75
498.832	902.75
499.049	909.75
499.267	948.75
499.484	948.75
499.701	993.75
499.918	1022.75
500.135	1046.75
500.352	1095.75
500.569	1120.75
500.786	1140.75
501.003	1127.75
501.22	1106.75
501.437	1048.75
501.654	1035.75
