Data from 1966.PennyLincolnUp.Lamp.En5.5.200Scan.071719.P1.Scan2.head_HRD10591_14-18-00-153.txt Node
Date: Thu Jul 18 14:18:00 EDT 2019
User: cochatt
Spectrometer: HR+D1059
Trigger mode: 1
Integration Time (sec): 1.000000E-1
Scans to average: 1
Electric dark correction enabled: true
Nonlinearity correction enabled: false
Boxcar width: 0
XAxis mode: Wavelengths
Number of Pixels in Spectrum: 2048
>>>>>Begin Spectral Data<<<<<
223.165	-14.75
223.4	-14.75
223.635	-14.75
223.869	-13.75
224.104	-21.75
224.338	-30.75
224.573	-23.75
224.808	-17.75
225.042	-7.75
225.277	-1.75
225.511	-6.75
225.746	14.25
225.98	10.25
226.215	13.25
226.449	24.25
226.683	22.25
226.918	14.25
227.152	40.25
227.387	35.25
227.621	42.25
227.856	46.25
228.09	42.25
228.324	52.25
228.559	61.25
228.793	70.25
229.027	106.25
229.262	93.25
229.496	111.25
229.73	149.25
229.964	151.25
230.199	136.25
230.433	125.25
230.667	101.25
230.901	114.25
231.136	115.25
231.37	116.25
231.604	121.25
231.838	120.25
232.072	109.25
232.306	128.25
232.541	134.25
232.775	116.25
233.009	106.25
233.243	122.25
233.477	121.25
233.711	123.25
233.945	130.25
234.179	119.25
234.413	119.25
234.647	110.25
234.881	126.25
235.115	138.25
235.349	112.25
235.583	122.25
235.817	119.25
236.051	121.25
236.285	113.25
236.519	125.25
236.753	152.25
236.987	139.25
237.221	184.25
237.455	234.25
237.689	199.25
237.922	137.25
238.156	137.25
238.39	123.25
238.624	130.25
238.858	122.25
239.091	136.25
239.325	144.25
239.559	136.25
239.793	127.25
240.027	133.25
240.26	149.25
240.494	145.25
240.728	148.25
240.961	149.25
241.195	160.25
241.429	153.25
241.662	139.25
241.896	132.25
242.13	133.25
242.363	134.25
242.597	146.25
242.83	152.25
243.064	150.25
243.298	124.25
243.531	131.25
243.765	145.25
243.998	149.25
244.232	131.25
244.465	141.25
244.699	143.25
244.932	152.25
245.166	152.25
245.399	156.25
245.633	139.25
245.866	153.25
246.099	150.25
246.333	163.25
246.566	160.25
246.8	154.25
247.033	165.25
247.266	169.25
247.5	167.25
247.733	174.25
247.966	186.25
248.2	174.25
248.433	176.25
248.666	197.25
248.899	186.25
249.133	207.25
249.366	200.25
249.599	211.25
249.832	183.25
250.066	195.25
250.299	187.25
250.532	193.25
250.765	209.25
250.998	216.25
251.231	233.25
251.465	214.25
251.698	204.25
251.931	214.25
252.164	202.25
252.397	202.25
252.63	203.25
252.863	206.25
253.096	217.25
253.329	229.25
253.562	223.25
253.795	232.25
254.028	216.25
254.261	214.25
254.494	229.25
254.727	273.25
254.96	288.25
255.193	260.25
255.426	267.25
255.659	236.25
255.892	214.25
256.124	234.25
256.357	230.25
256.59	237.25
256.823	219.25
257.056	211.25
257.289	205.25
257.521	223.25
257.754	219.25
257.987	225.25
258.22	217.25
258.452	215.25
258.685	220.25
258.918	221.25
259.151	207.25
259.383	226.25
259.616	219.25
259.849	230.25
260.081	253.25
260.314	257.25
260.547	263.25
260.779	268.25
261.012	239.25
261.244	228.25
261.477	214.25
261.71	204.25
261.942	226.25
262.175	239.25
262.407	221.25
262.64	220.25
262.872	218.25
263.105	229.25
263.337	225.25
263.57	211.25
263.802	209.25
264.035	223.25
264.267	217.25
264.499	215.25
264.732	233.25
264.964	223.25
265.197	228.25
265.429	224.25
265.661	225.25
265.894	226.25
266.126	228.25
266.358	215.25
266.591	213.25
266.823	226.25
267.055	223.25
267.287	225.25
267.52	231.25
267.752	231.25
267.984	244.25
268.216	244.25
268.448	245.25
268.681	242.25
268.913	255.25
269.145	269.25
269.377	271.25
269.609	288.25
269.841	282.25
270.073	295.25
270.306	300.25
270.538	321.25
270.77	310.25
271.002	311.25
271.234	280.25
271.466	304.25
271.698	301.25
271.93	304.25
272.162	309.25
272.394	306.25
272.626	311.25
272.858	289.25
273.09	278.25
273.322	278.25
273.553	253.25
273.785	281.25
274.017	266.25
274.249	271.25
274.481	260.25
274.713	266.25
274.945	269.25
275.176	278.25
275.408	269.25
275.64	289.25
275.872	265.25
276.104	271.25
276.335	269.25
276.567	304.25
276.799	292.25
277.031	295.25
277.262	321.25
277.494	320.25
277.726	321.25
277.957	290.25
278.189	287.25
278.421	285.25
278.652	290.25
278.884	274.25
279.115	289.25
279.347	278.25
279.579	265.25
279.81	295.25
280.042	280.25
280.273	278.25
280.505	273.25
280.736	266.25
280.968	277.25
281.199	265.25
281.431	274.25
281.662	269.25
281.894	285.25
282.125	286.25
282.356	315.25
282.588	308.25
282.819	318.25
283.051	289.25
283.282	285.25
283.513	277.25
283.745	293.25
283.976	284.25
284.207	270.25
284.439	298.25
284.67	311.25
284.901	284.25
285.132	287.25
285.364	295.25
285.595	292.25
285.826	278.25
286.057	285.25
286.288	298.25
286.52	290.25
286.751	285.25
286.982	292.25
287.213	300.25
287.444	301.25
287.675	269.25
287.906	312.25
288.138	297.25
288.369	301.25
288.6	301.25
288.831	295.25
289.062	313.25
289.293	289.25
289.524	283.25
289.755	284.25
289.986	287.25
290.217	296.25
290.448	292.25
290.679	305.25
290.91	296.25
291.141	303.25
291.371	298.25
291.602	301.25
291.833	298.25
292.064	297.25
292.295	317.25
292.526	296.25
292.757	305.25
292.987	287.25
293.218	280.25
293.449	312.25
293.68	294.25
293.91	298.25
294.141	317.25
294.372	311.25
294.603	316.25
294.833	302.25
295.064	312.25
295.295	298.25
295.525	308.25
295.756	308.25
295.987	302.25
296.217	325.25
296.448	350.25
296.679	322.25
296.909	327.25
297.14	319.25
297.37	306.25
297.601	306.25
297.831	284.25
298.062	292.25
298.292	324.25
298.523	300.25
298.753	316.25
298.984	329.25
299.214	318.25
299.445	303.25
299.675	310.25
299.905	322.25
300.136	330.25
300.366	312.25
300.597	315.25
300.827	322.25
301.057	334.25
301.288	336.25
301.518	345.25
301.748	334.25
301.979	342.25
302.209	332.25
302.439	337.25
302.669	322.25
302.9	330.25
303.13	326.25
303.36	343.25
303.59	347.25
303.82	361.25
304.051	353.25
304.281	346.25
304.511	318.25
304.741	327.25
304.971	356.25
305.201	337.25
305.431	349.25
305.661	353.25
305.891	344.25
306.121	333.25
306.352	329.25
306.582	362.25
306.812	357.25
307.042	333.25
307.272	348.25
307.502	329.25
307.731	354.25
307.961	353.25
308.191	350.25
308.421	342.25
308.651	348.25
308.881	344.25
309.111	344.25
309.341	370.25
309.571	368.25
309.8	379.25
310.03	373.25
310.26	369.25
310.49	380.25
310.72	396.25
310.949	415.25
311.179	394.25
311.409	375.25
311.639	397.25
311.868	391.25
312.098	385.25
312.328	376.25
312.557	394.25
312.787	398.25
313.017	407.25
313.246	402.25
313.476	379.25
313.706	393.25
313.935	400.25
314.165	373.25
314.394	396.25
314.624	403.25
314.853	401.25
315.083	388.25
315.312	395.25
315.542	391.25
315.771	375.25
316.001	379.25
316.23	386.25
316.46	389.25
316.689	394.25
316.919	376.25
317.148	406.25
317.377	389.25
317.607	394.25
317.836	398.25
318.065	387.25
318.295	374.25
318.524	386.25
318.753	382.25
318.983	396.25
319.212	397.25
319.441	400.25
319.67	402.25
319.9	419.25
320.129	403.25
320.358	400.25
320.587	401.25
320.816	394.25
321.046	423.25
321.275	420.25
321.504	407.25
321.733	400.25
321.962	433.25
322.191	419.25
322.42	424.25
322.649	442.25
322.878	466.25
323.108	461.25
323.337	491.25
323.566	501.25
323.795	530.25
324.024	582.25
324.253	641.25
324.482	914.25
324.71	1474.25
324.939	2170.25
325.168	1882.25
325.397	959.25
325.626	638.25
325.855	531.25
326.084	501.25
326.313	496.25
326.542	518.25
326.77	554.25
326.999	629.25
327.228	871.25
327.457	1302.25
327.686	1622.25
327.914	1088.25
328.143	689.25
328.372	638.25
328.6	605.25
328.829	548.25
329.058	571.25
329.287	570.25
329.515	559.25
329.744	530.25
329.972	525.25
330.201	555.25
330.43	571.25
330.658	593.25
330.887	604.25
331.115	603.25
331.344	545.25
331.572	522.25
331.801	472.25
332.03	527.25
332.258	487.25
332.486	489.25
332.715	465.25
332.943	466.25
333.172	486.25
333.4	481.25
333.629	520.25
333.857	500.25
334.085	535.25
334.314	531.25
334.542	582.25
334.771	569.25
334.999	527.25
335.227	492.25
335.455	475.25
335.684	503.25
335.912	480.25
336.14	457.25
336.369	468.25
336.597	480.25
336.825	497.25
337.053	472.25
337.281	464.25
337.51	466.25
337.738	471.25
337.966	474.25
338.194	462.25
338.422	480.25
338.65	470.25
338.878	452.25
339.106	453.25
339.334	453.25
339.562	452.25
339.79	446.25
340.018	450.25
340.246	462.25
340.474	459.25
340.702	450.25
340.93	444.25
341.158	433.25
341.386	466.25
341.614	454.25
341.842	437.25
342.07	455.25
342.298	435.25
342.526	440.25
342.754	431.25
342.981	444.25
343.209	418.25
343.437	461.25
343.665	446.25
343.893	460.25
344.12	472.25
344.348	442.25
344.576	465.25
344.804	465.25
345.031	458.25
345.259	493.25
345.487	466.25
345.714	461.25
345.942	456.25
346.17	432.25
346.397	435.25
346.625	432.25
346.853	452.25
347.08	437.25
347.308	428.25
347.535	447.25
347.763	465.25
347.99	437.25
348.218	456.25
348.445	478.25
348.673	453.25
348.9	445.25
349.128	432.25
349.355	430.25
349.583	423.25
349.81	404.25
350.037	421.25
350.265	431.25
350.492	432.25
350.72	443.25
350.947	436.25
351.174	433.25
351.402	450.25
351.629	454.25
351.856	441.25
352.083	447.25
352.311	476.25
352.538	454.25
352.765	465.25
352.992	456.25
353.22	445.25
353.447	428.25
353.674	453.25
353.901	424.25
354.128	413.25
354.355	415.25
354.583	398.25
354.81	428.25
355.037	400.25
355.264	424.25
355.491	401.25
355.718	429.25
355.945	425.25
356.172	421.25
356.399	401.25
356.626	416.25
356.853	431.25
357.08	415.25
357.307	413.25
357.534	414.25
357.761	410.25
357.988	414.25
358.215	406.25
358.441	428.25
358.668	422.25
358.895	422.25
359.122	423.25
359.349	420.25
359.576	445.25
359.802	463.25
360.029	482.25
360.256	487.25
360.483	477.25
360.709	445.25
360.936	449.25
361.163	437.25
361.39	423.25
361.616	462.25
361.843	434.25
362.07	427.25
362.296	439.25
362.523	443.25
362.749	462.25
362.976	452.25
363.203	427.25
363.429	426.25
363.656	436.25
363.882	422.25
364.109	427.25
364.335	414.25
364.562	435.25
364.788	463.25
365.015	439.25
365.241	432.25
365.468	436.25
365.694	440.25
365.92	446.25
366.147	433.25
366.373	428.25
366.599	403.25
366.826	440.25
367.052	424.25
367.278	440.25
367.505	428.25
367.731	420.25
367.957	429.25
368.184	431.25
368.41	444.25
368.636	458.25
368.862	447.25
369.089	432.25
369.315	436.25
369.541	431.25
369.767	441.25
369.993	442.25
370.219	418.25
370.445	413.25
370.672	435.25
370.898	434.25
371.124	429.25
371.35	433.25
371.576	440.25
371.802	437.25
372.028	438.25
372.254	437.25
372.48	421.25
372.706	448.25
372.932	429.25
373.158	455.25
373.384	434.25
373.61	463.25
373.835	444.25
374.061	439.25
374.287	426.25
374.513	458.25
374.739	441.25
374.965	447.25
375.191	455.25
375.416	469.25
375.642	440.25
375.868	437.25
376.094	451.25
376.319	451.25
376.545	443.25
376.771	453.25
376.997	439.25
377.222	418.25
377.448	438.25
377.674	434.25
377.899	430.25
378.125	448.25
378.35	444.25
378.576	435.25
378.802	439.25
379.027	443.25
379.253	435.25
379.478	433.25
379.704	440.25
379.929	451.25
380.155	454.25
380.38	462.25
380.606	430.25
380.831	426.25
381.057	456.25
381.282	442.25
381.507	446.25
381.733	433.25
381.958	440.25
382.184	448.25
382.409	445.25
382.634	446.25
382.86	473.25
383.085	457.25
383.31	443.25
383.535	458.25
383.761	459.25
383.986	454.25
384.211	463.25
384.436	461.25
384.662	461.25
384.887	481.25
385.112	455.25
385.337	487.25
385.562	475.25
385.787	496.25
386.013	487.25
386.238	488.25
386.463	452.25
386.688	490.25
386.913	473.25
387.138	469.25
387.363	487.25
387.588	480.25
387.813	504.25
388.038	483.25
388.263	480.25
388.488	494.25
388.713	496.25
388.938	526.25
389.163	504.25
389.387	472.25
389.612	490.25
389.837	475.25
390.062	486.25
390.287	491.25
390.512	498.25
390.736	482.25
390.961	487.25
391.186	495.25
391.411	495.25
391.636	508.25
391.86	520.25
392.085	520.25
392.31	494.25
392.534	514.25
392.759	500.25
392.984	488.25
393.208	503.25
393.433	512.25
393.658	506.25
393.882	510.25
394.107	504.25
394.331	491.25
394.556	480.25
394.78	511.25
395.005	499.25
395.229	495.25
395.454	504.25
395.678	520.25
395.903	532.25
396.127	521.25
396.352	539.25
396.576	537.25
396.801	516.25
397.025	531.25
397.249	502.25
397.474	521.25
397.698	531.25
397.922	548.25
398.147	551.25
398.371	555.25
398.595	550.25
398.82	551.25
399.044	571.25
399.268	608.25
399.492	616.25
399.717	676.25
399.941	687.25
400.165	721.25
400.389	695.25
400.613	680.25
400.837	634.25
401.062	591.25
401.286	592.25
401.51	572.25
401.734	563.25
401.958	570.25
402.182	550.25
402.406	592.25
402.63	584.25
402.854	566.25
403.078	590.25
403.302	607.25
403.526	590.25
403.75	584.25
403.974	594.25
404.198	586.25
404.422	599.25
404.645	607.25
404.869	619.25
405.093	629.25
405.317	689.25
405.541	700.25
405.765	649.25
405.988	640.25
406.212	629.25
406.436	637.25
406.66	639.25
406.883	636.25
407.107	664.25
407.331	711.25
407.555	808.25
407.778	787.25
408.002	739.25
408.226	677.25
408.449	667.25
408.673	651.25
408.896	686.25
409.12	722.25
409.344	697.25
409.567	632.25
409.791	604.25
410.014	606.25
410.238	600.25
410.461	606.25
410.685	605.25
410.908	586.25
411.132	659.25
411.355	672.25
411.578	653.25
411.802	595.25
412.025	602.25
412.249	600.25
412.472	626.25
412.695	668.25
412.919	646.25
413.142	611.25
413.365	572.25
413.589	582.25
413.812	587.25
414.035	568.25
414.258	552.25
414.482	584.25
414.705	595.25
414.928	557.25
415.151	554.25
415.374	555.25
415.597	569.25
415.821	570.25
416.044	583.25
416.267	584.25
416.49	549.25
416.713	560.25
416.936	538.25
417.159	566.25
417.382	574.25
417.605	557.25
417.828	581.25
418.051	589.25
418.274	570.25
418.497	577.25
418.72	590.25
418.943	534.25
419.166	609.25
419.389	625.25
419.611	580.25
419.834	569.25
420.057	596.25
420.28	585.25
420.503	600.25
420.726	588.25
420.948	617.25
421.171	654.25
421.394	666.25
421.617	637.25
421.839	589.25
422.062	599.25
422.285	618.25
422.507	674.25
422.73	749.25
422.953	724.25
423.175	663.25
423.398	634.25
423.621	629.25
423.843	651.25
424.066	611.25
424.288	615.25
424.511	659.25
424.733	710.25
424.956	795.25
425.178	761.25
425.401	757.25
425.623	771.25
425.846	672.25
426.068	619.25
426.291	631.25
426.513	618.25
426.735	640.25
426.958	671.25
427.18	773.25
427.402	910.25
427.625	996.25
427.847	881.25
428.069	760.25
428.292	669.25
428.514	593.25
428.736	597.25
428.958	609.25
429.181	583.25
429.403	588.25
429.625	590.25
429.847	642.25
430.069	716.25
430.292	703.25
430.514	608.25
430.736	612.25
430.958	557.25
431.18	557.25
431.402	558.25
431.624	553.25
431.846	564.25
432.068	568.25
432.29	558.25
432.512	568.25
432.734	574.25
432.956	563.25
433.178	568.25
433.4	572.25
433.622	583.25
433.844	568.25
434.066	568.25
434.287	541.25
434.509	557.25
434.731	569.25
434.953	574.25
435.175	580.25
435.397	631.25
435.618	657.25
435.84	693.25
436.062	790.25
436.284	851.25
436.505	713.25
436.727	610.25
436.949	602.25
437.17	582.25
437.392	562.25
437.614	594.25
437.835	651.25
438.057	712.25
438.278	833.25
438.5	848.25
438.721	928.25
438.943	865.25
439.165	684.25
439.386	660.25
439.608	642.25
439.829	624.25
440.05	654.25
440.272	720.25
440.493	668.25
440.715	637.25
440.936	594.25
441.158	580.25
441.379	611.25
441.6	621.25
441.822	616.25
442.043	676.25
442.264	780.25
442.486	804.25
442.707	705.25
442.928	656.25
443.149	650.25
443.371	658.25
443.592	735.25
443.813	796.25
444.034	890.25
444.255	752.25
444.476	656.25
444.698	640.25
444.919	618.25
445.14	758.25
445.361	705.25
445.582	694.25
445.803	779.25
446.024	871.25
446.245	879.25
446.466	775.25
446.687	684.25
446.908	641.25
447.129	591.25
447.35	582.25
447.571	566.25
447.792	542.25
448.013	585.25
448.234	586.25
448.455	653.25
448.675	783.25
448.896	921.25
449.117	728.25
449.338	715.25
449.559	868.25
449.779	943.25
450	752.25
450.221	616.25
450.442	574.25
450.662	564.25
450.883	562.25
451.104	578.25
451.324	576.25
451.545	551.25
451.766	530.25
451.986	534.25
452.207	499.25
452.428	502.25
452.648	517.25
452.869	534.25
453.089	559.25
453.31	528.25
453.53	516.25
453.751	512.25
453.971	503.25
454.192	529.25
454.412	523.25
454.633	529.25
454.853	528.25
455.073	508.25
455.294	529.25
455.514	618.25
455.734	593.25
455.955	527.25
456.175	494.25
456.395	491.25
456.616	495.25
456.836	493.25
457.056	493.25
457.276	479.25
457.497	496.25
457.717	488.25
457.937	511.25
458.157	510.25
458.377	498.25
458.598	509.25
458.818	599.25
459.038	656.25
459.258	713.25
459.478	608.25
459.698	564.25
459.918	562.25
460.138	589.25
460.358	558.25
460.578	607.25
460.798	571.25
461.018	584.25
461.238	581.25
461.458	556.25
461.678	558.25
461.898	556.25
462.118	570.25
462.338	572.25
462.558	587.25
462.777	596.25
462.997	618.25
463.217	636.25
463.437	626.25
463.657	604.25
463.876	602.25
464.096	624.25
464.316	642.25
464.536	612.25
464.755	596.25
464.975	629.25
465.195	644.25
465.414	709.25
465.634	626.25
465.854	574.25
466.073	582.25
466.293	576.25
466.512	538.25
466.732	529.25
466.951	549.25
467.171	532.25
467.391	525.25
467.61	543.25
467.829	568.25
468.049	558.25
468.268	548.25
468.488	531.25
468.707	538.25
468.927	555.25
469.146	502.25
469.365	510.25
469.585	521.25
469.804	523.25
470.023	548.25
470.243	525.25
470.462	536.25
470.681	575.25
470.901	551.25
471.12	561.25
471.339	547.25
471.558	542.25
471.777	549.25
471.997	522.25
472.216	547.25
472.435	585.25
472.654	562.25
472.873	543.25
473.092	538.25
473.311	570.25
473.53	570.25
473.749	549.25
473.968	611.25
474.187	707.25
474.406	744.25
474.625	619.25
474.844	585.25
475.063	544.25
475.282	568.25
475.501	543.25
475.72	544.25
475.939	567.25
476.158	579.25
476.377	556.25
476.596	582.25
476.814	579.25
477.033	579.25
477.252	581.25
477.471	558.25
477.69	559.25
477.908	584.25
478.127	618.25
478.346	608.25
478.564	618.25
478.783	599.25
479.002	625.25
479.22	642.25
479.439	632.25
479.658	658.25
479.876	667.25
480.095	673.25
480.313	681.25
480.532	688.25
480.751	668.25
480.969	663.25
481.188	723.25
481.406	791.25
481.624	706.25
481.843	656.25
482.061	656.25
482.28	673.25
482.498	630.25
482.717	646.25
482.935	638.25
483.153	653.25
483.372	648.25
483.59	642.25
483.808	652.25
484.027	641.25
484.245	644.25
484.463	653.25
484.681	668.25
484.9	670.25
485.118	640.25
485.336	669.25
485.554	655.25
485.772	652.25
485.99	689.25
486.209	674.25
486.427	692.25
486.645	672.25
486.863	680.25
487.081	682.25
487.299	703.25
487.517	675.25
487.735	673.25
487.953	673.25
488.171	683.25
488.389	711.25
488.607	690.25
488.825	684.25
489.043	702.25
489.261	684.25
489.479	686.25
489.696	684.25
489.914	716.25
490.132	710.25
490.35	716.25
490.568	711.25
490.786	753.25
491.003	728.25
491.221	760.25
491.439	775.25
491.657	772.25
491.874	794.25
492.092	786.25
492.31	796.25
492.527	783.25
492.745	811.25
492.963	814.25
493.18	786.25
493.398	812.25
493.615	823.25
493.833	825.25
494.05	804.25
494.268	829.25
494.485	824.25
494.703	787.25
494.92	815.25
495.138	824.25
495.355	813.25
495.573	829.25
495.79	845.25
496.008	838.25
496.225	816.25
496.442	833.25
496.66	817.25
496.877	849.25
497.094	837.25
497.312	828.25
497.529	826.25
497.746	848.25
497.963	872.25
498.181	895.25
498.398	918.25
498.615	883.25
498.832	945.25
499.049	939.25
499.267	980.25
499.484	995.25
499.701	1059.25
499.918	1086.25
500.135	1149.25
500.352	1178.25
500.569	1204.25
500.786	1204.25
501.003	1187.25
501.22	1152.25
501.437	1088.25
501.654	1096.25
