Data from 1966.PennyLincolnUp.Lamp.En5.5.200Scan.071719.P1.Scan2.head_HRD10591_14-18-37-202.txt Node
Date: Thu Jul 18 14:18:37 EDT 2019
User: cochatt
Spectrometer: HR+D1059
Trigger mode: 1
Integration Time (sec): 1.000000E-1
Scans to average: 1
Electric dark correction enabled: true
Nonlinearity correction enabled: false
Boxcar width: 0
XAxis mode: Wavelengths
Number of Pixels in Spectrum: 2048
>>>>>Begin Spectral Data<<<<<
223.165	-9.81
223.4	-9.81
223.635	-9.81
223.869	-11.81
224.104	-19.81
224.338	-23.81
224.573	-22.81
224.808	-10.81
225.042	-25.81
225.277	-10.81
225.511	-2.81
225.746	10.19
225.98	14.19
226.215	11.19
226.449	25.19
226.683	13.19
226.918	37.19
227.152	27.19
227.387	31.19
227.621	43.19
227.856	54.19
228.09	37.19
228.324	42.19
228.559	47.19
228.793	72.19
229.027	90.19
229.262	106.19
229.496	106.19
229.73	123.19
229.964	137.19
230.199	117.19
230.433	119.19
230.667	119.19
230.901	108.19
231.136	120.19
231.37	116.19
231.604	109.19
231.838	117.19
232.072	115.19
232.306	123.19
232.541	126.19
232.775	120.19
233.009	122.19
233.243	122.19
233.477	118.19
233.711	112.19
233.945	114.19
234.179	101.19
234.413	123.19
234.647	130.19
234.881	123.19
235.115	101.19
235.349	110.19
235.583	104.19
235.817	126.19
236.051	121.19
236.285	116.19
236.519	122.19
236.753	131.19
236.987	135.19
237.221	197.19
237.455	228.19
237.689	197.19
237.922	139.19
238.156	142.19
238.39	137.19
238.624	139.19
238.858	130.19
239.091	131.19
239.325	124.19
239.559	137.19
239.793	124.19
240.027	136.19
240.26	162.19
240.494	158.19
240.728	140.19
240.961	173.19
241.195	142.19
241.429	139.19
241.662	154.19
241.896	155.19
242.13	132.19
242.363	121.19
242.597	135.19
242.83	143.19
243.064	145.19
243.298	133.19
243.531	151.19
243.765	141.19
243.998	143.19
244.232	134.19
244.465	145.19
244.699	160.19
244.932	136.19
245.166	141.19
245.399	147.19
245.633	132.19
245.866	142.19
246.099	155.19
246.333	158.19
246.566	149.19
246.8	159.19
247.033	144.19
247.266	163.19
247.5	174.19
247.733	175.19
247.966	174.19
248.2	167.19
248.433	166.19
248.666	173.19
248.899	186.19
249.133	190.19
249.366	213.19
249.599	197.19
249.832	191.19
250.066	179.19
250.299	185.19
250.532	204.19
250.765	199.19
250.998	230.19
251.231	221.19
251.465	232.19
251.698	206.19
251.931	208.19
252.164	204.19
252.397	189.19
252.63	200.19
252.863	202.19
253.096	205.19
253.329	235.19
253.562	219.19
253.795	222.19
254.028	237.19
254.261	206.19
254.494	206.19
254.727	246.19
254.96	276.19
255.193	269.19
255.426	259.19
255.659	250.19
255.892	235.19
256.124	239.19
256.357	249.19
256.59	224.19
256.823	226.19
257.056	214.19
257.289	225.19
257.521	214.19
257.754	216.19
257.987	213.19
258.22	219.19
258.452	216.19
258.685	215.19
258.918	204.19
259.151	204.19
259.383	231.19
259.616	219.19
259.849	234.19
260.081	256.19
260.314	264.19
260.547	251.19
260.779	271.19
261.012	249.19
261.244	237.19
261.477	248.19
261.71	222.19
261.942	232.19
262.175	235.19
262.407	247.19
262.64	212.19
262.872	225.19
263.105	210.19
263.337	229.19
263.57	209.19
263.802	206.19
264.035	205.19
264.267	198.19
264.499	217.19
264.732	220.19
264.964	225.19
265.197	229.19
265.429	233.19
265.661	216.19
265.894	221.19
266.126	239.19
266.358	212.19
266.591	219.19
266.823	231.19
267.055	231.19
267.287	236.19
267.52	219.19
267.752	225.19
267.984	234.19
268.216	211.19
268.448	246.19
268.681	231.19
268.913	245.19
269.145	263.19
269.377	272.19
269.609	271.19
269.841	253.19
270.073	271.19
270.306	288.19
270.538	298.19
270.77	323.19
271.002	293.19
271.234	304.19
271.466	303.19
271.698	320.19
271.93	317.19
272.162	308.19
272.394	293.19
272.626	300.19
272.858	304.19
273.09	299.19
273.322	264.19
273.553	279.19
273.785	283.19
274.017	266.19
274.249	283.19
274.481	264.19
274.713	269.19
274.945	273.19
275.176	281.19
275.408	279.19
275.64	273.19
275.872	247.19
276.104	268.19
276.335	263.19
276.567	270.19
276.799	296.19
277.031	297.19
277.262	318.19
277.494	323.19
277.726	307.19
277.957	299.19
278.189	281.19
278.421	263.19
278.652	263.19
278.884	254.19
279.115	269.19
279.347	259.19
279.579	273.19
279.81	286.19
280.042	281.19
280.273	286.19
280.505	288.19
280.736	269.19
280.968	255.19
281.199	279.19
281.431	294.19
281.662	260.19
281.894	279.19
282.125	275.19
282.356	299.19
282.588	315.19
282.819	324.19
283.051	275.19
283.282	277.19
283.513	287.19
283.745	287.19
283.976	277.19
284.207	270.19
284.439	270.19
284.67	289.19
284.901	288.19
285.132	290.19
285.364	283.19
285.595	290.19
285.826	275.19
286.057	279.19
286.288	297.19
286.52	288.19
286.751	292.19
286.982	290.19
287.213	285.19
287.444	310.19
287.675	305.19
287.906	299.19
288.138	316.19
288.369	301.19
288.6	296.19
288.831	311.19
289.062	302.19
289.293	299.19
289.524	311.19
289.755	309.19
289.986	303.19
290.217	281.19
290.448	283.19
290.679	285.19
290.91	285.19
291.141	292.19
291.371	309.19
291.602	301.19
291.833	298.19
292.064	314.19
292.295	305.19
292.526	307.19
292.757	303.19
292.987	313.19
293.218	291.19
293.449	288.19
293.68	309.19
293.91	301.19
294.141	302.19
294.372	309.19
294.603	317.19
294.833	308.19
295.064	288.19
295.295	298.19
295.525	302.19
295.756	311.19
295.987	309.19
296.217	316.19
296.448	339.19
296.679	322.19
296.909	317.19
297.14	312.19
297.37	293.19
297.601	278.19
297.831	307.19
298.062	298.19
298.292	318.19
298.523	305.19
298.753	305.19
298.984	301.19
299.214	330.19
299.445	308.19
299.675	327.19
299.905	324.19
300.136	318.19
300.366	336.19
300.597	314.19
300.827	329.19
301.057	339.19
301.288	337.19
301.518	329.19
301.748	336.19
301.979	345.19
302.209	341.19
302.439	351.19
302.669	345.19
302.9	327.19
303.13	348.19
303.36	346.19
303.59	342.19
303.82	349.19
304.051	336.19
304.281	340.19
304.511	323.19
304.741	317.19
304.971	340.19
305.201	331.19
305.431	333.19
305.661	342.19
305.891	333.19
306.121	332.19
306.352	345.19
306.582	355.19
306.812	327.19
307.042	346.19
307.272	338.19
307.502	334.19
307.731	347.19
307.961	373.19
308.191	331.19
308.421	343.19
308.651	336.19
308.881	345.19
309.111	359.19
309.341	359.19
309.571	371.19
309.8	364.19
310.03	368.19
310.26	368.19
310.49	375.19
310.72	379.19
310.949	401.19
311.179	421.19
311.409	401.19
311.639	405.19
311.868	383.19
312.098	377.19
312.328	380.19
312.557	389.19
312.787	415.19
313.017	412.19
313.246	410.19
313.476	382.19
313.706	402.19
313.935	400.19
314.165	405.19
314.394	407.19
314.624	395.19
314.853	385.19
315.083	390.19
315.312	395.19
315.542	369.19
315.771	370.19
316.001	368.19
316.23	382.19
316.46	383.19
316.689	390.19
316.919	396.19
317.148	400.19
317.377	406.19
317.607	394.19
317.836	398.19
318.065	395.19
318.295	397.19
318.524	385.19
318.753	396.19
318.983	376.19
319.212	388.19
319.441	391.19
319.67	396.19
319.9	383.19
320.129	377.19
320.358	406.19
320.587	410.19
320.816	396.19
321.046	392.19
321.275	421.19
321.504	413.19
321.733	391.19
321.962	405.19
322.191	431.19
322.42	435.19
322.649	458.19
322.878	469.19
323.108	473.19
323.337	499.19
323.566	496.19
323.795	543.19
324.024	558.19
324.253	678.19
324.482	963.19
324.71	1500.19
324.939	2227.19
325.168	1950.19
325.397	947.19
325.626	645.19
325.855	527.19
326.084	523.19
326.313	489.19
326.542	519.19
326.77	552.19
326.999	625.19
327.228	898.19
327.457	1352.19
327.686	1678.19
327.914	1104.19
328.143	704.19
328.372	608.19
328.6	569.19
328.829	583.19
329.058	574.19
329.287	606.19
329.515	551.19
329.744	520.19
329.972	528.19
330.201	553.19
330.43	565.19
330.658	597.19
330.887	620.19
331.115	612.19
331.344	539.19
331.572	511.19
331.801	482.19
332.03	486.19
332.258	484.19
332.486	469.19
332.715	482.19
332.943	472.19
333.172	489.19
333.4	465.19
333.629	482.19
333.857	516.19
334.085	520.19
334.314	538.19
334.542	575.19
334.771	596.19
334.999	552.19
335.227	491.19
335.455	473.19
335.684	488.19
335.912	488.19
336.14	479.19
336.369	477.19
336.597	488.19
336.825	477.19
337.053	441.19
337.281	468.19
337.51	460.19
337.738	465.19
337.966	472.19
338.194	453.19
338.422	440.19
338.65	471.19
338.878	439.19
339.106	449.19
339.334	428.19
339.562	464.19
339.79	455.19
340.018	437.19
340.246	447.19
340.474	446.19
340.702	455.19
340.93	458.19
341.158	447.19
341.386	467.19
341.614	447.19
341.842	444.19
342.07	451.19
342.298	444.19
342.526	447.19
342.754	449.19
342.981	427.19
343.209	425.19
343.437	431.19
343.665	468.19
343.893	437.19
344.12	459.19
344.348	468.19
344.576	472.19
344.804	479.19
345.031	466.19
345.259	476.19
345.487	455.19
345.714	465.19
345.942	446.19
346.17	449.19
346.397	446.19
346.625	460.19
346.853	431.19
347.08	429.19
347.308	436.19
347.535	467.19
347.763	447.19
347.99	452.19
348.218	433.19
348.445	428.19
348.673	469.19
348.9	452.19
349.128	453.19
349.355	448.19
349.583	428.19
349.81	433.19
350.037	426.19
350.265	421.19
350.492	433.19
350.72	442.19
350.947	430.19
351.174	465.19
351.402	448.19
351.629	463.19
351.856	450.19
352.083	452.19
352.311	449.19
352.538	454.19
352.765	442.19
352.992	463.19
353.22	445.19
353.447	447.19
353.674	462.19
353.901	427.19
354.128	423.19
354.355	423.19
354.583	409.19
354.81	441.19
355.037	431.19
355.264	401.19
355.491	416.19
355.718	432.19
355.945	398.19
356.172	396.19
356.399	400.19
356.626	419.19
356.853	417.19
357.08	409.19
357.307	414.19
357.534	404.19
357.761	421.19
357.988	418.19
358.215	413.19
358.441	412.19
358.668	436.19
358.895	435.19
359.122	417.19
359.349	415.19
359.576	449.19
359.802	455.19
360.029	449.19
360.256	500.19
360.483	463.19
360.709	445.19
360.936	433.19
361.163	444.19
361.39	458.19
361.616	419.19
361.843	440.19
362.07	455.19
362.296	442.19
362.523	443.19
362.749	427.19
362.976	456.19
363.203	428.19
363.429	429.19
363.656	436.19
363.882	461.19
364.109	438.19
364.335	410.19
364.562	424.19
364.788	417.19
365.015	434.19
365.241	421.19
365.468	446.19
365.694	435.19
365.92	428.19
366.147	425.19
366.373	432.19
366.599	462.19
366.826	452.19
367.052	420.19
367.278	441.19
367.505	441.19
367.731	432.19
367.957	416.19
368.184	433.19
368.41	437.19
368.636	444.19
368.862	437.19
369.089	431.19
369.315	441.19
369.541	446.19
369.767	453.19
369.993	443.19
370.219	440.19
370.445	427.19
370.672	407.19
370.898	427.19
371.124	443.19
371.35	441.19
371.576	435.19
371.802	422.19
372.028	441.19
372.254	416.19
372.48	441.19
372.706	436.19
372.932	453.19
373.158	456.19
373.384	452.19
373.61	438.19
373.835	427.19
374.061	446.19
374.287	450.19
374.513	452.19
374.739	431.19
374.965	457.19
375.191	461.19
375.416	455.19
375.642	436.19
375.868	467.19
376.094	436.19
376.319	446.19
376.545	452.19
376.771	439.19
376.997	410.19
377.222	439.19
377.448	416.19
377.674	435.19
377.899	424.19
378.125	419.19
378.35	430.19
378.576	447.19
378.802	422.19
379.027	443.19
379.253	428.19
379.478	425.19
379.704	429.19
379.929	447.19
380.155	421.19
380.38	455.19
380.606	445.19
380.831	433.19
381.057	447.19
381.282	463.19
381.507	460.19
381.733	444.19
381.958	440.19
382.184	457.19
382.409	427.19
382.634	429.19
382.86	448.19
383.085	469.19
383.31	465.19
383.535	456.19
383.761	442.19
383.986	456.19
384.211	470.19
384.436	457.19
384.662	484.19
384.887	473.19
385.112	473.19
385.337	498.19
385.562	463.19
385.787	483.19
386.013	509.19
386.238	499.19
386.463	490.19
386.688	479.19
386.913	481.19
387.138	479.19
387.363	491.19
387.588	495.19
387.813	468.19
388.038	503.19
388.263	513.19
388.488	501.19
388.713	488.19
388.938	488.19
389.163	497.19
389.387	510.19
389.612	499.19
389.837	501.19
390.062	500.19
390.287	478.19
390.512	483.19
390.736	482.19
390.961	473.19
391.186	496.19
391.411	504.19
391.636	499.19
391.86	480.19
392.085	509.19
392.31	507.19
392.534	493.19
392.759	499.19
392.984	492.19
393.208	484.19
393.433	511.19
393.658	502.19
393.882	484.19
394.107	481.19
394.331	505.19
394.556	480.19
394.78	496.19
395.005	508.19
395.229	486.19
395.454	494.19
395.678	513.19
395.903	520.19
396.127	535.19
396.352	549.19
396.576	504.19
396.801	517.19
397.025	520.19
397.249	512.19
397.474	523.19
397.698	507.19
397.922	539.19
398.147	545.19
398.371	565.19
398.595	565.19
398.82	569.19
399.044	569.19
399.268	603.19
399.492	638.19
399.717	656.19
399.941	694.19
400.165	719.19
400.389	709.19
400.613	637.19
400.837	597.19
401.062	587.19
401.286	586.19
401.51	574.19
401.734	572.19
401.958	571.19
402.182	574.19
402.406	595.19
402.63	578.19
402.854	586.19
403.078	563.19
403.302	588.19
403.526	590.19
403.75	598.19
403.974	590.19
404.198	587.19
404.422	596.19
404.645	608.19
404.869	606.19
405.093	654.19
405.317	682.19
405.541	720.19
405.765	640.19
405.988	628.19
406.212	648.19
406.436	661.19
406.66	695.19
406.883	641.19
407.107	650.19
407.331	687.19
407.555	786.19
407.778	767.19
408.002	727.19
408.226	673.19
408.449	665.19
408.673	646.19
408.896	664.19
409.12	726.19
409.344	686.19
409.567	639.19
409.791	618.19
410.014	597.19
410.238	610.19
410.461	588.19
410.685	606.19
410.908	630.19
411.132	647.19
411.355	668.19
411.578	647.19
411.802	619.19
412.025	605.19
412.249	580.19
412.472	642.19
412.695	689.19
412.919	685.19
413.142	635.19
413.365	583.19
413.589	599.19
413.812	583.19
414.035	574.19
414.258	575.19
414.482	559.19
414.705	548.19
414.928	554.19
415.151	555.19
415.374	565.19
415.597	570.19
415.821	542.19
416.044	571.19
416.267	574.19
416.49	565.19
416.713	552.19
416.936	569.19
417.159	572.19
417.382	558.19
417.605	563.19
417.828	585.19
418.051	604.19
418.274	584.19
418.497	554.19
418.72	574.19
418.943	579.19
419.166	591.19
419.389	612.19
419.611	614.19
419.834	585.19
420.057	601.19
420.28	605.19
420.503	610.19
420.726	611.19
420.948	588.19
421.171	636.19
421.394	693.19
421.617	622.19
421.839	592.19
422.062	580.19
422.285	588.19
422.507	650.19
422.73	746.19
422.953	721.19
423.175	645.19
423.398	629.19
423.621	630.19
423.843	615.19
424.066	637.19
424.288	621.19
424.511	666.19
424.733	708.19
424.956	800.19
425.178	762.19
425.401	737.19
425.623	786.19
425.846	671.19
426.068	635.19
426.291	599.19
426.513	624.19
426.735	634.19
426.958	681.19
427.18	791.19
427.402	917.19
427.625	1014.19
427.847	883.19
428.069	744.19
428.292	691.19
428.514	647.19
428.736	602.19
428.958	606.19
429.181	586.19
429.403	601.19
429.625	601.19
429.847	617.19
430.069	698.19
430.292	686.19
430.514	609.19
430.736	577.19
430.958	577.19
431.18	564.19
431.402	573.19
431.624	543.19
431.846	555.19
432.068	558.19
432.29	537.19
432.512	539.19
432.734	567.19
432.956	549.19
433.178	583.19
433.4	577.19
433.622	566.19
433.844	567.19
434.066	542.19
434.287	553.19
434.509	567.19
434.731	559.19
434.953	575.19
435.175	593.19
435.397	633.19
435.618	641.19
435.84	659.19
436.062	784.19
436.284	848.19
436.505	703.19
436.727	631.19
436.949	593.19
437.17	586.19
437.392	567.19
437.614	610.19
437.835	613.19
438.057	735.19
438.278	856.19
438.5	865.19
438.721	925.19
438.943	900.19
439.165	713.19
439.386	646.19
439.608	653.19
439.829	644.19
440.05	692.19
440.272	703.19
440.493	663.19
440.715	612.19
440.936	585.19
441.158	607.19
441.379	593.19
441.6	613.19
441.822	630.19
442.043	672.19
442.264	762.19
442.486	829.19
442.707	705.19
442.928	658.19
443.149	654.19
443.371	683.19
443.592	716.19
443.813	805.19
444.034	889.19
444.255	749.19
444.476	639.19
444.698	663.19
444.919	649.19
445.14	755.19
445.361	697.19
445.582	671.19
445.803	764.19
446.024	848.19
446.245	885.19
446.466	790.19
446.687	671.19
446.908	639.19
447.129	603.19
447.35	581.19
447.571	561.19
447.792	538.19
448.013	583.19
448.234	590.19
448.455	669.19
448.675	799.19
448.896	900.19
449.117	760.19
449.338	716.19
449.559	843.19
449.779	965.19
450	748.19
450.221	649.19
450.442	588.19
450.662	551.19
450.883	573.19
451.104	587.19
451.324	558.19
451.545	552.19
451.766	532.19
451.986	519.19
452.207	510.19
452.428	517.19
452.648	511.19
452.869	497.19
453.089	525.19
453.31	554.19
453.53	533.19
453.751	524.19
453.971	514.19
454.192	535.19
454.412	515.19
454.633	515.19
454.853	502.19
455.073	522.19
455.294	542.19
455.514	625.19
455.734	618.19
455.955	513.19
456.175	493.19
456.395	476.19
456.616	480.19
456.836	477.19
457.056	487.19
457.276	456.19
457.497	498.19
457.717	500.19
457.937	508.19
458.157	492.19
458.377	519.19
458.598	536.19
458.818	579.19
459.038	652.19
459.258	670.19
459.478	599.19
459.698	567.19
459.918	572.19
460.138	573.19
460.358	580.19
460.578	583.19
460.798	565.19
461.018	581.19
461.238	574.19
461.458	593.19
461.678	564.19
461.898	575.19
462.118	569.19
462.338	555.19
462.558	597.19
462.777	599.19
462.997	605.19
463.217	617.19
463.437	628.19
463.657	624.19
463.876	601.19
464.096	611.19
464.316	595.19
464.536	624.19
464.755	607.19
464.975	614.19
465.195	648.19
465.414	704.19
465.634	633.19
465.854	596.19
466.073	571.19
466.293	543.19
466.512	538.19
466.732	541.19
466.951	534.19
467.171	542.19
467.391	536.19
467.61	533.19
467.829	546.19
468.049	537.19
468.268	550.19
468.488	528.19
468.707	520.19
468.927	528.19
469.146	518.19
469.365	539.19
469.585	519.19
469.804	544.19
470.023	530.19
470.243	535.19
470.462	544.19
470.681	563.19
470.901	569.19
471.12	527.19
471.339	540.19
471.558	530.19
471.777	560.19
471.997	542.19
472.216	564.19
472.435	564.19
472.654	579.19
472.873	544.19
473.092	549.19
473.311	536.19
473.53	537.19
473.749	552.19
473.968	583.19
474.187	730.19
474.406	725.19
474.625	622.19
474.844	570.19
475.063	564.19
475.282	538.19
475.501	555.19
475.72	540.19
475.939	588.19
476.158	570.19
476.377	568.19
476.596	551.19
476.814	584.19
477.033	579.19
477.252	597.19
477.471	586.19
477.69	577.19
477.908	585.19
478.127	608.19
478.346	608.19
478.564	600.19
478.783	596.19
479.002	612.19
479.22	648.19
479.439	645.19
479.658	647.19
479.876	648.19
480.095	655.19
480.313	694.19
480.532	675.19
480.751	663.19
480.969	683.19
481.188	730.19
481.406	796.19
481.624	681.19
481.843	686.19
482.061	652.19
482.28	676.19
482.498	644.19
482.717	649.19
482.935	641.19
483.153	637.19
483.372	644.19
483.59	632.19
483.808	629.19
484.027	617.19
484.245	637.19
484.463	656.19
484.681	670.19
484.9	655.19
485.118	656.19
485.336	644.19
485.554	679.19
485.772	660.19
485.99	668.19
486.209	666.19
486.427	677.19
486.645	674.19
486.863	690.19
487.081	686.19
487.299	703.19
487.517	679.19
487.735	700.19
487.953	651.19
488.171	674.19
488.389	692.19
488.607	687.19
488.825	717.19
489.043	709.19
489.261	668.19
489.479	700.19
489.696	713.19
489.914	718.19
490.132	706.19
490.35	711.19
490.568	732.19
490.786	725.19
491.003	761.19
491.221	766.19
491.439	769.19
491.657	755.19
491.874	779.19
492.092	803.19
492.31	815.19
492.527	810.19
492.745	831.19
492.963	821.19
493.18	792.19
493.398	832.19
493.615	825.19
493.833	828.19
494.05	807.19
494.268	801.19
494.485	809.19
494.703	785.19
494.92	807.19
495.138	811.19
495.355	829.19
495.573	816.19
495.79	845.19
496.008	835.19
496.225	826.19
496.442	810.19
496.66	799.19
496.877	821.19
497.094	820.19
497.312	815.19
497.529	856.19
497.746	855.19
497.963	863.19
498.181	868.19
498.398	890.19
498.615	901.19
498.832	926.19
499.049	957.19
499.267	970.19
499.484	1006.19
499.701	1044.19
499.918	1091.19
500.135	1127.19
500.352	1168.19
500.569	1192.19
500.786	1200.19
501.003	1174.19
501.22	1134.19
501.437	1107.19
501.654	1075.19
