Data from 1966.PennyLincolnUp.Lamp.En5.5.200Scan.071719.P1.Scan2.head_HRD10591_14-17-24-105.txt Node
Date: Thu Jul 18 14:17:24 EDT 2019
User: cochatt
Spectrometer: HR+D1059
Trigger mode: 1
Integration Time (sec): 1.000000E-1
Scans to average: 1
Electric dark correction enabled: true
Nonlinearity correction enabled: false
Boxcar width: 0
XAxis mode: Wavelengths
Number of Pixels in Spectrum: 2048
>>>>>Begin Spectral Data<<<<<
223.165	-15.94
223.4	-15.94
223.635	-15.94
223.869	-13.94
224.104	-13.94
224.338	-4.94
224.573	-7.94
224.808	-14.94
225.042	-18.94
225.277	-17.94
225.511	-5.94
225.746	-7.94
225.98	8.06
226.215	8.06
226.449	14.06
226.683	25.06
226.918	33.06
227.152	34.06
227.387	40.06
227.621	24.06
227.856	46.06
228.09	52.06
228.324	44.06
228.559	49.06
228.793	68.06
229.027	83.06
229.262	91.06
229.496	121.06
229.73	136.06
229.964	153.06
230.199	120.06
230.433	115.06
230.667	130.06
230.901	116.06
231.136	116.06
231.37	119.06
231.604	111.06
231.838	110.06
232.072	110.06
232.306	112.06
232.541	119.06
232.775	124.06
233.009	110.06
233.243	102.06
233.477	99.06
233.711	112.06
233.945	119.06
234.179	105.06
234.413	112.06
234.647	123.06
234.881	118.06
235.115	119.06
235.349	120.06
235.583	129.06
235.817	127.06
236.051	118.06
236.285	132.06
236.519	124.06
236.753	138.06
236.987	161.06
237.221	175.06
237.455	216.06
237.689	189.06
237.922	156.06
238.156	155.06
238.39	117.06
238.624	125.06
238.858	121.06
239.091	130.06
239.325	117.06
239.559	136.06
239.793	125.06
240.027	128.06
240.26	147.06
240.494	159.06
240.728	158.06
240.961	161.06
241.195	138.06
241.429	150.06
241.662	147.06
241.896	140.06
242.13	145.06
242.363	128.06
242.597	127.06
242.83	139.06
243.064	142.06
243.298	144.06
243.531	144.06
243.765	135.06
243.998	134.06
244.232	151.06
244.465	150.06
244.699	149.06
244.932	164.06
245.166	153.06
245.399	170.06
245.633	138.06
245.866	138.06
246.099	149.06
246.333	147.06
246.566	159.06
246.8	152.06
247.033	161.06
247.266	156.06
247.5	160.06
247.733	169.06
247.966	175.06
248.2	186.06
248.433	176.06
248.666	174.06
248.899	181.06
249.133	196.06
249.366	200.06
249.599	186.06
249.832	175.06
250.066	181.06
250.299	174.06
250.532	189.06
250.765	192.06
250.998	229.06
251.231	226.06
251.465	215.06
251.698	194.06
251.931	204.06
252.164	200.06
252.397	216.06
252.63	202.06
252.863	209.06
253.096	230.06
253.329	208.06
253.562	196.06
253.795	196.06
254.028	229.06
254.261	206.06
254.494	234.06
254.727	252.06
254.96	274.06
255.193	261.06
255.426	249.06
255.659	218.06
255.892	227.06
256.124	224.06
256.357	219.06
256.59	222.06
256.823	208.06
257.056	210.06
257.289	216.06
257.521	231.06
257.754	223.06
257.987	215.06
258.22	208.06
258.452	226.06
258.685	196.06
258.918	208.06
259.151	201.06
259.383	209.06
259.616	221.06
259.849	209.06
260.081	237.06
260.314	255.06
260.547	264.06
260.779	242.06
261.012	234.06
261.244	216.06
261.477	229.06
261.71	228.06
261.942	233.06
262.175	227.06
262.407	214.06
262.64	209.06
262.872	233.06
263.105	200.06
263.337	210.06
263.57	222.06
263.802	212.06
264.035	224.06
264.267	219.06
264.499	208.06
264.732	207.06
264.964	212.06
265.197	208.06
265.429	217.06
265.661	222.06
265.894	218.06
266.126	220.06
266.358	210.06
266.591	216.06
266.823	233.06
267.055	225.06
267.287	235.06
267.52	230.06
267.752	225.06
267.984	230.06
268.216	216.06
268.448	224.06
268.681	238.06
268.913	234.06
269.145	260.06
269.377	278.06
269.609	266.06
269.841	272.06
270.073	275.06
270.306	281.06
270.538	301.06
270.77	287.06
271.002	311.06
271.234	292.06
271.466	305.06
271.698	308.06
271.93	303.06
272.162	318.06
272.394	305.06
272.626	310.06
272.858	292.06
273.09	282.06
273.322	269.06
273.553	255.06
273.785	260.06
274.017	268.06
274.249	263.06
274.481	247.06
274.713	255.06
274.945	268.06
275.176	265.06
275.408	268.06
275.64	264.06
275.872	261.06
276.104	262.06
276.335	256.06
276.567	277.06
276.799	283.06
277.031	301.06
277.262	314.06
277.494	315.06
277.726	288.06
277.957	288.06
278.189	273.06
278.421	264.06
278.652	285.06
278.884	284.06
279.115	257.06
279.347	278.06
279.579	283.06
279.81	263.06
280.042	274.06
280.273	251.06
280.505	260.06
280.736	253.06
280.968	260.06
281.199	263.06
281.431	266.06
281.662	279.06
281.894	269.06
282.125	270.06
282.356	292.06
282.588	300.06
282.819	297.06
283.051	273.06
283.282	284.06
283.513	274.06
283.745	282.06
283.976	291.06
284.207	282.06
284.439	283.06
284.67	292.06
284.901	284.06
285.132	280.06
285.364	274.06
285.595	273.06
285.826	274.06
286.057	297.06
286.288	280.06
286.52	275.06
286.751	292.06
286.982	277.06
287.213	291.06
287.444	313.06
287.675	303.06
287.906	297.06
288.138	303.06
288.369	290.06
288.6	297.06
288.831	309.06
289.062	311.06
289.293	291.06
289.524	289.06
289.755	286.06
289.986	304.06
290.217	268.06
290.448	297.06
290.679	300.06
290.91	286.06
291.141	291.06
291.371	294.06
291.602	283.06
291.833	292.06
292.064	275.06
292.295	277.06
292.526	290.06
292.757	303.06
292.987	292.06
293.218	281.06
293.449	305.06
293.68	302.06
293.91	288.06
294.141	293.06
294.372	309.06
294.603	300.06
294.833	299.06
295.064	291.06
295.295	294.06
295.525	313.06
295.756	301.06
295.987	337.06
296.217	313.06
296.448	334.06
296.679	311.06
296.909	286.06
297.14	314.06
297.37	322.06
297.601	329.06
297.831	317.06
298.062	315.06
298.292	295.06
298.523	316.06
298.753	303.06
298.984	314.06
299.214	318.06
299.445	320.06
299.675	322.06
299.905	345.06
300.136	309.06
300.366	296.06
300.597	329.06
300.827	333.06
301.057	318.06
301.288	330.06
301.518	337.06
301.748	318.06
301.979	327.06
302.209	338.06
302.439	345.06
302.669	346.06
302.9	322.06
303.13	323.06
303.36	341.06
303.59	334.06
303.82	325.06
304.051	344.06
304.281	344.06
304.511	330.06
304.741	334.06
304.971	324.06
305.201	332.06
305.431	314.06
305.661	329.06
305.891	330.06
306.121	345.06
306.352	343.06
306.582	351.06
306.812	331.06
307.042	337.06
307.272	319.06
307.502	335.06
307.731	328.06
307.961	340.06
308.191	337.06
308.421	338.06
308.651	310.06
308.881	337.06
309.111	348.06
309.341	350.06
309.571	352.06
309.8	354.06
310.03	343.06
310.26	354.06
310.49	374.06
310.72	366.06
310.949	382.06
311.179	396.06
311.409	380.06
311.639	375.06
311.868	392.06
312.098	375.06
312.328	399.06
312.557	389.06
312.787	398.06
313.017	402.06
313.246	393.06
313.476	368.06
313.706	390.06
313.935	378.06
314.165	396.06
314.394	403.06
314.624	391.06
314.853	385.06
315.083	392.06
315.312	381.06
315.542	363.06
315.771	376.06
316.001	401.06
316.23	367.06
316.46	383.06
316.689	382.06
316.919	372.06
317.148	374.06
317.377	397.06
317.607	390.06
317.836	397.06
318.065	398.06
318.295	392.06
318.524	374.06
318.753	378.06
318.983	386.06
319.212	377.06
319.441	390.06
319.67	389.06
319.9	377.06
320.129	388.06
320.358	394.06
320.587	385.06
320.816	397.06
321.046	397.06
321.275	391.06
321.504	410.06
321.733	406.06
321.962	415.06
322.191	414.06
322.42	420.06
322.649	434.06
322.878	430.06
323.108	456.06
323.337	464.06
323.566	480.06
323.795	496.06
324.024	536.06
324.253	614.06
324.482	877.06
324.71	1380.06
324.939	2065.06
325.168	1760.06
325.397	886.06
325.626	591.06
325.855	530.06
326.084	472.06
326.313	503.06
326.542	480.06
326.77	524.06
326.999	605.06
327.228	844.06
327.457	1235.06
327.686	1600.06
327.914	1038.06
328.143	657.06
328.372	593.06
328.6	564.06
328.829	530.06
329.058	531.06
329.287	565.06
329.515	536.06
329.744	506.06
329.972	489.06
330.201	500.06
330.43	564.06
330.658	574.06
330.887	592.06
331.115	583.06
331.344	517.06
331.572	481.06
331.801	469.06
332.03	492.06
332.258	463.06
332.486	458.06
332.715	456.06
332.943	454.06
333.172	465.06
333.4	464.06
333.629	472.06
333.857	466.06
334.085	480.06
334.314	497.06
334.542	536.06
334.771	537.06
334.999	523.06
335.227	466.06
335.455	480.06
335.684	463.06
335.912	469.06
336.14	456.06
336.369	478.06
336.597	475.06
336.825	480.06
337.053	462.06
337.281	467.06
337.51	446.06
337.738	430.06
337.966	456.06
338.194	462.06
338.422	474.06
338.65	449.06
338.878	461.06
339.106	441.06
339.334	451.06
339.562	429.06
339.79	457.06
340.018	423.06
340.246	436.06
340.474	440.06
340.702	445.06
340.93	443.06
341.158	452.06
341.386	444.06
341.614	440.06
341.842	424.06
342.07	452.06
342.298	447.06
342.526	448.06
342.754	438.06
342.981	412.06
343.209	419.06
343.437	456.06
343.665	430.06
343.893	445.06
344.12	472.06
344.348	465.06
344.576	463.06
344.804	460.06
345.031	448.06
345.259	492.06
345.487	446.06
345.714	458.06
345.942	454.06
346.17	433.06
346.397	447.06
346.625	410.06
346.853	429.06
347.08	437.06
347.308	411.06
347.535	451.06
347.763	447.06
347.99	430.06
348.218	440.06
348.445	429.06
348.673	433.06
348.9	442.06
349.128	414.06
349.355	416.06
349.583	411.06
349.81	421.06
350.037	415.06
350.265	412.06
350.492	435.06
350.72	408.06
350.947	414.06
351.174	452.06
351.402	450.06
351.629	444.06
351.856	443.06
352.083	457.06
352.311	443.06
352.538	448.06
352.765	452.06
352.992	445.06
353.22	440.06
353.447	416.06
353.674	423.06
353.901	414.06
354.128	420.06
354.355	399.06
354.583	423.06
354.81	401.06
355.037	398.06
355.264	427.06
355.491	418.06
355.718	404.06
355.945	420.06
356.172	370.06
356.399	422.06
356.626	418.06
356.853	417.06
357.08	420.06
357.307	425.06
357.534	397.06
357.761	414.06
357.988	424.06
358.215	429.06
358.441	403.06
358.668	400.06
358.895	438.06
359.122	422.06
359.349	423.06
359.576	438.06
359.802	436.06
360.029	470.06
360.256	473.06
360.483	438.06
360.709	467.06
360.936	447.06
361.163	430.06
361.39	433.06
361.616	434.06
361.843	440.06
362.07	442.06
362.296	424.06
362.523	425.06
362.749	432.06
362.976	435.06
363.203	428.06
363.429	434.06
363.656	457.06
363.882	430.06
364.109	431.06
364.335	437.06
364.562	432.06
364.788	416.06
365.015	433.06
365.241	381.06
365.468	428.06
365.694	444.06
365.92	421.06
366.147	414.06
366.373	422.06
366.599	424.06
366.826	407.06
367.052	437.06
367.278	397.06
367.505	432.06
367.731	426.06
367.957	417.06
368.184	432.06
368.41	425.06
368.636	442.06
368.862	450.06
369.089	424.06
369.315	420.06
369.541	432.06
369.767	422.06
369.993	438.06
370.219	448.06
370.445	430.06
370.672	436.06
370.898	437.06
371.124	426.06
371.35	440.06
371.576	445.06
371.802	440.06
372.028	414.06
372.254	428.06
372.48	415.06
372.706	441.06
372.932	446.06
373.158	448.06
373.384	439.06
373.61	430.06
373.835	452.06
374.061	418.06
374.287	419.06
374.513	421.06
374.739	417.06
374.965	440.06
375.191	430.06
375.416	450.06
375.642	429.06
375.868	439.06
376.094	438.06
376.319	435.06
376.545	408.06
376.771	433.06
376.997	429.06
377.222	445.06
377.448	444.06
377.674	436.06
377.899	427.06
378.125	425.06
378.35	434.06
378.576	418.06
378.802	434.06
379.027	416.06
379.253	431.06
379.478	447.06
379.704	443.06
379.929	448.06
380.155	414.06
380.38	416.06
380.606	455.06
380.831	436.06
381.057	445.06
381.282	440.06
381.507	442.06
381.733	453.06
381.958	413.06
382.184	436.06
382.409	457.06
382.634	465.06
382.86	452.06
383.085	456.06
383.31	458.06
383.535	461.06
383.761	451.06
383.986	463.06
384.211	457.06
384.436	454.06
384.662	457.06
384.887	469.06
385.112	473.06
385.337	459.06
385.562	486.06
385.787	483.06
386.013	485.06
386.238	490.06
386.463	466.06
386.688	480.06
386.913	478.06
387.138	484.06
387.363	494.06
387.588	475.06
387.813	469.06
388.038	482.06
388.263	489.06
388.488	504.06
388.713	487.06
388.938	480.06
389.163	497.06
389.387	453.06
389.612	488.06
389.837	485.06
390.062	481.06
390.287	481.06
390.512	481.06
390.736	485.06
390.961	481.06
391.186	496.06
391.411	500.06
391.636	493.06
391.86	494.06
392.085	521.06
392.31	492.06
392.534	497.06
392.759	493.06
392.984	496.06
393.208	493.06
393.433	515.06
393.658	507.06
393.882	517.06
394.107	470.06
394.331	497.06
394.556	487.06
394.78	497.06
395.005	494.06
395.229	511.06
395.454	508.06
395.678	529.06
395.903	544.06
396.127	553.06
396.352	530.06
396.576	526.06
396.801	503.06
397.025	529.06
397.249	534.06
397.474	534.06
397.698	521.06
397.922	535.06
398.147	567.06
398.371	541.06
398.595	537.06
398.82	541.06
399.044	566.06
399.268	598.06
399.492	625.06
399.717	656.06
399.941	702.06
400.165	705.06
400.389	710.06
400.613	657.06
400.837	612.06
401.062	566.06
401.286	566.06
401.51	546.06
401.734	564.06
401.958	574.06
402.182	569.06
402.406	562.06
402.63	550.06
402.854	585.06
403.078	568.06
403.302	577.06
403.526	585.06
403.75	598.06
403.974	581.06
404.198	614.06
404.422	590.06
404.645	593.06
404.869	615.06
405.093	660.06
405.317	657.06
405.541	715.06
405.765	660.06
405.988	615.06
406.212	625.06
406.436	631.06
406.66	649.06
406.883	656.06
407.107	676.06
407.331	707.06
407.555	784.06
407.778	771.06
408.002	706.06
408.226	668.06
408.449	640.06
408.673	636.06
408.896	655.06
409.12	712.06
409.344	678.06
409.567	633.06
409.791	593.06
410.014	603.06
410.238	632.06
410.461	593.06
410.685	582.06
410.908	611.06
411.132	639.06
411.355	676.06
411.578	630.06
411.802	610.06
412.025	605.06
412.249	570.06
412.472	615.06
412.695	679.06
412.919	643.06
413.142	595.06
413.365	564.06
413.589	593.06
413.812	564.06
414.035	550.06
414.258	552.06
414.482	560.06
414.705	540.06
414.928	571.06
415.151	576.06
415.374	565.06
415.597	564.06
415.821	569.06
416.044	554.06
416.267	553.06
416.49	556.06
416.713	537.06
416.936	544.06
417.159	558.06
417.382	583.06
417.605	555.06
417.828	549.06
418.051	580.06
418.274	579.06
418.497	576.06
418.72	559.06
418.943	569.06
419.166	588.06
419.389	593.06
419.611	616.06
419.834	592.06
420.057	588.06
420.28	602.06
420.503	585.06
420.726	601.06
420.948	602.06
421.171	613.06
421.394	688.06
421.617	621.06
421.839	587.06
422.062	595.06
422.285	589.06
422.507	648.06
422.73	744.06
422.953	734.06
423.175	635.06
423.398	602.06
423.621	616.06
423.843	625.06
424.066	614.06
424.288	615.06
424.511	630.06
424.733	671.06
424.956	792.06
425.178	738.06
425.401	735.06
425.623	754.06
425.846	666.06
426.068	643.06
426.291	616.06
426.513	606.06
426.735	628.06
426.958	648.06
427.18	753.06
427.402	908.06
427.625	971.06
427.847	832.06
428.069	733.06
428.292	681.06
428.514	621.06
428.736	591.06
428.958	571.06
429.181	569.06
429.403	580.06
429.625	574.06
429.847	620.06
430.069	666.06
430.292	672.06
430.514	610.06
430.736	590.06
430.958	582.06
431.18	553.06
431.402	559.06
431.624	521.06
431.846	548.06
432.068	526.06
432.29	558.06
432.512	545.06
432.734	550.06
432.956	561.06
433.178	548.06
433.4	565.06
433.622	565.06
433.844	531.06
434.066	555.06
434.287	528.06
434.509	555.06
434.731	567.06
434.953	577.06
435.175	590.06
435.397	617.06
435.618	622.06
435.84	646.06
436.062	743.06
436.284	843.06
436.505	672.06
436.727	624.06
436.949	584.06
437.17	557.06
437.392	570.06
437.614	587.06
437.835	624.06
438.057	694.06
438.278	809.06
438.5	813.06
438.721	902.06
438.943	865.06
439.165	698.06
439.386	632.06
439.608	625.06
439.829	611.06
440.05	661.06
440.272	706.06
440.493	648.06
440.715	606.06
440.936	592.06
441.158	582.06
441.379	569.06
441.6	622.06
441.822	591.06
442.043	640.06
442.264	775.06
442.486	796.06
442.707	678.06
442.928	640.06
443.149	624.06
443.371	648.06
443.592	695.06
443.813	799.06
444.034	884.06
444.255	698.06
444.476	664.06
444.698	647.06
444.919	604.06
445.14	742.06
445.361	666.06
445.582	647.06
445.803	716.06
446.024	847.06
446.245	840.06
446.466	764.06
446.687	664.06
446.908	610.06
447.129	594.06
447.35	586.06
447.571	578.06
447.792	572.06
448.013	578.06
448.234	605.06
448.455	628.06
448.675	768.06
448.896	878.06
449.117	746.06
449.338	712.06
449.559	801.06
449.779	927.06
450	752.06
450.221	614.06
450.442	582.06
450.662	550.06
450.883	572.06
451.104	570.06
451.324	542.06
451.545	544.06
451.766	528.06
451.986	516.06
452.207	507.06
452.428	504.06
452.648	507.06
452.869	516.06
453.089	520.06
453.31	519.06
453.53	521.06
453.751	494.06
453.971	505.06
454.192	524.06
454.412	498.06
454.633	509.06
454.853	506.06
455.073	522.06
455.294	535.06
455.514	581.06
455.734	582.06
455.955	526.06
456.175	499.06
456.395	505.06
456.616	510.06
456.836	467.06
457.056	465.06
457.276	489.06
457.497	509.06
457.717	476.06
457.937	492.06
458.157	511.06
458.377	508.06
458.598	522.06
458.818	577.06
459.038	644.06
459.258	681.06
459.478	584.06
459.698	535.06
459.918	560.06
460.138	550.06
460.358	550.06
460.578	561.06
460.798	556.06
461.018	561.06
461.238	570.06
461.458	571.06
461.678	573.06
461.898	573.06
462.118	598.06
462.338	580.06
462.558	611.06
462.777	587.06
462.997	607.06
463.217	622.06
463.437	633.06
463.657	614.06
463.876	601.06
464.096	620.06
464.316	602.06
464.536	610.06
464.755	630.06
464.975	609.06
465.195	636.06
465.414	687.06
465.634	641.06
465.854	588.06
466.073	570.06
466.293	559.06
466.512	527.06
466.732	530.06
466.951	541.06
467.171	530.06
467.391	530.06
467.61	550.06
467.829	528.06
468.049	534.06
468.268	530.06
468.488	526.06
468.707	523.06
468.927	518.06
469.146	522.06
469.365	517.06
469.585	503.06
469.804	531.06
470.023	510.06
470.243	544.06
470.462	558.06
470.681	554.06
470.901	564.06
471.12	531.06
471.339	524.06
471.558	554.06
471.777	542.06
471.997	524.06
472.216	545.06
472.435	574.06
472.654	571.06
472.873	543.06
473.092	530.06
473.311	529.06
473.53	530.06
473.749	540.06
473.968	578.06
474.187	684.06
474.406	688.06
474.625	595.06
474.844	554.06
475.063	534.06
475.282	536.06
475.501	535.06
475.72	562.06
475.939	564.06
476.158	555.06
476.377	545.06
476.596	557.06
476.814	559.06
477.033	576.06
477.252	559.06
477.471	549.06
477.69	585.06
477.908	597.06
478.127	614.06
478.346	591.06
478.564	579.06
478.783	603.06
479.002	622.06
479.22	640.06
479.439	634.06
479.658	633.06
479.876	655.06
480.095	649.06
480.313	687.06
480.532	686.06
480.751	670.06
480.969	663.06
481.188	725.06
481.406	733.06
481.624	671.06
481.843	685.06
482.061	648.06
482.28	644.06
482.498	631.06
482.717	640.06
482.935	632.06
483.153	639.06
483.372	633.06
483.59	644.06
483.808	626.06
484.027	640.06
484.245	640.06
484.463	640.06
484.681	642.06
484.9	653.06
485.118	658.06
485.336	629.06
485.554	666.06
485.772	654.06
485.99	666.06
486.209	664.06
486.427	665.06
486.645	652.06
486.863	694.06
487.081	712.06
487.299	702.06
487.517	676.06
487.735	676.06
487.953	684.06
488.171	667.06
488.389	658.06
488.607	676.06
488.825	689.06
489.043	675.06
489.261	674.06
489.479	692.06
489.696	697.06
489.914	683.06
490.132	677.06
490.35	713.06
490.568	705.06
490.786	712.06
491.003	743.06
491.221	744.06
491.439	745.06
491.657	752.06
491.874	751.06
492.092	783.06
492.31	790.06
492.527	778.06
492.745	765.06
492.963	790.06
493.18	787.06
493.398	799.06
493.615	782.06
493.833	790.06
494.05	780.06
494.268	786.06
494.485	768.06
494.703	763.06
494.92	784.06
495.138	793.06
495.355	804.06
495.573	808.06
495.79	809.06
496.008	823.06
496.225	813.06
496.442	799.06
496.66	823.06
496.877	808.06
497.094	787.06
497.312	807.06
497.529	866.06
497.746	834.06
497.963	837.06
498.181	876.06
498.398	880.06
498.615	913.06
498.832	906.06
499.049	965.06
499.267	956.06
499.484	1012.06
499.701	1037.06
499.918	1080.06
500.135	1139.06
500.352	1189.06
500.569	1184.06
500.786	1200.06
501.003	1147.06
501.22	1160.06
501.437	1123.06
501.654	1057.06
