Data from 1966.PennyLincolnUp.Lamp.En5.5.200Scan.071719.P1._HRD10591_14-13-06-914.txt Node
Date: Thu Jul 18 14:13:06 EDT 2019
User: cochatt
Spectrometer: HR+D1059
Trigger mode: 1
Integration Time (sec): 1.000000E-1
Scans to average: 1
Electric dark correction enabled: true
Nonlinearity correction enabled: false
Boxcar width: 0
XAxis mode: Wavelengths
Number of Pixels in Spectrum: 2048
>>>>>Begin Spectral Data<<<<<
223.165	-8.44
223.4	-8.44
223.635	-8.44
223.869	-26.44
224.104	-19.44
224.338	-12.44
224.573	-7.44
224.808	-16.44
225.042	-4.44
225.277	-4.44
225.511	-8.44
225.746	6.56
225.98	5.56
226.215	8.56
226.449	22.56
226.683	21.56
226.918	15.56
227.152	27.56
227.387	40.56
227.621	45.56
227.856	29.56
228.09	55.56
228.324	56.56
228.559	65.56
228.793	75.56
229.027	76.56
229.262	78.56
229.496	86.56
229.73	101.56
229.964	110.56
230.199	75.56
230.433	105.56
230.667	92.56
230.901	94.56
231.136	109.56
231.37	83.56
231.604	90.56
231.838	93.56
232.072	93.56
232.306	97.56
232.541	93.56
232.775	97.56
233.009	82.56
233.243	81.56
233.477	102.56
233.711	93.56
233.945	97.56
234.179	104.56
234.413	109.56
234.647	103.56
234.881	84.56
235.115	90.56
235.349	104.56
235.583	94.56
235.817	110.56
236.051	104.56
236.285	109.56
236.519	113.56
236.753	106.56
236.987	106.56
237.221	130.56
237.455	133.56
237.689	133.56
237.922	99.56
238.156	96.56
238.39	101.56
238.624	86.56
238.858	92.56
239.091	105.56
239.325	93.56
239.559	101.56
239.793	95.56
240.027	106.56
240.26	97.56
240.494	121.56
240.728	92.56
240.961	105.56
241.195	109.56
241.429	110.56
241.662	92.56
241.896	107.56
242.13	96.56
242.363	98.56
242.597	95.56
242.83	96.56
243.064	97.56
243.298	114.56
243.531	97.56
243.765	127.56
243.998	105.56
244.232	115.56
244.465	110.56
244.699	106.56
244.932	107.56
245.166	104.56
245.399	96.56
245.633	116.56
245.866	110.56
246.099	122.56
246.333	114.56
246.566	110.56
246.8	104.56
247.033	117.56
247.266	108.56
247.5	120.56
247.733	112.56
247.966	121.56
248.2	115.56
248.433	112.56
248.666	120.56
248.899	105.56
249.133	131.56
249.366	114.56
249.599	126.56
249.832	136.56
250.066	133.56
250.299	125.56
250.532	127.56
250.765	146.56
250.998	143.56
251.231	138.56
251.465	144.56
251.698	139.56
251.931	127.56
252.164	118.56
252.397	140.56
252.63	140.56
252.863	131.56
253.096	131.56
253.329	148.56
253.562	141.56
253.795	130.56
254.028	137.56
254.261	143.56
254.494	136.56
254.727	144.56
254.96	166.56
255.193	167.56
255.426	147.56
255.659	139.56
255.892	154.56
256.124	156.56
256.357	149.56
256.59	138.56
256.823	139.56
257.056	128.56
257.289	133.56
257.521	141.56
257.754	138.56
257.987	134.56
258.22	123.56
258.452	131.56
258.685	126.56
258.918	138.56
259.151	143.56
259.383	131.56
259.616	142.56
259.849	146.56
260.081	158.56
260.314	150.56
260.547	157.56
260.779	157.56
261.012	147.56
261.244	146.56
261.477	143.56
261.71	144.56
261.942	139.56
262.175	146.56
262.407	139.56
262.64	142.56
262.872	111.56
263.105	128.56
263.337	131.56
263.57	134.56
263.802	127.56
264.035	139.56
264.267	134.56
264.499	132.56
264.732	145.56
264.964	126.56
265.197	139.56
265.429	142.56
265.661	144.56
265.894	146.56
266.126	144.56
266.358	139.56
266.591	125.56
266.823	135.56
267.055	139.56
267.287	130.56
267.52	151.56
267.752	158.56
267.984	137.56
268.216	139.56
268.448	156.56
268.681	157.56
268.913	136.56
269.145	148.56
269.377	163.56
269.609	159.56
269.841	171.56
270.073	165.56
270.306	158.56
270.538	174.56
270.77	176.56
271.002	165.56
271.234	161.56
271.466	177.56
271.698	178.56
271.93	174.56
272.162	186.56
272.394	201.56
272.626	165.56
272.858	174.56
273.09	162.56
273.322	156.56
273.553	164.56
273.785	146.56
274.017	162.56
274.249	156.56
274.481	157.56
274.713	146.56
274.945	167.56
275.176	167.56
275.408	173.56
275.64	172.56
275.872	156.56
276.104	146.56
276.335	152.56
276.567	182.56
276.799	160.56
277.031	187.56
277.262	192.56
277.494	174.56
277.726	176.56
277.957	162.56
278.189	170.56
278.421	170.56
278.652	145.56
278.884	154.56
279.115	155.56
279.347	149.56
279.579	156.56
279.81	152.56
280.042	162.56
280.273	166.56
280.505	160.56
280.736	175.56
280.968	154.56
281.199	165.56
281.431	146.56
281.662	143.56
281.894	182.56
282.125	165.56
282.356	183.56
282.588	199.56
282.819	186.56
283.051	172.56
283.282	162.56
283.513	161.56
283.745	154.56
283.976	158.56
284.207	198.56
284.439	176.56
284.67	182.56
284.901	153.56
285.132	173.56
285.364	166.56
285.595	144.56
285.826	174.56
286.057	161.56
286.288	158.56
286.52	167.56
286.751	158.56
286.982	170.56
287.213	163.56
287.444	168.56
287.675	174.56
287.906	175.56
288.138	180.56
288.369	175.56
288.6	179.56
288.831	168.56
289.062	159.56
289.293	169.56
289.524	156.56
289.755	157.56
289.986	165.56
290.217	147.56
290.448	187.56
290.679	180.56
290.91	144.56
291.141	166.56
291.371	159.56
291.602	163.56
291.833	162.56
292.064	175.56
292.295	163.56
292.526	148.56
292.757	168.56
292.987	160.56
293.218	169.56
293.449	169.56
293.68	166.56
293.91	167.56
294.141	168.56
294.372	168.56
294.603	161.56
294.833	163.56
295.064	157.56
295.295	162.56
295.525	162.56
295.756	178.56
295.987	174.56
296.217	181.56
296.448	179.56
296.679	176.56
296.909	150.56
297.14	161.56
297.37	161.56
297.601	182.56
297.831	182.56
298.062	165.56
298.292	177.56
298.523	201.56
298.753	179.56
298.984	169.56
299.214	165.56
299.445	169.56
299.675	181.56
299.905	183.56
300.136	178.56
300.366	174.56
300.597	172.56
300.827	198.56
301.057	171.56
301.288	172.56
301.518	175.56
301.748	185.56
301.979	192.56
302.209	192.56
302.439	200.56
302.669	182.56
302.9	181.56
303.13	195.56
303.36	182.56
303.59	184.56
303.82	192.56
304.051	184.56
304.281	186.56
304.511	191.56
304.741	172.56
304.971	174.56
305.201	183.56
305.431	171.56
305.661	186.56
305.891	190.56
306.121	173.56
306.352	194.56
306.582	197.56
306.812	196.56
307.042	197.56
307.272	187.56
307.502	190.56
307.731	187.56
307.961	190.56
308.191	187.56
308.421	197.56
308.651	173.56
308.881	179.56
309.111	191.56
309.341	187.56
309.571	190.56
309.8	200.56
310.03	197.56
310.26	213.56
310.49	199.56
310.72	209.56
310.949	214.56
311.179	229.56
311.409	203.56
311.639	206.56
311.868	206.56
312.098	203.56
312.328	220.56
312.557	222.56
312.787	226.56
313.017	210.56
313.246	211.56
313.476	204.56
313.706	206.56
313.935	209.56
314.165	214.56
314.394	223.56
314.624	215.56
314.853	221.56
315.083	223.56
315.312	202.56
315.542	221.56
315.771	193.56
316.001	209.56
316.23	205.56
316.46	209.56
316.689	199.56
316.919	222.56
317.148	221.56
317.377	205.56
317.607	223.56
317.836	206.56
318.065	194.56
318.295	201.56
318.524	205.56
318.753	200.56
318.983	211.56
319.212	215.56
319.441	203.56
319.67	209.56
319.9	210.56
320.129	214.56
320.358	207.56
320.587	214.56
320.816	207.56
321.046	211.56
321.275	224.56
321.504	211.56
321.733	215.56
321.962	207.56
322.191	225.56
322.42	233.56
322.649	226.56
322.878	227.56
323.108	250.56
323.337	240.56
323.566	254.56
323.795	262.56
324.024	286.56
324.253	363.56
324.482	499.56
324.71	750.56
324.939	1007.56
325.168	780.56
325.397	416.56
325.626	278.56
325.855	263.56
326.084	246.56
326.313	237.56
326.542	253.56
326.77	285.56
326.999	320.56
327.228	452.56
327.457	645.56
327.686	734.56
327.914	496.56
328.143	348.56
328.372	297.56
328.6	286.56
328.829	297.56
329.058	291.56
329.287	306.56
329.515	290.56
329.744	263.56
329.972	247.56
330.201	275.56
330.43	300.56
330.658	320.56
330.887	330.56
331.115	327.56
331.344	270.56
331.572	250.56
331.801	257.56
332.03	241.56
332.258	251.56
332.486	243.56
332.715	229.56
332.943	235.56
333.172	244.56
333.4	237.56
333.629	246.56
333.857	244.56
334.085	264.56
334.314	289.56
334.542	297.56
334.771	289.56
334.999	274.56
335.227	259.56
335.455	239.56
335.684	246.56
335.912	234.56
336.14	227.56
336.369	214.56
336.597	227.56
336.825	224.56
337.053	235.56
337.281	235.56
337.51	219.56
337.738	214.56
337.966	210.56
338.194	234.56
338.422	229.56
338.65	226.56
338.878	230.56
339.106	216.56
339.334	236.56
339.562	223.56
339.79	210.56
340.018	234.56
340.246	240.56
340.474	233.56
340.702	218.56
340.93	226.56
341.158	237.56
341.386	247.56
341.614	222.56
341.842	230.56
342.07	224.56
342.298	233.56
342.526	224.56
342.754	205.56
342.981	201.56
343.209	222.56
343.437	219.56
343.665	212.56
343.893	222.56
344.12	241.56
344.348	239.56
344.576	236.56
344.804	232.56
345.031	251.56
345.259	226.56
345.487	237.56
345.714	220.56
345.942	211.56
346.17	221.56
346.397	207.56
346.625	226.56
346.853	219.56
347.08	220.56
347.308	218.56
347.535	234.56
347.763	230.56
347.99	239.56
348.218	236.56
348.445	234.56
348.673	219.56
348.9	221.56
349.128	225.56
349.355	216.56
349.583	217.56
349.81	217.56
350.037	215.56
350.265	220.56
350.492	219.56
350.72	207.56
350.947	210.56
351.174	208.56
351.402	218.56
351.629	219.56
351.856	216.56
352.083	227.56
352.311	222.56
352.538	239.56
352.765	245.56
352.992	198.56
353.22	216.56
353.447	217.56
353.674	218.56
353.901	215.56
354.128	208.56
354.355	194.56
354.583	205.56
354.81	205.56
355.037	210.56
355.264	218.56
355.491	201.56
355.718	207.56
355.945	203.56
356.172	199.56
356.399	207.56
356.626	197.56
356.853	200.56
357.08	193.56
357.307	206.56
357.534	216.56
357.761	213.56
357.988	207.56
358.215	211.56
358.441	202.56
358.668	208.56
358.895	217.56
359.122	213.56
359.349	209.56
359.576	226.56
359.802	219.56
360.029	239.56
360.256	247.56
360.483	231.56
360.709	226.56
360.936	220.56
361.163	219.56
361.39	209.56
361.616	210.56
361.843	210.56
362.07	219.56
362.296	229.56
362.523	211.56
362.749	233.56
362.976	210.56
363.203	223.56
363.429	205.56
363.656	210.56
363.882	204.56
364.109	210.56
364.335	211.56
364.562	203.56
364.788	205.56
365.015	218.56
365.241	211.56
365.468	210.56
365.694	203.56
365.92	202.56
366.147	212.56
366.373	216.56
366.599	214.56
366.826	214.56
367.052	207.56
367.278	194.56
367.505	212.56
367.731	217.56
367.957	220.56
368.184	193.56
368.41	208.56
368.636	227.56
368.862	223.56
369.089	232.56
369.315	224.56
369.541	217.56
369.767	201.56
369.993	209.56
370.219	222.56
370.445	223.56
370.672	208.56
370.898	227.56
371.124	208.56
371.35	212.56
371.576	225.56
371.802	209.56
372.028	210.56
372.254	211.56
372.48	215.56
372.706	201.56
372.932	199.56
373.158	210.56
373.384	219.56
373.61	225.56
373.835	209.56
374.061	207.56
374.287	210.56
374.513	216.56
374.739	211.56
374.965	199.56
375.191	201.56
375.416	212.56
375.642	182.56
375.868	201.56
376.094	206.56
376.319	200.56
376.545	217.56
376.771	219.56
376.997	200.56
377.222	217.56
377.448	220.56
377.674	207.56
377.899	202.56
378.125	197.56
378.35	193.56
378.576	219.56
378.802	200.56
379.027	211.56
379.253	202.56
379.478	206.56
379.704	200.56
379.929	211.56
380.155	210.56
380.38	217.56
380.606	199.56
380.831	205.56
381.057	200.56
381.282	208.56
381.507	206.56
381.733	220.56
381.958	201.56
382.184	210.56
382.409	207.56
382.634	208.56
382.86	219.56
383.085	218.56
383.31	207.56
383.535	217.56
383.761	227.56
383.986	218.56
384.211	205.56
384.436	221.56
384.662	204.56
384.887	205.56
385.112	221.56
385.337	212.56
385.562	214.56
385.787	195.56
386.013	233.56
386.238	239.56
386.463	225.56
386.688	209.56
386.913	222.56
387.138	205.56
387.363	209.56
387.588	219.56
387.813	232.56
388.038	225.56
388.263	231.56
388.488	209.56
388.713	223.56
388.938	226.56
389.163	218.56
389.387	224.56
389.612	216.56
389.837	220.56
390.062	232.56
390.287	230.56
390.512	219.56
390.736	221.56
390.961	232.56
391.186	227.56
391.411	224.56
391.636	221.56
391.86	230.56
392.085	229.56
392.31	217.56
392.534	225.56
392.759	220.56
392.984	208.56
393.208	216.56
393.433	228.56
393.658	223.56
393.882	209.56
394.107	222.56
394.331	233.56
394.556	225.56
394.78	223.56
395.005	223.56
395.229	238.56
395.454	216.56
395.678	229.56
395.903	225.56
396.127	263.56
396.352	235.56
396.576	211.56
396.801	223.56
397.025	227.56
397.249	233.56
397.474	222.56
397.698	230.56
397.922	238.56
398.147	235.56
398.371	258.56
398.595	257.56
398.82	251.56
399.044	249.56
399.268	261.56
399.492	258.56
399.717	279.56
399.941	300.56
400.165	310.56
400.389	285.56
400.613	268.56
400.837	250.56
401.062	246.56
401.286	247.56
401.51	236.56
401.734	237.56
401.958	237.56
402.182	245.56
402.406	261.56
402.63	250.56
402.854	262.56
403.078	255.56
403.302	258.56
403.526	265.56
403.75	262.56
403.974	264.56
404.198	258.56
404.422	278.56
404.645	269.56
404.869	265.56
405.093	287.56
405.317	310.56
405.541	308.56
405.765	276.56
405.988	271.56
406.212	295.56
406.436	285.56
406.66	293.56
406.883	270.56
407.107	288.56
407.331	333.56
407.555	322.56
407.778	337.56
408.002	295.56
408.226	272.56
408.449	273.56
408.673	270.56
408.896	275.56
409.12	287.56
409.344	305.56
409.567	249.56
409.791	253.56
410.014	273.56
410.238	261.56
410.461	262.56
410.685	267.56
410.908	294.56
411.132	277.56
411.355	276.56
411.578	285.56
411.802	268.56
412.025	251.56
412.249	266.56
412.472	278.56
412.695	293.56
412.919	285.56
413.142	272.56
413.365	243.56
413.589	249.56
413.812	245.56
414.035	238.56
414.258	235.56
414.482	235.56
414.705	248.56
414.928	242.56
415.151	252.56
415.374	239.56
415.597	236.56
415.821	233.56
416.044	235.56
416.267	267.56
416.49	267.56
416.713	236.56
416.936	233.56
417.159	253.56
417.382	235.56
417.605	232.56
417.828	250.56
418.051	258.56
418.274	276.56
418.497	269.56
418.72	230.56
418.943	236.56
419.166	250.56
419.389	272.56
419.611	267.56
419.834	265.56
420.057	254.56
420.28	229.56
420.503	242.56
420.726	269.56
420.948	257.56
421.171	286.56
421.394	283.56
421.617	261.56
421.839	264.56
422.062	260.56
422.285	253.56
422.507	301.56
422.73	314.56
422.953	305.56
423.175	281.56
423.398	276.56
423.621	270.56
423.843	275.56
424.066	271.56
424.288	274.56
424.511	284.56
424.733	289.56
424.956	323.56
425.178	314.56
425.401	313.56
425.623	322.56
425.846	299.56
426.068	276.56
426.291	271.56
426.513	267.56
426.735	286.56
426.958	275.56
427.18	315.56
427.402	389.56
427.625	428.56
427.847	382.56
428.069	312.56
428.292	285.56
428.514	270.56
428.736	258.56
428.958	232.56
429.181	266.56
429.403	261.56
429.625	262.56
429.847	276.56
430.069	297.56
430.292	287.56
430.514	252.56
430.736	271.56
430.958	237.56
431.18	242.56
431.402	251.56
431.624	245.56
431.846	231.56
432.068	226.56
432.29	256.56
432.512	240.56
432.734	258.56
432.956	249.56
433.178	263.56
433.4	241.56
433.622	253.56
433.844	247.56
434.066	255.56
434.287	237.56
434.509	252.56
434.731	258.56
434.953	269.56
435.175	269.56
435.397	259.56
435.618	278.56
435.84	293.56
436.062	326.56
436.284	346.56
436.505	296.56
436.727	268.56
436.949	254.56
437.17	259.56
437.392	264.56
437.614	244.56
437.835	255.56
438.057	335.56
438.278	352.56
438.5	329.56
438.721	360.56
438.943	341.56
439.165	291.56
439.386	288.56
439.608	289.56
439.829	282.56
440.05	295.56
440.272	322.56
440.493	295.56
440.715	263.56
440.936	249.56
441.158	247.56
441.379	238.56
441.6	246.56
441.822	271.56
442.043	288.56
442.264	328.56
442.486	322.56
442.707	289.56
442.928	265.56
443.149	299.56
443.371	299.56
443.592	311.56
443.813	346.56
444.034	366.56
444.255	304.56
444.476	295.56
444.698	273.56
444.919	273.56
445.14	354.56
445.361	311.56
445.582	288.56
445.803	336.56
446.024	357.56
446.245	366.56
446.466	328.56
446.687	281.56
446.908	274.56
447.129	242.56
447.35	256.56
447.571	255.56
447.792	244.56
448.013	263.56
448.234	280.56
448.455	307.56
448.675	342.56
448.896	370.56
449.117	316.56
449.338	296.56
449.559	348.56
449.779	383.56
450	310.56
450.221	251.56
450.442	255.56
450.662	239.56
450.883	252.56
451.104	261.56
451.324	276.56
451.545	247.56
451.766	246.56
451.986	223.56
452.207	222.56
452.428	208.56
452.648	232.56
452.869	249.56
453.089	232.56
453.31	253.56
453.53	229.56
453.751	222.56
453.971	222.56
454.192	266.56
454.412	234.56
454.633	233.56
454.853	220.56
455.073	231.56
455.294	240.56
455.514	282.56
455.734	254.56
455.955	245.56
456.175	235.56
456.395	207.56
456.616	227.56
456.836	217.56
457.056	214.56
457.276	209.56
457.497	219.56
457.717	225.56
457.937	230.56
458.157	210.56
458.377	226.56
458.598	244.56
458.818	269.56
459.038	318.56
459.258	307.56
459.478	267.56
459.698	247.56
459.918	229.56
460.138	237.56
460.358	252.56
460.578	230.56
460.798	252.56
461.018	253.56
461.238	239.56
461.458	272.56
461.678	239.56
461.898	249.56
462.118	254.56
462.338	253.56
462.558	269.56
462.777	262.56
462.997	259.56
463.217	274.56
463.437	273.56
463.657	263.56
463.876	253.56
464.096	266.56
464.316	249.56
464.536	259.56
464.755	262.56
464.975	281.56
465.195	281.56
465.414	353.56
465.634	289.56
465.854	258.56
466.073	240.56
466.293	238.56
466.512	228.56
466.732	238.56
466.951	225.56
467.171	234.56
467.391	252.56
467.61	246.56
467.829	253.56
468.049	245.56
468.268	231.56
468.488	237.56
468.707	235.56
468.927	216.56
469.146	224.56
469.365	254.56
469.585	217.56
469.804	238.56
470.023	249.56
470.243	240.56
470.462	230.56
470.681	250.56
470.901	240.56
471.12	256.56
471.339	250.56
471.558	266.56
471.777	261.56
471.997	238.56
472.216	258.56
472.435	268.56
472.654	249.56
472.873	235.56
473.092	240.56
473.311	230.56
473.53	216.56
473.749	243.56
473.968	273.56
474.187	316.56
474.406	307.56
474.625	266.56
474.844	238.56
475.063	225.56
475.282	235.56
475.501	242.56
475.72	243.56
475.939	241.56
476.158	262.56
476.377	231.56
476.596	239.56
476.814	234.56
477.033	253.56
477.252	269.56
477.471	268.56
477.69	265.56
477.908	251.56
478.127	262.56
478.346	249.56
478.564	259.56
478.783	267.56
479.002	258.56
479.22	280.56
479.439	267.56
479.658	289.56
479.876	289.56
480.095	283.56
480.313	303.56
480.532	286.56
480.751	295.56
480.969	315.56
481.188	331.56
481.406	354.56
481.624	305.56
481.843	266.56
482.061	256.56
482.28	289.56
482.498	268.56
482.717	268.56
482.935	282.56
483.153	281.56
483.372	264.56
483.59	270.56
483.808	253.56
484.027	272.56
484.245	256.56
484.463	262.56
484.681	267.56
484.9	274.56
485.118	269.56
485.336	277.56
485.554	286.56
485.772	294.56
485.99	296.56
486.209	288.56
486.427	274.56
486.645	287.56
486.863	306.56
487.081	305.56
487.299	309.56
487.517	317.56
487.735	309.56
487.953	309.56
488.171	275.56
488.389	296.56
488.607	272.56
488.825	288.56
489.043	301.56
489.261	282.56
489.479	280.56
489.696	304.56
489.914	315.56
490.132	287.56
490.35	318.56
490.568	313.56
490.786	318.56
491.003	328.56
491.221	333.56
491.439	322.56
491.657	314.56
491.874	345.56
492.092	340.56
492.31	328.56
492.527	335.56
492.745	345.56
492.963	330.56
493.18	332.56
493.398	342.56
493.615	348.56
493.833	350.56
494.05	343.56
494.268	349.56
494.485	347.56
494.703	348.56
494.92	338.56
495.138	337.56
495.355	361.56
495.573	345.56
495.79	349.56
496.008	343.56
496.225	321.56
496.442	329.56
496.66	339.56
496.877	347.56
497.094	339.56
497.312	337.56
497.529	342.56
497.746	358.56
497.963	348.56
498.181	364.56
498.398	360.56
498.615	357.56
498.832	364.56
499.049	372.56
499.267	391.56
499.484	390.56
499.701	394.56
499.918	412.56
500.135	467.56
500.352	455.56
500.569	442.56
500.786	422.56
501.003	433.56
501.22	439.56
501.437	429.56
501.654	400.56
501.871	418.56
502.088	380.56
502.305	393.56
502.522	381.56
