Data from 1966.PennyLincolnUp.Lamp.En5.5.200Scan.071719.P1._HRD10591_14-15-32-958.txt Node
Date: Thu Jul 18 14:15:32 EDT 2019
User: cochatt
Spectrometer: HR+D1059
Trigger mode: 1
Integration Time (sec): 1.000000E-1
Scans to average: 1
Electric dark correction enabled: true
Nonlinearity correction enabled: false
Boxcar width: 0
XAxis mode: Wavelengths
Number of Pixels in Spectrum: 2048
>>>>>Begin Spectral Data<<<<<
223.165	-15.56
223.4	-15.56
223.635	-15.56
223.869	-13.56
224.104	-13.56
224.338	-25.56
224.573	-2.56
224.808	-27.56
225.042	-8.56
225.277	-3.56
225.511	-15.56
225.746	2.44
225.98	1.44
226.215	12.44
226.449	20.44
226.683	29.44
226.918	27.44
227.152	32.44
227.387	34.44
227.621	37.44
227.856	45.44
228.09	46.44
228.324	45.44
228.559	39.44
228.793	61.44
229.027	75.44
229.262	91.44
229.496	94.44
229.73	95.44
229.964	112.44
230.199	88.44
230.433	92.44
230.667	75.44
230.901	91.44
231.136	89.44
231.37	97.44
231.604	99.44
231.838	99.44
232.072	93.44
232.306	92.44
232.541	83.44
232.775	91.44
233.009	96.44
233.243	82.44
233.477	116.44
233.711	97.44
233.945	109.44
234.179	99.44
234.413	109.44
234.647	100.44
234.881	98.44
235.115	99.44
235.349	86.44
235.583	96.44
235.817	95.44
236.051	100.44
236.285	120.44
236.519	105.44
236.753	98.44
236.987	99.44
237.221	123.44
237.455	161.44
237.689	130.44
237.922	107.44
238.156	112.44
238.39	115.44
238.624	77.44
238.858	88.44
239.091	105.44
239.325	80.44
239.559	106.44
239.793	96.44
240.027	82.44
240.26	112.44
240.494	120.44
240.728	119.44
240.961	113.44
241.195	113.44
241.429	112.44
241.662	104.44
241.896	100.44
242.13	94.44
242.363	108.44
242.597	96.44
242.83	106.44
243.064	99.44
243.298	100.44
243.531	88.44
243.765	106.44
243.998	111.44
244.232	99.44
244.465	125.44
244.699	91.44
244.932	101.44
245.166	96.44
245.399	114.44
245.633	111.44
245.866	104.44
246.099	95.44
246.333	97.44
246.566	112.44
246.8	109.44
247.033	123.44
247.266	109.44
247.5	128.44
247.733	122.44
247.966	130.44
248.2	116.44
248.433	116.44
248.666	102.44
248.899	125.44
249.133	132.44
249.366	137.44
249.599	124.44
249.832	114.44
250.066	121.44
250.299	117.44
250.532	118.44
250.765	130.44
250.998	148.44
251.231	140.44
251.465	122.44
251.698	138.44
251.931	117.44
252.164	139.44
252.397	144.44
252.63	128.44
252.863	130.44
253.096	127.44
253.329	137.44
253.562	136.44
253.795	135.44
254.028	130.44
254.261	148.44
254.494	136.44
254.727	151.44
254.96	161.44
255.193	165.44
255.426	145.44
255.659	140.44
255.892	146.44
256.124	141.44
256.357	148.44
256.59	139.44
256.823	128.44
257.056	128.44
257.289	126.44
257.521	134.44
257.754	126.44
257.987	126.44
258.22	127.44
258.452	133.44
258.685	128.44
258.918	138.44
259.151	138.44
259.383	161.44
259.616	148.44
259.849	138.44
260.081	145.44
260.314	176.44
260.547	157.44
260.779	154.44
261.012	141.44
261.244	131.44
261.477	133.44
261.71	137.44
261.942	132.44
262.175	137.44
262.407	158.44
262.64	152.44
262.872	140.44
263.105	137.44
263.337	144.44
263.57	143.44
263.802	149.44
264.035	149.44
264.267	140.44
264.499	140.44
264.732	144.44
264.964	134.44
265.197	149.44
265.429	141.44
265.661	139.44
265.894	137.44
266.126	142.44
266.358	125.44
266.591	131.44
266.823	139.44
267.055	153.44
267.287	135.44
267.52	130.44
267.752	154.44
267.984	135.44
268.216	138.44
268.448	138.44
268.681	147.44
268.913	150.44
269.145	157.44
269.377	153.44
269.609	164.44
269.841	160.44
270.073	164.44
270.306	177.44
270.538	196.44
270.77	204.44
271.002	187.44
271.234	164.44
271.466	187.44
271.698	188.44
271.93	185.44
272.162	172.44
272.394	173.44
272.626	177.44
272.858	170.44
273.09	150.44
273.322	160.44
273.553	154.44
273.785	166.44
274.017	163.44
274.249	167.44
274.481	154.44
274.713	165.44
274.945	171.44
275.176	165.44
275.408	151.44
275.64	151.44
275.872	169.44
276.104	162.44
276.335	159.44
276.567	152.44
276.799	170.44
277.031	176.44
277.262	182.44
277.494	192.44
277.726	188.44
277.957	177.44
278.189	153.44
278.421	160.44
278.652	157.44
278.884	165.44
279.115	164.44
279.347	162.44
279.579	150.44
279.81	170.44
280.042	161.44
280.273	170.44
280.505	169.44
280.736	159.44
280.968	155.44
281.199	154.44
281.431	154.44
281.662	168.44
281.894	161.44
282.125	155.44
282.356	173.44
282.588	186.44
282.819	160.44
283.051	177.44
283.282	181.44
283.513	169.44
283.745	168.44
283.976	158.44
284.207	161.44
284.439	165.44
284.67	177.44
284.901	161.44
285.132	152.44
285.364	167.44
285.595	171.44
285.826	168.44
286.057	160.44
286.288	177.44
286.52	183.44
286.751	174.44
286.982	164.44
287.213	164.44
287.444	181.44
287.675	171.44
287.906	164.44
288.138	171.44
288.369	190.44
288.6	179.44
288.831	189.44
289.062	185.44
289.293	165.44
289.524	188.44
289.755	173.44
289.986	176.44
290.217	174.44
290.448	176.44
290.679	176.44
290.91	172.44
291.141	147.44
291.371	170.44
291.602	176.44
291.833	172.44
292.064	167.44
292.295	179.44
292.526	166.44
292.757	171.44
292.987	172.44
293.218	178.44
293.449	168.44
293.68	173.44
293.91	159.44
294.141	187.44
294.372	170.44
294.603	163.44
294.833	166.44
295.064	164.44
295.295	185.44
295.525	176.44
295.756	189.44
295.987	166.44
296.217	171.44
296.448	186.44
296.679	182.44
296.909	166.44
297.14	170.44
297.37	173.44
297.601	187.44
297.831	165.44
298.062	166.44
298.292	183.44
298.523	188.44
298.753	172.44
298.984	176.44
299.214	173.44
299.445	179.44
299.675	180.44
299.905	189.44
300.136	186.44
300.366	179.44
300.597	169.44
300.827	183.44
301.057	193.44
301.288	189.44
301.518	200.44
301.748	170.44
301.979	199.44
302.209	194.44
302.439	181.44
302.669	203.44
302.9	201.44
303.13	196.44
303.36	200.44
303.59	207.44
303.82	184.44
304.051	194.44
304.281	178.44
304.511	180.44
304.741	183.44
304.971	191.44
305.201	195.44
305.431	193.44
305.661	193.44
305.891	177.44
306.121	180.44
306.352	196.44
306.582	199.44
306.812	182.44
307.042	190.44
307.272	200.44
307.502	195.44
307.731	197.44
307.961	185.44
308.191	190.44
308.421	185.44
308.651	188.44
308.881	190.44
309.111	221.44
309.341	186.44
309.571	193.44
309.8	210.44
310.03	202.44
310.26	207.44
310.49	210.44
310.72	200.44
310.949	211.44
311.179	210.44
311.409	212.44
311.639	209.44
311.868	221.44
312.098	213.44
312.328	214.44
312.557	232.44
312.787	233.44
313.017	234.44
313.246	223.44
313.476	206.44
313.706	188.44
313.935	210.44
314.165	202.44
314.394	224.44
314.624	232.44
314.853	218.44
315.083	227.44
315.312	205.44
315.542	195.44
315.771	208.44
316.001	207.44
316.23	205.44
316.46	196.44
316.689	198.44
316.919	210.44
317.148	206.44
317.377	206.44
317.607	227.44
317.836	205.44
318.065	206.44
318.295	201.44
318.524	197.44
318.753	217.44
318.983	212.44
319.212	211.44
319.441	212.44
319.67	229.44
319.9	222.44
320.129	211.44
320.358	199.44
320.587	203.44
320.816	221.44
321.046	206.44
321.275	219.44
321.504	233.44
321.733	208.44
321.962	223.44
322.191	229.44
322.42	242.44
322.649	260.44
322.878	229.44
323.108	234.44
323.337	258.44
323.566	274.44
323.795	300.44
324.024	314.44
324.253	389.44
324.482	548.44
324.71	843.44
324.939	1089.44
325.168	901.44
325.397	475.44
325.626	309.44
325.855	264.44
326.084	271.44
326.313	260.44
326.542	266.44
326.77	298.44
326.999	378.44
327.228	505.44
327.457	727.44
327.686	823.44
327.914	533.44
328.143	368.44
328.372	344.44
328.6	325.44
328.829	306.44
329.058	309.44
329.287	318.44
329.515	286.44
329.744	285.44
329.972	272.44
330.201	313.44
330.43	328.44
330.658	345.44
330.887	356.44
331.115	340.44
331.344	295.44
331.572	258.44
331.801	264.44
332.03	265.44
332.258	254.44
332.486	242.44
332.715	242.44
332.943	245.44
333.172	273.44
333.4	242.44
333.629	269.44
333.857	254.44
334.085	257.44
334.314	297.44
334.542	317.44
334.771	316.44
334.999	280.44
335.227	254.44
335.455	264.44
335.684	257.44
335.912	247.44
336.14	228.44
336.369	222.44
336.597	256.44
336.825	250.44
337.053	256.44
337.281	238.44
337.51	228.44
337.738	226.44
337.966	244.44
338.194	221.44
338.422	232.44
338.65	250.44
338.878	215.44
339.106	230.44
339.334	224.44
339.562	226.44
339.79	248.44
340.018	240.44
340.246	232.44
340.474	242.44
340.702	217.44
340.93	249.44
341.158	226.44
341.386	233.44
341.614	238.44
341.842	233.44
342.07	220.44
342.298	223.44
342.526	213.44
342.754	221.44
342.981	223.44
343.209	196.44
343.437	211.44
343.665	223.44
343.893	240.44
344.12	249.44
344.348	212.44
344.576	234.44
344.804	219.44
345.031	236.44
345.259	244.44
345.487	242.44
345.714	211.44
345.942	230.44
346.17	228.44
346.397	224.44
346.625	209.44
346.853	227.44
347.08	227.44
347.308	218.44
347.535	229.44
347.763	235.44
347.99	218.44
348.218	232.44
348.445	247.44
348.673	234.44
348.9	222.44
349.128	228.44
349.355	224.44
349.583	201.44
349.81	205.44
350.037	218.44
350.265	211.44
350.492	231.44
350.72	207.44
350.947	225.44
351.174	226.44
351.402	228.44
351.629	236.44
351.856	223.44
352.083	233.44
352.311	230.44
352.538	227.44
352.765	243.44
352.992	224.44
353.22	234.44
353.447	217.44
353.674	221.44
353.901	219.44
354.128	215.44
354.355	209.44
354.583	223.44
354.81	206.44
355.037	216.44
355.264	204.44
355.491	217.44
355.718	205.44
355.945	209.44
356.172	208.44
356.399	206.44
356.626	179.44
356.853	197.44
357.08	206.44
357.307	196.44
357.534	217.44
357.761	216.44
357.988	202.44
358.215	204.44
358.441	198.44
358.668	208.44
358.895	197.44
359.122	206.44
359.349	227.44
359.576	215.44
359.802	243.44
360.029	278.44
360.256	272.44
360.483	226.44
360.709	224.44
360.936	234.44
361.163	223.44
361.39	208.44
361.616	225.44
361.843	219.44
362.07	213.44
362.296	225.44
362.523	216.44
362.749	225.44
362.976	230.44
363.203	213.44
363.429	211.44
363.656	218.44
363.882	220.44
364.109	230.44
364.335	213.44
364.562	205.44
364.788	218.44
365.015	200.44
365.241	214.44
365.468	224.44
365.694	226.44
365.92	202.44
366.147	205.44
366.373	210.44
366.599	207.44
366.826	199.44
367.052	197.44
367.278	204.44
367.505	194.44
367.731	208.44
367.957	212.44
368.184	222.44
368.41	210.44
368.636	219.44
368.862	219.44
369.089	212.44
369.315	205.44
369.541	206.44
369.767	202.44
369.993	214.44
370.219	208.44
370.445	194.44
370.672	227.44
370.898	213.44
371.124	217.44
371.35	202.44
371.576	204.44
371.802	193.44
372.028	201.44
372.254	194.44
372.48	204.44
372.706	192.44
372.932	198.44
373.158	208.44
373.384	226.44
373.61	209.44
373.835	192.44
374.061	195.44
374.287	213.44
374.513	230.44
374.739	214.44
374.965	214.44
375.191	213.44
375.416	202.44
375.642	211.44
375.868	215.44
376.094	194.44
376.319	214.44
376.545	191.44
376.771	208.44
376.997	196.44
377.222	209.44
377.448	208.44
377.674	194.44
377.899	189.44
378.125	203.44
378.35	200.44
378.576	196.44
378.802	202.44
379.027	213.44
379.253	197.44
379.478	218.44
379.704	188.44
379.929	201.44
380.155	216.44
380.38	202.44
380.606	203.44
380.831	224.44
381.057	217.44
381.282	209.44
381.507	200.44
381.733	202.44
381.958	197.44
382.184	212.44
382.409	212.44
382.634	225.44
382.86	209.44
383.085	214.44
383.31	209.44
383.535	198.44
383.761	195.44
383.986	197.44
384.211	203.44
384.436	220.44
384.662	231.44
384.887	215.44
385.112	218.44
385.337	220.44
385.562	209.44
385.787	233.44
386.013	226.44
386.238	223.44
386.463	235.44
386.688	219.44
386.913	213.44
387.138	227.44
387.363	225.44
387.588	224.44
387.813	227.44
388.038	214.44
388.263	213.44
388.488	228.44
388.713	222.44
388.938	224.44
389.163	210.44
389.387	215.44
389.612	225.44
389.837	225.44
390.062	224.44
390.287	218.44
390.512	229.44
390.736	218.44
390.961	220.44
391.186	214.44
391.411	210.44
391.636	208.44
391.86	230.44
392.085	205.44
392.31	226.44
392.534	213.44
392.759	230.44
392.984	218.44
393.208	236.44
393.433	225.44
393.658	237.44
393.882	218.44
394.107	223.44
394.331	224.44
394.556	201.44
394.78	226.44
395.005	230.44
395.229	217.44
395.454	230.44
395.678	228.44
395.903	232.44
396.127	254.44
396.352	261.44
396.576	240.44
396.801	236.44
397.025	236.44
397.249	235.44
397.474	244.44
397.698	225.44
397.922	237.44
398.147	247.44
398.371	246.44
398.595	257.44
398.82	233.44
399.044	257.44
399.268	253.44
399.492	265.44
399.717	294.44
399.941	285.44
400.165	284.44
400.389	296.44
400.613	245.44
400.837	265.44
401.062	243.44
401.286	242.44
401.51	236.44
401.734	252.44
401.958	264.44
402.182	256.44
402.406	263.44
402.63	262.44
402.854	274.44
403.078	242.44
403.302	256.44
403.526	260.44
403.75	253.44
403.974	232.44
404.198	271.44
404.422	270.44
404.645	275.44
404.869	295.44
405.093	270.44
405.317	302.44
405.541	312.44
405.765	266.44
405.988	264.44
406.212	293.44
406.436	305.44
406.66	312.44
406.883	279.44
407.107	309.44
407.331	314.44
407.555	317.44
407.778	312.44
408.002	282.44
408.226	280.44
408.449	295.44
408.673	277.44
408.896	296.44
409.12	306.44
409.344	290.44
409.567	262.44
409.791	252.44
410.014	242.44
410.238	241.44
410.461	252.44
410.685	265.44
410.908	268.44
411.132	279.44
411.355	283.44
411.578	296.44
411.802	252.44
412.025	251.44
412.249	266.44
412.472	283.44
412.695	294.44
412.919	282.44
413.142	265.44
413.365	244.44
413.589	252.44
413.812	267.44
414.035	242.44
414.258	251.44
414.482	243.44
414.705	241.44
414.928	222.44
415.151	244.44
415.374	246.44
415.597	238.44
415.821	234.44
416.044	250.44
416.267	280.44
416.49	246.44
416.713	233.44
416.936	240.44
417.159	245.44
417.382	259.44
417.605	255.44
417.828	258.44
418.051	270.44
418.274	267.44
418.497	257.44
418.72	248.44
418.943	246.44
419.166	242.44
419.389	262.44
419.611	266.44
419.834	262.44
420.057	270.44
420.28	256.44
420.503	266.44
420.726	274.44
420.948	261.44
421.171	274.44
421.394	286.44
421.617	275.44
421.839	264.44
422.062	278.44
422.285	247.44
422.507	308.44
422.73	312.44
422.953	316.44
423.175	267.44
423.398	271.44
423.621	275.44
423.843	278.44
424.066	290.44
424.288	281.44
424.511	278.44
424.733	295.44
424.956	322.44
425.178	344.44
425.401	320.44
425.623	344.44
425.846	308.44
426.068	280.44
426.291	272.44
426.513	292.44
426.735	271.44
426.958	288.44
427.18	332.44
427.402	382.44
427.625	427.44
427.847	380.44
428.069	326.44
428.292	285.44
428.514	273.44
428.736	261.44
428.958	268.44
429.181	243.44
429.403	233.44
429.625	268.44
429.847	292.44
430.069	300.44
430.292	293.44
430.514	260.44
430.736	259.44
430.958	254.44
431.18	253.44
431.402	240.44
431.624	253.44
431.846	240.44
432.068	254.44
432.29	244.44
432.512	255.44
432.734	250.44
432.956	252.44
433.178	266.44
433.4	260.44
433.622	260.44
433.844	245.44
434.066	244.44
434.287	242.44
434.509	259.44
434.731	260.44
434.953	257.44
435.175	276.44
435.397	264.44
435.618	270.44
435.84	312.44
436.062	341.44
436.284	363.44
436.505	304.44
436.727	282.44
436.949	260.44
437.17	252.44
437.392	259.44
437.614	278.44
437.835	284.44
438.057	331.44
438.278	361.44
438.5	368.44
438.721	372.44
438.943	354.44
439.165	298.44
439.386	289.44
439.608	284.44
439.829	272.44
440.05	296.44
440.272	321.44
440.493	310.44
440.715	263.44
440.936	258.44
441.158	270.44
441.379	268.44
441.6	265.44
441.822	271.44
442.043	281.44
442.264	321.44
442.486	349.44
442.707	293.44
442.928	288.44
443.149	288.44
443.371	302.44
443.592	328.44
443.813	345.44
444.034	365.44
444.255	316.44
444.476	289.44
444.698	280.44
444.919	271.44
445.14	357.44
445.361	322.44
445.582	308.44
445.803	340.44
446.024	375.44
446.245	376.44
446.466	353.44
446.687	314.44
446.908	293.44
447.129	252.44
447.35	256.44
447.571	265.44
447.792	252.44
448.013	260.44
448.234	274.44
448.455	296.44
448.675	344.44
448.896	380.44
449.117	324.44
449.338	316.44
449.559	374.44
449.779	395.44
450	323.44
450.221	267.44
450.442	256.44
450.662	251.44
450.883	246.44
451.104	282.44
451.324	262.44
451.545	244.44
451.766	235.44
451.986	240.44
452.207	237.44
452.428	234.44
452.648	218.44
452.869	225.44
453.089	252.44
453.31	243.44
453.53	232.44
453.751	226.44
453.971	240.44
454.192	229.44
454.412	247.44
454.633	234.44
454.853	226.44
455.073	247.44
455.294	258.44
455.514	298.44
455.734	271.44
455.955	251.44
456.175	230.44
456.395	219.44
456.616	199.44
456.836	218.44
457.056	236.44
457.276	213.44
457.497	232.44
457.717	213.44
457.937	236.44
458.157	221.44
458.377	219.44
458.598	219.44
458.818	282.44
459.038	339.44
459.258	319.44
459.478	268.44
459.698	232.44
459.918	241.44
460.138	239.44
460.358	247.44
460.578	247.44
460.798	254.44
461.018	235.44
461.238	235.44
461.458	248.44
461.678	233.44
461.898	265.44
462.118	248.44
462.338	259.44
462.558	264.44
462.777	254.44
462.997	263.44
463.217	260.44
463.437	256.44
463.657	266.44
463.876	277.44
464.096	249.44
464.316	273.44
464.536	272.44
464.755	277.44
464.975	277.44
465.195	311.44
465.414	372.44
465.634	294.44
465.854	266.44
466.073	246.44
466.293	228.44
466.512	242.44
466.732	229.44
466.951	221.44
467.171	238.44
467.391	245.44
467.61	265.44
467.829	242.44
468.049	237.44
468.268	241.44
468.488	244.44
468.707	240.44
468.927	220.44
469.146	230.44
469.365	225.44
469.585	245.44
469.804	232.44
470.023	240.44
470.243	248.44
470.462	249.44
470.681	279.44
470.901	271.44
471.12	250.44
471.339	233.44
471.558	224.44
471.777	258.44
471.997	258.44
472.216	261.44
472.435	288.44
472.654	275.44
472.873	237.44
473.092	260.44
473.311	252.44
473.53	241.44
473.749	258.44
473.968	287.44
474.187	317.44
474.406	321.44
474.625	281.44
474.844	236.44
475.063	247.44
475.282	241.44
475.501	242.44
475.72	244.44
475.939	243.44
476.158	238.44
476.377	241.44
476.596	248.44
476.814	261.44
477.033	269.44
477.252	261.44
477.471	237.44
477.69	254.44
477.908	250.44
478.127	279.44
478.346	268.44
478.564	281.44
478.783	260.44
479.002	269.44
479.22	274.44
479.439	291.44
479.658	297.44
479.876	294.44
480.095	289.44
480.313	313.44
480.532	301.44
480.751	292.44
480.969	316.44
481.188	347.44
481.406	389.44
481.624	328.44
481.843	288.44
482.061	274.44
482.28	285.44
482.498	290.44
482.717	271.44
482.935	284.44
483.153	280.44
483.372	285.44
483.59	269.44
483.808	279.44
484.027	273.44
484.245	281.44
484.463	294.44
484.681	289.44
484.9	280.44
485.118	280.44
485.336	292.44
485.554	300.44
485.772	296.44
485.99	283.44
486.209	275.44
486.427	284.44
486.645	306.44
486.863	321.44
487.081	314.44
487.299	303.44
487.517	296.44
487.735	301.44
487.953	285.44
488.171	306.44
488.389	309.44
488.607	301.44
488.825	300.44
489.043	306.44
489.261	309.44
489.479	288.44
489.696	301.44
489.914	312.44
490.132	301.44
490.35	301.44
490.568	325.44
490.786	316.44
491.003	323.44
491.221	340.44
491.439	330.44
491.657	336.44
491.874	345.44
492.092	352.44
492.31	363.44
492.527	347.44
492.745	332.44
492.963	351.44
493.18	333.44
493.398	356.44
493.615	340.44
493.833	350.44
494.05	349.44
494.268	345.44
494.485	362.44
494.703	360.44
494.92	345.44
495.138	357.44
495.355	369.44
495.573	344.44
495.79	343.44
496.008	353.44
496.225	350.44
496.442	334.44
496.66	347.44
496.877	326.44
497.094	338.44
497.312	355.44
497.529	358.44
497.746	372.44
497.963	364.44
498.181	376.44
498.398	357.44
498.615	380.44
498.832	386.44
499.049	394.44
499.267	384.44
499.484	413.44
499.701	414.44
499.918	429.44
500.135	458.44
500.352	453.44
500.569	451.44
500.786	458.44
501.003	453.44
501.22	442.44
501.437	428.44
501.654	411.44
501.871	417.44
502.088	418.44
502.305	399.44
502.522	361.44
