Data from 1966.PennyLincolnUp.Lamp.En5.5.200Scan.071719.P1.Scan2.head_HRD10591_14-18-28-190.txt Node
Date: Thu Jul 18 14:18:28 EDT 2019
User: cochatt
Spectrometer: HR+D1059
Trigger mode: 1
Integration Time (sec): 1.000000E-1
Scans to average: 1
Electric dark correction enabled: true
Nonlinearity correction enabled: false
Boxcar width: 0
XAxis mode: Wavelengths
Number of Pixels in Spectrum: 2048
>>>>>Begin Spectral Data<<<<<
223.165	-11.69
223.4	-11.69
223.635	-11.69
223.869	-27.69
224.104	-22.69
224.338	-12.69
224.573	-28.69
224.808	-5.69
225.042	-4.69
225.277	0.31
225.511	-3.69
225.746	4.31
225.98	4.31
226.215	12.31
226.449	12.31
226.683	27.31
226.918	25.31
227.152	31.31
227.387	33.31
227.621	48.31
227.856	31.31
228.09	53.31
228.324	49.31
228.559	61.31
228.793	64.31
229.027	93.31
229.262	106.31
229.496	118.31
229.73	130.31
229.964	172.31
230.199	131.31
230.433	106.31
230.667	111.31
230.901	104.31
231.136	102.31
231.37	103.31
231.604	99.31
231.838	106.31
232.072	108.31
232.306	112.31
232.541	107.31
232.775	117.31
233.009	113.31
233.243	125.31
233.477	100.31
233.711	107.31
233.945	113.31
234.179	114.31
234.413	126.31
234.647	125.31
234.881	112.31
235.115	112.31
235.349	109.31
235.583	122.31
235.817	122.31
236.051	119.31
236.285	122.31
236.519	129.31
236.753	136.31
236.987	138.31
237.221	172.31
237.455	249.31
237.689	178.31
237.922	154.31
238.156	136.31
238.39	137.31
238.624	122.31
238.858	129.31
239.091	126.31
239.325	134.31
239.559	116.31
239.793	129.31
240.027	126.31
240.26	127.31
240.494	148.31
240.728	144.31
240.961	158.31
241.195	136.31
241.429	144.31
241.662	133.31
241.896	141.31
242.13	133.31
242.363	141.31
242.597	130.31
242.83	138.31
243.064	142.31
243.298	129.31
243.531	146.31
243.765	149.31
243.998	135.31
244.232	146.31
244.465	146.31
244.699	139.31
244.932	142.31
245.166	139.31
245.399	151.31
245.633	144.31
245.866	146.31
246.099	156.31
246.333	174.31
246.566	161.31
246.8	161.31
247.033	147.31
247.266	166.31
247.5	159.31
247.733	180.31
247.966	187.31
248.2	184.31
248.433	175.31
248.666	192.31
248.899	184.31
249.133	193.31
249.366	202.31
249.599	197.31
249.832	204.31
250.066	184.31
250.299	189.31
250.532	198.31
250.765	204.31
250.998	218.31
251.231	226.31
251.465	224.31
251.698	211.31
251.931	200.31
252.164	183.31
252.397	204.31
252.63	212.31
252.863	221.31
253.096	215.31
253.329	228.31
253.562	224.31
253.795	227.31
254.028	211.31
254.261	208.31
254.494	219.31
254.727	256.31
254.96	290.31
255.193	286.31
255.426	261.31
255.659	236.31
255.892	220.31
256.124	249.31
256.357	243.31
256.59	215.31
256.823	208.31
257.056	224.31
257.289	227.31
257.521	191.31
257.754	207.31
257.987	207.31
258.22	216.31
258.452	206.31
258.685	209.31
258.918	204.31
259.151	235.31
259.383	205.31
259.616	237.31
259.849	245.31
260.081	228.31
260.314	260.31
260.547	285.31
260.779	257.31
261.012	253.31
261.244	229.31
261.477	252.31
261.71	212.31
261.942	221.31
262.175	247.31
262.407	226.31
262.64	220.31
262.872	233.31
263.105	224.31
263.337	208.31
263.57	227.31
263.802	217.31
264.035	228.31
264.267	208.31
264.499	222.31
264.732	230.31
264.964	225.31
265.197	216.31
265.429	215.31
265.661	226.31
265.894	230.31
266.126	212.31
266.358	195.31
266.591	229.31
266.823	216.31
267.055	222.31
267.287	228.31
267.52	232.31
267.752	216.31
267.984	240.31
268.216	236.31
268.448	237.31
268.681	237.31
268.913	223.31
269.145	252.31
269.377	284.31
269.609	271.31
269.841	301.31
270.073	290.31
270.306	294.31
270.538	328.31
270.77	315.31
271.002	307.31
271.234	296.31
271.466	290.31
271.698	311.31
271.93	337.31
272.162	320.31
272.394	333.31
272.626	318.31
272.858	305.31
273.09	286.31
273.322	260.31
273.553	281.31
273.785	266.31
274.017	256.31
274.249	277.31
274.481	274.31
274.713	270.31
274.945	275.31
275.176	278.31
275.408	259.31
275.64	271.31
275.872	270.31
276.104	271.31
276.335	263.31
276.567	277.31
276.799	281.31
277.031	314.31
277.262	320.31
277.494	329.31
277.726	324.31
277.957	312.31
278.189	290.31
278.421	284.31
278.652	268.31
278.884	289.31
279.115	272.31
279.347	274.31
279.579	270.31
279.81	277.31
280.042	272.31
280.273	268.31
280.505	266.31
280.736	272.31
280.968	268.31
281.199	257.31
281.431	280.31
281.662	254.31
281.894	264.31
282.125	290.31
282.356	306.31
282.588	305.31
282.819	305.31
283.051	280.31
283.282	288.31
283.513	291.31
283.745	284.31
283.976	286.31
284.207	301.31
284.439	295.31
284.67	285.31
284.901	305.31
285.132	274.31
285.364	297.31
285.595	294.31
285.826	306.31
286.057	292.31
286.288	296.31
286.52	278.31
286.751	289.31
286.982	292.31
287.213	275.31
287.444	292.31
287.675	283.31
287.906	306.31
288.138	299.31
288.369	308.31
288.6	317.31
288.831	302.31
289.062	315.31
289.293	299.31
289.524	284.31
289.755	310.31
289.986	310.31
290.217	291.31
290.448	308.31
290.679	298.31
290.91	295.31
291.141	290.31
291.371	288.31
291.602	297.31
291.833	291.31
292.064	305.31
292.295	312.31
292.526	304.31
292.757	312.31
292.987	296.31
293.218	292.31
293.449	295.31
293.68	312.31
293.91	310.31
294.141	305.31
294.372	301.31
294.603	316.31
294.833	304.31
295.064	294.31
295.295	300.31
295.525	292.31
295.756	312.31
295.987	312.31
296.217	317.31
296.448	323.31
296.679	329.31
296.909	321.31
297.14	311.31
297.37	316.31
297.601	322.31
297.831	320.31
298.062	309.31
298.292	293.31
298.523	306.31
298.753	333.31
298.984	317.31
299.214	306.31
299.445	323.31
299.675	326.31
299.905	330.31
300.136	316.31
300.366	314.31
300.597	336.31
300.827	337.31
301.057	334.31
301.288	337.31
301.518	346.31
301.748	326.31
301.979	342.31
302.209	334.31
302.439	338.31
302.669	334.31
302.9	329.31
303.13	353.31
303.36	347.31
303.59	361.31
303.82	345.31
304.051	355.31
304.281	357.31
304.511	357.31
304.741	335.31
304.971	333.31
305.201	323.31
305.431	341.31
305.661	341.31
305.891	337.31
306.121	340.31
306.352	355.31
306.582	337.31
306.812	334.31
307.042	340.31
307.272	344.31
307.502	347.31
307.731	333.31
307.961	333.31
308.191	330.31
308.421	334.31
308.651	337.31
308.881	323.31
309.111	341.31
309.341	369.31
309.571	372.31
309.8	368.31
310.03	377.31
310.26	378.31
310.49	389.31
310.72	393.31
310.949	389.31
311.179	419.31
311.409	374.31
311.639	382.31
311.868	376.31
312.098	380.31
312.328	397.31
312.557	410.31
312.787	414.31
313.017	425.31
313.246	392.31
313.476	389.31
313.706	395.31
313.935	396.31
314.165	408.31
314.394	404.31
314.624	408.31
314.853	411.31
315.083	389.31
315.312	387.31
315.542	381.31
315.771	379.31
316.001	407.31
316.23	395.31
316.46	407.31
316.689	392.31
316.919	406.31
317.148	409.31
317.377	405.31
317.607	413.31
317.836	394.31
318.065	406.31
318.295	390.31
318.524	372.31
318.753	402.31
318.983	393.31
319.212	389.31
319.441	398.31
319.67	412.31
319.9	396.31
320.129	383.31
320.358	374.31
320.587	396.31
320.816	410.31
321.046	409.31
321.275	418.31
321.504	416.31
321.733	407.31
321.962	402.31
322.191	440.31
322.42	426.31
322.649	457.31
322.878	452.31
323.108	466.31
323.337	464.31
323.566	507.31
323.795	516.31
324.024	580.31
324.253	676.31
324.482	946.31
324.71	1520.31
324.939	2294.31
325.168	1956.31
325.397	970.31
325.626	676.31
325.855	564.31
326.084	532.31
326.313	516.31
326.542	503.31
326.77	557.31
326.999	642.31
327.228	882.31
327.457	1365.31
327.686	1726.31
327.914	1110.31
328.143	731.31
328.372	644.31
328.6	599.31
328.829	578.31
329.058	580.31
329.287	608.31
329.515	554.31
329.744	532.31
329.972	542.31
330.201	531.31
330.43	595.31
330.658	606.31
330.887	635.31
331.115	628.31
331.344	550.31
331.572	511.31
331.801	500.31
332.03	501.31
332.258	490.31
332.486	471.31
332.715	472.31
332.943	480.31
333.172	476.31
333.4	489.31
333.629	521.31
333.857	512.31
334.085	514.31
334.314	527.31
334.542	554.31
334.771	601.31
334.999	517.31
335.227	504.31
335.455	489.31
335.684	472.31
335.912	493.31
336.14	477.31
336.369	485.31
336.597	499.31
336.825	508.31
337.053	490.31
337.281	458.31
337.51	461.31
337.738	465.31
337.966	453.31
338.194	478.31
338.422	470.31
338.65	471.31
338.878	451.31
339.106	458.31
339.334	457.31
339.562	441.31
339.79	433.31
340.018	451.31
340.246	454.31
340.474	475.31
340.702	465.31
340.93	462.31
341.158	444.31
341.386	462.31
341.614	449.31
341.842	448.31
342.07	453.31
342.298	444.31
342.526	458.31
342.754	436.31
342.981	425.31
343.209	432.31
343.437	460.31
343.665	465.31
343.893	460.31
344.12	460.31
344.348	453.31
344.576	464.31
344.804	472.31
345.031	476.31
345.259	481.31
345.487	477.31
345.714	466.31
345.942	458.31
346.17	440.31
346.397	452.31
346.625	457.31
346.853	472.31
347.08	453.31
347.308	462.31
347.535	448.31
347.763	454.31
347.99	417.31
348.218	450.31
348.445	465.31
348.673	469.31
348.9	453.31
349.128	451.31
349.355	420.31
349.583	437.31
349.81	432.31
350.037	425.31
350.265	432.31
350.492	424.31
350.72	447.31
350.947	430.31
351.174	460.31
351.402	460.31
351.629	451.31
351.856	453.31
352.083	427.31
352.311	476.31
352.538	436.31
352.765	443.31
352.992	461.31
353.22	449.31
353.447	453.31
353.674	445.31
353.901	426.31
354.128	433.31
354.355	405.31
354.583	430.31
354.81	434.31
355.037	421.31
355.264	418.31
355.491	425.31
355.718	398.31
355.945	433.31
356.172	412.31
356.399	408.31
356.626	416.31
356.853	416.31
357.08	409.31
357.307	424.31
357.534	423.31
357.761	404.31
357.988	432.31
358.215	422.31
358.441	437.31
358.668	409.31
358.895	436.31
359.122	422.31
359.349	413.31
359.576	458.31
359.802	441.31
360.029	491.31
360.256	472.31
360.483	476.31
360.709	468.31
360.936	435.31
361.163	445.31
361.39	450.31
361.616	452.31
361.843	437.31
362.07	450.31
362.296	464.31
362.523	437.31
362.749	452.31
362.976	441.31
363.203	477.31
363.429	433.31
363.656	443.31
363.882	448.31
364.109	442.31
364.335	432.31
364.562	442.31
364.788	461.31
365.015	422.31
365.241	429.31
365.468	421.31
365.694	434.31
365.92	440.31
366.147	444.31
366.373	436.31
366.599	413.31
366.826	427.31
367.052	433.31
367.278	436.31
367.505	426.31
367.731	438.31
367.957	432.31
368.184	444.31
368.41	446.31
368.636	454.31
368.862	464.31
369.089	436.31
369.315	427.31
369.541	449.31
369.767	441.31
369.993	436.31
370.219	434.31
370.445	443.31
370.672	457.31
370.898	440.31
371.124	424.31
371.35	432.31
371.576	427.31
371.802	416.31
372.028	435.31
372.254	447.31
372.48	438.31
372.706	432.31
372.932	428.31
373.158	464.31
373.384	451.31
373.61	428.31
373.835	447.31
374.061	449.31
374.287	461.31
374.513	445.31
374.739	445.31
374.965	471.31
375.191	428.31
375.416	435.31
375.642	456.31
375.868	451.31
376.094	454.31
376.319	437.31
376.545	426.31
376.771	453.31
376.997	434.31
377.222	448.31
377.448	437.31
377.674	444.31
377.899	444.31
378.125	442.31
378.35	458.31
378.576	448.31
378.802	462.31
379.027	453.31
379.253	435.31
379.478	420.31
379.704	425.31
379.929	459.31
380.155	443.31
380.38	442.31
380.606	428.31
380.831	454.31
381.057	463.31
381.282	432.31
381.507	441.31
381.733	460.31
381.958	455.31
382.184	443.31
382.409	464.31
382.634	457.31
382.86	445.31
383.085	460.31
383.31	456.31
383.535	456.31
383.761	475.31
383.986	463.31
384.211	469.31
384.436	478.31
384.662	484.31
384.887	482.31
385.112	475.31
385.337	468.31
385.562	443.31
385.787	481.31
386.013	529.31
386.238	500.31
386.463	505.31
386.688	486.31
386.913	483.31
387.138	492.31
387.363	493.31
387.588	483.31
387.813	510.31
388.038	478.31
388.263	487.31
388.488	488.31
388.713	472.31
388.938	487.31
389.163	475.31
389.387	491.31
389.612	481.31
389.837	501.31
390.062	497.31
390.287	469.31
390.512	471.31
390.736	484.31
390.961	491.31
391.186	503.31
391.411	500.31
391.636	488.31
391.86	526.31
392.085	506.31
392.31	500.31
392.534	503.31
392.759	516.31
392.984	484.31
393.208	508.31
393.433	514.31
393.658	496.31
393.882	481.31
394.107	516.31
394.331	486.31
394.556	506.31
394.78	478.31
395.005	522.31
395.229	517.31
395.454	504.31
395.678	516.31
395.903	510.31
396.127	533.31
396.352	547.31
396.576	524.31
396.801	509.31
397.025	521.31
397.249	514.31
397.474	531.31
397.698	532.31
397.922	533.31
398.147	561.31
398.371	580.31
398.595	553.31
398.82	569.31
399.044	562.31
399.268	610.31
399.492	641.31
399.717	691.31
399.941	693.31
400.165	704.31
400.389	737.31
400.613	637.31
400.837	614.31
401.062	593.31
401.286	570.31
401.51	576.31
401.734	577.31
401.958	570.31
402.182	594.31
402.406	581.31
402.63	595.31
402.854	586.31
403.078	590.31
403.302	612.31
403.526	596.31
403.75	608.31
403.974	598.31
404.198	578.31
404.422	611.31
404.645	624.31
404.869	630.31
405.093	675.31
405.317	693.31
405.541	728.31
405.765	662.31
405.988	616.31
406.212	616.31
406.436	660.31
406.66	667.31
406.883	645.31
407.107	666.31
407.331	744.31
407.555	785.31
407.778	781.31
408.002	707.31
408.226	684.31
408.449	665.31
408.673	689.31
408.896	705.31
409.12	732.31
409.344	685.31
409.567	655.31
409.791	620.31
410.014	614.31
410.238	601.31
410.461	586.31
410.685	615.31
410.908	613.31
411.132	664.31
411.355	674.31
411.578	666.31
411.802	640.31
412.025	608.31
412.249	629.31
412.472	637.31
412.695	664.31
412.919	655.31
413.142	604.31
413.365	604.31
413.589	581.31
413.812	554.31
414.035	553.31
414.258	596.31
414.482	588.31
414.705	594.31
414.928	589.31
415.151	565.31
415.374	559.31
415.597	597.31
415.821	580.31
416.044	570.31
416.267	566.31
416.49	576.31
416.713	576.31
416.936	551.31
417.159	556.31
417.382	566.31
417.605	577.31
417.828	556.31
418.051	585.31
418.274	586.31
418.497	564.31
418.72	566.31
418.943	565.31
419.166	593.31
419.389	629.31
419.611	625.31
419.834	596.31
420.057	594.31
420.28	613.31
420.503	621.31
420.726	586.31
420.948	622.31
421.171	657.31
421.394	679.31
421.617	605.31
421.839	594.31
422.062	595.31
422.285	597.31
422.507	661.31
422.73	763.31
422.953	742.31
423.175	631.31
423.398	605.31
423.621	617.31
423.843	632.31
424.066	629.31
424.288	612.31
424.511	645.31
424.733	721.31
424.956	803.31
425.178	790.31
425.401	750.31
425.623	785.31
425.846	684.31
426.068	654.31
426.291	621.31
426.513	626.31
426.735	636.31
426.958	674.31
427.18	777.31
427.402	925.31
427.625	1058.31
427.847	889.31
428.069	752.31
428.292	698.31
428.514	619.31
428.736	604.31
428.958	597.31
429.181	594.31
429.403	584.31
429.625	592.31
429.847	621.31
430.069	698.31
430.292	722.31
430.514	622.31
430.736	602.31
430.958	566.31
431.18	576.31
431.402	586.31
431.624	555.31
431.846	537.31
432.068	581.31
432.29	578.31
432.512	578.31
432.734	588.31
432.956	571.31
433.178	581.31
433.4	592.31
433.622	576.31
433.844	543.31
434.066	557.31
434.287	527.31
434.509	576.31
434.731	580.31
434.953	583.31
435.175	592.31
435.397	621.31
435.618	637.31
435.84	676.31
436.062	823.31
436.284	902.31
436.505	722.31
436.727	660.31
436.949	614.31
437.17	599.31
437.392	582.31
437.614	608.31
437.835	664.31
438.057	752.31
438.278	844.31
438.5	850.31
438.721	965.31
438.943	886.31
439.165	702.31
439.386	667.31
439.608	630.31
439.829	645.31
440.05	663.31
440.272	738.31
440.493	690.31
440.715	621.31
440.936	604.31
441.158	592.31
441.379	582.31
441.6	599.31
441.822	637.31
442.043	689.31
442.264	776.31
442.486	834.31
442.707	707.31
442.928	659.31
443.149	669.31
443.371	676.31
443.592	731.31
443.813	810.31
444.034	916.31
444.255	751.31
444.476	672.31
444.698	646.31
444.919	664.31
445.14	768.31
445.361	701.31
445.582	689.31
445.803	760.31
446.024	874.31
446.245	888.31
446.466	826.31
446.687	678.31
446.908	662.31
447.129	606.31
447.35	595.31
447.571	584.31
447.792	555.31
448.013	581.31
448.234	602.31
448.455	644.31
448.675	807.31
448.896	911.31
449.117	788.31
449.338	755.31
449.559	852.31
449.779	979.31
450	796.31
450.221	636.31
450.442	592.31
450.662	583.31
450.883	569.31
451.104	592.31
451.324	569.31
451.545	573.31
451.766	557.31
451.986	518.31
452.207	501.31
452.428	512.31
452.648	523.31
452.869	525.31
453.089	524.31
453.31	533.31
453.53	534.31
453.751	520.31
453.971	517.31
454.192	546.31
454.412	544.31
454.633	534.31
454.853	513.31
455.073	502.31
455.294	576.31
455.514	650.31
455.734	619.31
455.955	530.31
456.175	518.31
456.395	498.31
456.616	500.31
456.836	492.31
457.056	508.31
457.276	477.31
457.497	510.31
457.717	472.31
457.937	508.31
458.157	523.31
458.377	532.31
458.598	525.31
458.818	577.31
459.038	671.31
459.258	690.31
459.478	601.31
459.698	576.31
459.918	554.31
460.138	579.31
460.358	572.31
460.578	560.31
460.798	566.31
461.018	565.31
461.238	577.31
461.458	570.31
461.678	564.31
461.898	584.31
462.118	567.31
462.338	585.31
462.558	601.31
462.777	594.31
462.997	620.31
463.217	630.31
463.437	651.31
463.657	606.31
463.876	638.31
464.096	612.31
464.316	604.31
464.536	634.31
464.755	627.31
464.975	628.31
465.195	664.31
465.414	708.31
465.634	639.31
465.854	606.31
466.073	589.31
466.293	549.31
466.512	552.31
466.732	527.31
466.951	561.31
467.171	526.31
467.391	543.31
467.61	544.31
467.829	565.31
468.049	553.31
468.268	536.31
468.488	535.31
468.707	526.31
468.927	542.31
469.146	520.31
469.365	524.31
469.585	521.31
469.804	544.31
470.023	551.31
470.243	530.31
470.462	548.31
470.681	549.31
470.901	565.31
471.12	549.31
471.339	533.31
471.558	534.31
471.777	544.31
471.997	538.31
472.216	538.31
472.435	598.31
472.654	597.31
472.873	550.31
473.092	527.31
473.311	539.31
473.53	555.31
473.749	569.31
473.968	616.31
474.187	689.31
474.406	755.31
474.625	610.31
474.844	577.31
475.063	561.31
475.282	561.31
475.501	567.31
475.72	572.31
475.939	562.31
476.158	560.31
476.377	565.31
476.596	567.31
476.814	573.31
477.033	593.31
477.252	576.31
477.471	595.31
477.69	598.31
477.908	582.31
478.127	609.31
478.346	593.31
478.564	617.31
478.783	625.31
479.002	634.31
479.22	624.31
479.439	644.31
479.658	662.31
479.876	641.31
480.095	646.31
480.313	716.31
480.532	684.31
480.751	678.31
480.969	691.31
481.188	726.31
481.406	779.31
481.624	719.31
481.843	663.31
482.061	658.31
482.28	691.31
482.498	664.31
482.717	631.31
482.935	631.31
483.153	647.31
483.372	654.31
483.59	643.31
483.808	648.31
484.027	656.31
484.245	641.31
484.463	634.31
484.681	641.31
484.9	657.31
485.118	641.31
485.336	662.31
485.554	652.31
485.772	667.31
485.99	667.31
486.209	672.31
486.427	675.31
486.645	686.31
486.863	731.31
487.081	700.31
487.299	708.31
487.517	701.31
487.735	681.31
487.953	716.31
488.171	658.31
488.389	706.31
488.607	696.31
488.825	697.31
489.043	705.31
489.261	704.31
489.479	704.31
489.696	726.31
489.914	696.31
490.132	714.31
490.35	729.31
490.568	723.31
490.786	773.31
491.003	736.31
491.221	757.31
491.439	792.31
491.657	796.31
491.874	803.31
492.092	806.31
492.31	816.31
492.527	813.31
492.745	800.31
492.963	811.31
493.18	832.31
493.398	834.31
493.615	843.31
493.833	843.31
494.05	824.31
494.268	826.31
494.485	813.31
494.703	816.31
494.92	849.31
495.138	852.31
495.355	803.31
495.573	826.31
495.79	812.31
496.008	835.31
496.225	840.31
496.442	833.31
496.66	831.31
496.877	847.31
497.094	842.31
497.312	837.31
497.529	865.31
497.746	852.31
497.963	844.31
498.181	925.31
498.398	896.31
498.615	914.31
498.832	953.31
499.049	954.31
499.267	1005.31
499.484	1024.31
499.701	1069.31
499.918	1087.31
500.135	1152.31
500.352	1219.31
500.569	1224.31
500.786	1227.31
501.003	1217.31
501.22	1164.31
501.437	1130.31
501.654	1103.31
