Data from 1966.PennyLincolnUp.Lamp.En5.5.200Scan.071719.P1.Scan2.head_HRD10591_14-18-13-170.txt Node
Date: Thu Jul 18 14:18:13 EDT 2019
User: cochatt
Spectrometer: HR+D1059
Trigger mode: 1
Integration Time (sec): 1.000000E-1
Scans to average: 1
Electric dark correction enabled: true
Nonlinearity correction enabled: false
Boxcar width: 0
XAxis mode: Wavelengths
Number of Pixels in Spectrum: 2048
>>>>>Begin Spectral Data<<<<<
223.165	-16.5
223.4	-16.5
223.635	-16.5
223.869	-25.5
224.104	-13.5
224.338	-12.5
224.573	-21.5
224.808	-20.5
225.042	-13.5
225.277	-6.5
225.511	12.5
225.746	19.5
225.98	5.5
226.215	-3.5
226.449	9.5
226.683	12.5
226.918	32.5
227.152	41.5
227.387	25.5
227.621	37.5
227.856	32.5
228.09	53.5
228.324	41.5
228.559	49.5
228.793	70.5
229.027	99.5
229.262	102.5
229.496	117.5
229.73	133.5
229.964	142.5
230.199	126.5
230.433	111.5
230.667	112.5
230.901	115.5
231.136	108.5
231.37	119.5
231.604	114.5
231.838	106.5
232.072	108.5
232.306	115.5
232.541	100.5
232.775	117.5
233.009	112.5
233.243	103.5
233.477	119.5
233.711	116.5
233.945	108.5
234.179	111.5
234.413	124.5
234.647	119.5
234.881	126.5
235.115	124.5
235.349	122.5
235.583	117.5
235.817	125.5
236.051	126.5
236.285	131.5
236.519	125.5
236.753	123.5
236.987	133.5
237.221	194.5
237.455	237.5
237.689	195.5
237.922	141.5
238.156	147.5
238.39	139.5
238.624	130.5
238.858	132.5
239.091	131.5
239.325	127.5
239.559	107.5
239.793	119.5
240.027	127.5
240.26	140.5
240.494	168.5
240.728	162.5
240.961	135.5
241.195	154.5
241.429	143.5
241.662	140.5
241.896	129.5
242.13	140.5
242.363	147.5
242.597	128.5
242.83	140.5
243.064	151.5
243.298	142.5
243.531	148.5
243.765	141.5
243.998	142.5
244.232	130.5
244.465	145.5
244.699	153.5
244.932	145.5
245.166	146.5
245.399	137.5
245.633	151.5
245.866	156.5
246.099	141.5
246.333	133.5
246.566	141.5
246.8	150.5
247.033	180.5
247.266	168.5
247.5	163.5
247.733	161.5
247.966	180.5
248.2	166.5
248.433	192.5
248.666	168.5
248.899	180.5
249.133	206.5
249.366	213.5
249.599	207.5
249.832	191.5
250.066	191.5
250.299	171.5
250.532	196.5
250.765	195.5
250.998	222.5
251.231	237.5
251.465	221.5
251.698	202.5
251.931	204.5
252.164	207.5
252.397	194.5
252.63	201.5
252.863	205.5
253.096	202.5
253.329	230.5
253.562	217.5
253.795	212.5
254.028	216.5
254.261	225.5
254.494	230.5
254.727	252.5
254.96	281.5
255.193	277.5
255.426	253.5
255.659	247.5
255.892	237.5
256.124	235.5
256.357	230.5
256.59	220.5
256.823	226.5
257.056	212.5
257.289	187.5
257.521	230.5
257.754	207.5
257.987	211.5
258.22	200.5
258.452	179.5
258.685	220.5
258.918	212.5
259.151	210.5
259.383	212.5
259.616	226.5
259.849	236.5
260.081	248.5
260.314	244.5
260.547	265.5
260.779	250.5
261.012	223.5
261.244	229.5
261.477	212.5
261.71	221.5
261.942	218.5
262.175	234.5
262.407	225.5
262.64	217.5
262.872	214.5
263.105	223.5
263.337	211.5
263.57	234.5
263.802	222.5
264.035	228.5
264.267	206.5
264.499	214.5
264.732	212.5
264.964	238.5
265.197	209.5
265.429	216.5
265.661	232.5
265.894	216.5
266.126	212.5
266.358	210.5
266.591	217.5
266.823	206.5
267.055	226.5
267.287	234.5
267.52	202.5
267.752	221.5
267.984	220.5
268.216	221.5
268.448	231.5
268.681	235.5
268.913	243.5
269.145	277.5
269.377	276.5
269.609	261.5
269.841	279.5
270.073	258.5
270.306	280.5
270.538	316.5
270.77	312.5
271.002	305.5
271.234	293.5
271.466	285.5
271.698	299.5
271.93	296.5
272.162	315.5
272.394	321.5
272.626	293.5
272.858	289.5
273.09	278.5
273.322	282.5
273.553	265.5
273.785	269.5
274.017	260.5
274.249	265.5
274.481	270.5
274.713	246.5
274.945	263.5
275.176	263.5
275.408	266.5
275.64	264.5
275.872	258.5
276.104	249.5
276.335	278.5
276.567	285.5
276.799	301.5
277.031	306.5
277.262	326.5
277.494	325.5
277.726	308.5
277.957	293.5
278.189	278.5
278.421	252.5
278.652	263.5
278.884	285.5
279.115	274.5
279.347	264.5
279.579	281.5
279.81	261.5
280.042	273.5
280.273	278.5
280.505	275.5
280.736	277.5
280.968	275.5
281.199	267.5
281.431	276.5
281.662	269.5
281.894	276.5
282.125	287.5
282.356	291.5
282.588	310.5
282.819	309.5
283.051	283.5
283.282	295.5
283.513	270.5
283.745	278.5
283.976	279.5
284.207	272.5
284.439	285.5
284.67	293.5
284.901	276.5
285.132	283.5
285.364	294.5
285.595	268.5
285.826	279.5
286.057	275.5
286.288	268.5
286.52	291.5
286.751	287.5
286.982	286.5
287.213	300.5
287.444	296.5
287.675	278.5
287.906	296.5
288.138	284.5
288.369	296.5
288.6	300.5
288.831	292.5
289.062	291.5
289.293	300.5
289.524	290.5
289.755	285.5
289.986	282.5
290.217	294.5
290.448	279.5
290.679	279.5
290.91	270.5
291.141	286.5
291.371	299.5
291.602	302.5
291.833	300.5
292.064	298.5
292.295	303.5
292.526	274.5
292.757	290.5
292.987	302.5
293.218	283.5
293.449	302.5
293.68	294.5
293.91	284.5
294.141	277.5
294.372	293.5
294.603	306.5
294.833	291.5
295.064	300.5
295.295	279.5
295.525	302.5
295.756	308.5
295.987	310.5
296.217	317.5
296.448	338.5
296.679	307.5
296.909	303.5
297.14	313.5
297.37	303.5
297.601	313.5
297.831	302.5
298.062	315.5
298.292	310.5
298.523	303.5
298.753	321.5
298.984	307.5
299.214	315.5
299.445	315.5
299.675	327.5
299.905	328.5
300.136	301.5
300.366	298.5
300.597	325.5
300.827	324.5
301.057	328.5
301.288	345.5
301.518	317.5
301.748	334.5
301.979	343.5
302.209	323.5
302.439	328.5
302.669	335.5
302.9	339.5
303.13	331.5
303.36	339.5
303.59	332.5
303.82	334.5
304.051	334.5
304.281	345.5
304.511	337.5
304.741	316.5
304.971	334.5
305.201	350.5
305.431	343.5
305.661	324.5
305.891	333.5
306.121	331.5
306.352	338.5
306.582	334.5
306.812	343.5
307.042	333.5
307.272	336.5
307.502	337.5
307.731	349.5
307.961	351.5
308.191	328.5
308.421	336.5
308.651	340.5
308.881	357.5
309.111	348.5
309.341	355.5
309.571	352.5
309.8	365.5
310.03	359.5
310.26	382.5
310.49	363.5
310.72	387.5
310.949	391.5
311.179	403.5
311.409	386.5
311.639	357.5
311.868	373.5
312.098	383.5
312.328	384.5
312.557	385.5
312.787	423.5
313.017	412.5
313.246	389.5
313.476	388.5
313.706	382.5
313.935	371.5
314.165	390.5
314.394	387.5
314.624	413.5
314.853	395.5
315.083	381.5
315.312	385.5
315.542	389.5
315.771	369.5
316.001	389.5
316.23	374.5
316.46	383.5
316.689	373.5
316.919	399.5
317.148	396.5
317.377	402.5
317.607	395.5
317.836	403.5
318.065	383.5
318.295	366.5
318.524	382.5
318.753	377.5
318.983	382.5
319.212	374.5
319.441	388.5
319.67	383.5
319.9	400.5
320.129	378.5
320.358	397.5
320.587	374.5
320.816	399.5
321.046	402.5
321.275	401.5
321.504	399.5
321.733	396.5
321.962	406.5
322.191	431.5
322.42	463.5
322.649	440.5
322.878	437.5
323.108	446.5
323.337	465.5
323.566	490.5
323.795	498.5
324.024	554.5
324.253	683.5
324.482	923.5
324.71	1490.5
324.939	2217.5
325.168	1914.5
325.397	951.5
325.626	628.5
325.855	531.5
326.084	493.5
326.313	501.5
326.542	478.5
326.77	535.5
326.999	647.5
327.228	867.5
327.457	1326.5
327.686	1685.5
327.914	1087.5
328.143	706.5
328.372	629.5
328.6	587.5
328.829	576.5
329.058	565.5
329.287	562.5
329.515	556.5
329.744	529.5
329.972	523.5
330.201	538.5
330.43	573.5
330.658	601.5
330.887	619.5
331.115	580.5
331.344	545.5
331.572	489.5
331.801	501.5
332.03	513.5
332.258	470.5
332.486	453.5
332.715	455.5
332.943	469.5
333.172	452.5
333.4	476.5
333.629	482.5
333.857	486.5
334.085	510.5
334.314	514.5
334.542	544.5
334.771	569.5
334.999	513.5
335.227	481.5
335.455	469.5
335.684	477.5
335.912	474.5
336.14	463.5
336.369	465.5
336.597	460.5
336.825	472.5
337.053	466.5
337.281	461.5
337.51	453.5
337.738	455.5
337.966	435.5
338.194	467.5
338.422	467.5
338.65	462.5
338.878	451.5
339.106	428.5
339.334	429.5
339.562	452.5
339.79	429.5
340.018	453.5
340.246	422.5
340.474	448.5
340.702	427.5
340.93	455.5
341.158	441.5
341.386	441.5
341.614	436.5
341.842	446.5
342.07	453.5
342.298	441.5
342.526	433.5
342.754	424.5
342.981	432.5
343.209	421.5
343.437	420.5
343.665	438.5
343.893	451.5
344.12	433.5
344.348	461.5
344.576	450.5
344.804	457.5
345.031	454.5
345.259	471.5
345.487	463.5
345.714	459.5
345.942	418.5
346.17	437.5
346.397	433.5
346.625	429.5
346.853	430.5
347.08	405.5
347.308	448.5
347.535	441.5
347.763	445.5
347.99	431.5
348.218	450.5
348.445	447.5
348.673	459.5
348.9	405.5
349.128	419.5
349.355	407.5
349.583	440.5
349.81	409.5
350.037	405.5
350.265	409.5
350.492	416.5
350.72	416.5
350.947	448.5
351.174	442.5
351.402	450.5
351.629	461.5
351.856	433.5
352.083	450.5
352.311	452.5
352.538	467.5
352.765	460.5
352.992	452.5
353.22	444.5
353.447	422.5
353.674	427.5
353.901	407.5
354.128	419.5
354.355	415.5
354.583	394.5
354.81	394.5
355.037	406.5
355.264	407.5
355.491	410.5
355.718	405.5
355.945	409.5
356.172	386.5
356.399	390.5
356.626	391.5
356.853	410.5
357.08	405.5
357.307	406.5
357.534	393.5
357.761	413.5
357.988	410.5
358.215	401.5
358.441	380.5
358.668	400.5
358.895	436.5
359.122	436.5
359.349	409.5
359.576	431.5
359.802	467.5
360.029	478.5
360.256	475.5
360.483	462.5
360.709	454.5
360.936	435.5
361.163	438.5
361.39	444.5
361.616	443.5
361.843	424.5
362.07	443.5
362.296	458.5
362.523	437.5
362.749	434.5
362.976	437.5
363.203	441.5
363.429	421.5
363.656	442.5
363.882	421.5
364.109	423.5
364.335	406.5
364.562	434.5
364.788	407.5
365.015	413.5
365.241	434.5
365.468	430.5
365.694	423.5
365.92	412.5
366.147	426.5
366.373	442.5
366.599	426.5
366.826	406.5
367.052	397.5
367.278	434.5
367.505	426.5
367.731	398.5
367.957	421.5
368.184	405.5
368.41	434.5
368.636	447.5
368.862	464.5
369.089	442.5
369.315	431.5
369.541	408.5
369.767	414.5
369.993	442.5
370.219	426.5
370.445	437.5
370.672	423.5
370.898	422.5
371.124	432.5
371.35	418.5
371.576	410.5
371.802	411.5
372.028	430.5
372.254	447.5
372.48	434.5
372.706	437.5
372.932	436.5
373.158	418.5
373.384	427.5
373.61	420.5
373.835	441.5
374.061	436.5
374.287	437.5
374.513	440.5
374.739	441.5
374.965	437.5
375.191	435.5
375.416	429.5
375.642	455.5
375.868	425.5
376.094	435.5
376.319	435.5
376.545	439.5
376.771	419.5
376.997	419.5
377.222	423.5
377.448	429.5
377.674	434.5
377.899	418.5
378.125	425.5
378.35	436.5
378.576	412.5
378.802	412.5
379.027	416.5
379.253	409.5
379.478	428.5
379.704	439.5
379.929	423.5
380.155	425.5
380.38	432.5
380.606	427.5
380.831	422.5
381.057	421.5
381.282	444.5
381.507	422.5
381.733	424.5
381.958	423.5
382.184	459.5
382.409	421.5
382.634	440.5
382.86	445.5
383.085	445.5
383.31	472.5
383.535	474.5
383.761	458.5
383.986	442.5
384.211	462.5
384.436	454.5
384.662	462.5
384.887	464.5
385.112	465.5
385.337	488.5
385.562	482.5
385.787	485.5
386.013	489.5
386.238	479.5
386.463	483.5
386.688	482.5
386.913	462.5
387.138	469.5
387.363	484.5
387.588	472.5
387.813	474.5
388.038	450.5
388.263	461.5
388.488	483.5
388.713	470.5
388.938	521.5
389.163	475.5
389.387	464.5
389.612	471.5
389.837	496.5
390.062	484.5
390.287	464.5
390.512	446.5
390.736	458.5
390.961	475.5
391.186	475.5
391.411	477.5
391.636	471.5
391.86	509.5
392.085	489.5
392.31	495.5
392.534	513.5
392.759	503.5
392.984	492.5
393.208	492.5
393.433	470.5
393.658	501.5
393.882	499.5
394.107	472.5
394.331	492.5
394.556	478.5
394.78	485.5
395.005	519.5
395.229	508.5
395.454	510.5
395.678	506.5
395.903	514.5
396.127	521.5
396.352	540.5
396.576	502.5
396.801	483.5
397.025	525.5
397.249	515.5
397.474	514.5
397.698	535.5
397.922	528.5
398.147	545.5
398.371	563.5
398.595	555.5
398.82	534.5
399.044	562.5
399.268	596.5
399.492	589.5
399.717	642.5
399.941	666.5
400.165	699.5
400.389	706.5
400.613	636.5
400.837	595.5
401.062	570.5
401.286	575.5
401.51	542.5
401.734	532.5
401.958	582.5
402.182	540.5
402.406	561.5
402.63	570.5
402.854	565.5
403.078	582.5
403.302	581.5
403.526	586.5
403.75	578.5
403.974	590.5
404.198	581.5
404.422	577.5
404.645	578.5
404.869	579.5
405.093	620.5
405.317	703.5
405.541	708.5
405.765	636.5
405.988	627.5
406.212	598.5
406.436	678.5
406.66	653.5
406.883	632.5
407.107	670.5
407.331	707.5
407.555	742.5
407.778	771.5
408.002	699.5
408.226	651.5
408.449	644.5
408.673	625.5
408.896	662.5
409.12	697.5
409.344	683.5
409.567	620.5
409.791	584.5
410.014	590.5
410.238	591.5
410.461	586.5
410.685	591.5
410.908	601.5
411.132	635.5
411.355	687.5
411.578	631.5
411.802	604.5
412.025	586.5
412.249	592.5
412.472	620.5
412.695	635.5
412.919	637.5
413.142	583.5
413.365	587.5
413.589	589.5
413.812	560.5
414.035	549.5
414.258	525.5
414.482	558.5
414.705	528.5
414.928	538.5
415.151	556.5
415.374	546.5
415.597	544.5
415.821	532.5
416.044	548.5
416.267	548.5
416.49	561.5
416.713	553.5
416.936	568.5
417.159	539.5
417.382	554.5
417.605	563.5
417.828	557.5
418.051	579.5
418.274	573.5
418.497	556.5
418.72	582.5
418.943	569.5
419.166	578.5
419.389	590.5
419.611	586.5
419.834	575.5
420.057	558.5
420.28	601.5
420.503	585.5
420.726	589.5
420.948	597.5
421.171	659.5
421.394	673.5
421.617	606.5
421.839	552.5
422.062	573.5
422.285	591.5
422.507	661.5
422.73	746.5
422.953	712.5
423.175	620.5
423.398	610.5
423.621	586.5
423.843	617.5
424.066	637.5
424.288	613.5
424.511	644.5
424.733	689.5
424.956	771.5
425.178	745.5
425.401	766.5
425.623	766.5
425.846	677.5
426.068	616.5
426.291	612.5
426.513	626.5
426.735	607.5
426.958	652.5
427.18	759.5
427.402	866.5
427.625	972.5
427.847	843.5
428.069	744.5
428.292	667.5
428.514	625.5
428.736	599.5
428.958	579.5
429.181	590.5
429.403	573.5
429.625	585.5
429.847	618.5
430.069	690.5
430.292	667.5
430.514	603.5
430.736	566.5
430.958	563.5
431.18	565.5
431.402	556.5
431.624	535.5
431.846	520.5
432.068	525.5
432.29	525.5
432.512	555.5
432.734	569.5
432.956	547.5
433.178	565.5
433.4	539.5
433.622	546.5
433.844	554.5
434.066	539.5
434.287	561.5
434.509	570.5
434.731	579.5
434.953	570.5
435.175	594.5
435.397	619.5
435.618	623.5
435.84	677.5
436.062	764.5
436.284	835.5
436.505	673.5
436.727	639.5
436.949	566.5
437.17	571.5
437.392	583.5
437.614	601.5
437.835	593.5
438.057	722.5
438.278	850.5
438.5	850.5
438.721	915.5
438.943	883.5
439.165	705.5
439.386	636.5
439.608	627.5
439.829	631.5
440.05	640.5
440.272	702.5
440.493	655.5
440.715	615.5
440.936	574.5
441.158	585.5
441.379	586.5
441.6	566.5
441.822	612.5
442.043	662.5
442.264	753.5
442.486	779.5
442.707	673.5
442.928	651.5
443.149	631.5
443.371	665.5
443.592	703.5
443.813	822.5
444.034	882.5
444.255	709.5
444.476	654.5
444.698	632.5
444.919	622.5
445.14	749.5
445.361	707.5
445.582	663.5
445.803	733.5
446.024	860.5
446.245	829.5
446.466	756.5
446.687	669.5
446.908	620.5
447.129	588.5
447.35	569.5
447.571	551.5
447.792	568.5
448.013	575.5
448.234	611.5
448.455	631.5
448.675	746.5
448.896	902.5
449.117	753.5
449.338	732.5
449.559	818.5
449.779	940.5
450	769.5
450.221	633.5
450.442	603.5
450.662	586.5
450.883	565.5
451.104	594.5
451.324	571.5
451.545	520.5
451.766	518.5
451.986	512.5
452.207	505.5
452.428	513.5
452.648	527.5
452.869	520.5
453.089	508.5
453.31	509.5
453.53	518.5
453.751	503.5
453.971	507.5
454.192	516.5
454.412	511.5
454.633	510.5
454.853	508.5
455.073	503.5
455.294	528.5
455.514	614.5
455.734	609.5
455.955	525.5
456.175	486.5
456.395	478.5
456.616	498.5
456.836	503.5
457.056	485.5
457.276	474.5
457.497	478.5
457.717	490.5
457.937	497.5
458.157	502.5
458.377	510.5
458.598	539.5
458.818	587.5
459.038	675.5
459.258	699.5
459.478	595.5
459.698	539.5
459.918	526.5
460.138	533.5
460.358	571.5
460.578	537.5
460.798	558.5
461.018	582.5
461.238	562.5
461.458	554.5
461.678	546.5
461.898	547.5
462.118	556.5
462.338	595.5
462.558	563.5
462.777	598.5
462.997	582.5
463.217	637.5
463.437	608.5
463.657	610.5
463.876	597.5
464.096	584.5
464.316	597.5
464.536	604.5
464.755	589.5
464.975	598.5
465.195	631.5
465.414	695.5
465.634	633.5
465.854	571.5
466.073	559.5
466.293	529.5
466.512	542.5
466.732	523.5
466.951	551.5
467.171	540.5
467.391	537.5
467.61	531.5
467.829	538.5
468.049	544.5
468.268	515.5
468.488	523.5
468.707	504.5
468.927	514.5
469.146	499.5
469.365	514.5
469.585	505.5
469.804	515.5
470.023	526.5
470.243	509.5
470.462	520.5
470.681	550.5
470.901	566.5
471.12	555.5
471.339	549.5
471.558	526.5
471.777	533.5
471.997	515.5
472.216	556.5
472.435	562.5
472.654	573.5
472.873	521.5
473.092	517.5
473.311	513.5
473.53	532.5
473.749	531.5
473.968	580.5
474.187	695.5
474.406	695.5
474.625	588.5
474.844	541.5
475.063	518.5
475.282	523.5
475.501	550.5
475.72	550.5
475.939	565.5
476.158	537.5
476.377	540.5
476.596	546.5
476.814	569.5
477.033	559.5
477.252	572.5
477.471	561.5
477.69	592.5
477.908	559.5
478.127	589.5
478.346	607.5
478.564	620.5
478.783	608.5
479.002	604.5
479.22	611.5
479.439	626.5
479.658	642.5
479.876	669.5
480.095	625.5
480.313	652.5
480.532	701.5
480.751	673.5
480.969	684.5
481.188	718.5
481.406	762.5
481.624	697.5
481.843	666.5
482.061	662.5
482.28	635.5
482.498	633.5
482.717	607.5
482.935	622.5
483.153	638.5
483.372	633.5
483.59	625.5
483.808	594.5
484.027	643.5
484.245	610.5
484.463	621.5
484.681	641.5
484.9	641.5
485.118	628.5
485.336	641.5
485.554	641.5
485.772	651.5
485.99	632.5
486.209	659.5
486.427	652.5
486.645	662.5
486.863	689.5
487.081	690.5
487.299	685.5
487.517	667.5
487.735	681.5
487.953	672.5
488.171	670.5
488.389	677.5
488.607	677.5
488.825	648.5
489.043	687.5
489.261	680.5
489.479	708.5
489.696	684.5
489.914	675.5
490.132	713.5
490.35	701.5
490.568	686.5
490.786	735.5
491.003	737.5
491.221	742.5
491.439	757.5
491.657	763.5
491.874	793.5
492.092	794.5
492.31	798.5
492.527	770.5
492.745	800.5
492.963	794.5
493.18	790.5
493.398	822.5
493.615	789.5
493.833	787.5
494.05	795.5
494.268	795.5
494.485	799.5
494.703	813.5
494.92	826.5
495.138	821.5
495.355	817.5
495.573	807.5
495.79	815.5
496.008	814.5
496.225	790.5
496.442	793.5
496.66	810.5
496.877	810.5
497.094	827.5
497.312	812.5
497.529	823.5
497.746	814.5
497.963	841.5
498.181	878.5
498.398	876.5
498.615	889.5
498.832	917.5
499.049	926.5
499.267	962.5
499.484	969.5
499.701	1044.5
499.918	1077.5
500.135	1089.5
500.352	1138.5
500.569	1144.5
500.786	1163.5
501.003	1166.5
501.22	1094.5
501.437	1108.5
501.654	1061.5
501.871	1050.5
502.088	1020.5
502.305	940.5
502.522	946.5
502.739	897.5
502.956	846.5
503.172	862.5
503.389	851.5
503.606	829.5
503.823	862.5
504.04	853.5
504.256	837.5
504.473	843.5
504.69	806.5
504.907	813.5
505.123	777.5
505.34	761.5
505.557	799.5
505.773	773.5
505.99	792.5
506.207	780.5
506.423	768.5
506.64	790.5
506.856	746.5
507.073	755.5
507.289	747.5
507.506	737.5
507.722	762.5
507.939	767.5
508.155	732.5
508.372	715.5
508.588	732.5
508.805	746.5
509.021	704.5
509.238	726.5
509.454	714.5
509.67	726.5
509.887	719.5
510.103	723.5
510.319	717.5
510.536	833.5
510.752	1262.5
510.968	1063.5
511.184	720.5
511.401	718.5
511.617	675.5
511.833	686.5
512.049	691.5
512.265	691.5
512.481	685.5
512.698	677.5
512.914	676.5
513.13	696.5
513.346	665.5
513.562	655.5
513.778	682.5
513.994	687.5
514.21	681.5
514.426	702.5
514.642	755.5
514.858	780.5
515.074	820.5
515.29	932.5
515.506	1306.5
515.721	1137.5
515.937	806.5
516.153	753.5
516.369	742.5
516.585	725.5
516.801	706.5
517.016	710.5
517.232	731.5
517.448	709.5
517.664	715.5
517.879	703.5
518.095	725.5
518.311	726.5
518.527	708.5
518.742	714.5
518.958	699.5
519.173	697.5
519.389	675.5
