Data from 1966.PennyLincolnUp.Lamp.En5.5.200Scan.071719.P1._HRD10591_14-12-50-914.txt Node
Date: Thu Jul 18 14:12:50 EDT 2019
User: cochatt
Spectrometer: HR+D1059
Trigger mode: 1
Integration Time (sec): 1.000000E-1
Scans to average: 1
Electric dark correction enabled: true
Nonlinearity correction enabled: false
Boxcar width: 0
XAxis mode: Wavelengths
Number of Pixels in Spectrum: 2048
>>>>>Begin Spectral Data<<<<<
223.165	-24.56
223.4	-24.56
223.635	-24.56
223.869	-8.56
224.104	-23.56
224.338	-18.56
224.573	-21.56
224.808	-26.56
225.042	2.44
225.277	-9.56
225.511	9.44
225.746	7.44
225.98	11.44
226.215	14.44
226.449	12.44
226.683	21.44
226.918	22.44
227.152	31.44
227.387	30.44
227.621	45.44
227.856	43.44
228.09	63.44
228.324	47.44
228.559	57.44
228.793	61.44
229.027	82.44
229.262	74.44
229.496	79.44
229.73	90.44
229.964	117.44
230.199	91.44
230.433	86.44
230.667	86.44
230.901	86.44
231.136	90.44
231.37	100.44
231.604	104.44
231.838	86.44
232.072	103.44
232.306	100.44
232.541	91.44
232.775	88.44
233.009	110.44
233.243	90.44
233.477	103.44
233.711	90.44
233.945	98.44
234.179	88.44
234.413	95.44
234.647	108.44
234.881	101.44
235.115	97.44
235.349	98.44
235.583	96.44
235.817	100.44
236.051	107.44
236.285	92.44
236.519	91.44
236.753	103.44
236.987	107.44
237.221	102.44
237.455	136.44
237.689	116.44
237.922	103.44
238.156	103.44
238.39	107.44
238.624	94.44
238.858	106.44
239.091	100.44
239.325	94.44
239.559	86.44
239.793	107.44
240.027	98.44
240.26	103.44
240.494	118.44
240.728	116.44
240.961	106.44
241.195	104.44
241.429	100.44
241.662	89.44
241.896	88.44
242.13	91.44
242.363	102.44
242.597	102.44
242.83	100.44
243.064	91.44
243.298	103.44
243.531	104.44
243.765	93.44
243.998	96.44
244.232	119.44
244.465	110.44
244.699	108.44
244.932	100.44
245.166	104.44
245.399	121.44
245.633	111.44
245.866	109.44
246.099	91.44
246.333	111.44
246.566	125.44
246.8	118.44
247.033	118.44
247.266	112.44
247.5	116.44
247.733	106.44
247.966	112.44
248.2	118.44
248.433	116.44
248.666	118.44
248.899	111.44
249.133	113.44
249.366	126.44
249.599	119.44
249.832	118.44
250.066	110.44
250.299	112.44
250.532	119.44
250.765	138.44
250.998	138.44
251.231	133.44
251.465	132.44
251.698	118.44
251.931	130.44
252.164	116.44
252.397	120.44
252.63	142.44
252.863	140.44
253.096	143.44
253.329	130.44
253.562	129.44
253.795	134.44
254.028	144.44
254.261	136.44
254.494	137.44
254.727	134.44
254.96	153.44
255.193	146.44
255.426	138.44
255.659	135.44
255.892	140.44
256.124	130.44
256.357	144.44
256.59	147.44
256.823	130.44
257.056	124.44
257.289	124.44
257.521	137.44
257.754	127.44
257.987	142.44
258.22	111.44
258.452	128.44
258.685	121.44
258.918	127.44
259.151	126.44
259.383	136.44
259.616	128.44
259.849	126.44
260.081	134.44
260.314	151.44
260.547	152.44
260.779	144.44
261.012	127.44
261.244	136.44
261.477	138.44
261.71	146.44
261.942	139.44
262.175	150.44
262.407	122.44
262.64	138.44
262.872	139.44
263.105	138.44
263.337	145.44
263.57	127.44
263.802	132.44
264.035	121.44
264.267	136.44
264.499	128.44
264.732	124.44
264.964	138.44
265.197	136.44
265.429	137.44
265.661	124.44
265.894	148.44
266.126	133.44
266.358	139.44
266.591	134.44
266.823	136.44
267.055	129.44
267.287	141.44
267.52	125.44
267.752	136.44
267.984	142.44
268.216	134.44
268.448	152.44
268.681	146.44
268.913	146.44
269.145	161.44
269.377	144.44
269.609	158.44
269.841	154.44
270.073	160.44
270.306	154.44
270.538	175.44
270.77	171.44
271.002	160.44
271.234	174.44
271.466	166.44
271.698	170.44
271.93	190.44
272.162	188.44
272.394	170.44
272.626	170.44
272.858	159.44
273.09	160.44
273.322	152.44
273.553	160.44
273.785	152.44
274.017	163.44
274.249	155.44
274.481	155.44
274.713	152.44
274.945	152.44
275.176	144.44
275.408	147.44
275.64	132.44
275.872	142.44
276.104	146.44
276.335	143.44
276.567	145.44
276.799	171.44
277.031	172.44
277.262	190.44
277.494	181.44
277.726	157.44
277.957	167.44
278.189	139.44
278.421	150.44
278.652	149.44
278.884	170.44
279.115	150.44
279.347	170.44
279.579	159.44
279.81	167.44
280.042	160.44
280.273	150.44
280.505	161.44
280.736	169.44
280.968	167.44
281.199	142.44
281.431	148.44
281.662	155.44
281.894	180.44
282.125	160.44
282.356	173.44
282.588	184.44
282.819	170.44
283.051	146.44
283.282	146.44
283.513	161.44
283.745	165.44
283.976	172.44
284.207	158.44
284.439	145.44
284.67	157.44
284.901	147.44
285.132	158.44
285.364	175.44
285.595	155.44
285.826	157.44
286.057	155.44
286.288	158.44
286.52	165.44
286.751	142.44
286.982	156.44
287.213	150.44
287.444	171.44
287.675	170.44
287.906	173.44
288.138	188.44
288.369	170.44
288.6	170.44
288.831	183.44
289.062	160.44
289.293	166.44
289.524	157.44
289.755	165.44
289.986	169.44
290.217	162.44
290.448	166.44
290.679	166.44
290.91	168.44
291.141	175.44
291.371	162.44
291.602	168.44
291.833	165.44
292.064	161.44
292.295	165.44
292.526	163.44
292.757	176.44
292.987	158.44
293.218	169.44
293.449	162.44
293.68	168.44
293.91	156.44
294.141	158.44
294.372	164.44
294.603	174.44
294.833	160.44
295.064	163.44
295.295	155.44
295.525	160.44
295.756	182.44
295.987	164.44
296.217	158.44
296.448	175.44
296.679	176.44
296.909	146.44
297.14	172.44
297.37	165.44
297.601	163.44
297.831	158.44
298.062	171.44
298.292	155.44
298.523	176.44
298.753	169.44
298.984	167.44
299.214	161.44
299.445	177.44
299.675	171.44
299.905	174.44
300.136	168.44
300.366	173.44
300.597	159.44
300.827	153.44
301.057	177.44
301.288	174.44
301.518	184.44
301.748	175.44
301.979	174.44
302.209	186.44
302.439	194.44
302.669	176.44
302.9	157.44
303.13	168.44
303.36	184.44
303.59	167.44
303.82	162.44
304.051	184.44
304.281	166.44
304.511	166.44
304.741	181.44
304.971	192.44
305.201	173.44
305.431	167.44
305.661	179.44
305.891	176.44
306.121	174.44
306.352	198.44
306.582	192.44
306.812	173.44
307.042	183.44
307.272	174.44
307.502	185.44
307.731	174.44
307.961	194.44
308.191	189.44
308.421	172.44
308.651	175.44
308.881	193.44
309.111	187.44
309.341	167.44
309.571	177.44
309.8	194.44
310.03	182.44
310.26	194.44
310.49	192.44
310.72	192.44
310.949	211.44
311.179	196.44
311.409	202.44
311.639	192.44
311.868	205.44
312.098	196.44
312.328	190.44
312.557	207.44
312.787	195.44
313.017	215.44
313.246	196.44
313.476	197.44
313.706	195.44
313.935	202.44
314.165	189.44
314.394	207.44
314.624	209.44
314.853	200.44
315.083	196.44
315.312	183.44
315.542	198.44
315.771	199.44
316.001	216.44
316.23	194.44
316.46	210.44
316.689	189.44
316.919	194.44
317.148	192.44
317.377	199.44
317.607	189.44
317.836	210.44
318.065	189.44
318.295	186.44
318.524	186.44
318.753	206.44
318.983	208.44
319.212	189.44
319.441	192.44
319.67	201.44
319.9	193.44
320.129	199.44
320.358	197.44
320.587	215.44
320.816	206.44
321.046	210.44
321.275	209.44
321.504	201.44
321.733	206.44
321.962	198.44
322.191	210.44
322.42	225.44
322.649	222.44
322.878	207.44
323.108	218.44
323.337	239.44
323.566	237.44
323.795	264.44
324.024	256.44
324.253	324.44
324.482	447.44
324.71	664.44
324.939	893.44
325.168	732.44
325.397	367.44
325.626	269.44
325.855	248.44
326.084	246.44
326.313	230.44
326.542	238.44
326.77	272.44
326.999	324.44
327.228	418.44
327.457	592.44
327.686	687.44
327.914	456.44
328.143	315.44
328.372	290.44
328.6	266.44
328.829	258.44
329.058	287.44
329.287	287.44
329.515	274.44
329.744	235.44
329.972	240.44
330.201	269.44
330.43	287.44
330.658	312.44
330.887	308.44
331.115	284.44
331.344	238.44
331.572	228.44
331.801	238.44
332.03	238.44
332.258	220.44
332.486	227.44
332.715	206.44
332.943	214.44
333.172	234.44
333.4	218.44
333.629	232.44
333.857	240.44
334.085	234.44
334.314	268.44
334.542	262.44
334.771	283.44
334.999	249.44
335.227	238.44
335.455	226.44
335.684	230.44
335.912	211.44
336.14	219.44
336.369	210.44
336.597	227.44
336.825	219.44
337.053	213.44
337.281	217.44
337.51	224.44
337.738	204.44
337.966	212.44
338.194	228.44
338.422	220.44
338.65	216.44
338.878	207.44
339.106	208.44
339.334	205.44
339.562	211.44
339.79	211.44
340.018	217.44
340.246	222.44
340.474	215.44
340.702	222.44
340.93	220.44
341.158	221.44
341.386	216.44
341.614	194.44
341.842	206.44
342.07	224.44
342.298	212.44
342.526	203.44
342.754	217.44
342.981	213.44
343.209	215.44
343.437	228.44
343.665	210.44
343.893	224.44
344.12	210.44
344.348	202.44
344.576	219.44
344.804	219.44
345.031	230.44
345.259	228.44
345.487	221.44
345.714	205.44
345.942	191.44
346.17	215.44
346.397	202.44
346.625	203.44
346.853	216.44
347.08	182.44
347.308	206.44
347.535	206.44
347.763	240.44
347.99	215.44
348.218	213.44
348.445	230.44
348.673	228.44
348.9	217.44
349.128	205.44
349.355	202.44
349.583	201.44
349.81	197.44
350.037	200.44
350.265	210.44
350.492	206.44
350.72	194.44
350.947	206.44
351.174	210.44
351.402	206.44
351.629	220.44
351.856	201.44
352.083	210.44
352.311	230.44
352.538	213.44
352.765	203.44
352.992	221.44
353.22	204.44
353.447	210.44
353.674	216.44
353.901	194.44
354.128	201.44
354.355	210.44
354.583	192.44
354.81	190.44
355.037	194.44
355.264	194.44
355.491	189.44
355.718	211.44
355.945	189.44
356.172	196.44
356.399	191.44
356.626	195.44
356.853	184.44
357.08	177.44
357.307	200.44
357.534	198.44
357.761	206.44
357.988	186.44
358.215	192.44
358.441	180.44
358.668	202.44
358.895	201.44
359.122	205.44
359.349	210.44
359.576	201.44
359.802	206.44
360.029	221.44
360.256	225.44
360.483	237.44
360.709	203.44
360.936	213.44
361.163	203.44
361.39	190.44
361.616	208.44
361.843	218.44
362.07	219.44
362.296	211.44
362.523	221.44
362.749	222.44
362.976	214.44
363.203	210.44
363.429	189.44
363.656	191.44
363.882	203.44
364.109	187.44
364.335	191.44
364.562	185.44
364.788	185.44
365.015	203.44
365.241	198.44
365.468	187.44
365.694	196.44
365.92	207.44
366.147	220.44
366.373	167.44
366.599	193.44
366.826	196.44
367.052	184.44
367.278	196.44
367.505	209.44
367.731	214.44
367.957	216.44
368.184	196.44
368.41	188.44
368.636	196.44
368.862	226.44
369.089	197.44
369.315	206.44
369.541	194.44
369.767	198.44
369.993	189.44
370.219	213.44
370.445	188.44
370.672	182.44
370.898	190.44
371.124	189.44
371.35	188.44
371.576	198.44
371.802	213.44
372.028	189.44
372.254	200.44
372.48	194.44
372.706	190.44
372.932	194.44
373.158	208.44
373.384	197.44
373.61	188.44
373.835	199.44
374.061	207.44
374.287	201.44
374.513	221.44
374.739	202.44
374.965	202.44
375.191	193.44
375.416	206.44
375.642	209.44
375.868	201.44
376.094	202.44
376.319	208.44
376.545	192.44
376.771	191.44
376.997	198.44
377.222	201.44
377.448	198.44
377.674	209.44
377.899	200.44
378.125	215.44
378.35	222.44
378.576	203.44
378.802	191.44
379.027	209.44
379.253	197.44
379.478	194.44
379.704	189.44
379.929	188.44
380.155	186.44
380.38	198.44
380.606	176.44
380.831	186.44
381.057	203.44
381.282	196.44
381.507	203.44
381.733	198.44
381.958	192.44
382.184	203.44
382.409	188.44
382.634	199.44
382.86	189.44
383.085	202.44
383.31	203.44
383.535	204.44
383.761	213.44
383.986	218.44
384.211	189.44
384.436	198.44
384.662	192.44
384.887	201.44
385.112	212.44
385.337	212.44
385.562	224.44
385.787	197.44
386.013	217.44
386.238	204.44
386.463	219.44
386.688	212.44
386.913	214.44
387.138	214.44
387.363	207.44
387.588	195.44
387.813	205.44
388.038	205.44
388.263	222.44
388.488	214.44
388.713	193.44
388.938	199.44
389.163	205.44
389.387	200.44
389.612	209.44
389.837	205.44
390.062	208.44
390.287	206.44
390.512	205.44
390.736	207.44
390.961	218.44
391.186	200.44
391.411	215.44
391.636	222.44
391.86	210.44
392.085	213.44
392.31	224.44
392.534	209.44
392.759	208.44
392.984	209.44
393.208	212.44
393.433	228.44
393.658	220.44
393.882	216.44
394.107	211.44
394.331	208.44
394.556	206.44
394.78	202.44
395.005	211.44
395.229	206.44
395.454	229.44
395.678	224.44
395.903	223.44
396.127	232.44
396.352	227.44
396.576	218.44
396.801	207.44
397.025	234.44
397.249	233.44
397.474	241.44
397.698	222.44
397.922	228.44
398.147	227.44
398.371	237.44
398.595	239.44
398.82	246.44
399.044	258.44
399.268	233.44
399.492	266.44
399.717	258.44
399.941	296.44
400.165	288.44
400.389	280.44
400.613	270.44
400.837	269.44
401.062	245.44
401.286	233.44
401.51	237.44
401.734	233.44
401.958	246.44
402.182	244.44
402.406	236.44
402.63	253.44
402.854	258.44
403.078	254.44
403.302	252.44
403.526	262.44
403.75	248.44
403.974	217.44
404.198	242.44
404.422	252.44
404.645	251.44
404.869	237.44
405.093	266.44
405.317	278.44
405.541	289.44
405.765	268.44
405.988	268.44
406.212	274.44
406.436	279.44
406.66	291.44
406.883	269.44
407.107	294.44
407.331	312.44
407.555	328.44
407.778	304.44
408.002	289.44
408.226	269.44
408.449	264.44
408.673	260.44
408.896	279.44
409.12	290.44
409.344	269.44
409.567	249.44
409.791	249.44
410.014	255.44
410.238	258.44
410.461	249.44
410.685	260.44
410.908	256.44
411.132	283.44
411.355	278.44
411.578	275.44
411.802	258.44
412.025	251.44
412.249	239.44
412.472	278.44
412.695	260.44
412.919	263.44
413.142	246.44
413.365	239.44
413.589	237.44
413.812	234.44
414.035	234.44
414.258	232.44
414.482	237.44
414.705	230.44
414.928	236.44
415.151	249.44
415.374	241.44
415.597	235.44
415.821	235.44
416.044	233.44
416.267	234.44
416.49	230.44
416.713	234.44
416.936	236.44
417.159	254.44
417.382	241.44
417.605	248.44
417.828	232.44
418.051	253.44
418.274	236.44
418.497	234.44
418.72	221.44
418.943	216.44
419.166	249.44
419.389	241.44
419.611	251.44
419.834	256.44
420.057	261.44
420.28	251.44
420.503	253.44
420.726	246.44
420.948	267.44
421.171	267.44
421.394	286.44
421.617	249.44
421.839	234.44
422.062	260.44
422.285	262.44
422.507	288.44
422.73	306.44
422.953	298.44
423.175	266.44
423.398	244.44
423.621	266.44
423.843	256.44
424.066	249.44
424.288	265.44
424.511	274.44
424.733	305.44
424.956	324.44
425.178	293.44
425.401	297.44
425.623	301.44
425.846	295.44
426.068	258.44
426.291	269.44
426.513	262.44
426.735	268.44
426.958	290.44
427.18	308.44
427.402	377.44
427.625	392.44
427.847	342.44
428.069	312.44
428.292	255.44
428.514	249.44
428.736	236.44
428.958	241.44
429.181	239.44
429.403	234.44
429.625	250.44
429.847	278.44
430.069	299.44
430.292	293.44
430.514	248.44
430.736	254.44
430.958	237.44
431.18	260.44
431.402	216.44
431.624	243.44
431.846	225.44
432.068	238.44
432.29	237.44
432.512	229.44
432.734	221.44
432.956	244.44
433.178	230.44
433.4	222.44
433.622	223.44
433.844	250.44
434.066	218.44
434.287	224.44
434.509	223.44
434.731	231.44
434.953	224.44
435.175	254.44
435.397	274.44
435.618	263.44
435.84	277.44
436.062	324.44
436.284	343.44
436.505	286.44
436.727	254.44
436.949	234.44
437.17	233.44
437.392	257.44
437.614	255.44
437.835	256.44
438.057	292.44
438.278	327.44
438.5	313.44
438.721	358.44
438.943	336.44
439.165	270.44
439.386	282.44
439.608	255.44
439.829	271.44
440.05	263.44
440.272	281.44
440.493	267.44
440.715	240.44
440.936	257.44
441.158	221.44
441.379	253.44
441.6	243.44
441.822	234.44
442.043	296.44
442.264	316.44
442.486	329.44
442.707	278.44
442.928	259.44
443.149	271.44
443.371	275.44
443.592	291.44
443.813	332.44
444.034	344.44
444.255	293.44
444.476	254.44
444.698	249.44
444.919	252.44
445.14	331.44
445.361	318.44
445.582	289.44
445.803	321.44
446.024	347.44
446.245	340.44
446.466	309.44
446.687	293.44
446.908	270.44
447.129	264.44
447.35	232.44
447.571	238.44
447.792	260.44
448.013	235.44
448.234	247.44
448.455	262.44
448.675	330.44
448.896	350.44
449.117	303.44
449.338	296.44
449.559	326.44
449.779	369.44
450	290.44
450.221	270.44
450.442	239.44
450.662	230.44
450.883	247.44
451.104	252.44
451.324	268.44
451.545	245.44
451.766	221.44
451.986	232.44
452.207	215.44
452.428	217.44
452.648	225.44
452.869	208.44
453.089	214.44
453.31	226.44
453.53	237.44
453.751	218.44
453.971	228.44
454.192	243.44
454.412	221.44
454.633	228.44
454.853	198.44
455.073	216.44
455.294	226.44
455.514	281.44
455.734	244.44
455.955	230.44
456.175	212.44
456.395	203.44
456.616	187.44
456.836	212.44
457.056	189.44
457.276	223.44
457.497	225.44
457.717	228.44
457.937	207.44
458.157	203.44
458.377	232.44
458.598	233.44
458.818	251.44
459.038	295.44
459.258	286.44
459.478	253.44
459.698	242.44
459.918	214.44
460.138	218.44
460.358	228.44
460.578	233.44
460.798	224.44
461.018	249.44
461.238	213.44
461.458	233.44
461.678	248.44
461.898	237.44
462.118	230.44
462.338	240.44
462.558	258.44
462.777	246.44
462.997	246.44
463.217	263.44
463.437	264.44
463.657	240.44
463.876	240.44
464.096	240.44
464.316	241.44
464.536	263.44
464.755	267.44
464.975	270.44
465.195	281.44
465.414	319.44
465.634	289.44
465.854	244.44
466.073	232.44
466.293	245.44
466.512	224.44
466.732	230.44
466.951	220.44
467.171	226.44
467.391	232.44
467.61	230.44
467.829	249.44
468.049	220.44
468.268	233.44
468.488	222.44
468.707	211.44
468.927	232.44
469.146	216.44
469.365	226.44
469.585	224.44
469.804	234.44
470.023	232.44
470.243	242.44
470.462	223.44
470.681	240.44
470.901	246.44
471.12	230.44
471.339	247.44
471.558	228.44
471.777	236.44
471.997	223.44
472.216	241.44
472.435	270.44
472.654	240.44
472.873	219.44
473.092	227.44
473.311	239.44
473.53	241.44
473.749	234.44
473.968	267.44
474.187	282.44
474.406	312.44
474.625	230.44
474.844	224.44
475.063	238.44
475.282	223.44
475.501	234.44
475.72	241.44
475.939	262.44
476.158	231.44
476.377	231.44
476.596	230.44
476.814	235.44
477.033	223.44
477.252	252.44
477.471	248.44
477.69	234.44
477.908	243.44
478.127	239.44
478.346	249.44
478.564	247.44
478.783	254.44
479.002	266.44
479.22	255.44
479.439	255.44
479.658	263.44
479.876	289.44
480.095	279.44
480.313	273.44
480.532	284.44
480.751	254.44
480.969	288.44
481.188	339.44
481.406	365.44
481.624	288.44
481.843	270.44
482.061	268.44
482.28	279.44
482.498	241.44
482.717	251.44
482.935	252.44
483.153	268.44
483.372	274.44
483.59	266.44
483.808	266.44
484.027	266.44
484.245	240.44
484.463	271.44
484.681	271.44
484.9	261.44
485.118	260.44
485.336	264.44
485.554	280.44
485.772	270.44
485.99	273.44
486.209	287.44
486.427	251.44
486.645	278.44
486.863	292.44
487.081	284.44
487.299	267.44
487.517	298.44
487.735	273.44
487.953	298.44
488.171	294.44
488.389	288.44
488.607	276.44
488.825	274.44
489.043	276.44
489.261	279.44
489.479	290.44
489.696	294.44
489.914	284.44
490.132	289.44
490.35	308.44
490.568	288.44
490.786	300.44
491.003	304.44
491.221	328.44
491.439	317.44
491.657	322.44
491.874	341.44
492.092	338.44
492.31	333.44
492.527	325.44
492.745	318.44
492.963	352.44
493.18	344.44
493.398	331.44
493.615	338.44
493.833	335.44
494.05	349.44
494.268	322.44
494.485	336.44
494.703	330.44
494.92	331.44
495.138	331.44
495.355	319.44
495.573	328.44
495.79	316.44
496.008	324.44
496.225	330.44
496.442	331.44
496.66	313.44
496.877	317.44
497.094	330.44
497.312	330.44
497.529	322.44
497.746	328.44
497.963	318.44
498.181	356.44
498.398	339.44
498.615	333.44
498.832	364.44
499.049	345.44
499.267	349.44
499.484	368.44
499.701	393.44
499.918	418.44
500.135	426.44
500.352	421.44
500.569	430.44
500.786	448.44
501.003	428.44
501.22	426.44
501.437	399.44
501.654	397.44
501.871	398.44
502.088	383.44
502.305	352.44
502.522	366.44
