Data from 1966.PennyLincolnUp.Lamp.En5.5.200Scan.071719.P1._HRD10591_14-13-55-914.txt Node
Date: Thu Jul 18 14:13:55 EDT 2019
User: cochatt
Spectrometer: HR+D1059
Trigger mode: 1
Integration Time (sec): 1.000000E-1
Scans to average: 1
Electric dark correction enabled: true
Nonlinearity correction enabled: false
Boxcar width: 0
XAxis mode: Wavelengths
Number of Pixels in Spectrum: 2048
>>>>>Begin Spectral Data<<<<<
223.165	-16.88
223.4	-16.88
223.635	-16.88
223.869	-18.88
224.104	-25.88
224.338	-5.88
224.573	-4.88
224.808	-9.88
225.042	-3.88
225.277	-7.88
225.511	-6.88
225.746	-5.88
225.98	6.12
226.215	14.12
226.449	17.12
226.683	25.12
226.918	19.12
227.152	25.12
227.387	24.12
227.621	43.12
227.856	57.12
228.09	51.12
228.324	53.12
228.559	49.12
228.793	66.12
229.027	82.12
229.262	86.12
229.496	83.12
229.73	109.12
229.964	108.12
230.199	110.12
230.433	90.12
230.667	94.12
230.901	83.12
231.136	98.12
231.37	94.12
231.604	98.12
231.838	99.12
232.072	91.12
232.306	113.12
232.541	95.12
232.775	97.12
233.009	93.12
233.243	106.12
233.477	91.12
233.711	106.12
233.945	91.12
234.179	105.12
234.413	92.12
234.647	102.12
234.881	101.12
235.115	107.12
235.349	86.12
235.583	97.12
235.817	99.12
236.051	104.12
236.285	95.12
236.519	103.12
236.753	101.12
236.987	114.12
237.221	130.12
237.455	157.12
237.689	139.12
237.922	111.12
238.156	100.12
238.39	96.12
238.624	108.12
238.858	78.12
239.091	91.12
239.325	96.12
239.559	100.12
239.793	87.12
240.027	108.12
240.26	103.12
240.494	107.12
240.728	103.12
240.961	118.12
241.195	110.12
241.429	100.12
241.662	102.12
241.896	91.12
242.13	85.12
242.363	103.12
242.597	85.12
242.83	117.12
243.064	109.12
243.298	102.12
243.531	108.12
243.765	94.12
243.998	86.12
244.232	104.12
244.465	112.12
244.699	102.12
244.932	102.12
245.166	102.12
245.399	118.12
245.633	101.12
245.866	112.12
246.099	112.12
246.333	105.12
246.566	107.12
246.8	94.12
247.033	95.12
247.266	110.12
247.5	116.12
247.733	119.12
247.966	115.12
248.2	120.12
248.433	103.12
248.666	119.12
248.899	123.12
249.133	134.12
249.366	123.12
249.599	136.12
249.832	119.12
250.066	125.12
250.299	110.12
250.532	131.12
250.765	137.12
250.998	131.12
251.231	144.12
251.465	149.12
251.698	129.12
251.931	132.12
252.164	128.12
252.397	139.12
252.63	135.12
252.863	135.12
253.096	147.12
253.329	154.12
253.562	155.12
253.795	129.12
254.028	133.12
254.261	149.12
254.494	134.12
254.727	155.12
254.96	165.12
255.193	167.12
255.426	137.12
255.659	133.12
255.892	151.12
256.124	155.12
256.357	136.12
256.59	144.12
256.823	128.12
257.056	126.12
257.289	138.12
257.521	138.12
257.754	147.12
257.987	131.12
258.22	139.12
258.452	131.12
258.685	142.12
258.918	124.12
259.151	140.12
259.383	129.12
259.616	146.12
259.849	139.12
260.081	142.12
260.314	152.12
260.547	160.12
260.779	144.12
261.012	153.12
261.244	153.12
261.477	138.12
261.71	160.12
261.942	153.12
262.175	146.12
262.407	140.12
262.64	131.12
262.872	138.12
263.105	135.12
263.337	139.12
263.57	129.12
263.802	134.12
264.035	151.12
264.267	137.12
264.499	119.12
264.732	131.12
264.964	131.12
265.197	151.12
265.429	152.12
265.661	147.12
265.894	141.12
266.126	139.12
266.358	137.12
266.591	126.12
266.823	130.12
267.055	139.12
267.287	135.12
267.52	144.12
267.752	159.12
267.984	151.12
268.216	136.12
268.448	137.12
268.681	150.12
268.913	160.12
269.145	170.12
269.377	171.12
269.609	177.12
269.841	160.12
270.073	168.12
270.306	186.12
270.538	188.12
270.77	192.12
271.002	167.12
271.234	190.12
271.466	165.12
271.698	182.12
271.93	182.12
272.162	178.12
272.394	189.12
272.626	180.12
272.858	165.12
273.09	171.12
273.322	153.12
273.553	160.12
273.785	160.12
274.017	157.12
274.249	160.12
274.481	162.12
274.713	129.12
274.945	160.12
275.176	161.12
275.408	153.12
275.64	166.12
275.872	150.12
276.104	144.12
276.335	153.12
276.567	147.12
276.799	157.12
277.031	191.12
277.262	199.12
277.494	177.12
277.726	174.12
277.957	166.12
278.189	157.12
278.421	157.12
278.652	166.12
278.884	155.12
279.115	153.12
279.347	154.12
279.579	164.12
279.81	147.12
280.042	151.12
280.273	154.12
280.505	142.12
280.736	159.12
280.968	161.12
281.199	151.12
281.431	155.12
281.662	167.12
281.894	160.12
282.125	166.12
282.356	168.12
282.588	164.12
282.819	184.12
283.051	169.12
283.282	166.12
283.513	176.12
283.745	170.12
283.976	172.12
284.207	163.12
284.439	168.12
284.67	162.12
284.901	157.12
285.132	153.12
285.364	155.12
285.595	159.12
285.826	171.12
286.057	167.12
286.288	170.12
286.52	173.12
286.751	160.12
286.982	170.12
287.213	166.12
287.444	176.12
287.675	165.12
287.906	167.12
288.138	163.12
288.369	175.12
288.6	173.12
288.831	185.12
289.062	174.12
289.293	170.12
289.524	169.12
289.755	172.12
289.986	157.12
290.217	167.12
290.448	172.12
290.679	147.12
290.91	172.12
291.141	162.12
291.371	153.12
291.602	174.12
291.833	162.12
292.064	169.12
292.295	173.12
292.526	182.12
292.757	175.12
292.987	163.12
293.218	176.12
293.449	181.12
293.68	172.12
293.91	167.12
294.141	167.12
294.372	176.12
294.603	185.12
294.833	151.12
295.064	166.12
295.295	171.12
295.525	161.12
295.756	172.12
295.987	183.12
296.217	178.12
296.448	186.12
296.679	173.12
296.909	175.12
297.14	176.12
297.37	179.12
297.601	177.12
297.831	193.12
298.062	163.12
298.292	191.12
298.523	177.12
298.753	175.12
298.984	161.12
299.214	183.12
299.445	176.12
299.675	195.12
299.905	181.12
300.136	197.12
300.366	178.12
300.597	174.12
300.827	182.12
301.057	193.12
301.288	192.12
301.518	187.12
301.748	174.12
301.979	170.12
302.209	199.12
302.439	181.12
302.669	184.12
302.9	173.12
303.13	181.12
303.36	191.12
303.59	193.12
303.82	188.12
304.051	182.12
304.281	172.12
304.511	183.12
304.741	181.12
304.971	182.12
305.201	187.12
305.431	167.12
305.661	181.12
305.891	184.12
306.121	196.12
306.352	188.12
306.582	166.12
306.812	179.12
307.042	183.12
307.272	195.12
307.502	166.12
307.731	199.12
307.961	181.12
308.191	193.12
308.421	178.12
308.651	195.12
308.881	190.12
309.111	197.12
309.341	199.12
309.571	176.12
309.8	192.12
310.03	205.12
310.26	205.12
310.49	214.12
310.72	195.12
310.949	214.12
311.179	226.12
311.409	207.12
311.639	222.12
311.868	200.12
312.098	206.12
312.328	203.12
312.557	220.12
312.787	232.12
313.017	224.12
313.246	219.12
313.476	209.12
313.706	200.12
313.935	214.12
314.165	217.12
314.394	225.12
314.624	209.12
314.853	208.12
315.083	222.12
315.312	203.12
315.542	196.12
315.771	196.12
316.001	218.12
316.23	207.12
316.46	211.12
316.689	200.12
316.919	195.12
317.148	210.12
317.377	234.12
317.607	215.12
317.836	222.12
318.065	183.12
318.295	204.12
318.524	215.12
318.753	202.12
318.983	204.12
319.212	218.12
319.441	210.12
319.67	217.12
319.9	208.12
320.129	198.12
320.358	202.12
320.587	192.12
320.816	222.12
321.046	214.12
321.275	207.12
321.504	213.12
321.733	214.12
321.962	217.12
322.191	233.12
322.42	223.12
322.649	238.12
322.878	237.12
323.108	243.12
323.337	267.12
323.566	279.12
323.795	271.12
324.024	312.12
324.253	365.12
324.482	519.12
324.71	786.12
324.939	1011.12
325.168	824.12
325.397	421.12
325.626	305.12
325.855	262.12
326.084	252.12
326.313	253.12
326.542	265.12
326.77	297.12
326.999	338.12
327.228	453.12
327.457	665.12
327.686	781.12
327.914	501.12
328.143	350.12
328.372	321.12
328.6	286.12
328.829	283.12
329.058	314.12
329.287	317.12
329.515	296.12
329.744	261.12
329.972	278.12
330.201	287.12
330.43	314.12
330.658	327.12
330.887	344.12
331.115	323.12
331.344	290.12
331.572	246.12
331.801	266.12
332.03	272.12
332.258	263.12
332.486	234.12
332.715	240.12
332.943	240.12
333.172	251.12
333.4	226.12
333.629	255.12
333.857	250.12
334.085	267.12
334.314	266.12
334.542	310.12
334.771	300.12
334.999	283.12
335.227	250.12
335.455	224.12
335.684	232.12
335.912	258.12
336.14	247.12
336.369	227.12
336.597	238.12
336.825	241.12
337.053	231.12
337.281	227.12
337.51	214.12
337.738	228.12
337.966	247.12
338.194	234.12
338.422	236.12
338.65	247.12
338.878	230.12
339.106	235.12
339.334	236.12
339.562	220.12
339.79	233.12
340.018	212.12
340.246	223.12
340.474	233.12
340.702	235.12
340.93	227.12
341.158	213.12
341.386	208.12
341.614	230.12
341.842	237.12
342.07	224.12
342.298	225.12
342.526	208.12
342.754	216.12
342.981	213.12
343.209	219.12
343.437	205.12
343.665	215.12
343.893	231.12
344.12	226.12
344.348	232.12
344.576	224.12
344.804	242.12
345.031	238.12
345.259	244.12
345.487	223.12
345.714	222.12
345.942	216.12
346.17	219.12
346.397	210.12
346.625	215.12
346.853	212.12
347.08	230.12
347.308	239.12
347.535	231.12
347.763	221.12
347.99	228.12
348.218	222.12
348.445	235.12
348.673	227.12
348.9	226.12
349.128	224.12
349.355	234.12
349.583	224.12
349.81	233.12
350.037	197.12
350.265	203.12
350.492	206.12
350.72	219.12
350.947	217.12
351.174	212.12
351.402	222.12
351.629	213.12
351.856	224.12
352.083	235.12
352.311	215.12
352.538	241.12
352.765	234.12
352.992	242.12
353.22	211.12
353.447	208.12
353.674	221.12
353.901	222.12
354.128	217.12
354.355	207.12
354.583	206.12
354.81	210.12
355.037	206.12
355.264	196.12
355.491	197.12
355.718	195.12
355.945	200.12
356.172	199.12
356.399	203.12
356.626	191.12
356.853	203.12
357.08	192.12
357.307	200.12
357.534	211.12
357.761	187.12
357.988	209.12
358.215	219.12
358.441	214.12
358.668	210.12
358.895	198.12
359.122	212.12
359.349	219.12
359.576	213.12
359.802	248.12
360.029	249.12
360.256	230.12
360.483	243.12
360.709	223.12
360.936	227.12
361.163	227.12
361.39	220.12
361.616	218.12
361.843	221.12
362.07	229.12
362.296	234.12
362.523	209.12
362.749	219.12
362.976	216.12
363.203	219.12
363.429	202.12
363.656	217.12
363.882	221.12
364.109	217.12
364.335	209.12
364.562	214.12
364.788	215.12
365.015	201.12
365.241	213.12
365.468	227.12
365.694	203.12
365.92	222.12
366.147	205.12
366.373	206.12
366.599	199.12
366.826	202.12
367.052	219.12
367.278	216.12
367.505	196.12
367.731	215.12
367.957	217.12
368.184	192.12
368.41	206.12
368.636	208.12
368.862	200.12
369.089	206.12
369.315	205.12
369.541	204.12
369.767	208.12
369.993	202.12
370.219	200.12
370.445	216.12
370.672	220.12
370.898	210.12
371.124	215.12
371.35	193.12
371.576	206.12
371.802	209.12
372.028	213.12
372.254	211.12
372.48	211.12
372.706	207.12
372.932	204.12
373.158	207.12
373.384	214.12
373.61	214.12
373.835	212.12
374.061	191.12
374.287	210.12
374.513	205.12
374.739	210.12
374.965	208.12
375.191	191.12
375.416	216.12
375.642	220.12
375.868	200.12
376.094	189.12
376.319	197.12
376.545	209.12
376.771	200.12
376.997	216.12
377.222	211.12
377.448	211.12
377.674	198.12
377.899	217.12
378.125	206.12
378.35	206.12
378.576	198.12
378.802	208.12
379.027	189.12
379.253	210.12
379.478	215.12
379.704	216.12
379.929	195.12
380.155	210.12
380.38	195.12
380.606	216.12
380.831	190.12
381.057	224.12
381.282	222.12
381.507	203.12
381.733	205.12
381.958	203.12
382.184	202.12
382.409	214.12
382.634	222.12
382.86	201.12
383.085	209.12
383.31	205.12
383.535	213.12
383.761	221.12
383.986	204.12
384.211	208.12
384.436	205.12
384.662	209.12
384.887	211.12
385.112	232.12
385.337	213.12
385.562	218.12
385.787	207.12
386.013	224.12
386.238	210.12
386.463	243.12
386.688	231.12
386.913	216.12
387.138	215.12
387.363	220.12
387.588	230.12
387.813	237.12
388.038	224.12
388.263	219.12
388.488	208.12
388.713	226.12
388.938	221.12
389.163	229.12
389.387	218.12
389.612	212.12
389.837	218.12
390.062	207.12
390.287	228.12
390.512	210.12
390.736	207.12
390.961	223.12
391.186	209.12
391.411	216.12
391.636	223.12
391.86	227.12
392.085	228.12
392.31	223.12
392.534	221.12
392.759	228.12
392.984	237.12
393.208	224.12
393.433	214.12
393.658	232.12
393.882	219.12
394.107	225.12
394.331	221.12
394.556	215.12
394.78	223.12
395.005	214.12
395.229	226.12
395.454	229.12
395.678	240.12
395.903	220.12
396.127	226.12
396.352	255.12
396.576	209.12
396.801	222.12
397.025	240.12
397.249	231.12
397.474	248.12
397.698	235.12
397.922	247.12
398.147	240.12
398.371	245.12
398.595	259.12
398.82	234.12
399.044	244.12
399.268	271.12
399.492	271.12
399.717	273.12
399.941	290.12
400.165	291.12
400.389	290.12
400.613	259.12
400.837	252.12
401.062	242.12
401.286	245.12
401.51	269.12
401.734	241.12
401.958	258.12
402.182	251.12
402.406	260.12
402.63	247.12
402.854	258.12
403.078	267.12
403.302	256.12
403.526	268.12
403.75	269.12
403.974	265.12
404.198	266.12
404.422	261.12
404.645	268.12
404.869	280.12
405.093	276.12
405.317	299.12
405.541	291.12
405.765	287.12
405.988	286.12
406.212	287.12
406.436	309.12
406.66	287.12
406.883	286.12
407.107	279.12
407.331	313.12
407.555	317.12
407.778	334.12
408.002	313.12
408.226	281.12
408.449	298.12
408.673	296.12
408.896	289.12
409.12	324.12
409.344	297.12
409.567	259.12
409.791	274.12
410.014	259.12
410.238	234.12
410.461	265.12
410.685	238.12
410.908	263.12
411.132	298.12
411.355	294.12
411.578	262.12
411.802	256.12
412.025	256.12
412.249	253.12
412.472	284.12
412.695	278.12
412.919	275.12
413.142	271.12
413.365	238.12
413.589	255.12
413.812	251.12
414.035	233.12
414.258	249.12
414.482	264.12
414.705	251.12
414.928	260.12
415.151	256.12
415.374	245.12
415.597	248.12
415.821	246.12
416.044	242.12
416.267	241.12
416.49	245.12
416.713	237.12
416.936	255.12
417.159	247.12
417.382	242.12
417.605	260.12
417.828	245.12
418.051	264.12
418.274	245.12
418.497	235.12
418.72	247.12
418.943	244.12
419.166	266.12
419.389	239.12
419.611	267.12
419.834	274.12
420.057	251.12
420.28	278.12
420.503	278.12
420.726	282.12
420.948	271.12
421.171	289.12
421.394	286.12
421.617	253.12
421.839	261.12
422.062	252.12
422.285	254.12
422.507	281.12
422.73	307.12
422.953	313.12
423.175	262.12
423.398	285.12
423.621	270.12
423.843	281.12
424.066	253.12
424.288	269.12
424.511	285.12
424.733	322.12
424.956	333.12
425.178	319.12
425.401	315.12
425.623	333.12
425.846	285.12
426.068	285.12
426.291	278.12
426.513	269.12
426.735	285.12
426.958	279.12
427.18	322.12
427.402	391.12
427.625	411.12
427.847	380.12
428.069	316.12
428.292	292.12
428.514	236.12
428.736	236.12
428.958	250.12
429.181	256.12
429.403	267.12
429.625	258.12
429.847	280.12
430.069	297.12
430.292	311.12
430.514	263.12
430.736	252.12
430.958	248.12
431.18	217.12
431.402	238.12
431.624	230.12
431.846	237.12
432.068	240.12
432.29	249.12
432.512	253.12
432.734	261.12
432.956	246.12
433.178	247.12
433.4	266.12
433.622	251.12
433.844	244.12
434.066	235.12
434.287	249.12
434.509	245.12
434.731	252.12
434.953	263.12
435.175	264.12
435.397	273.12
435.618	259.12
435.84	290.12
436.062	336.12
436.284	357.12
436.505	309.12
436.727	282.12
436.949	241.12
437.17	260.12
437.392	239.12
437.614	256.12
437.835	276.12
438.057	342.12
438.278	342.12
438.5	357.12
438.721	369.12
438.943	361.12
439.165	300.12
439.386	262.12
439.608	275.12
439.829	291.12
440.05	307.12
440.272	324.12
440.493	271.12
440.715	279.12
440.936	254.12
441.158	242.12
441.379	242.12
441.6	264.12
441.822	267.12
442.043	306.12
442.264	333.12
442.486	348.12
442.707	306.12
442.928	311.12
443.149	296.12
443.371	302.12
443.592	304.12
443.813	353.12
444.034	368.12
444.255	310.12
444.476	267.12
444.698	285.12
444.919	290.12
445.14	367.12
445.361	334.12
445.582	320.12
445.803	334.12
446.024	363.12
446.245	370.12
446.466	297.12
446.687	289.12
446.908	282.12
447.129	263.12
447.35	251.12
447.571	242.12
447.792	248.12
448.013	263.12
448.234	263.12
448.455	293.12
448.675	335.12
448.896	379.12
449.117	327.12
449.338	302.12
449.559	347.12
449.779	392.12
450	319.12
450.221	271.12
450.442	262.12
450.662	242.12
450.883	253.12
451.104	273.12
451.324	262.12
451.545	234.12
451.766	246.12
451.986	247.12
452.207	239.12
452.428	211.12
452.648	235.12
452.869	226.12
453.089	237.12
453.31	242.12
453.53	246.12
453.751	237.12
453.971	231.12
454.192	263.12
454.412	255.12
454.633	238.12
454.853	230.12
455.073	245.12
455.294	239.12
455.514	267.12
455.734	257.12
455.955	221.12
456.175	213.12
456.395	230.12
456.616	220.12
456.836	213.12
457.056	213.12
457.276	192.12
457.497	206.12
457.717	218.12
457.937	225.12
458.157	229.12
458.377	227.12
458.598	249.12
458.818	275.12
459.038	322.12
459.258	309.12
459.478	265.12
459.698	245.12
459.918	240.12
460.138	249.12
460.358	259.12
460.578	255.12
460.798	235.12
461.018	238.12
461.238	242.12
461.458	255.12
461.678	240.12
461.898	249.12
462.118	258.12
462.338	249.12
462.558	244.12
462.777	262.12
462.997	247.12
463.217	263.12
463.437	261.12
463.657	249.12
463.876	258.12
464.096	273.12
464.316	266.12
464.536	275.12
464.755	263.12
464.975	265.12
465.195	301.12
465.414	343.12
465.634	281.12
465.854	262.12
466.073	266.12
466.293	241.12
466.512	235.12
466.732	219.12
466.951	233.12
467.171	250.12
467.391	238.12
467.61	255.12
467.829	259.12
468.049	249.12
468.268	246.12
468.488	231.12
468.707	225.12
468.927	224.12
469.146	231.12
469.365	247.12
469.585	232.12
469.804	236.12
470.023	247.12
470.243	238.12
470.462	253.12
470.681	261.12
470.901	246.12
471.12	238.12
471.339	246.12
471.558	247.12
471.777	232.12
471.997	240.12
472.216	240.12
472.435	275.12
472.654	275.12
472.873	238.12
473.092	242.12
473.311	241.12
473.53	242.12
473.749	241.12
473.968	267.12
474.187	312.12
474.406	325.12
474.625	279.12
474.844	257.12
475.063	245.12
475.282	229.12
475.501	240.12
475.72	255.12
475.939	252.12
476.158	247.12
476.377	256.12
476.596	217.12
476.814	230.12
477.033	239.12
477.252	250.12
477.471	241.12
477.69	253.12
477.908	267.12
478.127	273.12
478.346	262.12
478.564	251.12
478.783	251.12
479.002	270.12
479.22	266.12
479.439	272.12
479.658	291.12
479.876	278.12
480.095	289.12
480.313	321.12
480.532	272.12
480.751	291.12
480.969	323.12
481.188	359.12
481.406	379.12
481.624	320.12
481.843	277.12
482.061	285.12
482.28	266.12
482.498	264.12
482.717	282.12
482.935	270.12
483.153	281.12
483.372	271.12
483.59	285.12
483.808	265.12
484.027	279.12
484.245	280.12
484.463	301.12
484.681	283.12
484.9	285.12
485.118	285.12
485.336	298.12
485.554	277.12
485.772	289.12
485.99	267.12
486.209	298.12
486.427	310.12
486.645	302.12
486.863	311.12
487.081	324.12
487.299	292.12
487.517	301.12
487.735	293.12
487.953	304.12
488.171	287.12
488.389	303.12
488.607	292.12
488.825	286.12
489.043	297.12
489.261	284.12
489.479	304.12
489.696	305.12
489.914	284.12
490.132	300.12
490.35	325.12
490.568	311.12
490.786	318.12
491.003	336.12
491.221	336.12
491.439	353.12
491.657	336.12
491.874	326.12
492.092	355.12
492.31	348.12
492.527	346.12
492.745	344.12
492.963	366.12
493.18	339.12
493.398	362.12
493.615	344.12
493.833	359.12
494.05	358.12
494.268	353.12
494.485	350.12
494.703	345.12
494.92	346.12
495.138	326.12
495.355	361.12
495.573	344.12
495.79	339.12
496.008	342.12
496.225	354.12
496.442	341.12
496.66	341.12
496.877	341.12
497.094	329.12
497.312	341.12
497.529	361.12
497.746	377.12
497.963	353.12
498.181	357.12
498.398	371.12
498.615	368.12
498.832	368.12
499.049	381.12
499.267	380.12
499.484	424.12
499.701	402.12
499.918	427.12
500.135	455.12
500.352	449.12
500.569	450.12
500.786	448.12
501.003	442.12
501.22	432.12
501.437	433.12
501.654	438.12
501.871	422.12
502.088	403.12
502.305	386.12
502.522	361.12
