Data from 1966.PennyLincolnUp.Lamp.En5.5.200Scan.071719.P1.Scan2.head_HRD10591_14-19-34-278.txt Node
Date: Thu Jul 18 14:19:34 EDT 2019
User: cochatt
Spectrometer: HR+D1059
Trigger mode: 1
Integration Time (sec): 1.000000E-1
Scans to average: 1
Electric dark correction enabled: true
Nonlinearity correction enabled: false
Boxcar width: 0
XAxis mode: Wavelengths
Number of Pixels in Spectrum: 2048
>>>>>Begin Spectral Data<<<<<
223.165	-12.5
223.4	-12.5
223.635	-12.5
223.869	-25.5
224.104	-12.5
224.338	-14.5
224.573	-2.5
224.808	-10.5
225.042	1.5
225.277	-6.5
225.511	-9.5
225.746	-0.5
225.98	7.5
226.215	3.5
226.449	12.5
226.683	19.5
226.918	12.5
227.152	37.5
227.387	42.5
227.621	33.5
227.856	37.5
228.09	33.5
228.324	55.5
228.559	57.5
228.793	65.5
229.027	119.5
229.262	117.5
229.496	114.5
229.73	130.5
229.964	157.5
230.199	135.5
230.433	122.5
230.667	127.5
230.901	106.5
231.136	112.5
231.37	122.5
231.604	126.5
231.838	125.5
232.072	97.5
232.306	97.5
232.541	96.5
232.775	118.5
233.009	125.5
233.243	129.5
233.477	106.5
233.711	109.5
233.945	131.5
234.179	119.5
234.413	113.5
234.647	112.5
234.881	114.5
235.115	117.5
235.349	123.5
235.583	130.5
235.817	131.5
236.051	126.5
236.285	124.5
236.519	136.5
236.753	143.5
236.987	145.5
237.221	183.5
237.455	247.5
237.689	189.5
237.922	151.5
238.156	129.5
238.39	127.5
238.624	122.5
238.858	125.5
239.091	127.5
239.325	141.5
239.559	135.5
239.793	143.5
240.027	146.5
240.26	148.5
240.494	174.5
240.728	159.5
240.961	175.5
241.195	153.5
241.429	140.5
241.662	134.5
241.896	150.5
242.13	148.5
242.363	139.5
242.597	137.5
242.83	138.5
243.064	137.5
243.298	155.5
243.531	145.5
243.765	152.5
243.998	142.5
244.232	129.5
244.465	135.5
244.699	145.5
244.932	162.5
245.166	152.5
245.399	157.5
245.633	156.5
245.866	156.5
246.099	165.5
246.333	139.5
246.566	155.5
246.8	168.5
247.033	164.5
247.266	180.5
247.5	171.5
247.733	199.5
247.966	174.5
248.2	171.5
248.433	175.5
248.666	175.5
248.899	187.5
249.133	211.5
249.366	210.5
249.599	210.5
249.832	183.5
250.066	187.5
250.299	189.5
250.532	211.5
250.765	227.5
250.998	229.5
251.231	245.5
251.465	213.5
251.698	205.5
251.931	210.5
252.164	209.5
252.397	208.5
252.63	201.5
252.863	206.5
253.096	235.5
253.329	237.5
253.562	229.5
253.795	214.5
254.028	224.5
254.261	221.5
254.494	228.5
254.727	267.5
254.96	279.5
255.193	285.5
255.426	265.5
255.659	241.5
255.892	230.5
256.124	232.5
256.357	245.5
256.59	222.5
256.823	224.5
257.056	223.5
257.289	214.5
257.521	228.5
257.754	231.5
257.987	209.5
258.22	199.5
258.452	205.5
258.685	207.5
258.918	211.5
259.151	212.5
259.383	217.5
259.616	246.5
259.849	233.5
260.081	251.5
260.314	263.5
260.547	279.5
260.779	264.5
261.012	254.5
261.244	234.5
261.477	243.5
261.71	226.5
261.942	245.5
262.175	241.5
262.407	243.5
262.64	233.5
262.872	223.5
263.105	206.5
263.337	224.5
263.57	220.5
263.802	229.5
264.035	225.5
264.267	215.5
264.499	216.5
264.732	230.5
264.964	207.5
265.197	214.5
265.429	222.5
265.661	224.5
265.894	235.5
266.126	244.5
266.358	237.5
266.591	213.5
266.823	240.5
267.055	224.5
267.287	229.5
267.52	249.5
267.752	245.5
267.984	232.5
268.216	225.5
268.448	249.5
268.681	258.5
268.913	263.5
269.145	272.5
269.377	288.5
269.609	282.5
269.841	282.5
270.073	286.5
270.306	298.5
270.538	322.5
270.77	342.5
271.002	338.5
271.234	324.5
271.466	293.5
271.698	333.5
271.93	340.5
272.162	337.5
272.394	322.5
272.626	307.5
272.858	300.5
273.09	277.5
273.322	283.5
273.553	275.5
273.785	282.5
274.017	280.5
274.249	254.5
274.481	283.5
274.713	275.5
274.945	288.5
275.176	273.5
275.408	270.5
275.64	270.5
275.872	259.5
276.104	264.5
276.335	279.5
276.567	277.5
276.799	288.5
277.031	324.5
277.262	341.5
277.494	321.5
277.726	318.5
277.957	300.5
278.189	293.5
278.421	300.5
278.652	294.5
278.884	284.5
279.115	290.5
279.347	264.5
279.579	292.5
279.81	282.5
280.042	295.5
280.273	260.5
280.505	281.5
280.736	272.5
280.968	276.5
281.199	277.5
281.431	271.5
281.662	271.5
281.894	273.5
282.125	278.5
282.356	307.5
282.588	311.5
282.819	332.5
283.051	281.5
283.282	300.5
283.513	288.5
283.745	287.5
283.976	285.5
284.207	291.5
284.439	284.5
284.67	295.5
284.901	291.5
285.132	274.5
285.364	291.5
285.595	252.5
285.826	287.5
286.057	296.5
286.288	296.5
286.52	286.5
286.751	297.5
286.982	291.5
287.213	313.5
287.444	302.5
287.675	297.5
287.906	295.5
288.138	320.5
288.369	319.5
288.6	318.5
288.831	308.5
289.062	311.5
289.293	300.5
289.524	307.5
289.755	296.5
289.986	315.5
290.217	296.5
290.448	295.5
290.679	303.5
290.91	285.5
291.141	317.5
291.371	302.5
291.602	307.5
291.833	304.5
292.064	293.5
292.295	299.5
292.526	303.5
292.757	310.5
292.987	297.5
293.218	300.5
293.449	289.5
293.68	298.5
293.91	320.5
294.141	305.5
294.372	303.5
294.603	292.5
294.833	294.5
295.064	308.5
295.295	290.5
295.525	299.5
295.756	329.5
295.987	317.5
296.217	328.5
296.448	334.5
296.679	312.5
296.909	307.5
297.14	319.5
297.37	324.5
297.601	318.5
297.831	321.5
298.062	327.5
298.292	323.5
298.523	343.5
298.753	324.5
298.984	328.5
299.214	319.5
299.445	337.5
299.675	326.5
299.905	340.5
300.136	315.5
300.366	316.5
300.597	326.5
300.827	333.5
301.057	334.5
301.288	349.5
301.518	336.5
301.748	345.5
301.979	320.5
302.209	333.5
302.439	337.5
302.669	351.5
302.9	345.5
303.13	346.5
303.36	347.5
303.59	344.5
303.82	353.5
304.051	372.5
304.281	363.5
304.511	327.5
304.741	351.5
304.971	345.5
305.201	346.5
305.431	330.5
305.661	331.5
305.891	326.5
306.121	338.5
306.352	357.5
306.582	333.5
306.812	330.5
307.042	359.5
307.272	364.5
307.502	331.5
307.731	353.5
307.961	351.5
308.191	362.5
308.421	356.5
308.651	352.5
308.881	356.5
309.111	362.5
309.341	353.5
309.571	365.5
309.8	357.5
310.03	383.5
310.26	397.5
310.49	382.5
310.72	388.5
310.949	407.5
311.179	411.5
311.409	398.5
311.639	395.5
311.868	389.5
312.098	384.5
312.328	395.5
312.557	411.5
312.787	436.5
313.017	419.5
313.246	411.5
313.476	387.5
313.706	379.5
313.935	396.5
314.165	398.5
314.394	419.5
314.624	411.5
314.853	401.5
315.083	381.5
315.312	395.5
315.542	411.5
315.771	379.5
316.001	386.5
316.23	379.5
316.46	385.5
316.689	411.5
316.919	397.5
317.148	419.5
317.377	414.5
317.607	402.5
317.836	408.5
318.065	395.5
318.295	389.5
318.524	386.5
318.753	369.5
318.983	389.5
319.212	387.5
319.441	403.5
319.67	415.5
319.9	385.5
320.129	402.5
320.358	403.5
320.587	412.5
320.816	413.5
321.046	404.5
321.275	405.5
321.504	429.5
321.733	421.5
321.962	424.5
322.191	431.5
322.42	458.5
322.649	453.5
322.878	470.5
323.108	481.5
323.337	488.5
323.566	528.5
323.795	547.5
324.024	575.5
324.253	699.5
324.482	977.5
324.71	1545.5
324.939	2286.5
325.168	1965.5
325.397	991.5
325.626	667.5
325.855	583.5
326.084	531.5
326.313	536.5
326.542	521.5
326.77	581.5
326.999	666.5
327.228	903.5
327.457	1398.5
327.686	1745.5
327.914	1150.5
328.143	725.5
328.372	648.5
328.6	610.5
328.829	559.5
329.058	583.5
329.287	595.5
329.515	559.5
329.744	533.5
329.972	511.5
330.201	559.5
330.43	600.5
330.658	604.5
330.887	653.5
331.115	641.5
331.344	565.5
331.572	529.5
331.801	521.5
332.03	524.5
332.258	518.5
332.486	501.5
332.715	502.5
332.943	475.5
333.172	493.5
333.4	493.5
333.629	501.5
333.857	509.5
334.085	521.5
334.314	535.5
334.542	595.5
334.771	597.5
334.999	533.5
335.227	530.5
335.455	488.5
335.684	471.5
335.912	471.5
336.14	472.5
336.369	482.5
336.597	477.5
336.825	488.5
337.053	484.5
337.281	471.5
337.51	454.5
337.738	491.5
337.966	473.5
338.194	468.5
338.422	485.5
338.65	481.5
338.878	457.5
339.106	455.5
339.334	448.5
339.562	464.5
339.79	471.5
340.018	433.5
340.246	449.5
340.474	459.5
340.702	453.5
340.93	451.5
341.158	462.5
341.386	449.5
341.614	458.5
341.842	456.5
342.07	456.5
342.298	448.5
342.526	439.5
342.754	429.5
342.981	405.5
343.209	422.5
343.437	458.5
343.665	455.5
343.893	455.5
344.12	484.5
344.348	453.5
344.576	471.5
344.804	473.5
345.031	494.5
345.259	505.5
345.487	463.5
345.714	467.5
345.942	453.5
346.17	453.5
346.397	469.5
346.625	437.5
346.853	464.5
347.08	452.5
347.308	470.5
347.535	455.5
347.763	465.5
347.99	459.5
348.218	435.5
348.445	470.5
348.673	452.5
348.9	435.5
349.128	444.5
349.355	439.5
349.583	425.5
349.81	437.5
350.037	439.5
350.265	429.5
350.492	442.5
350.72	421.5
350.947	435.5
351.174	443.5
351.402	450.5
351.629	443.5
351.856	447.5
352.083	471.5
352.311	475.5
352.538	471.5
352.765	479.5
352.992	473.5
353.22	451.5
353.447	448.5
353.674	430.5
353.901	419.5
354.128	439.5
354.355	421.5
354.583	440.5
354.81	423.5
355.037	423.5
355.264	416.5
355.491	407.5
355.718	409.5
355.945	432.5
356.172	430.5
356.399	420.5
356.626	427.5
356.853	437.5
357.08	428.5
357.307	431.5
357.534	420.5
357.761	435.5
357.988	436.5
358.215	408.5
358.441	426.5
358.668	445.5
358.895	443.5
359.122	439.5
359.349	455.5
359.576	447.5
359.802	493.5
360.029	491.5
360.256	513.5
360.483	475.5
360.709	464.5
360.936	443.5
361.163	478.5
361.39	469.5
361.616	455.5
361.843	435.5
362.07	444.5
362.296	448.5
362.523	441.5
362.749	440.5
362.976	449.5
363.203	446.5
363.429	423.5
363.656	436.5
363.882	430.5
364.109	449.5
364.335	424.5
364.562	436.5
364.788	445.5
365.015	436.5
365.241	423.5
365.468	428.5
365.694	446.5
365.92	437.5
366.147	443.5
366.373	443.5
366.599	436.5
366.826	453.5
367.052	428.5
367.278	419.5
367.505	428.5
367.731	431.5
367.957	444.5
368.184	431.5
368.41	432.5
368.636	471.5
368.862	468.5
369.089	431.5
369.315	437.5
369.541	426.5
369.767	459.5
369.993	453.5
370.219	429.5
370.445	444.5
370.672	429.5
370.898	441.5
371.124	438.5
371.35	456.5
371.576	448.5
371.802	442.5
372.028	443.5
372.254	425.5
372.48	451.5
372.706	462.5
372.932	432.5
373.158	459.5
373.384	451.5
373.61	441.5
373.835	429.5
374.061	461.5
374.287	453.5
374.513	441.5
374.739	424.5
374.965	449.5
375.191	457.5
375.416	463.5
375.642	463.5
375.868	457.5
376.094	436.5
376.319	441.5
376.545	451.5
376.771	421.5
376.997	457.5
377.222	411.5
377.448	449.5
377.674	442.5
377.899	414.5
378.125	433.5
378.35	437.5
378.576	432.5
378.802	446.5
379.027	439.5
379.253	449.5
379.478	432.5
379.704	437.5
379.929	460.5
380.155	436.5
380.38	445.5
380.606	440.5
380.831	448.5
381.057	441.5
381.282	443.5
381.507	456.5
381.733	450.5
381.958	444.5
382.184	449.5
382.409	435.5
382.634	440.5
382.86	464.5
383.085	446.5
383.31	451.5
383.535	461.5
383.761	459.5
383.986	467.5
384.211	475.5
384.436	463.5
384.662	451.5
384.887	482.5
385.112	472.5
385.337	482.5
385.562	483.5
385.787	473.5
386.013	502.5
386.238	481.5
386.463	508.5
386.688	505.5
386.913	489.5
387.138	486.5
387.363	483.5
387.588	499.5
387.813	506.5
388.038	517.5
388.263	494.5
388.488	504.5
388.713	478.5
388.938	480.5
389.163	492.5
389.387	496.5
389.612	484.5
389.837	496.5
390.062	491.5
390.287	487.5
390.512	488.5
390.736	482.5
390.961	493.5
391.186	509.5
391.411	497.5
391.636	495.5
391.86	490.5
392.085	519.5
392.31	509.5
392.534	539.5
392.759	520.5
392.984	508.5
393.208	508.5
393.433	490.5
393.658	492.5
393.882	512.5
394.107	496.5
394.331	517.5
394.556	489.5
394.78	494.5
395.005	496.5
395.229	504.5
395.454	512.5
395.678	513.5
395.903	511.5
396.127	532.5
396.352	528.5
396.576	529.5
396.801	522.5
397.025	524.5
397.249	531.5
397.474	497.5
397.698	520.5
397.922	553.5
398.147	565.5
398.371	556.5
398.595	551.5
398.82	538.5
399.044	595.5
399.268	604.5
399.492	618.5
399.717	659.5
399.941	684.5
400.165	683.5
400.389	712.5
400.613	625.5
400.837	617.5
401.062	611.5
401.286	587.5
401.51	584.5
401.734	576.5
401.958	575.5
402.182	559.5
402.406	559.5
402.63	596.5
402.854	573.5
403.078	605.5
403.302	587.5
403.526	624.5
403.75	610.5
403.974	593.5
404.198	581.5
404.422	592.5
404.645	592.5
404.869	619.5
405.093	671.5
405.317	718.5
405.541	735.5
405.765	671.5
405.988	633.5
406.212	625.5
406.436	635.5
406.66	667.5
406.883	642.5
407.107	661.5
407.331	702.5
407.555	815.5
407.778	793.5
408.002	723.5
408.226	683.5
408.449	677.5
408.673	652.5
408.896	693.5
409.12	733.5
409.344	677.5
409.567	624.5
409.791	624.5
410.014	601.5
410.238	592.5
410.461	618.5
410.685	608.5
410.908	606.5
411.132	672.5
411.355	686.5
411.578	678.5
411.802	611.5
412.025	607.5
412.249	609.5
412.472	643.5
412.695	683.5
412.919	671.5
413.142	637.5
413.365	622.5
413.589	623.5
413.812	590.5
414.035	571.5
414.258	565.5
414.482	567.5
414.705	566.5
414.928	542.5
415.151	571.5
415.374	584.5
415.597	568.5
415.821	589.5
416.044	582.5
416.267	573.5
416.49	557.5
416.713	552.5
416.936	560.5
417.159	554.5
417.382	556.5
417.605	579.5
417.828	577.5
418.051	600.5
418.274	585.5
418.497	592.5
418.72	590.5
418.943	563.5
419.166	585.5
419.389	621.5
419.611	607.5
419.834	609.5
420.057	617.5
420.28	632.5
420.503	601.5
420.726	611.5
420.948	617.5
421.171	647.5
421.394	695.5
421.617	635.5
421.839	566.5
422.062	584.5
422.285	611.5
422.507	683.5
422.73	740.5
422.953	719.5
423.175	645.5
423.398	627.5
423.621	622.5
423.843	649.5
424.066	653.5
424.288	615.5
424.511	656.5
424.733	713.5
424.956	804.5
425.178	762.5
425.401	790.5
425.623	827.5
425.846	682.5
426.068	652.5
426.291	631.5
426.513	633.5
426.735	655.5
426.958	694.5
427.18	795.5
427.402	947.5
427.625	987.5
427.847	886.5
428.069	780.5
428.292	685.5
428.514	616.5
428.736	619.5
428.958	596.5
429.181	583.5
429.403	595.5
429.625	609.5
429.847	645.5
430.069	719.5
430.292	713.5
430.514	637.5
430.736	599.5
430.958	590.5
431.18	561.5
431.402	561.5
431.624	557.5
431.846	552.5
432.068	557.5
432.29	585.5
432.512	559.5
432.734	575.5
432.956	584.5
433.178	589.5
433.4	586.5
433.622	564.5
433.844	555.5
434.066	544.5
434.287	542.5
434.509	586.5
434.731	573.5
434.953	584.5
435.175	599.5
435.397	631.5
435.618	656.5
435.84	708.5
436.062	771.5
436.284	885.5
436.505	739.5
436.727	663.5
436.949	587.5
437.17	590.5
437.392	600.5
437.614	607.5
437.835	650.5
438.057	748.5
438.278	845.5
438.5	876.5
438.721	944.5
438.943	907.5
439.165	696.5
439.386	661.5
439.608	645.5
439.829	648.5
440.05	668.5
440.272	720.5
440.493	681.5
440.715	642.5
440.936	610.5
441.158	567.5
441.379	599.5
441.6	605.5
441.822	650.5
442.043	681.5
442.264	762.5
442.486	835.5
442.707	716.5
442.928	643.5
443.149	643.5
443.371	685.5
443.592	725.5
443.813	846.5
444.034	895.5
444.255	771.5
444.476	663.5
444.698	658.5
444.919	636.5
445.14	728.5
445.361	709.5
445.582	668.5
445.803	783.5
446.024	891.5
446.245	894.5
446.466	801.5
446.687	682.5
446.908	632.5
447.129	624.5
447.35	588.5
447.571	580.5
447.792	586.5
448.013	613.5
448.234	623.5
448.455	663.5
448.675	779.5
448.896	919.5
449.117	762.5
449.338	759.5
449.559	848.5
449.779	961.5
450	757.5
450.221	635.5
450.442	599.5
450.662	582.5
450.883	574.5
451.104	597.5
451.324	583.5
451.545	547.5
451.766	557.5
451.986	537.5
452.207	534.5
452.428	540.5
452.648	510.5
452.869	523.5
453.089	528.5
453.31	563.5
453.53	547.5
453.751	529.5
453.971	521.5
454.192	536.5
454.412	527.5
454.633	533.5
454.853	526.5
455.073	525.5
455.294	549.5
455.514	632.5
455.734	608.5
455.955	536.5
456.175	516.5
456.395	504.5
456.616	477.5
456.836	507.5
457.056	512.5
457.276	493.5
457.497	486.5
457.717	485.5
457.937	505.5
458.157	504.5
458.377	516.5
458.598	563.5
458.818	613.5
459.038	681.5
459.258	691.5
459.478	619.5
459.698	558.5
459.918	551.5
460.138	572.5
460.358	568.5
460.578	591.5
460.798	592.5
461.018	588.5
461.238	577.5
461.458	597.5
461.678	585.5
461.898	584.5
462.118	597.5
462.338	603.5
462.558	574.5
462.777	573.5
462.997	597.5
463.217	633.5
463.437	640.5
463.657	630.5
463.876	632.5
464.096	617.5
464.316	624.5
464.536	608.5
464.755	613.5
464.975	617.5
465.195	653.5
465.414	734.5
465.634	647.5
465.854	619.5
466.073	597.5
466.293	567.5
466.512	539.5
466.732	553.5
466.951	559.5
467.171	544.5
467.391	554.5
467.61	565.5
467.829	564.5
468.049	550.5
468.268	560.5
468.488	553.5
468.707	546.5
468.927	536.5
469.146	515.5
469.365	521.5
469.585	535.5
469.804	533.5
470.023	531.5
470.243	566.5
470.462	537.5
470.681	569.5
470.901	570.5
471.12	571.5
471.339	554.5
471.558	565.5
471.777	540.5
471.997	545.5
472.216	539.5
472.435	603.5
472.654	574.5
472.873	543.5
473.092	529.5
473.311	541.5
473.53	554.5
473.749	565.5
473.968	609.5
474.187	709.5
474.406	716.5
474.625	639.5
474.844	554.5
475.063	553.5
475.282	556.5
475.501	552.5
475.72	555.5
475.939	567.5
476.158	569.5
476.377	571.5
476.596	564.5
476.814	557.5
477.033	589.5
477.252	582.5
477.471	575.5
477.69	609.5
477.908	602.5
478.127	617.5
478.346	615.5
478.564	609.5
478.783	612.5
479.002	609.5
479.22	643.5
479.439	643.5
479.658	669.5
479.876	651.5
480.095	671.5
480.313	704.5
480.532	654.5
480.751	668.5
480.969	701.5
481.188	750.5
481.406	810.5
481.624	718.5
481.843	657.5
482.061	666.5
482.28	653.5
482.498	660.5
482.717	647.5
482.935	659.5
483.153	638.5
483.372	665.5
483.59	667.5
483.808	658.5
484.027	661.5
484.245	639.5
484.463	644.5
484.681	655.5
484.9	665.5
485.118	667.5
485.336	642.5
485.554	649.5
485.772	683.5
485.99	685.5
486.209	660.5
486.427	676.5
486.645	678.5
486.863	714.5
487.081	683.5
487.299	691.5
487.517	715.5
487.735	671.5
487.953	684.5
488.171	678.5
488.389	670.5
488.607	681.5
488.825	697.5
489.043	729.5
489.261	731.5
489.479	698.5
489.696	733.5
489.914	726.5
490.132	718.5
490.35	745.5
490.568	740.5
490.786	746.5
491.003	744.5
491.221	749.5
491.439	769.5
491.657	792.5
491.874	798.5
492.092	782.5
492.31	813.5
492.527	800.5
492.745	808.5
492.963	823.5
493.18	829.5
493.398	838.5
493.615	857.5
493.833	839.5
494.05	836.5
494.268	791.5
494.485	816.5
494.703	835.5
494.92	837.5
495.138	848.5
495.355	826.5
495.573	838.5
495.79	830.5
496.008	813.5
496.225	838.5
496.442	830.5
496.66	849.5
496.877	844.5
497.094	852.5
497.312	849.5
497.529	848.5
497.746	876.5
497.963	880.5
498.181	872.5
498.398	927.5
498.615	921.5
498.832	963.5
499.049	972.5
499.267	972.5
499.484	1030.5
499.701	1045.5
499.918	1095.5
500.135	1105.5
500.352	1169.5
500.569	1182.5
500.786	1194.5
501.003	1190.5
501.22	1181.5
501.437	1126.5
501.654	1067.5
501.871	1083.5
502.088	1045.5
502.305	970.5
502.522	964.5
502.739	935.5
502.956	901.5
503.172	880.5
503.389	871.5
503.606	867.5
503.823	854.5
504.04	854.5
504.256	841.5
504.473	822.5
504.69	833.5
504.907	830.5
505.123	819.5
505.34	809.5
505.557	799.5
505.773	800.5
505.99	825.5
506.207	795.5
506.423	786.5
506.64	804.5
506.856	755.5
507.073	777.5
507.289	776.5
507.506	779.5
507.722	757.5
507.939	787.5
508.155	790.5
508.372	758.5
508.588	729.5
508.805	744.5
509.021	757.5
509.238	748.5
509.454	748.5
509.67	743.5
509.887	742.5
510.103	751.5
510.319	771.5
510.536	861.5
510.752	1307.5
510.968	1097.5
511.184	783.5
511.401	720.5
511.617	717.5
511.833	699.5
512.049	681.5
512.265	718.5
512.481	709.5
512.698	685.5
512.914	718.5
513.13	696.5
513.346	695.5
513.562	704.5
513.778	718.5
513.994	700.5
514.21	704.5
514.426	720.5
514.642	773.5
514.858	807.5
515.074	840.5
515.29	948.5
515.506	1343.5
515.721	1149.5
515.937	835.5
516.153	744.5
516.369	761.5
516.585	771.5
516.801	745.5
517.016	751.5
517.232	732.5
517.448	729.5
517.664	749.5
517.879	729.5
518.095	728.5
518.311	729.5
518.527	728.5
518.742	714.5
518.958	727.5
519.173	711.5
519.389	704.5
519.605	693.5
