Data from 1966.PennyLincolnUp.Lamp.En5.5.200Scan.071719.P1.Scan2.head_HRD10591_14-16-47-056.txt Node
Date: Thu Jul 18 14:16:47 EDT 2019
User: cochatt
Spectrometer: HR+D1059
Trigger mode: 1
Integration Time (sec): 1.000000E-1
Scans to average: 1
Electric dark correction enabled: true
Nonlinearity correction enabled: false
Boxcar width: 0
XAxis mode: Wavelengths
Number of Pixels in Spectrum: 2048
>>>>>Begin Spectral Data<<<<<
223.165	-10.06
223.4	-10.06
223.635	-10.06
223.869	-16.06
224.104	-17.06
224.338	-7.06
224.573	-15.06
224.808	-21.06
225.042	-8.06
225.277	-8.06
225.511	3.94
225.746	-2.06
225.98	-3.06
226.215	18.94
226.449	17.94
226.683	26.94
226.918	10.94
227.152	28.94
227.387	25.94
227.621	30.94
227.856	42.94
228.09	45.94
228.324	46.94
228.559	54.94
228.793	58.94
229.027	89.94
229.262	86.94
229.496	101.94
229.73	112.94
229.964	148.94
230.199	108.94
230.433	91.94
230.667	110.94
230.901	95.94
231.136	115.94
231.37	102.94
231.604	119.94
231.838	109.94
232.072	95.94
232.306	120.94
232.541	110.94
232.775	109.94
233.009	109.94
233.243	114.94
233.477	102.94
233.711	95.94
233.945	125.94
234.179	102.94
234.413	116.94
234.647	127.94
234.881	113.94
235.115	105.94
235.349	117.94
235.583	105.94
235.817	113.94
236.051	115.94
236.285	115.94
236.519	105.94
236.753	119.94
236.987	127.94
237.221	163.94
237.455	206.94
237.689	167.94
237.922	121.94
238.156	129.94
238.39	124.94
238.624	114.94
238.858	119.94
239.091	107.94
239.325	115.94
239.559	123.94
239.793	105.94
240.027	120.94
240.26	143.94
240.494	126.94
240.728	133.94
240.961	146.94
241.195	119.94
241.429	129.94
241.662	135.94
241.896	121.94
242.13	121.94
242.363	130.94
242.597	120.94
242.83	123.94
243.064	120.94
243.298	135.94
243.531	128.94
243.765	121.94
243.998	125.94
244.232	146.94
244.465	147.94
244.699	137.94
244.932	134.94
245.166	137.94
245.399	145.94
245.633	148.94
245.866	133.94
246.099	143.94
246.333	142.94
246.566	144.94
246.8	135.94
247.033	141.94
247.266	123.94
247.5	165.94
247.733	171.94
247.966	167.94
248.2	165.94
248.433	173.94
248.666	176.94
248.899	169.94
249.133	179.94
249.366	191.94
249.599	185.94
249.832	165.94
250.066	161.94
250.299	177.94
250.532	191.94
250.765	186.94
250.998	189.94
251.231	204.94
251.465	191.94
251.698	173.94
251.931	187.94
252.164	180.94
252.397	164.94
252.63	184.94
252.863	194.94
253.096	206.94
253.329	204.94
253.562	201.94
253.795	196.94
254.028	200.94
254.261	200.94
254.494	199.94
254.727	223.94
254.96	243.94
255.193	220.94
255.426	223.94
255.659	214.94
255.892	224.94
256.124	198.94
256.357	221.94
256.59	198.94
256.823	200.94
257.056	191.94
257.289	180.94
257.521	191.94
257.754	205.94
257.987	189.94
258.22	193.94
258.452	216.94
258.685	185.94
258.918	200.94
259.151	193.94
259.383	197.94
259.616	205.94
259.849	221.94
260.081	225.94
260.314	227.94
260.547	230.94
260.779	239.94
261.012	212.94
261.244	203.94
261.477	218.94
261.71	207.94
261.942	206.94
262.175	205.94
262.407	219.94
262.64	204.94
262.872	203.94
263.105	208.94
263.337	205.94
263.57	183.94
263.802	198.94
264.035	186.94
264.267	204.94
264.499	205.94
264.732	226.94
264.964	206.94
265.197	206.94
265.429	219.94
265.661	197.94
265.894	206.94
266.126	196.94
266.358	206.94
266.591	210.94
266.823	196.94
267.055	197.94
267.287	211.94
267.52	205.94
267.752	200.94
267.984	225.94
268.216	217.94
268.448	217.94
268.681	211.94
268.913	234.94
269.145	236.94
269.377	250.94
269.609	265.94
269.841	244.94
270.073	239.94
270.306	247.94
270.538	279.94
270.77	268.94
271.002	273.94
271.234	255.94
271.466	269.94
271.698	276.94
271.93	293.94
272.162	292.94
272.394	280.94
272.626	257.94
272.858	261.94
273.09	243.94
273.322	242.94
273.553	230.94
273.785	241.94
274.017	236.94
274.249	248.94
274.481	234.94
274.713	250.94
274.945	237.94
275.176	237.94
275.408	246.94
275.64	269.94
275.872	255.94
276.104	237.94
276.335	232.94
276.567	252.94
276.799	241.94
277.031	269.94
277.262	267.94
277.494	286.94
277.726	262.94
277.957	269.94
278.189	264.94
278.421	255.94
278.652	257.94
278.884	249.94
279.115	247.94
279.347	247.94
279.579	238.94
279.81	241.94
280.042	239.94
280.273	255.94
280.505	242.94
280.736	226.94
280.968	249.94
281.199	262.94
281.431	239.94
281.662	256.94
281.894	250.94
282.125	252.94
282.356	263.94
282.588	263.94
282.819	271.94
283.051	262.94
283.282	261.94
283.513	267.94
283.745	251.94
283.976	265.94
284.207	269.94
284.439	269.94
284.67	271.94
284.901	263.94
285.132	258.94
285.364	270.94
285.595	266.94
285.826	259.94
286.057	288.94
286.288	251.94
286.52	241.94
286.751	266.94
286.982	270.94
287.213	268.94
287.444	272.94
287.675	262.94
287.906	273.94
288.138	275.94
288.369	285.94
288.6	276.94
288.831	260.94
289.062	275.94
289.293	281.94
289.524	270.94
289.755	265.94
289.986	278.94
290.217	264.94
290.448	281.94
290.679	267.94
290.91	279.94
291.141	250.94
291.371	277.94
291.602	284.94
291.833	261.94
292.064	265.94
292.295	260.94
292.526	271.94
292.757	268.94
292.987	277.94
293.218	271.94
293.449	279.94
293.68	280.94
293.91	279.94
294.141	267.94
294.372	282.94
294.603	266.94
294.833	280.94
295.064	283.94
295.295	291.94
295.525	283.94
295.756	263.94
295.987	276.94
296.217	286.94
296.448	310.94
296.679	284.94
296.909	296.94
297.14	295.94
297.37	268.94
297.601	270.94
297.831	292.94
298.062	280.94
298.292	278.94
298.523	279.94
298.753	295.94
298.984	283.94
299.214	285.94
299.445	285.94
299.675	297.94
299.905	296.94
300.136	305.94
300.366	286.94
300.597	308.94
300.827	303.94
301.057	299.94
301.288	313.94
301.518	299.94
301.748	305.94
301.979	303.94
302.209	297.94
302.439	303.94
302.669	296.94
302.9	295.94
303.13	307.94
303.36	303.94
303.59	321.94
303.82	330.94
304.051	312.94
304.281	310.94
304.511	304.94
304.741	304.94
304.971	292.94
305.201	307.94
305.431	309.94
305.661	298.94
305.891	290.94
306.121	302.94
306.352	324.94
306.582	329.94
306.812	304.94
307.042	294.94
307.272	317.94
307.502	311.94
307.731	299.94
307.961	323.94
308.191	314.94
308.421	320.94
308.651	326.94
308.881	306.94
309.111	321.94
309.341	332.94
309.571	317.94
309.8	326.94
310.03	357.94
310.26	346.94
310.49	333.94
310.72	338.94
310.949	333.94
311.179	334.94
311.409	346.94
311.639	340.94
311.868	346.94
312.098	346.94
312.328	339.94
312.557	367.94
312.787	366.94
313.017	371.94
313.246	366.94
313.476	359.94
313.706	328.94
313.935	345.94
314.165	356.94
314.394	380.94
314.624	355.94
314.853	365.94
315.083	329.94
315.312	364.94
315.542	332.94
315.771	347.94
316.001	351.94
316.23	335.94
316.46	351.94
316.689	348.94
316.919	347.94
317.148	333.94
317.377	360.94
317.607	372.94
317.836	379.94
318.065	351.94
318.295	358.94
318.524	353.94
318.753	336.94
318.983	338.94
319.212	355.94
319.441	374.94
319.67	381.94
319.9	340.94
320.129	339.94
320.358	358.94
320.587	361.94
320.816	365.94
321.046	363.94
321.275	372.94
321.504	357.94
321.733	362.94
321.962	367.94
322.191	366.94
322.42	379.94
322.649	393.94
322.878	388.94
323.108	395.94
323.337	407.94
323.566	433.94
323.795	447.94
324.024	475.94
324.253	556.94
324.482	781.94
324.71	1197.94
324.939	1829.94
325.168	1547.94
325.397	745.94
325.626	538.94
325.855	475.94
326.084	431.94
326.313	447.94
326.542	429.94
326.77	459.94
326.999	534.94
327.228	699.94
327.457	1101.94
327.686	1349.94
327.914	889.94
328.143	583.94
328.372	533.94
328.6	473.94
328.829	481.94
329.058	492.94
329.287	503.94
329.515	463.94
329.744	431.94
329.972	438.94
330.201	461.94
330.43	489.94
330.658	492.94
330.887	511.94
331.115	491.94
331.344	465.94
331.572	428.94
331.801	441.94
332.03	438.94
332.258	422.94
332.486	413.94
332.715	402.94
332.943	424.94
333.172	413.94
333.4	424.94
333.629	444.94
333.857	438.94
334.085	432.94
334.314	451.94
334.542	481.94
334.771	493.94
334.999	464.94
335.227	443.94
335.455	428.94
335.684	456.94
335.912	426.94
336.14	414.94
336.369	449.94
336.597	439.94
336.825	425.94
337.053	424.94
337.281	396.94
337.51	399.94
337.738	417.94
337.966	402.94
338.194	442.94
338.422	418.94
338.65	405.94
338.878	414.94
339.106	398.94
339.334	406.94
339.562	411.94
339.79	401.94
340.018	391.94
340.246	407.94
340.474	412.94
340.702	403.94
340.93	387.94
341.158	399.94
341.386	406.94
341.614	411.94
341.842	399.94
342.07	387.94
342.298	393.94
342.526	381.94
342.754	385.94
342.981	381.94
343.209	402.94
343.437	400.94
343.665	422.94
343.893	419.94
344.12	437.94
344.348	441.94
344.576	420.94
344.804	417.94
345.031	429.94
345.259	438.94
345.487	405.94
345.714	398.94
345.942	400.94
346.17	398.94
346.397	387.94
346.625	390.94
346.853	379.94
347.08	376.94
347.308	395.94
347.535	419.94
347.763	403.94
347.99	391.94
348.218	417.94
348.445	387.94
348.673	402.94
348.9	428.94
349.128	391.94
349.355	377.94
349.583	390.94
349.81	405.94
350.037	389.94
350.265	402.94
350.492	375.94
350.72	381.94
350.947	402.94
351.174	399.94
351.402	393.94
351.629	399.94
351.856	391.94
352.083	396.94
352.311	399.94
352.538	411.94
352.765	428.94
352.992	413.94
353.22	396.94
353.447	397.94
353.674	403.94
353.901	378.94
354.128	386.94
354.355	360.94
354.583	361.94
354.81	381.94
355.037	379.94
355.264	392.94
355.491	366.94
355.718	371.94
355.945	379.94
356.172	393.94
356.399	384.94
356.626	378.94
356.853	383.94
357.08	374.94
357.307	382.94
357.534	383.94
357.761	380.94
357.988	363.94
358.215	357.94
358.441	376.94
358.668	372.94
358.895	393.94
359.122	375.94
359.349	403.94
359.576	385.94
359.802	403.94
360.029	428.94
360.256	441.94
360.483	435.94
360.709	397.94
360.936	413.94
361.163	399.94
361.39	395.94
361.616	418.94
361.843	416.94
362.07	379.94
362.296	406.94
362.523	398.94
362.749	397.94
362.976	385.94
363.203	392.94
363.429	393.94
363.656	378.94
363.882	390.94
364.109	371.94
364.335	389.94
364.562	386.94
364.788	396.94
365.015	382.94
365.241	386.94
365.468	390.94
365.694	391.94
365.92	382.94
366.147	379.94
366.373	398.94
366.599	387.94
366.826	393.94
367.052	406.94
367.278	398.94
367.505	395.94
367.731	390.94
367.957	393.94
368.184	383.94
368.41	407.94
368.636	420.94
368.862	418.94
369.089	430.94
369.315	385.94
369.541	380.94
369.767	391.94
369.993	406.94
370.219	390.94
370.445	393.94
370.672	392.94
370.898	402.94
371.124	388.94
371.35	402.94
371.576	404.94
371.802	408.94
372.028	389.94
372.254	419.94
372.48	415.94
372.706	417.94
372.932	428.94
373.158	415.94
373.384	407.94
373.61	391.94
373.835	405.94
374.061	413.94
374.287	417.94
374.513	411.94
374.739	403.94
374.965	408.94
375.191	386.94
375.416	414.94
375.642	400.94
375.868	425.94
376.094	400.94
376.319	415.94
376.545	392.94
376.771	403.94
376.997	390.94
377.222	414.94
377.448	398.94
377.674	392.94
377.899	413.94
378.125	414.94
378.35	405.94
378.576	389.94
378.802	403.94
379.027	395.94
379.253	395.94
379.478	408.94
379.704	399.94
379.929	415.94
380.155	411.94
380.38	412.94
380.606	408.94
380.831	401.94
381.057	423.94
381.282	409.94
381.507	423.94
381.733	421.94
381.958	412.94
382.184	407.94
382.409	431.94
382.634	421.94
382.86	411.94
383.085	427.94
383.31	431.94
383.535	429.94
383.761	437.94
383.986	433.94
384.211	441.94
384.436	406.94
384.662	420.94
384.887	426.94
385.112	426.94
385.337	442.94
385.562	418.94
385.787	441.94
386.013	435.94
386.238	458.94
386.463	455.94
386.688	471.94
386.913	433.94
387.138	459.94
387.363	452.94
387.588	450.94
387.813	450.94
388.038	452.94
388.263	451.94
388.488	443.94
388.713	456.94
388.938	453.94
389.163	441.94
389.387	466.94
389.612	459.94
389.837	439.94
390.062	457.94
390.287	435.94
390.512	439.94
390.736	457.94
390.961	467.94
391.186	449.94
391.411	486.94
391.636	474.94
391.86	472.94
392.085	457.94
392.31	475.94
392.534	452.94
392.759	467.94
392.984	471.94
393.208	483.94
393.433	488.94
393.658	481.94
393.882	460.94
394.107	458.94
394.331	464.94
394.556	433.94
394.78	463.94
395.005	467.94
395.229	450.94
395.454	483.94
395.678	490.94
395.903	490.94
396.127	517.94
396.352	482.94
396.576	487.94
396.801	496.94
397.025	498.94
397.249	482.94
397.474	511.94
397.698	497.94
397.922	510.94
398.147	499.94
398.371	528.94
398.595	515.94
398.82	509.94
399.044	509.94
399.268	570.94
399.492	572.94
399.717	595.94
399.941	637.94
400.165	649.94
400.389	654.94
400.613	601.94
400.837	563.94
401.062	562.94
401.286	541.94
401.51	525.94
401.734	532.94
401.958	520.94
402.182	551.94
402.406	547.94
402.63	533.94
402.854	547.94
403.078	545.94
403.302	541.94
403.526	547.94
403.75	531.94
403.974	564.94
404.198	557.94
404.422	563.94
404.645	543.94
404.869	577.94
405.093	579.94
405.317	636.94
405.541	653.94
405.765	618.94
405.988	565.94
406.212	582.94
406.436	577.94
406.66	603.94
406.883	576.94
407.107	597.94
407.331	649.94
407.555	718.94
407.778	710.94
408.002	678.94
408.226	627.94
408.449	604.94
408.673	593.94
408.896	639.94
409.12	668.94
409.344	641.94
409.567	594.94
409.791	552.94
410.014	554.94
410.238	533.94
410.461	565.94
410.685	567.94
410.908	564.94
411.132	609.94
411.355	645.94
411.578	611.94
411.802	570.94
412.025	551.94
412.249	577.94
412.472	583.94
412.695	597.94
412.919	584.94
413.142	563.94
413.365	549.94
413.589	529.94
413.812	517.94
414.035	533.94
414.258	531.94
414.482	525.94
414.705	500.94
414.928	511.94
415.151	513.94
415.374	523.94
415.597	527.94
415.821	519.94
416.044	548.94
416.267	508.94
416.49	504.94
416.713	519.94
416.936	499.94
417.159	516.94
417.382	499.94
417.605	513.94
417.828	516.94
418.051	553.94
418.274	549.94
418.497	536.94
418.72	499.94
418.943	513.94
419.166	549.94
419.389	553.94
419.611	546.94
419.834	563.94
420.057	557.94
420.28	539.94
420.503	532.94
420.726	551.94
420.948	559.94
421.171	556.94
421.394	622.94
421.617	557.94
421.839	538.94
422.062	552.94
422.285	547.94
422.507	631.94
422.73	678.94
422.953	638.94
423.175	559.94
423.398	551.94
423.621	562.94
423.843	581.94
424.066	586.94
424.288	586.94
424.511	596.94
424.733	621.94
424.956	697.94
425.178	679.94
425.401	697.94
425.623	709.94
425.846	635.94
426.068	599.94
426.291	570.94
426.513	573.94
426.735	557.94
426.958	610.94
427.18	677.94
427.402	829.94
427.625	899.94
427.847	756.94
428.069	652.94
428.292	622.94
428.514	586.94
428.736	555.94
428.958	555.94
429.181	540.94
429.403	534.94
429.625	535.94
429.847	552.94
430.069	625.94
430.292	643.94
430.514	546.94
430.736	521.94
430.958	533.94
431.18	522.94
431.402	513.94
431.624	505.94
431.846	497.94
432.068	505.94
432.29	509.94
432.512	483.94
432.734	509.94
432.956	495.94
433.178	498.94
433.4	520.94
433.622	512.94
433.844	514.94
434.066	511.94
434.287	499.94
434.509	521.94
434.731	539.94
434.953	535.94
435.175	559.94
435.397	564.94
435.618	548.94
435.84	607.94
436.062	691.94
436.284	769.94
436.505	652.94
436.727	587.94
436.949	580.94
437.17	563.94
437.392	511.94
437.614	548.94
437.835	570.94
438.057	659.94
438.278	755.94
438.5	738.94
438.721	845.94
438.943	777.94
439.165	638.94
439.386	583.94
439.608	554.94
439.829	552.94
440.05	594.94
440.272	644.94
440.493	606.94
440.715	569.94
440.936	548.94
441.158	528.94
441.379	533.94
441.6	561.94
441.822	578.94
442.043	601.94
442.264	662.94
442.486	763.94
442.707	621.94
442.928	585.94
443.149	566.94
443.371	623.94
443.592	625.94
443.813	753.94
444.034	799.94
444.255	675.94
444.476	616.94
444.698	589.94
444.919	589.94
445.14	694.94
445.361	618.94
445.582	619.94
445.803	662.94
446.024	771.94
446.245	779.94
446.466	712.94
446.687	615.94
446.908	543.94
447.129	544.94
447.35	511.94
447.571	512.94
447.792	517.94
448.013	519.94
448.234	535.94
448.455	594.94
448.675	691.94
448.896	813.94
449.117	685.94
449.338	641.94
449.559	763.94
449.779	873.94
450	716.94
450.221	565.94
450.442	525.94
450.662	499.94
450.883	510.94
451.104	535.94
451.324	497.94
451.545	514.94
451.766	478.94
451.986	481.94
452.207	459.94
452.428	488.94
452.648	482.94
452.869	474.94
453.089	493.94
453.31	485.94
453.53	470.94
453.751	482.94
453.971	483.94
454.192	483.94
454.412	467.94
454.633	475.94
454.853	458.94
455.073	482.94
455.294	506.94
455.514	553.94
455.734	537.94
455.955	483.94
456.175	445.94
456.395	451.94
456.616	452.94
456.836	435.94
457.056	436.94
457.276	427.94
457.497	456.94
457.717	449.94
457.937	461.94
458.157	455.94
458.377	474.94
458.598	499.94
458.818	545.94
459.038	593.94
459.258	620.94
459.478	553.94
459.698	513.94
459.918	506.94
460.138	498.94
460.358	518.94
460.578	511.94
460.798	503.94
461.018	531.94
461.238	525.94
461.458	528.94
461.678	523.94
461.898	558.94
462.118	525.94
462.338	531.94
462.558	551.94
462.777	554.94
462.997	575.94
463.217	582.94
463.437	581.94
463.657	585.94
463.876	547.94
464.096	573.94
464.316	562.94
464.536	568.94
464.755	546.94
464.975	582.94
465.195	599.94
465.414	633.94
465.634	579.94
465.854	547.94
466.073	505.94
466.293	527.94
466.512	497.94
466.732	461.94
466.951	474.94
467.171	473.94
467.391	487.94
467.61	504.94
467.829	499.94
468.049	501.94
468.268	493.94
468.488	469.94
468.707	487.94
468.927	464.94
469.146	476.94
469.365	464.94
469.585	463.94
469.804	497.94
470.023	512.94
470.243	518.94
470.462	503.94
470.681	518.94
470.901	502.94
471.12	513.94
471.339	501.94
471.558	505.94
471.777	503.94
471.997	497.94
472.216	509.94
472.435	508.94
472.654	515.94
472.873	523.94
473.092	500.94
473.311	483.94
473.53	505.94
473.749	488.94
473.968	536.94
474.187	622.94
474.406	667.94
474.625	548.94
474.844	499.94
475.063	502.94
475.282	486.94
475.501	494.94
475.72	498.94
475.939	511.94
476.158	527.94
476.377	534.94
476.596	515.94
476.814	528.94
477.033	541.94
477.252	513.94
477.471	535.94
477.69	554.94
477.908	523.94
478.127	536.94
478.346	559.94
478.564	550.94
478.783	571.94
479.002	566.94
479.22	581.94
479.439	586.94
479.658	601.94
479.876	593.94
480.095	601.94
480.313	623.94
480.532	636.94
480.751	630.94
480.969	612.94
481.188	652.94
481.406	685.94
481.624	618.94
481.843	604.94
482.061	614.94
482.28	597.94
482.498	594.94
482.717	577.94
482.935	570.94
483.153	593.94
483.372	583.94
483.59	587.94
483.808	596.94
484.027	567.94
484.245	573.94
484.463	589.94
484.681	597.94
484.9	600.94
485.118	611.94
485.336	609.94
485.554	603.94
485.772	631.94
485.99	618.94
486.209	597.94
486.427	613.94
486.645	630.94
486.863	633.94
487.081	647.94
487.299	619.94
487.517	609.94
487.735	613.94
487.953	653.94
488.171	653.94
488.389	617.94
488.607	612.94
488.825	636.94
489.043	635.94
489.261	623.94
489.479	631.94
489.696	638.94
489.914	638.94
490.132	634.94
490.35	642.94
490.568	653.94
490.786	666.94
491.003	652.94
491.221	687.94
491.439	692.94
491.657	701.94
491.874	679.94
492.092	715.94
492.31	699.94
492.527	717.94
492.745	722.94
492.963	709.94
493.18	743.94
493.398	728.94
493.615	716.94
493.833	733.94
494.05	725.94
494.268	738.94
494.485	736.94
494.703	731.94
494.92	707.94
495.138	738.94
495.355	749.94
495.573	732.94
495.79	730.94
496.008	741.94
496.225	735.94
496.442	748.94
496.66	719.94
496.877	751.94
497.094	755.94
497.312	781.94
497.529	782.94
497.746	776.94
497.963	806.94
498.181	812.94
498.398	814.94
498.615	845.94
498.832	851.94
499.049	879.94
499.267	914.94
499.484	938.94
499.701	949.94
499.918	998.94
500.135	1081.94
500.352	1126.94
500.569	1100.94
500.786	1106.94
501.003	1090.94
501.22	1069.94
501.437	1027.94
501.654	1006.94
