Data from 1966.PennyLincolnUp.Lamp.En5.5.200Scan.071719.P1.Scan2.head_HRD10591_14-18-23-184.txt Node
Date: Thu Jul 18 14:18:23 EDT 2019
User: cochatt
Spectrometer: HR+D1059
Trigger mode: 1
Integration Time (sec): 1.000000E-1
Scans to average: 1
Electric dark correction enabled: true
Nonlinearity correction enabled: false
Boxcar width: 0
XAxis mode: Wavelengths
Number of Pixels in Spectrum: 2048
>>>>>Begin Spectral Data<<<<<
223.165	-15.81
223.4	-15.81
223.635	-15.81
223.869	-9.81
224.104	-17.81
224.338	-13.81
224.573	-16.81
224.808	-9.81
225.042	-5.81
225.277	-11.81
225.511	-15.81
225.746	-4.81
225.98	9.19
226.215	17.19
226.449	21.19
226.683	18.19
226.918	28.19
227.152	28.19
227.387	48.19
227.621	39.19
227.856	32.19
228.09	50.19
228.324	54.19
228.559	59.19
228.793	86.19
229.027	87.19
229.262	91.19
229.496	116.19
229.73	120.19
229.964	165.19
230.199	142.19
230.433	124.19
230.667	106.19
230.901	120.19
231.136	117.19
231.37	120.19
231.604	125.19
231.838	100.19
232.072	111.19
232.306	126.19
232.541	120.19
232.775	112.19
233.009	115.19
233.243	113.19
233.477	111.19
233.711	111.19
233.945	114.19
234.179	133.19
234.413	132.19
234.647	129.19
234.881	128.19
235.115	113.19
235.349	136.19
235.583	121.19
235.817	125.19
236.051	134.19
236.285	140.19
236.519	144.19
236.753	124.19
236.987	146.19
237.221	193.19
237.455	228.19
237.689	196.19
237.922	154.19
238.156	134.19
238.39	132.19
238.624	129.19
238.858	125.19
239.091	134.19
239.325	132.19
239.559	137.19
239.793	141.19
240.027	142.19
240.26	146.19
240.494	170.19
240.728	134.19
240.961	157.19
241.195	158.19
241.429	150.19
241.662	157.19
241.896	146.19
242.13	144.19
242.363	138.19
242.597	148.19
242.83	130.19
243.064	140.19
243.298	148.19
243.531	152.19
243.765	147.19
243.998	156.19
244.232	145.19
244.465	168.19
244.699	167.19
244.932	146.19
245.166	156.19
245.399	141.19
245.633	138.19
245.866	168.19
246.099	149.19
246.333	172.19
246.566	161.19
246.8	165.19
247.033	170.19
247.266	155.19
247.5	166.19
247.733	170.19
247.966	176.19
248.2	185.19
248.433	164.19
248.666	193.19
248.899	192.19
249.133	194.19
249.366	222.19
249.599	206.19
249.832	192.19
250.066	191.19
250.299	185.19
250.532	222.19
250.765	209.19
250.998	195.19
251.231	228.19
251.465	204.19
251.698	198.19
251.931	201.19
252.164	206.19
252.397	188.19
252.63	199.19
252.863	202.19
253.096	210.19
253.329	230.19
253.562	233.19
253.795	220.19
254.028	219.19
254.261	215.19
254.494	213.19
254.727	267.19
254.96	294.19
255.193	285.19
255.426	238.19
255.659	239.19
255.892	249.19
256.124	249.19
256.357	248.19
256.59	224.19
256.823	219.19
257.056	223.19
257.289	206.19
257.521	213.19
257.754	225.19
257.987	215.19
258.22	225.19
258.452	217.19
258.685	215.19
258.918	210.19
259.151	218.19
259.383	200.19
259.616	228.19
259.849	246.19
260.081	240.19
260.314	246.19
260.547	271.19
260.779	252.19
261.012	226.19
261.244	234.19
261.477	241.19
261.71	228.19
261.942	216.19
262.175	238.19
262.407	232.19
262.64	204.19
262.872	210.19
263.105	217.19
263.337	214.19
263.57	214.19
263.802	228.19
264.035	218.19
264.267	217.19
264.499	214.19
264.732	231.19
264.964	231.19
265.197	222.19
265.429	222.19
265.661	229.19
265.894	217.19
266.126	228.19
266.358	213.19
266.591	230.19
266.823	225.19
267.055	225.19
267.287	236.19
267.52	230.19
267.752	233.19
267.984	231.19
268.216	261.19
268.448	240.19
268.681	225.19
268.913	241.19
269.145	265.19
269.377	279.19
269.609	283.19
269.841	275.19
270.073	297.19
270.306	275.19
270.538	320.19
270.77	326.19
271.002	301.19
271.234	296.19
271.466	302.19
271.698	321.19
271.93	317.19
272.162	309.19
272.394	325.19
272.626	295.19
272.858	285.19
273.09	288.19
273.322	286.19
273.553	271.19
273.785	280.19
274.017	282.19
274.249	270.19
274.481	263.19
274.713	276.19
274.945	287.19
275.176	267.19
275.408	281.19
275.64	270.19
275.872	262.19
276.104	277.19
276.335	281.19
276.567	290.19
276.799	302.19
277.031	297.19
277.262	333.19
277.494	344.19
277.726	322.19
277.957	295.19
278.189	305.19
278.421	279.19
278.652	286.19
278.884	284.19
279.115	290.19
279.347	288.19
279.579	279.19
279.81	270.19
280.042	269.19
280.273	283.19
280.505	306.19
280.736	266.19
280.968	265.19
281.199	269.19
281.431	268.19
281.662	278.19
281.894	282.19
282.125	285.19
282.356	298.19
282.588	322.19
282.819	318.19
283.051	297.19
283.282	282.19
283.513	280.19
283.745	279.19
283.976	282.19
284.207	274.19
284.439	277.19
284.67	293.19
284.901	295.19
285.132	298.19
285.364	288.19
285.595	272.19
285.826	281.19
286.057	291.19
286.288	293.19
286.52	298.19
286.751	294.19
286.982	285.19
287.213	283.19
287.444	309.19
287.675	312.19
287.906	299.19
288.138	300.19
288.369	318.19
288.6	302.19
288.831	291.19
289.062	292.19
289.293	309.19
289.524	297.19
289.755	305.19
289.986	296.19
290.217	305.19
290.448	306.19
290.679	303.19
290.91	315.19
291.141	305.19
291.371	302.19
291.602	288.19
291.833	288.19
292.064	294.19
292.295	298.19
292.526	295.19
292.757	304.19
292.987	303.19
293.218	289.19
293.449	295.19
293.68	317.19
293.91	300.19
294.141	296.19
294.372	313.19
294.603	285.19
294.833	301.19
295.064	303.19
295.295	302.19
295.525	304.19
295.756	315.19
295.987	311.19
296.217	317.19
296.448	352.19
296.679	325.19
296.909	313.19
297.14	316.19
297.37	309.19
297.601	315.19
297.831	320.19
298.062	316.19
298.292	301.19
298.523	312.19
298.753	320.19
298.984	331.19
299.214	320.19
299.445	309.19
299.675	322.19
299.905	316.19
300.136	312.19
300.366	321.19
300.597	306.19
300.827	338.19
301.057	317.19
301.288	312.19
301.518	332.19
301.748	327.19
301.979	325.19
302.209	324.19
302.439	349.19
302.669	337.19
302.9	351.19
303.13	335.19
303.36	343.19
303.59	346.19
303.82	369.19
304.051	351.19
304.281	343.19
304.511	336.19
304.741	332.19
304.971	362.19
305.201	353.19
305.431	346.19
305.661	353.19
305.891	346.19
306.121	339.19
306.352	351.19
306.582	336.19
306.812	347.19
307.042	357.19
307.272	333.19
307.502	349.19
307.731	344.19
307.961	344.19
308.191	338.19
308.421	332.19
308.651	363.19
308.881	357.19
309.111	360.19
309.341	353.19
309.571	364.19
309.8	376.19
310.03	381.19
310.26	393.19
310.49	387.19
310.72	387.19
310.949	392.19
311.179	407.19
311.409	401.19
311.639	374.19
311.868	380.19
312.098	403.19
312.328	407.19
312.557	401.19
312.787	401.19
313.017	415.19
313.246	394.19
313.476	392.19
313.706	391.19
313.935	408.19
314.165	402.19
314.394	412.19
314.624	410.19
314.853	399.19
315.083	410.19
315.312	408.19
315.542	378.19
315.771	378.19
316.001	376.19
316.23	389.19
316.46	392.19
316.689	406.19
316.919	393.19
317.148	391.19
317.377	393.19
317.607	380.19
317.836	394.19
318.065	394.19
318.295	402.19
318.524	376.19
318.753	395.19
318.983	398.19
319.212	396.19
319.441	400.19
319.67	402.19
319.9	410.19
320.129	395.19
320.358	402.19
320.587	420.19
320.816	384.19
321.046	418.19
321.275	430.19
321.504	417.19
321.733	421.19
321.962	432.19
322.191	425.19
322.42	432.19
322.649	459.19
322.878	464.19
323.108	449.19
323.337	474.19
323.566	502.19
323.795	513.19
324.024	570.19
324.253	693.19
324.482	928.19
324.71	1480.19
324.939	2236.19
325.168	1935.19
325.397	973.19
325.626	624.19
325.855	560.19
326.084	521.19
326.313	490.19
326.542	521.19
326.77	568.19
326.999	635.19
327.228	866.19
327.457	1336.19
327.686	1619.19
327.914	1080.19
328.143	704.19
328.372	646.19
328.6	589.19
328.829	575.19
329.058	592.19
329.287	626.19
329.515	547.19
329.744	522.19
329.972	529.19
330.201	523.19
330.43	592.19
330.658	590.19
330.887	618.19
331.115	609.19
331.344	544.19
331.572	508.19
331.801	514.19
332.03	505.19
332.258	488.19
332.486	493.19
332.715	464.19
332.943	485.19
333.172	478.19
333.4	462.19
333.629	500.19
333.857	515.19
334.085	500.19
334.314	539.19
334.542	542.19
334.771	571.19
334.999	510.19
335.227	496.19
335.455	495.19
335.684	481.19
335.912	480.19
336.14	459.19
336.369	460.19
336.597	465.19
336.825	483.19
337.053	450.19
337.281	462.19
337.51	459.19
337.738	470.19
337.966	455.19
338.194	470.19
338.422	447.19
338.65	472.19
338.878	470.19
339.106	460.19
339.334	454.19
339.562	446.19
339.79	462.19
340.018	453.19
340.246	419.19
340.474	454.19
340.702	482.19
340.93	472.19
341.158	453.19
341.386	452.19
341.614	467.19
341.842	453.19
342.07	441.19
342.298	457.19
342.526	442.19
342.754	428.19
342.981	429.19
343.209	441.19
343.437	450.19
343.665	441.19
343.893	445.19
344.12	474.19
344.348	447.19
344.576	471.19
344.804	465.19
345.031	481.19
345.259	474.19
345.487	475.19
345.714	466.19
345.942	449.19
346.17	452.19
346.397	446.19
346.625	432.19
346.853	448.19
347.08	449.19
347.308	466.19
347.535	442.19
347.763	452.19
347.99	438.19
348.218	449.19
348.445	461.19
348.673	443.19
348.9	446.19
349.128	429.19
349.355	438.19
349.583	432.19
349.81	436.19
350.037	408.19
350.265	416.19
350.492	440.19
350.72	412.19
350.947	441.19
351.174	446.19
351.402	454.19
351.629	465.19
351.856	423.19
352.083	450.19
352.311	464.19
352.538	462.19
352.765	472.19
352.992	462.19
353.22	450.19
353.447	448.19
353.674	449.19
353.901	427.19
354.128	421.19
354.355	417.19
354.583	423.19
354.81	430.19
355.037	426.19
355.264	407.19
355.491	413.19
355.718	418.19
355.945	398.19
356.172	429.19
356.399	422.19
356.626	405.19
356.853	412.19
357.08	424.19
357.307	414.19
357.534	426.19
357.761	413.19
357.988	415.19
358.215	418.19
358.441	398.19
358.668	423.19
358.895	417.19
359.122	417.19
359.349	439.19
359.576	458.19
359.802	471.19
360.029	501.19
360.256	507.19
360.483	504.19
360.709	460.19
360.936	464.19
361.163	448.19
361.39	445.19
361.616	429.19
361.843	465.19
362.07	462.19
362.296	457.19
362.523	443.19
362.749	440.19
362.976	417.19
363.203	424.19
363.429	411.19
363.656	448.19
363.882	415.19
364.109	426.19
364.335	420.19
364.562	420.19
364.788	426.19
365.015	438.19
365.241	453.19
365.468	442.19
365.694	424.19
365.92	427.19
366.147	445.19
366.373	426.19
366.599	436.19
366.826	427.19
367.052	426.19
367.278	448.19
367.505	433.19
367.731	431.19
367.957	425.19
368.184	427.19
368.41	456.19
368.636	444.19
368.862	459.19
369.089	460.19
369.315	442.19
369.541	430.19
369.767	436.19
369.993	412.19
370.219	439.19
370.445	426.19
370.672	447.19
370.898	446.19
371.124	421.19
371.35	449.19
371.576	446.19
371.802	449.19
372.028	457.19
372.254	438.19
372.48	444.19
372.706	438.19
372.932	454.19
373.158	454.19
373.384	446.19
373.61	427.19
373.835	462.19
374.061	439.19
374.287	430.19
374.513	467.19
374.739	451.19
374.965	449.19
375.191	460.19
375.416	453.19
375.642	461.19
375.868	452.19
376.094	429.19
376.319	442.19
376.545	444.19
376.771	417.19
376.997	437.19
377.222	423.19
377.448	438.19
377.674	438.19
377.899	446.19
378.125	437.19
378.35	423.19
378.576	427.19
378.802	423.19
379.027	432.19
379.253	447.19
379.478	428.19
379.704	440.19
379.929	436.19
380.155	441.19
380.38	444.19
380.606	460.19
380.831	426.19
381.057	447.19
381.282	431.19
381.507	437.19
381.733	458.19
381.958	448.19
382.184	446.19
382.409	447.19
382.634	450.19
382.86	469.19
383.085	461.19
383.31	468.19
383.535	463.19
383.761	465.19
383.986	461.19
384.211	456.19
384.436	493.19
384.662	477.19
384.887	485.19
385.112	482.19
385.337	455.19
385.562	465.19
385.787	479.19
386.013	512.19
386.238	488.19
386.463	511.19
386.688	508.19
386.913	484.19
387.138	472.19
387.363	490.19
387.588	501.19
387.813	479.19
388.038	469.19
388.263	484.19
388.488	505.19
388.713	481.19
388.938	479.19
389.163	480.19
389.387	489.19
389.612	470.19
389.837	461.19
390.062	487.19
390.287	478.19
390.512	489.19
390.736	504.19
390.961	508.19
391.186	511.19
391.411	520.19
391.636	497.19
391.86	506.19
392.085	542.19
392.31	487.19
392.534	512.19
392.759	507.19
392.984	510.19
393.208	506.19
393.433	502.19
393.658	513.19
393.882	507.19
394.107	511.19
394.331	505.19
394.556	501.19
394.78	487.19
395.005	485.19
395.229	504.19
395.454	523.19
395.678	490.19
395.903	536.19
396.127	534.19
396.352	544.19
396.576	533.19
396.801	490.19
397.025	522.19
397.249	511.19
397.474	537.19
397.698	522.19
397.922	529.19
398.147	568.19
398.371	560.19
398.595	544.19
398.82	549.19
399.044	554.19
399.268	591.19
399.492	616.19
399.717	691.19
399.941	677.19
400.165	715.19
400.389	719.19
400.613	631.19
400.837	607.19
401.062	590.19
401.286	570.19
401.51	597.19
401.734	571.19
401.958	550.19
402.182	578.19
402.406	584.19
402.63	586.19
402.854	567.19
403.078	576.19
403.302	592.19
403.526	598.19
403.75	590.19
403.974	574.19
404.198	601.19
404.422	586.19
404.645	607.19
404.869	631.19
405.093	672.19
405.317	692.19
405.541	719.19
405.765	649.19
405.988	648.19
406.212	627.19
406.436	664.19
406.66	670.19
406.883	623.19
407.107	654.19
407.331	728.19
407.555	768.19
407.778	783.19
408.002	716.19
408.226	660.19
408.449	652.19
408.673	671.19
408.896	706.19
409.12	717.19
409.344	676.19
409.567	616.19
409.791	615.19
410.014	590.19
410.238	614.19
410.461	608.19
410.685	603.19
410.908	626.19
411.132	649.19
411.355	676.19
411.578	628.19
411.802	594.19
412.025	603.19
412.249	602.19
412.472	633.19
412.695	676.19
412.919	681.19
413.142	610.19
413.365	578.19
413.589	599.19
413.812	570.19
414.035	584.19
414.258	572.19
414.482	575.19
414.705	584.19
414.928	585.19
415.151	555.19
415.374	588.19
415.597	543.19
415.821	548.19
416.044	579.19
416.267	582.19
416.49	573.19
416.713	560.19
416.936	539.19
417.159	573.19
417.382	566.19
417.605	587.19
417.828	556.19
418.051	560.19
418.274	580.19
418.497	566.19
418.72	561.19
418.943	560.19
419.166	582.19
419.389	613.19
419.611	605.19
419.834	630.19
420.057	626.19
420.28	597.19
420.503	607.19
420.726	582.19
420.948	603.19
421.171	640.19
421.394	688.19
421.617	605.19
421.839	589.19
422.062	576.19
422.285	594.19
422.507	689.19
422.73	756.19
422.953	733.19
423.175	638.19
423.398	618.19
423.621	628.19
423.843	623.19
424.066	640.19
424.288	636.19
424.511	653.19
424.733	711.19
424.956	788.19
425.178	759.19
425.401	743.19
425.623	790.19
425.846	690.19
426.068	617.19
426.291	641.19
426.513	608.19
426.735	657.19
426.958	671.19
427.18	753.19
427.402	912.19
427.625	1009.19
427.847	880.19
428.069	732.19
428.292	677.19
428.514	637.19
428.736	630.19
428.958	610.19
429.181	593.19
429.403	604.19
429.625	625.19
429.847	628.19
430.069	702.19
430.292	717.19
430.514	616.19
430.736	568.19
430.958	574.19
431.18	559.19
431.402	542.19
431.624	561.19
431.846	543.19
432.068	545.19
432.29	557.19
432.512	547.19
432.734	573.19
432.956	538.19
433.178	566.19
433.4	598.19
433.622	553.19
433.844	544.19
434.066	565.19
434.287	566.19
434.509	555.19
434.731	581.19
434.953	561.19
435.175	594.19
435.397	617.19
435.618	639.19
435.84	673.19
436.062	774.19
436.284	875.19
436.505	712.19
436.727	643.19
436.949	621.19
437.17	574.19
437.392	583.19
437.614	612.19
437.835	621.19
438.057	746.19
438.278	851.19
438.5	824.19
438.721	943.19
438.943	897.19
439.165	726.19
439.386	642.19
439.608	624.19
439.829	655.19
440.05	680.19
440.272	714.19
440.493	666.19
440.715	618.19
440.936	582.19
441.158	582.19
441.379	592.19
441.6	597.19
441.822	628.19
442.043	656.19
442.264	765.19
442.486	836.19
442.707	684.19
442.928	618.19
443.149	652.19
443.371	669.19
443.592	709.19
443.813	839.19
444.034	912.19
444.255	724.19
444.476	675.19
444.698	641.19
444.919	654.19
445.14	748.19
445.361	696.19
445.582	693.19
445.803	748.19
446.024	857.19
446.245	866.19
446.466	793.19
446.687	667.19
446.908	621.19
447.129	593.19
447.35	600.19
447.571	573.19
447.792	576.19
448.013	602.19
448.234	604.19
448.455	685.19
448.675	787.19
448.896	905.19
449.117	768.19
449.338	729.19
449.559	848.19
449.779	991.19
450	754.19
450.221	628.19
450.442	591.19
450.662	578.19
450.883	559.19
451.104	593.19
451.324	562.19
451.545	547.19
451.766	557.19
451.986	518.19
452.207	526.19
452.428	523.19
452.648	541.19
452.869	517.19
453.089	541.19
453.31	549.19
453.53	536.19
453.751	505.19
453.971	518.19
454.192	534.19
454.412	546.19
454.633	504.19
454.853	528.19
455.073	514.19
455.294	558.19
455.514	611.19
455.734	595.19
455.955	515.19
456.175	511.19
456.395	511.19
456.616	493.19
456.836	470.19
457.056	482.19
457.276	491.19
457.497	478.19
457.717	495.19
457.937	504.19
458.157	506.19
458.377	521.19
458.598	548.19
458.818	576.19
459.038	688.19
459.258	728.19
459.478	608.19
459.698	576.19
459.918	550.19
460.138	560.19
460.358	554.19
460.578	555.19
460.798	593.19
461.018	580.19
461.238	569.19
461.458	589.19
461.678	558.19
461.898	537.19
462.118	575.19
462.338	604.19
462.558	598.19
462.777	581.19
462.997	606.19
463.217	613.19
463.437	646.19
463.657	630.19
463.876	617.19
464.096	608.19
464.316	613.19
464.536	640.19
464.755	606.19
464.975	653.19
465.195	642.19
465.414	696.19
465.634	648.19
465.854	604.19
466.073	582.19
466.293	576.19
466.512	527.19
466.732	532.19
466.951	544.19
467.171	524.19
467.391	546.19
467.61	548.19
467.829	567.19
468.049	556.19
468.268	586.19
468.488	553.19
468.707	521.19
468.927	501.19
469.146	526.19
469.365	537.19
469.585	510.19
469.804	535.19
470.023	550.19
470.243	537.19
470.462	552.19
470.681	586.19
470.901	569.19
471.12	559.19
471.339	533.19
471.558	553.19
471.777	547.19
471.997	529.19
472.216	582.19
472.435	568.19
472.654	570.19
472.873	544.19
473.092	545.19
473.311	544.19
473.53	529.19
473.749	547.19
473.968	591.19
474.187	700.19
474.406	726.19
474.625	602.19
474.844	591.19
475.063	563.19
475.282	572.19
475.501	557.19
475.72	562.19
475.939	586.19
476.158	586.19
476.377	558.19
476.596	551.19
476.814	587.19
477.033	566.19
477.252	586.19
477.471	598.19
477.69	576.19
477.908	586.19
478.127	609.19
478.346	613.19
478.564	612.19
478.783	621.19
479.002	631.19
479.22	632.19
479.439	630.19
479.658	652.19
479.876	650.19
480.095	652.19
480.313	698.19
480.532	700.19
480.751	674.19
480.969	686.19
481.188	768.19
481.406	794.19
481.624	713.19
481.843	684.19
482.061	673.19
482.28	670.19
482.498	655.19
482.717	636.19
482.935	638.19
483.153	641.19
483.372	656.19
483.59	662.19
483.808	646.19
484.027	623.19
484.245	638.19
484.463	621.19
484.681	668.19
484.9	654.19
485.118	655.19
485.336	672.19
485.554	644.19
485.772	681.19
485.99	677.19
486.209	670.19
486.427	678.19
486.645	679.19
486.863	699.19
487.081	696.19
487.299	689.19
487.517	688.19
487.735	687.19
487.953	696.19
488.171	670.19
488.389	704.19
488.607	705.19
488.825	701.19
489.043	683.19
489.261	683.19
489.479	696.19
489.696	705.19
489.914	720.19
490.132	735.19
490.35	729.19
490.568	739.19
490.786	746.19
491.003	760.19
491.221	748.19
491.439	811.19
491.657	792.19
491.874	783.19
492.092	801.19
492.31	784.19
492.527	804.19
492.745	782.19
492.963	800.19
493.18	780.19
493.398	829.19
493.615	840.19
493.833	802.19
494.05	808.19
494.268	804.19
494.485	817.19
494.703	809.19
494.92	794.19
495.138	813.19
495.355	803.19
495.573	827.19
495.79	819.19
496.008	850.19
496.225	822.19
496.442	826.19
496.66	809.19
496.877	798.19
497.094	833.19
497.312	847.19
497.529	865.19
497.746	860.19
497.963	865.19
498.181	925.19
498.398	887.19
498.615	942.19
498.832	960.19
499.049	948.19
499.267	1001.19
499.484	1018.19
499.701	1059.19
499.918	1076.19
500.135	1124.19
500.352	1168.19
500.569	1218.19
500.786	1217.19
501.003	1190.19
501.22	1164.19
501.437	1138.19
501.654	1056.19
