Data from 1966.PennyLincolnUp.Lamp.En5.5.200Scan.071719.P1._HRD10591_14-13-14-913.txt Node
Date: Thu Jul 18 14:13:14 EDT 2019
User: cochatt
Spectrometer: HR+D1059
Trigger mode: 1
Integration Time (sec): 1.000000E-1
Scans to average: 1
Electric dark correction enabled: true
Nonlinearity correction enabled: false
Boxcar width: 0
XAxis mode: Wavelengths
Number of Pixels in Spectrum: 2048
>>>>>Begin Spectral Data<<<<<
223.165	-20.25
223.4	-20.25
223.635	-20.25
223.869	-28.25
224.104	-16.25
224.338	-14.25
224.573	-14.25
224.808	-4.25
225.042	10.75
225.277	-4.25
225.511	-13.25
225.746	-2.25
225.98	10.75
226.215	1.75
226.449	17.75
226.683	15.75
226.918	31.75
227.152	28.75
227.387	36.75
227.621	44.75
227.856	31.75
228.09	49.75
228.324	50.75
228.559	55.75
228.793	48.75
229.027	65.75
229.262	82.75
229.496	86.75
229.73	93.75
229.964	119.75
230.199	80.75
230.433	80.75
230.667	91.75
230.901	91.75
231.136	102.75
231.37	90.75
231.604	92.75
231.838	88.75
232.072	111.75
232.306	92.75
232.541	96.75
232.775	107.75
233.009	102.75
233.243	104.75
233.477	102.75
233.711	90.75
233.945	106.75
234.179	91.75
234.413	87.75
234.647	94.75
234.881	96.75
235.115	116.75
235.349	94.75
235.583	89.75
235.817	106.75
236.051	95.75
236.285	97.75
236.519	82.75
236.753	98.75
236.987	105.75
237.221	125.75
237.455	129.75
237.689	135.75
237.922	105.75
238.156	95.75
238.39	94.75
238.624	98.75
238.858	95.75
239.091	102.75
239.325	105.75
239.559	88.75
239.793	100.75
240.027	99.75
240.26	98.75
240.494	111.75
240.728	94.75
240.961	110.75
241.195	114.75
241.429	101.75
241.662	106.75
241.896	90.75
242.13	109.75
242.363	107.75
242.597	110.75
242.83	102.75
243.064	110.75
243.298	96.75
243.531	115.75
243.765	110.75
243.998	119.75
244.232	111.75
244.465	105.75
244.699	99.75
244.932	107.75
245.166	106.75
245.399	98.75
245.633	117.75
245.866	115.75
246.099	97.75
246.333	107.75
246.566	102.75
246.8	102.75
247.033	108.75
247.266	121.75
247.5	127.75
247.733	118.75
247.966	128.75
248.2	116.75
248.433	127.75
248.666	128.75
248.899	126.75
249.133	131.75
249.366	128.75
249.599	108.75
249.832	115.75
250.066	116.75
250.299	134.75
250.532	136.75
250.765	132.75
250.998	138.75
251.231	150.75
251.465	141.75
251.698	115.75
251.931	125.75
252.164	122.75
252.397	130.75
252.63	123.75
252.863	127.75
253.096	132.75
253.329	149.75
253.562	144.75
253.795	131.75
254.028	129.75
254.261	134.75
254.494	131.75
254.727	156.75
254.96	168.75
255.193	176.75
255.426	160.75
255.659	134.75
255.892	154.75
256.124	147.75
256.357	151.75
256.59	138.75
256.823	136.75
257.056	115.75
257.289	122.75
257.521	138.75
257.754	115.75
257.987	123.75
258.22	141.75
258.452	132.75
258.685	131.75
258.918	135.75
259.151	137.75
259.383	141.75
259.616	129.75
259.849	138.75
260.081	149.75
260.314	145.75
260.547	161.75
260.779	142.75
261.012	138.75
261.244	146.75
261.477	140.75
261.71	147.75
261.942	154.75
262.175	142.75
262.407	148.75
262.64	156.75
262.872	128.75
263.105	131.75
263.337	136.75
263.57	135.75
263.802	142.75
264.035	136.75
264.267	128.75
264.499	141.75
264.732	136.75
264.964	138.75
265.197	129.75
265.429	147.75
265.661	144.75
265.894	126.75
266.126	139.75
266.358	147.75
266.591	139.75
266.823	139.75
267.055	136.75
267.287	140.75
267.52	157.75
267.752	142.75
267.984	141.75
268.216	143.75
268.448	138.75
268.681	145.75
268.913	153.75
269.145	156.75
269.377	155.75
269.609	172.75
269.841	153.75
270.073	149.75
270.306	183.75
270.538	184.75
270.77	169.75
271.002	166.75
271.234	161.75
271.466	162.75
271.698	167.75
271.93	180.75
272.162	159.75
272.394	169.75
272.626	179.75
272.858	162.75
273.09	168.75
273.322	170.75
273.553	161.75
273.785	162.75
274.017	150.75
274.249	162.75
274.481	154.75
274.713	164.75
274.945	169.75
275.176	154.75
275.408	162.75
275.64	157.75
275.872	151.75
276.104	167.75
276.335	171.75
276.567	149.75
276.799	174.75
277.031	176.75
277.262	182.75
277.494	191.75
277.726	183.75
277.957	155.75
278.189	163.75
278.421	146.75
278.652	166.75
278.884	164.75
279.115	152.75
279.347	153.75
279.579	146.75
279.81	147.75
280.042	177.75
280.273	148.75
280.505	179.75
280.736	166.75
280.968	148.75
281.199	161.75
281.431	170.75
281.662	158.75
281.894	160.75
282.125	175.75
282.356	175.75
282.588	189.75
282.819	164.75
283.051	142.75
283.282	147.75
283.513	158.75
283.745	164.75
283.976	170.75
284.207	150.75
284.439	167.75
284.67	175.75
284.901	168.75
285.132	145.75
285.364	164.75
285.595	146.75
285.826	178.75
286.057	169.75
286.288	170.75
286.52	160.75
286.751	166.75
286.982	161.75
287.213	183.75
287.444	165.75
287.675	162.75
287.906	164.75
288.138	151.75
288.369	176.75
288.6	182.75
288.831	189.75
289.062	168.75
289.293	183.75
289.524	168.75
289.755	169.75
289.986	179.75
290.217	167.75
290.448	163.75
290.679	167.75
290.91	170.75
291.141	173.75
291.371	157.75
291.602	165.75
291.833	154.75
292.064	172.75
292.295	169.75
292.526	162.75
292.757	174.75
292.987	157.75
293.218	162.75
293.449	157.75
293.68	173.75
293.91	180.75
294.141	174.75
294.372	159.75
294.603	168.75
294.833	167.75
295.064	176.75
295.295	186.75
295.525	175.75
295.756	158.75
295.987	184.75
296.217	202.75
296.448	185.75
296.679	176.75
296.909	168.75
297.14	174.75
297.37	165.75
297.601	170.75
297.831	176.75
298.062	183.75
298.292	178.75
298.523	175.75
298.753	191.75
298.984	173.75
299.214	175.75
299.445	169.75
299.675	167.75
299.905	167.75
300.136	190.75
300.366	173.75
300.597	174.75
300.827	172.75
301.057	188.75
301.288	202.75
301.518	191.75
301.748	175.75
301.979	195.75
302.209	162.75
302.439	188.75
302.669	192.75
302.9	180.75
303.13	188.75
303.36	184.75
303.59	196.75
303.82	184.75
304.051	179.75
304.281	186.75
304.511	178.75
304.741	187.75
304.971	188.75
305.201	184.75
305.431	189.75
305.661	182.75
305.891	184.75
306.121	174.75
306.352	182.75
306.582	202.75
306.812	179.75
307.042	194.75
307.272	198.75
307.502	187.75
307.731	187.75
307.961	180.75
308.191	188.75
308.421	194.75
308.651	208.75
308.881	175.75
309.111	218.75
309.341	190.75
309.571	198.75
309.8	194.75
310.03	194.75
310.26	192.75
310.49	202.75
310.72	199.75
310.949	216.75
311.179	198.75
311.409	206.75
311.639	204.75
311.868	194.75
312.098	203.75
312.328	200.75
312.557	225.75
312.787	210.75
313.017	213.75
313.246	205.75
313.476	199.75
313.706	204.75
313.935	206.75
314.165	207.75
314.394	232.75
314.624	221.75
314.853	220.75
315.083	214.75
315.312	209.75
315.542	192.75
315.771	204.75
316.001	191.75
316.23	194.75
316.46	203.75
316.689	216.75
316.919	215.75
317.148	215.75
317.377	206.75
317.607	211.75
317.836	194.75
318.065	207.75
318.295	189.75
318.524	186.75
318.753	213.75
318.983	198.75
319.212	209.75
319.441	211.75
319.67	227.75
319.9	198.75
320.129	226.75
320.358	200.75
320.587	202.75
320.816	202.75
321.046	225.75
321.275	222.75
321.504	197.75
321.733	207.75
321.962	215.75
322.191	211.75
322.42	222.75
322.649	219.75
322.878	241.75
323.108	235.75
323.337	243.75
323.566	266.75
323.795	265.75
324.024	296.75
324.253	332.75
324.482	479.75
324.71	715.75
324.939	961.75
325.168	768.75
325.397	398.75
325.626	282.75
325.855	268.75
326.084	241.75
326.313	256.75
326.542	246.75
326.77	256.75
326.999	327.75
327.228	426.75
327.457	630.75
327.686	719.75
327.914	472.75
328.143	339.75
328.372	296.75
328.6	291.75
328.829	286.75
329.058	316.75
329.287	290.75
329.515	278.75
329.744	241.75
329.972	262.75
330.201	271.75
330.43	306.75
330.658	318.75
330.887	315.75
331.115	289.75
331.344	250.75
331.572	266.75
331.801	246.75
332.03	252.75
332.258	239.75
332.486	226.75
332.715	233.75
332.943	226.75
333.172	236.75
333.4	224.75
333.629	238.75
333.857	241.75
334.085	260.75
334.314	264.75
334.542	298.75
334.771	295.75
334.999	268.75
335.227	243.75
335.455	240.75
335.684	249.75
335.912	239.75
336.14	241.75
336.369	234.75
336.597	226.75
336.825	239.75
337.053	241.75
337.281	226.75
337.51	225.75
337.738	222.75
337.966	222.75
338.194	240.75
338.422	233.75
338.65	222.75
338.878	234.75
339.106	226.75
339.334	229.75
339.562	227.75
339.79	240.75
340.018	212.75
340.246	224.75
340.474	230.75
340.702	233.75
340.93	216.75
341.158	231.75
341.386	230.75
341.614	218.75
341.842	208.75
342.07	230.75
342.298	210.75
342.526	220.75
342.754	219.75
342.981	213.75
343.209	229.75
343.437	205.75
343.665	214.75
343.893	199.75
344.12	234.75
344.348	224.75
344.576	234.75
344.804	228.75
345.031	223.75
345.259	234.75
345.487	226.75
345.714	223.75
345.942	219.75
346.17	212.75
346.397	218.75
346.625	227.75
346.853	227.75
347.08	212.75
347.308	210.75
347.535	217.75
347.763	213.75
347.99	216.75
348.218	215.75
348.445	231.75
348.673	225.75
348.9	237.75
349.128	239.75
349.355	210.75
349.583	203.75
349.81	214.75
350.037	232.75
350.265	222.75
350.492	209.75
350.72	202.75
350.947	211.75
351.174	205.75
351.402	231.75
351.629	223.75
351.856	229.75
352.083	224.75
352.311	229.75
352.538	223.75
352.765	200.75
352.992	202.75
353.22	223.75
353.447	211.75
353.674	215.75
353.901	196.75
354.128	205.75
354.355	224.75
354.583	222.75
354.81	203.75
355.037	202.75
355.264	201.75
355.491	203.75
355.718	203.75
355.945	207.75
356.172	194.75
356.399	196.75
356.626	196.75
356.853	205.75
357.08	209.75
357.307	200.75
357.534	201.75
357.761	208.75
357.988	193.75
358.215	200.75
358.441	208.75
358.668	226.75
358.895	207.75
359.122	210.75
359.349	219.75
359.576	236.75
359.802	226.75
360.029	244.75
360.256	242.75
360.483	239.75
360.709	191.75
360.936	216.75
361.163	216.75
361.39	219.75
361.616	225.75
361.843	223.75
362.07	221.75
362.296	219.75
362.523	225.75
362.749	215.75
362.976	216.75
363.203	217.75
363.429	206.75
363.656	205.75
363.882	206.75
364.109	226.75
364.335	223.75
364.562	200.75
364.788	230.75
365.015	199.75
365.241	204.75
365.468	211.75
365.694	193.75
365.92	201.75
366.147	229.75
366.373	213.75
366.599	218.75
366.826	223.75
367.052	200.75
367.278	200.75
367.505	205.75
367.731	210.75
367.957	204.75
368.184	202.75
368.41	209.75
368.636	216.75
368.862	239.75
369.089	220.75
369.315	196.75
369.541	202.75
369.767	213.75
369.993	219.75
370.219	212.75
370.445	210.75
370.672	190.75
370.898	199.75
371.124	196.75
371.35	211.75
371.576	209.75
371.802	207.75
372.028	202.75
372.254	214.75
372.48	193.75
372.706	214.75
372.932	204.75
373.158	208.75
373.384	230.75
373.61	216.75
373.835	200.75
374.061	209.75
374.287	203.75
374.513	209.75
374.739	206.75
374.965	215.75
375.191	224.75
375.416	215.75
375.642	204.75
375.868	212.75
376.094	204.75
376.319	213.75
376.545	196.75
376.771	198.75
376.997	212.75
377.222	206.75
377.448	208.75
377.674	198.75
377.899	219.75
378.125	198.75
378.35	204.75
378.576	211.75
378.802	191.75
379.027	187.75
379.253	214.75
379.478	215.75
379.704	219.75
379.929	196.75
380.155	203.75
380.38	200.75
380.606	183.75
380.831	207.75
381.057	212.75
381.282	203.75
381.507	199.75
381.733	200.75
381.958	215.75
382.184	226.75
382.409	217.75
382.634	211.75
382.86	201.75
383.085	212.75
383.31	213.75
383.535	212.75
383.761	196.75
383.986	211.75
384.211	213.75
384.436	229.75
384.662	207.75
384.887	219.75
385.112	215.75
385.337	220.75
385.562	218.75
385.787	236.75
386.013	228.75
386.238	226.75
386.463	246.75
386.688	222.75
386.913	225.75
387.138	233.75
387.363	232.75
387.588	212.75
387.813	235.75
388.038	203.75
388.263	224.75
388.488	218.75
388.713	199.75
388.938	230.75
389.163	224.75
389.387	230.75
389.612	221.75
389.837	219.75
390.062	227.75
390.287	227.75
390.512	225.75
390.736	221.75
390.961	226.75
391.186	232.75
391.411	207.75
391.636	224.75
391.86	231.75
392.085	221.75
392.31	225.75
392.534	221.75
392.759	227.75
392.984	218.75
393.208	219.75
393.433	232.75
393.658	249.75
393.882	214.75
394.107	226.75
394.331	234.75
394.556	215.75
394.78	236.75
395.005	210.75
395.229	226.75
395.454	223.75
395.678	228.75
395.903	230.75
396.127	250.75
396.352	240.75
396.576	244.75
396.801	225.75
397.025	239.75
397.249	253.75
397.474	225.75
397.698	230.75
397.922	239.75
398.147	275.75
398.371	259.75
398.595	243.75
398.82	240.75
399.044	243.75
399.268	250.75
399.492	264.75
399.717	274.75
399.941	283.75
400.165	279.75
400.389	298.75
400.613	280.75
400.837	240.75
401.062	269.75
401.286	246.75
401.51	237.75
401.734	240.75
401.958	248.75
402.182	260.75
402.406	271.75
402.63	257.75
402.854	251.75
403.078	247.75
403.302	247.75
403.526	249.75
403.75	252.75
403.974	260.75
404.198	256.75
404.422	273.75
404.645	274.75
404.869	264.75
405.093	269.75
405.317	302.75
405.541	303.75
405.765	288.75
405.988	295.75
406.212	301.75
406.436	276.75
406.66	314.75
406.883	291.75
407.107	274.75
407.331	300.75
407.555	326.75
407.778	322.75
408.002	307.75
408.226	291.75
408.449	270.75
408.673	267.75
408.896	281.75
409.12	290.75
409.344	281.75
409.567	266.75
409.791	250.75
410.014	276.75
410.238	244.75
410.461	250.75
410.685	287.75
410.908	273.75
411.132	273.75
411.355	304.75
411.578	290.75
411.802	251.75
412.025	250.75
412.249	272.75
412.472	281.75
412.695	282.75
412.919	269.75
413.142	269.75
413.365	243.75
413.589	262.75
413.812	262.75
414.035	242.75
414.258	242.75
414.482	273.75
414.705	246.75
414.928	244.75
415.151	238.75
415.374	237.75
415.597	236.75
415.821	243.75
416.044	251.75
416.267	254.75
416.49	238.75
416.713	230.75
416.936	257.75
417.159	232.75
417.382	255.75
417.605	257.75
417.828	249.75
418.051	256.75
418.274	248.75
418.497	240.75
418.72	246.75
418.943	234.75
419.166	251.75
419.389	277.75
419.611	258.75
419.834	269.75
420.057	268.75
420.28	255.75
420.503	239.75
420.726	262.75
420.948	249.75
421.171	277.75
421.394	286.75
421.617	263.75
421.839	249.75
422.062	236.75
422.285	264.75
422.507	281.75
422.73	316.75
422.953	291.75
423.175	274.75
423.398	266.75
423.621	252.75
423.843	275.75
424.066	284.75
424.288	273.75
424.511	273.75
424.733	306.75
424.956	337.75
425.178	304.75
425.401	330.75
425.623	325.75
425.846	300.75
426.068	280.75
426.291	270.75
426.513	268.75
426.735	281.75
426.958	280.75
427.18	323.75
427.402	377.75
427.625	393.75
427.847	363.75
428.069	320.75
428.292	302.75
428.514	275.75
428.736	276.75
428.958	259.75
429.181	246.75
429.403	238.75
429.625	269.75
429.847	266.75
430.069	287.75
430.292	294.75
430.514	240.75
430.736	262.75
430.958	234.75
431.18	252.75
431.402	248.75
431.624	262.75
431.846	255.75
432.068	229.75
432.29	238.75
432.512	253.75
432.734	241.75
432.956	235.75
433.178	253.75
433.4	252.75
433.622	232.75
433.844	248.75
434.066	238.75
434.287	230.75
434.509	228.75
434.731	252.75
434.953	261.75
435.175	262.75
435.397	276.75
435.618	255.75
435.84	303.75
436.062	314.75
436.284	331.75
436.505	304.75
436.727	255.75
436.949	254.75
437.17	243.75
437.392	250.75
437.614	262.75
437.835	271.75
438.057	313.75
438.278	355.75
438.5	358.75
438.721	383.75
438.943	344.75
439.165	303.75
439.386	273.75
439.608	290.75
439.829	277.75
440.05	286.75
440.272	311.75
440.493	300.75
440.715	270.75
440.936	259.75
441.158	250.75
441.379	247.75
441.6	266.75
441.822	274.75
442.043	276.75
442.264	327.75
442.486	325.75
442.707	278.75
442.928	273.75
443.149	283.75
443.371	303.75
443.592	305.75
443.813	353.75
444.034	350.75
444.255	304.75
444.476	283.75
444.698	276.75
444.919	279.75
445.14	354.75
445.361	332.75
445.582	301.75
445.803	330.75
446.024	374.75
446.245	354.75
446.466	329.75
446.687	299.75
446.908	277.75
447.129	250.75
447.35	266.75
447.571	239.75
447.792	240.75
448.013	234.75
448.234	260.75
448.455	297.75
448.675	310.75
448.896	361.75
449.117	311.75
449.338	311.75
449.559	352.75
449.779	371.75
450	310.75
450.221	274.75
450.442	253.75
450.662	247.75
450.883	253.75
451.104	266.75
451.324	262.75
451.545	248.75
451.766	239.75
451.986	227.75
452.207	233.75
452.428	222.75
452.648	240.75
452.869	243.75
453.089	235.75
453.31	236.75
453.53	220.75
453.751	234.75
453.971	232.75
454.192	255.75
454.412	246.75
454.633	238.75
454.853	233.75
455.073	218.75
455.294	241.75
455.514	288.75
455.734	246.75
455.955	217.75
456.175	221.75
456.395	210.75
456.616	230.75
456.836	214.75
457.056	213.75
457.276	212.75
457.497	224.75
457.717	211.75
457.937	222.75
458.157	224.75
458.377	231.75
458.598	226.75
458.818	279.75
459.038	330.75
459.258	300.75
459.478	255.75
459.698	245.75
459.918	237.75
460.138	224.75
460.358	228.75
460.578	235.75
460.798	247.75
461.018	246.75
461.238	249.75
461.458	234.75
461.678	250.75
461.898	270.75
462.118	243.75
462.338	257.75
462.558	231.75
462.777	258.75
462.997	254.75
463.217	248.75
463.437	259.75
463.657	250.75
463.876	245.75
464.096	265.75
464.316	263.75
464.536	272.75
464.755	267.75
464.975	266.75
465.195	316.75
465.414	329.75
465.634	273.75
465.854	249.75
466.073	250.75
466.293	236.75
466.512	238.75
466.732	215.75
466.951	252.75
467.171	228.75
467.391	228.75
467.61	244.75
467.829	250.75
468.049	243.75
468.268	244.75
468.488	227.75
468.707	237.75
468.927	203.75
469.146	230.75
469.365	227.75
469.585	246.75
469.804	234.75
470.023	252.75
470.243	239.75
470.462	246.75
470.681	254.75
470.901	232.75
471.12	250.75
471.339	229.75
471.558	234.75
471.777	247.75
471.997	237.75
472.216	243.75
472.435	252.75
472.654	240.75
472.873	232.75
473.092	235.75
473.311	232.75
473.53	247.75
473.749	233.75
473.968	257.75
474.187	310.75
474.406	331.75
474.625	256.75
474.844	243.75
475.063	239.75
475.282	239.75
475.501	236.75
475.72	254.75
475.939	251.75
476.158	252.75
476.377	241.75
476.596	227.75
476.814	256.75
477.033	250.75
477.252	243.75
477.471	233.75
477.69	235.75
477.908	264.75
478.127	262.75
478.346	258.75
478.564	255.75
478.783	250.75
479.002	257.75
479.22	249.75
479.439	286.75
479.658	275.75
479.876	292.75
480.095	275.75
480.313	303.75
480.532	290.75
480.751	289.75
480.969	284.75
481.188	349.75
481.406	348.75
481.624	316.75
481.843	282.75
482.061	298.75
482.28	273.75
482.498	275.75
482.717	266.75
482.935	268.75
483.153	275.75
483.372	266.75
483.59	280.75
483.808	272.75
484.027	286.75
484.245	276.75
484.463	281.75
484.681	287.75
484.9	277.75
485.118	264.75
485.336	270.75
485.554	299.75
485.772	264.75
485.99	279.75
486.209	285.75
486.427	263.75
486.645	291.75
486.863	297.75
487.081	291.75
487.299	297.75
487.517	298.75
487.735	276.75
487.953	301.75
488.171	298.75
488.389	294.75
488.607	293.75
488.825	291.75
489.043	299.75
489.261	283.75
489.479	270.75
489.696	308.75
489.914	283.75
490.132	298.75
490.35	282.75
490.568	326.75
490.786	311.75
491.003	320.75
491.221	320.75
491.439	329.75
491.657	317.75
491.874	335.75
492.092	335.75
492.31	330.75
492.527	331.75
492.745	341.75
492.963	346.75
493.18	345.75
493.398	340.75
493.615	353.75
493.833	337.75
494.05	354.75
494.268	334.75
494.485	341.75
494.703	337.75
494.92	331.75
495.138	334.75
495.355	348.75
495.573	348.75
495.79	346.75
496.008	352.75
496.225	333.75
496.442	330.75
496.66	355.75
496.877	332.75
497.094	342.75
497.312	337.75
497.529	323.75
497.746	350.75
497.963	328.75
498.181	349.75
498.398	337.75
498.615	358.75
498.832	357.75
499.049	369.75
499.267	376.75
499.484	386.75
499.701	396.75
499.918	411.75
500.135	423.75
500.352	455.75
500.569	467.75
500.786	474.75
501.003	453.75
501.22	434.75
501.437	422.75
501.654	386.75
501.871	407.75
502.088	385.75
502.305	370.75
502.522	362.75
