Data from 1966.PennyLincolnUp.Lamp.En5.5.200Scan.071719.P1._HRD10591_14-15-14-934.txt Node
Date: Thu Jul 18 14:15:14 EDT 2019
User: cochatt
Spectrometer: HR+D1059
Trigger mode: 1
Integration Time (sec): 1.000000E-1
Scans to average: 1
Electric dark correction enabled: true
Nonlinearity correction enabled: false
Boxcar width: 0
XAxis mode: Wavelengths
Number of Pixels in Spectrum: 2048
>>>>>Begin Spectral Data<<<<<
223.165	-26.88
223.4	-26.88
223.635	-26.88
223.869	-3.88
224.104	-11.88
224.338	-12.88
224.573	-22.88
224.808	-24.88
225.042	-18.88
225.277	-2.88
225.511	1.12
225.746	3.12
225.98	8.12
226.215	14.12
226.449	22.12
226.683	25.12
226.918	24.12
227.152	27.12
227.387	25.12
227.621	23.12
227.856	54.12
228.09	52.12
228.324	52.12
228.559	46.12
228.793	52.12
229.027	79.12
229.262	84.12
229.496	69.12
229.73	84.12
229.964	114.12
230.199	96.12
230.433	90.12
230.667	96.12
230.901	92.12
231.136	98.12
231.37	95.12
231.604	89.12
231.838	96.12
232.072	89.12
232.306	99.12
232.541	93.12
232.775	91.12
233.009	98.12
233.243	88.12
233.477	93.12
233.711	108.12
233.945	99.12
234.179	82.12
234.413	90.12
234.647	86.12
234.881	86.12
235.115	93.12
235.349	93.12
235.583	104.12
235.817	81.12
236.051	94.12
236.285	101.12
236.519	99.12
236.753	105.12
236.987	106.12
237.221	128.12
237.455	162.12
237.689	124.12
237.922	104.12
238.156	114.12
238.39	90.12
238.624	90.12
238.858	94.12
239.091	91.12
239.325	91.12
239.559	93.12
239.793	97.12
240.027	96.12
240.26	99.12
240.494	114.12
240.728	109.12
240.961	107.12
241.195	105.12
241.429	97.12
241.662	97.12
241.896	101.12
242.13	89.12
242.363	105.12
242.597	108.12
242.83	105.12
243.064	103.12
243.298	108.12
243.531	87.12
243.765	108.12
243.998	106.12
244.232	103.12
244.465	101.12
244.699	113.12
244.932	118.12
245.166	110.12
245.399	103.12
245.633	110.12
245.866	110.12
246.099	101.12
246.333	99.12
246.566	115.12
246.8	110.12
247.033	114.12
247.266	110.12
247.5	114.12
247.733	125.12
247.966	116.12
248.2	121.12
248.433	120.12
248.666	121.12
248.899	123.12
249.133	152.12
249.366	144.12
249.599	124.12
249.832	126.12
250.066	124.12
250.299	118.12
250.532	132.12
250.765	131.12
250.998	148.12
251.231	144.12
251.465	146.12
251.698	108.12
251.931	124.12
252.164	118.12
252.397	117.12
252.63	125.12
252.863	132.12
253.096	137.12
253.329	128.12
253.562	128.12
253.795	152.12
254.028	140.12
254.261	120.12
254.494	146.12
254.727	170.12
254.96	159.12
255.193	176.12
255.426	164.12
255.659	138.12
255.892	142.12
256.124	147.12
256.357	149.12
256.59	161.12
256.823	136.12
257.056	121.12
257.289	127.12
257.521	120.12
257.754	123.12
257.987	123.12
258.22	131.12
258.452	134.12
258.685	133.12
258.918	126.12
259.151	126.12
259.383	139.12
259.616	142.12
259.849	140.12
260.081	153.12
260.314	160.12
260.547	173.12
260.779	168.12
261.012	146.12
261.244	139.12
261.477	140.12
261.71	122.12
261.942	147.12
262.175	160.12
262.407	139.12
262.64	137.12
262.872	136.12
263.105	133.12
263.337	151.12
263.57	130.12
263.802	132.12
264.035	146.12
264.267	139.12
264.499	139.12
264.732	132.12
264.964	148.12
265.197	118.12
265.429	132.12
265.661	132.12
265.894	136.12
266.126	141.12
266.358	142.12
266.591	134.12
266.823	145.12
267.055	138.12
267.287	128.12
267.52	137.12
267.752	137.12
267.984	135.12
268.216	134.12
268.448	146.12
268.681	148.12
268.913	146.12
269.145	168.12
269.377	181.12
269.609	178.12
269.841	158.12
270.073	165.12
270.306	192.12
270.538	196.12
270.77	205.12
271.002	180.12
271.234	182.12
271.466	184.12
271.698	194.12
271.93	191.12
272.162	194.12
272.394	188.12
272.626	199.12
272.858	182.12
273.09	176.12
273.322	162.12
273.553	154.12
273.785	161.12
274.017	156.12
274.249	165.12
274.481	161.12
274.713	161.12
274.945	172.12
275.176	155.12
275.408	151.12
275.64	145.12
275.872	156.12
276.104	155.12
276.335	176.12
276.567	158.12
276.799	189.12
277.031	189.12
277.262	201.12
277.494	186.12
277.726	179.12
277.957	178.12
278.189	152.12
278.421	160.12
278.652	156.12
278.884	162.12
279.115	159.12
279.347	158.12
279.579	153.12
279.81	159.12
280.042	153.12
280.273	151.12
280.505	165.12
280.736	166.12
280.968	160.12
281.199	167.12
281.431	166.12
281.662	157.12
281.894	168.12
282.125	168.12
282.356	173.12
282.588	156.12
282.819	179.12
283.051	164.12
283.282	165.12
283.513	166.12
283.745	167.12
283.976	163.12
284.207	150.12
284.439	165.12
284.67	178.12
284.901	170.12
285.132	161.12
285.364	161.12
285.595	171.12
285.826	183.12
286.057	166.12
286.288	164.12
286.52	160.12
286.751	173.12
286.982	170.12
287.213	163.12
287.444	185.12
287.675	170.12
287.906	177.12
288.138	175.12
288.369	173.12
288.6	187.12
288.831	173.12
289.062	178.12
289.293	180.12
289.524	185.12
289.755	183.12
289.986	157.12
290.217	169.12
290.448	180.12
290.679	172.12
290.91	168.12
291.141	162.12
291.371	173.12
291.602	157.12
291.833	174.12
292.064	176.12
292.295	169.12
292.526	153.12
292.757	176.12
292.987	177.12
293.218	170.12
293.449	165.12
293.68	176.12
293.91	171.12
294.141	188.12
294.372	162.12
294.603	182.12
294.833	178.12
295.064	172.12
295.295	175.12
295.525	168.12
295.756	182.12
295.987	193.12
296.217	193.12
296.448	193.12
296.679	198.12
296.909	174.12
297.14	178.12
297.37	173.12
297.601	183.12
297.831	189.12
298.062	178.12
298.292	186.12
298.523	165.12
298.753	172.12
298.984	186.12
299.214	176.12
299.445	185.12
299.675	185.12
299.905	188.12
300.136	194.12
300.366	188.12
300.597	180.12
300.827	186.12
301.057	191.12
301.288	183.12
301.518	193.12
301.748	216.12
301.979	205.12
302.209	192.12
302.439	185.12
302.669	186.12
302.9	188.12
303.13	190.12
303.36	194.12
303.59	189.12
303.82	202.12
304.051	192.12
304.281	206.12
304.511	198.12
304.741	199.12
304.971	203.12
305.201	191.12
305.431	184.12
305.661	192.12
305.891	180.12
306.121	185.12
306.352	189.12
306.582	193.12
306.812	205.12
307.042	178.12
307.272	193.12
307.502	208.12
307.731	186.12
307.961	188.12
308.191	187.12
308.421	190.12
308.651	173.12
308.881	189.12
309.111	205.12
309.341	190.12
309.571	189.12
309.8	217.12
310.03	189.12
310.26	210.12
310.49	215.12
310.72	229.12
310.949	232.12
311.179	220.12
311.409	219.12
311.639	211.12
311.868	211.12
312.098	210.12
312.328	233.12
312.557	204.12
312.787	225.12
313.017	231.12
313.246	229.12
313.476	213.12
313.706	223.12
313.935	195.12
314.165	200.12
314.394	221.12
314.624	246.12
314.853	211.12
315.083	218.12
315.312	206.12
315.542	214.12
315.771	231.12
316.001	206.12
316.23	200.12
316.46	219.12
316.689	197.12
316.919	212.12
317.148	219.12
317.377	195.12
317.607	206.12
317.836	217.12
318.065	219.12
318.295	205.12
318.524	210.12
318.753	212.12
318.983	220.12
319.212	216.12
319.441	221.12
319.67	198.12
319.9	215.12
320.129	236.12
320.358	216.12
320.587	212.12
320.816	221.12
321.046	217.12
321.275	234.12
321.504	210.12
321.733	209.12
321.962	229.12
322.191	229.12
322.42	235.12
322.649	248.12
322.878	248.12
323.108	249.12
323.337	265.12
323.566	274.12
323.795	263.12
324.024	313.12
324.253	376.12
324.482	550.12
324.71	806.12
324.939	1114.12
325.168	890.12
325.397	471.12
325.626	336.12
325.855	268.12
326.084	267.12
326.313	262.12
326.542	284.12
326.77	288.12
326.999	353.12
327.228	500.12
327.457	694.12
327.686	805.12
327.914	524.12
328.143	376.12
328.372	338.12
328.6	313.12
328.829	301.12
329.058	314.12
329.287	312.12
329.515	283.12
329.744	276.12
329.972	276.12
330.201	313.12
330.43	341.12
330.658	354.12
330.887	358.12
331.115	343.12
331.344	288.12
331.572	282.12
331.801	282.12
332.03	276.12
332.258	238.12
332.486	232.12
332.715	249.12
332.943	251.12
333.172	276.12
333.4	269.12
333.629	263.12
333.857	260.12
334.085	283.12
334.314	295.12
334.542	326.12
334.771	324.12
334.999	282.12
335.227	277.12
335.455	260.12
335.684	240.12
335.912	241.12
336.14	232.12
336.369	235.12
336.597	273.12
336.825	262.12
337.053	242.12
337.281	214.12
337.51	236.12
337.738	225.12
337.966	249.12
338.194	258.12
338.422	240.12
338.65	231.12
338.878	229.12
339.106	216.12
339.334	235.12
339.562	230.12
339.79	226.12
340.018	254.12
340.246	224.12
340.474	231.12
340.702	235.12
340.93	231.12
341.158	244.12
341.386	232.12
341.614	234.12
341.842	232.12
342.07	228.12
342.298	229.12
342.526	215.12
342.754	214.12
342.981	220.12
343.209	237.12
343.437	221.12
343.665	227.12
343.893	231.12
344.12	244.12
344.348	224.12
344.576	241.12
344.804	229.12
345.031	238.12
345.259	243.12
345.487	248.12
345.714	220.12
345.942	228.12
346.17	233.12
346.397	216.12
346.625	233.12
346.853	235.12
347.08	221.12
347.308	225.12
347.535	241.12
347.763	227.12
347.99	235.12
348.218	228.12
348.445	246.12
348.673	230.12
348.9	231.12
349.128	239.12
349.355	233.12
349.583	225.12
349.81	213.12
350.037	228.12
350.265	221.12
350.492	240.12
350.72	211.12
350.947	210.12
351.174	254.12
351.402	227.12
351.629	249.12
351.856	217.12
352.083	226.12
352.311	230.12
352.538	223.12
352.765	244.12
352.992	216.12
353.22	230.12
353.447	236.12
353.674	221.12
353.901	211.12
354.128	215.12
354.355	204.12
354.583	208.12
354.81	223.12
355.037	221.12
355.264	206.12
355.491	206.12
355.718	214.12
355.945	207.12
356.172	206.12
356.399	226.12
356.626	199.12
356.853	212.12
357.08	205.12
357.307	180.12
357.534	207.12
357.761	216.12
357.988	198.12
358.215	208.12
358.441	210.12
358.668	190.12
358.895	212.12
359.122	205.12
359.349	219.12
359.576	215.12
359.802	225.12
360.029	262.12
360.256	270.12
360.483	266.12
360.709	216.12
360.936	236.12
361.163	207.12
361.39	238.12
361.616	242.12
361.843	219.12
362.07	229.12
362.296	235.12
362.523	232.12
362.749	230.12
362.976	221.12
363.203	219.12
363.429	206.12
363.656	231.12
363.882	215.12
364.109	220.12
364.335	213.12
364.562	209.12
364.788	205.12
365.015	224.12
365.241	200.12
365.468	206.12
365.694	225.12
365.92	218.12
366.147	214.12
366.373	226.12
366.599	218.12
366.826	204.12
367.052	204.12
367.278	201.12
367.505	216.12
367.731	213.12
367.957	213.12
368.184	200.12
368.41	212.12
368.636	246.12
368.862	234.12
369.089	218.12
369.315	225.12
369.541	220.12
369.767	216.12
369.993	217.12
370.219	207.12
370.445	199.12
370.672	201.12
370.898	199.12
371.124	221.12
371.35	213.12
371.576	209.12
371.802	198.12
372.028	203.12
372.254	198.12
372.48	206.12
372.706	200.12
372.932	216.12
373.158	207.12
373.384	219.12
373.61	186.12
373.835	200.12
374.061	206.12
374.287	206.12
374.513	241.12
374.739	213.12
374.965	196.12
375.191	205.12
375.416	206.12
375.642	191.12
375.868	228.12
376.094	199.12
376.319	203.12
376.545	209.12
376.771	203.12
376.997	208.12
377.222	194.12
377.448	216.12
377.674	211.12
377.899	205.12
378.125	194.12
378.35	188.12
378.576	211.12
378.802	206.12
379.027	212.12
379.253	213.12
379.478	195.12
379.704	196.12
379.929	201.12
380.155	209.12
380.38	225.12
380.606	208.12
380.831	211.12
381.057	232.12
381.282	216.12
381.507	203.12
381.733	212.12
381.958	199.12
382.184	202.12
382.409	213.12
382.634	216.12
382.86	212.12
383.085	213.12
383.31	210.12
383.535	225.12
383.761	224.12
383.986	215.12
384.211	220.12
384.436	200.12
384.662	207.12
384.887	224.12
385.112	226.12
385.337	232.12
385.562	215.12
385.787	223.12
386.013	250.12
386.238	215.12
386.463	236.12
386.688	225.12
386.913	232.12
387.138	223.12
387.363	205.12
387.588	224.12
387.813	219.12
388.038	232.12
388.263	227.12
388.488	226.12
388.713	212.12
388.938	234.12
389.163	205.12
389.387	214.12
389.612	230.12
389.837	210.12
390.062	221.12
390.287	226.12
390.512	208.12
390.736	234.12
390.961	228.12
391.186	209.12
391.411	220.12
391.636	218.12
391.86	221.12
392.085	243.12
392.31	217.12
392.534	242.12
392.759	233.12
392.984	228.12
393.208	221.12
393.433	207.12
393.658	223.12
393.882	232.12
394.107	214.12
394.331	214.12
394.556	228.12
394.78	232.12
395.005	213.12
395.229	220.12
395.454	220.12
395.678	236.12
395.903	248.12
396.127	252.12
396.352	225.12
396.576	234.12
396.801	228.12
397.025	230.12
397.249	225.12
397.474	219.12
397.698	240.12
397.922	248.12
398.147	244.12
398.371	243.12
398.595	261.12
398.82	252.12
399.044	252.12
399.268	240.12
399.492	268.12
399.717	279.12
399.941	298.12
400.165	292.12
400.389	294.12
400.613	286.12
400.837	273.12
401.062	260.12
401.286	267.12
401.51	261.12
401.734	244.12
401.958	252.12
402.182	257.12
402.406	258.12
402.63	272.12
402.854	274.12
403.078	277.12
403.302	270.12
403.526	271.12
403.75	268.12
403.974	271.12
404.198	259.12
404.422	241.12
404.645	260.12
404.869	265.12
405.093	276.12
405.317	301.12
405.541	312.12
405.765	299.12
405.988	288.12
406.212	291.12
406.436	310.12
406.66	324.12
406.883	270.12
407.107	308.12
407.331	314.12
407.555	329.12
407.778	333.12
408.002	312.12
408.226	299.12
408.449	271.12
408.673	281.12
408.896	289.12
409.12	316.12
409.344	298.12
409.567	268.12
409.791	262.12
410.014	276.12
410.238	278.12
410.461	256.12
410.685	270.12
410.908	274.12
411.132	282.12
411.355	309.12
411.578	284.12
411.802	278.12
412.025	248.12
412.249	276.12
412.472	285.12
412.695	310.12
412.919	298.12
413.142	256.12
413.365	277.12
413.589	249.12
413.812	254.12
414.035	254.12
414.258	254.12
414.482	238.12
414.705	249.12
414.928	256.12
415.151	231.12
415.374	236.12
415.597	253.12
415.821	250.12
416.044	261.12
416.267	249.12
416.49	253.12
416.713	241.12
416.936	250.12
417.159	260.12
417.382	258.12
417.605	265.12
417.828	265.12
418.051	289.12
418.274	281.12
418.497	266.12
418.72	245.12
418.943	249.12
419.166	269.12
419.389	262.12
419.611	264.12
419.834	268.12
420.057	257.12
420.28	264.12
420.503	279.12
420.726	259.12
420.948	261.12
421.171	297.12
421.394	301.12
421.617	277.12
421.839	250.12
422.062	274.12
422.285	274.12
422.507	292.12
422.73	329.12
422.953	313.12
423.175	277.12
423.398	266.12
423.621	284.12
423.843	274.12
424.066	296.12
424.288	284.12
424.511	316.12
424.733	310.12
424.956	350.12
425.178	340.12
425.401	334.12
425.623	341.12
425.846	296.12
426.068	280.12
426.291	268.12
426.513	280.12
426.735	286.12
426.958	299.12
427.18	353.12
427.402	399.12
427.625	434.12
427.847	399.12
428.069	337.12
428.292	282.12
428.514	266.12
428.736	262.12
428.958	277.12
429.181	274.12
429.403	254.12
429.625	264.12
429.847	291.12
430.069	317.12
430.292	276.12
430.514	270.12
430.736	264.12
430.958	259.12
431.18	243.12
431.402	260.12
431.624	215.12
431.846	270.12
432.068	251.12
432.29	274.12
432.512	246.12
432.734	258.12
432.956	254.12
433.178	249.12
433.4	258.12
433.622	274.12
433.844	242.12
434.066	234.12
434.287	250.12
434.509	256.12
434.731	250.12
434.953	260.12
435.175	255.12
435.397	282.12
435.618	293.12
435.84	280.12
436.062	329.12
436.284	362.12
436.505	294.12
436.727	273.12
436.949	276.12
437.17	248.12
437.392	251.12
437.614	272.12
437.835	288.12
438.057	329.12
438.278	366.12
438.5	349.12
438.721	386.12
438.943	363.12
439.165	276.12
439.386	284.12
439.608	289.12
439.829	293.12
440.05	297.12
440.272	326.12
440.493	300.12
440.715	283.12
440.936	268.12
441.158	257.12
441.379	262.12
441.6	271.12
441.822	295.12
442.043	296.12
442.264	333.12
442.486	351.12
442.707	312.12
442.928	283.12
443.149	301.12
443.371	306.12
443.592	310.12
443.813	368.12
444.034	369.12
444.255	338.12
444.476	287.12
444.698	297.12
444.919	292.12
445.14	379.12
445.361	336.12
445.582	312.12
445.803	344.12
446.024	393.12
446.245	371.12
446.466	352.12
446.687	300.12
446.908	283.12
447.129	268.12
447.35	253.12
447.571	259.12
447.792	241.12
448.013	242.12
448.234	261.12
448.455	299.12
448.675	348.12
448.896	408.12
449.117	341.12
449.338	307.12
449.559	358.12
449.779	379.12
450	333.12
450.221	274.12
450.442	273.12
450.662	240.12
450.883	253.12
451.104	275.12
451.324	282.12
451.545	272.12
451.766	249.12
451.986	233.12
452.207	232.12
452.428	216.12
452.648	243.12
452.869	242.12
453.089	240.12
453.31	252.12
453.53	228.12
453.751	250.12
453.971	262.12
454.192	268.12
454.412	265.12
454.633	245.12
454.853	245.12
455.073	225.12
455.294	256.12
455.514	283.12
455.734	285.12
455.955	230.12
456.175	236.12
456.395	226.12
456.616	204.12
456.836	234.12
457.056	206.12
457.276	229.12
457.497	232.12
457.717	220.12
457.937	222.12
458.157	246.12
458.377	242.12
458.598	249.12
458.818	280.12
459.038	332.12
459.258	348.12
459.478	271.12
459.698	254.12
459.918	252.12
460.138	255.12
460.358	250.12
460.578	261.12
460.798	253.12
461.018	259.12
461.238	254.12
461.458	248.12
461.678	245.12
461.898	255.12
462.118	256.12
462.338	253.12
462.558	260.12
462.777	272.12
462.997	266.12
463.217	262.12
463.437	283.12
463.657	269.12
463.876	270.12
464.096	257.12
464.316	260.12
464.536	260.12
464.755	261.12
464.975	261.12
465.195	290.12
465.414	356.12
465.634	283.12
465.854	256.12
466.073	269.12
466.293	246.12
466.512	230.12
466.732	232.12
466.951	242.12
467.171	233.12
467.391	238.12
467.61	261.12
467.829	258.12
468.049	241.12
468.268	265.12
468.488	237.12
468.707	234.12
468.927	246.12
469.146	242.12
469.365	253.12
469.585	255.12
469.804	235.12
470.023	249.12
470.243	248.12
470.462	259.12
470.681	280.12
470.901	260.12
471.12	258.12
471.339	261.12
471.558	249.12
471.777	236.12
471.997	244.12
472.216	249.12
472.435	287.12
472.654	269.12
472.873	254.12
473.092	250.12
473.311	249.12
473.53	243.12
473.749	263.12
473.968	280.12
474.187	334.12
474.406	305.12
474.625	252.12
474.844	247.12
475.063	237.12
475.282	223.12
475.501	240.12
475.72	266.12
475.939	250.12
476.158	266.12
476.377	252.12
476.596	231.12
476.814	259.12
477.033	260.12
477.252	276.12
477.471	256.12
477.69	244.12
477.908	256.12
478.127	264.12
478.346	242.12
478.564	252.12
478.783	270.12
479.002	289.12
479.22	281.12
479.439	283.12
479.658	294.12
479.876	309.12
480.095	289.12
480.313	312.12
480.532	313.12
480.751	314.12
480.969	318.12
481.188	374.12
481.406	388.12
481.624	312.12
481.843	293.12
482.061	298.12
482.28	282.12
482.498	279.12
482.717	274.12
482.935	286.12
483.153	286.12
483.372	280.12
483.59	292.12
483.808	282.12
484.027	289.12
484.245	294.12
484.463	282.12
484.681	285.12
484.9	286.12
485.118	293.12
485.336	279.12
485.554	296.12
485.772	295.12
485.99	293.12
486.209	293.12
486.427	315.12
486.645	307.12
486.863	305.12
487.081	304.12
487.299	310.12
487.517	294.12
487.735	305.12
487.953	314.12
488.171	292.12
488.389	293.12
488.607	299.12
488.825	304.12
489.043	327.12
489.261	304.12
489.479	305.12
489.696	300.12
489.914	284.12
490.132	316.12
490.35	316.12
490.568	326.12
490.786	308.12
491.003	332.12
491.221	338.12
491.439	337.12
491.657	329.12
491.874	369.12
492.092	359.12
492.31	352.12
492.527	358.12
492.745	361.12
492.963	380.12
493.18	357.12
493.398	382.12
493.615	358.12
493.833	378.12
494.05	341.12
494.268	370.12
494.485	362.12
494.703	361.12
494.92	357.12
495.138	364.12
495.355	369.12
495.573	374.12
495.79	351.12
496.008	354.12
496.225	363.12
496.442	340.12
496.66	359.12
496.877	349.12
497.094	353.12
497.312	357.12
497.529	354.12
497.746	364.12
497.963	366.12
498.181	358.12
498.398	364.12
498.615	377.12
498.832	376.12
499.049	387.12
499.267	397.12
499.484	390.12
499.701	425.12
499.918	435.12
500.135	445.12
500.352	471.12
500.569	462.12
500.786	470.12
501.003	464.12
501.22	448.12
501.437	426.12
501.654	434.12
501.871	416.12
502.088	427.12
502.305	387.12
502.522	375.12
