Data from 1966.PennyLincolnUp.Lamp.En5.5.200Scan.071719.P1._HRD10591_14-14-45-915.txt Node
Date: Thu Jul 18 14:14:45 EDT 2019
User: cochatt
Spectrometer: HR+D1059
Trigger mode: 1
Integration Time (sec): 1.000000E-1
Scans to average: 1
Electric dark correction enabled: true
Nonlinearity correction enabled: false
Boxcar width: 0
XAxis mode: Wavelengths
Number of Pixels in Spectrum: 2048
>>>>>Begin Spectral Data<<<<<
223.165	-5.88
223.4	-5.88
223.635	-5.88
223.869	-17.88
224.104	-17.88
224.338	-21.88
224.573	-24.88
224.808	-12.88
225.042	4.12
225.277	-13.88
225.511	1.12
225.746	10.12
225.98	8.12
226.215	8.12
226.449	2.12
226.683	36.12
226.918	17.12
227.152	28.12
227.387	26.12
227.621	32.12
227.856	32.12
228.09	56.12
228.324	42.12
228.559	54.12
228.793	52.12
229.027	79.12
229.262	78.12
229.496	73.12
229.73	88.12
229.964	104.12
230.199	89.12
230.433	86.12
230.667	79.12
230.901	97.12
231.136	92.12
231.37	97.12
231.604	89.12
231.838	101.12
232.072	83.12
232.306	94.12
232.541	90.12
232.775	93.12
233.009	98.12
233.243	81.12
233.477	82.12
233.711	95.12
233.945	108.12
234.179	115.12
234.413	91.12
234.647	90.12
234.881	89.12
235.115	95.12
235.349	107.12
235.583	91.12
235.817	111.12
236.051	81.12
236.285	90.12
236.519	78.12
236.753	98.12
236.987	106.12
237.221	118.12
237.455	137.12
237.689	127.12
237.922	86.12
238.156	102.12
238.39	86.12
238.624	92.12
238.858	89.12
239.091	98.12
239.325	78.12
239.559	89.12
239.793	96.12
240.027	106.12
240.26	94.12
240.494	98.12
240.728	106.12
240.961	91.12
241.195	100.12
241.429	87.12
241.662	90.12
241.896	102.12
242.13	96.12
242.363	98.12
242.597	117.12
242.83	103.12
243.064	81.12
243.298	98.12
243.531	97.12
243.765	93.12
243.998	95.12
244.232	110.12
244.465	88.12
244.699	100.12
244.932	112.12
245.166	96.12
245.399	105.12
245.633	103.12
245.866	94.12
246.099	106.12
246.333	110.12
246.566	105.12
246.8	105.12
247.033	99.12
247.266	116.12
247.5	119.12
247.733	100.12
247.966	119.12
248.2	117.12
248.433	104.12
248.666	114.12
248.899	130.12
249.133	119.12
249.366	146.12
249.599	134.12
249.832	114.12
250.066	113.12
250.299	122.12
250.532	119.12
250.765	131.12
250.998	139.12
251.231	146.12
251.465	144.12
251.698	124.12
251.931	109.12
252.164	107.12
252.397	110.12
252.63	142.12
252.863	133.12
253.096	130.12
253.329	139.12
253.562	130.12
253.795	128.12
254.028	140.12
254.261	129.12
254.494	123.12
254.727	149.12
254.96	163.12
255.193	152.12
255.426	132.12
255.659	141.12
255.892	136.12
256.124	151.12
256.357	134.12
256.59	126.12
256.823	132.12
257.056	146.12
257.289	124.12
257.521	137.12
257.754	137.12
257.987	129.12
258.22	127.12
258.452	120.12
258.685	127.12
258.918	128.12
259.151	128.12
259.383	126.12
259.616	141.12
259.849	132.12
260.081	147.12
260.314	148.12
260.547	159.12
260.779	140.12
261.012	115.12
261.244	135.12
261.477	139.12
261.71	141.12
261.942	134.12
262.175	161.12
262.407	140.12
262.64	130.12
262.872	128.12
263.105	121.12
263.337	149.12
263.57	125.12
263.802	133.12
264.035	129.12
264.267	128.12
264.499	134.12
264.732	130.12
264.964	145.12
265.197	133.12
265.429	122.12
265.661	113.12
265.894	125.12
266.126	151.12
266.358	140.12
266.591	141.12
266.823	166.12
267.055	144.12
267.287	137.12
267.52	142.12
267.752	126.12
267.984	139.12
268.216	131.12
268.448	144.12
268.681	144.12
268.913	155.12
269.145	158.12
269.377	146.12
269.609	150.12
269.841	153.12
270.073	174.12
270.306	168.12
270.538	177.12
270.77	189.12
271.002	171.12
271.234	171.12
271.466	166.12
271.698	186.12
271.93	187.12
272.162	190.12
272.394	176.12
272.626	174.12
272.858	162.12
273.09	152.12
273.322	158.12
273.553	155.12
273.785	138.12
274.017	145.12
274.249	157.12
274.481	158.12
274.713	147.12
274.945	158.12
275.176	150.12
275.408	161.12
275.64	151.12
275.872	155.12
276.104	137.12
276.335	148.12
276.567	158.12
276.799	178.12
277.031	177.12
277.262	167.12
277.494	196.12
277.726	174.12
277.957	151.12
278.189	169.12
278.421	156.12
278.652	166.12
278.884	163.12
279.115	146.12
279.347	128.12
279.579	171.12
279.81	139.12
280.042	151.12
280.273	163.12
280.505	174.12
280.736	154.12
280.968	158.12
281.199	164.12
281.431	171.12
281.662	165.12
281.894	151.12
282.125	155.12
282.356	159.12
282.588	170.12
282.819	186.12
283.051	165.12
283.282	154.12
283.513	164.12
283.745	171.12
283.976	154.12
284.207	174.12
284.439	150.12
284.67	148.12
284.901	167.12
285.132	174.12
285.364	167.12
285.595	176.12
285.826	158.12
286.057	162.12
286.288	166.12
286.52	151.12
286.751	162.12
286.982	147.12
287.213	160.12
287.444	154.12
287.675	163.12
287.906	183.12
288.138	174.12
288.369	168.12
288.6	176.12
288.831	161.12
289.062	183.12
289.293	163.12
289.524	160.12
289.755	178.12
289.986	174.12
290.217	185.12
290.448	185.12
290.679	167.12
290.91	168.12
291.141	183.12
291.371	169.12
291.602	162.12
291.833	165.12
292.064	170.12
292.295	177.12
292.526	166.12
292.757	152.12
292.987	160.12
293.218	151.12
293.449	159.12
293.68	174.12
293.91	166.12
294.141	163.12
294.372	170.12
294.603	162.12
294.833	170.12
295.064	169.12
295.295	155.12
295.525	166.12
295.756	161.12
295.987	175.12
296.217	192.12
296.448	181.12
296.679	164.12
296.909	166.12
297.14	187.12
297.37	170.12
297.601	174.12
297.831	162.12
298.062	181.12
298.292	168.12
298.523	172.12
298.753	181.12
298.984	171.12
299.214	174.12
299.445	182.12
299.675	182.12
299.905	167.12
300.136	180.12
300.366	174.12
300.597	179.12
300.827	187.12
301.057	177.12
301.288	168.12
301.518	198.12
301.748	191.12
301.979	184.12
302.209	182.12
302.439	172.12
302.669	178.12
302.9	192.12
303.13	184.12
303.36	187.12
303.59	183.12
303.82	179.12
304.051	183.12
304.281	185.12
304.511	170.12
304.741	185.12
304.971	171.12
305.201	169.12
305.431	181.12
305.661	179.12
305.891	179.12
306.121	175.12
306.352	169.12
306.582	192.12
306.812	179.12
307.042	189.12
307.272	187.12
307.502	176.12
307.731	209.12
307.961	175.12
308.191	197.12
308.421	192.12
308.651	175.12
308.881	184.12
309.111	193.12
309.341	204.12
309.571	193.12
309.8	180.12
310.03	204.12
310.26	196.12
310.49	209.12
310.72	213.12
310.949	227.12
311.179	219.12
311.409	199.12
311.639	187.12
311.868	214.12
312.098	206.12
312.328	216.12
312.557	227.12
312.787	214.12
313.017	224.12
313.246	211.12
313.476	218.12
313.706	184.12
313.935	216.12
314.165	202.12
314.394	228.12
314.624	222.12
314.853	204.12
315.083	205.12
315.312	213.12
315.542	205.12
315.771	182.12
316.001	227.12
316.23	211.12
316.46	208.12
316.689	196.12
316.919	201.12
317.148	204.12
317.377	218.12
317.607	208.12
317.836	222.12
318.065	204.12
318.295	198.12
318.524	195.12
318.753	204.12
318.983	203.12
319.212	219.12
319.441	204.12
319.67	223.12
319.9	218.12
320.129	186.12
320.358	205.12
320.587	210.12
320.816	212.12
321.046	187.12
321.275	207.12
321.504	217.12
321.733	213.12
321.962	219.12
322.191	229.12
322.42	225.12
322.649	231.12
322.878	238.12
323.108	240.12
323.337	242.12
323.566	269.12
323.795	276.12
324.024	302.12
324.253	369.12
324.482	515.12
324.71	781.12
324.939	1035.12
325.168	834.12
325.397	442.12
325.626	296.12
325.855	254.12
326.084	246.12
326.313	232.12
326.542	273.12
326.77	290.12
326.999	339.12
327.228	479.12
327.457	695.12
327.686	768.12
327.914	516.12
328.143	332.12
328.372	333.12
328.6	302.12
328.829	265.12
329.058	292.12
329.287	302.12
329.515	276.12
329.744	278.12
329.972	269.12
330.201	292.12
330.43	321.12
330.658	331.12
330.887	358.12
331.115	327.12
331.344	282.12
331.572	257.12
331.801	256.12
332.03	259.12
332.258	256.12
332.486	242.12
332.715	230.12
332.943	244.12
333.172	252.12
333.4	263.12
333.629	246.12
333.857	261.12
334.085	277.12
334.314	283.12
334.542	305.12
334.771	295.12
334.999	275.12
335.227	258.12
335.455	257.12
335.684	261.12
335.912	232.12
336.14	230.12
336.369	232.12
336.597	227.12
336.825	242.12
337.053	214.12
337.281	222.12
337.51	219.12
337.738	238.12
337.966	239.12
338.194	231.12
338.422	235.12
338.65	226.12
338.878	234.12
339.106	227.12
339.334	214.12
339.562	236.12
339.79	208.12
340.018	219.12
340.246	233.12
340.474	239.12
340.702	223.12
340.93	222.12
341.158	216.12
341.386	208.12
341.614	217.12
341.842	223.12
342.07	209.12
342.298	226.12
342.526	231.12
342.754	223.12
342.981	205.12
343.209	219.12
343.437	218.12
343.665	209.12
343.893	242.12
344.12	231.12
344.348	215.12
344.576	219.12
344.804	215.12
345.031	244.12
345.259	225.12
345.487	215.12
345.714	228.12
345.942	229.12
346.17	217.12
346.397	205.12
346.625	214.12
346.853	220.12
347.08	212.12
347.308	235.12
347.535	225.12
347.763	262.12
347.99	228.12
348.218	201.12
348.445	231.12
348.673	222.12
348.9	217.12
349.128	218.12
349.355	213.12
349.583	216.12
349.81	209.12
350.037	210.12
350.265	205.12
350.492	206.12
350.72	202.12
350.947	216.12
351.174	198.12
351.402	214.12
351.629	213.12
351.856	230.12
352.083	203.12
352.311	236.12
352.538	229.12
352.765	224.12
352.992	231.12
353.22	222.12
353.447	219.12
353.674	210.12
353.901	226.12
354.128	219.12
354.355	230.12
354.583	215.12
354.81	210.12
355.037	204.12
355.264	203.12
355.491	207.12
355.718	191.12
355.945	199.12
356.172	185.12
356.399	193.12
356.626	202.12
356.853	210.12
357.08	205.12
357.307	202.12
357.534	200.12
357.761	201.12
357.988	200.12
358.215	205.12
358.441	192.12
358.668	206.12
358.895	189.12
359.122	214.12
359.349	198.12
359.576	199.12
359.802	238.12
360.029	238.12
360.256	263.12
360.483	256.12
360.709	216.12
360.936	208.12
361.163	221.12
361.39	208.12
361.616	210.12
361.843	199.12
362.07	223.12
362.296	214.12
362.523	208.12
362.749	217.12
362.976	205.12
363.203	208.12
363.429	207.12
363.656	223.12
363.882	201.12
364.109	201.12
364.335	190.12
364.562	196.12
364.788	212.12
365.015	219.12
365.241	202.12
365.468	194.12
365.694	209.12
365.92	216.12
366.147	213.12
366.373	204.12
366.599	205.12
366.826	210.12
367.052	196.12
367.278	192.12
367.505	191.12
367.731	198.12
367.957	209.12
368.184	202.12
368.41	227.12
368.636	213.12
368.862	216.12
369.089	202.12
369.315	192.12
369.541	210.12
369.767	219.12
369.993	218.12
370.219	201.12
370.445	197.12
370.672	212.12
370.898	199.12
371.124	194.12
371.35	200.12
371.576	222.12
371.802	206.12
372.028	197.12
372.254	207.12
372.48	198.12
372.706	199.12
372.932	206.12
373.158	198.12
373.384	209.12
373.61	217.12
373.835	220.12
374.061	212.12
374.287	213.12
374.513	200.12
374.739	202.12
374.965	202.12
375.191	206.12
375.416	214.12
375.642	205.12
375.868	214.12
376.094	222.12
376.319	210.12
376.545	211.12
376.771	210.12
376.997	198.12
377.222	218.12
377.448	198.12
377.674	208.12
377.899	209.12
378.125	196.12
378.35	209.12
378.576	194.12
378.802	194.12
379.027	199.12
379.253	187.12
379.478	182.12
379.704	187.12
379.929	198.12
380.155	218.12
380.38	208.12
380.606	208.12
380.831	194.12
381.057	204.12
381.282	210.12
381.507	203.12
381.733	203.12
381.958	206.12
382.184	208.12
382.409	214.12
382.634	220.12
382.86	212.12
383.085	205.12
383.31	218.12
383.535	217.12
383.761	219.12
383.986	212.12
384.211	200.12
384.436	211.12
384.662	207.12
384.887	209.12
385.112	208.12
385.337	208.12
385.562	222.12
385.787	214.12
386.013	220.12
386.238	225.12
386.463	202.12
386.688	228.12
386.913	207.12
387.138	206.12
387.363	214.12
387.588	214.12
387.813	205.12
388.038	222.12
388.263	214.12
388.488	221.12
388.713	218.12
388.938	208.12
389.163	235.12
389.387	220.12
389.612	226.12
389.837	210.12
390.062	221.12
390.287	207.12
390.512	199.12
390.736	215.12
390.961	205.12
391.186	209.12
391.411	217.12
391.636	230.12
391.86	232.12
392.085	228.12
392.31	215.12
392.534	224.12
392.759	225.12
392.984	208.12
393.208	220.12
393.433	224.12
393.658	234.12
393.882	225.12
394.107	232.12
394.331	232.12
394.556	224.12
394.78	220.12
395.005	214.12
395.229	213.12
395.454	225.12
395.678	229.12
395.903	224.12
396.127	229.12
396.352	230.12
396.576	231.12
396.801	221.12
397.025	243.12
397.249	225.12
397.474	240.12
397.698	224.12
397.922	237.12
398.147	247.12
398.371	256.12
398.595	259.12
398.82	229.12
399.044	255.12
399.268	253.12
399.492	266.12
399.717	274.12
399.941	294.12
400.165	289.12
400.389	273.12
400.613	262.12
400.837	241.12
401.062	260.12
401.286	251.12
401.51	254.12
401.734	223.12
401.958	244.12
402.182	241.12
402.406	272.12
402.63	260.12
402.854	254.12
403.078	240.12
403.302	246.12
403.526	262.12
403.75	267.12
403.974	261.12
404.198	258.12
404.422	268.12
404.645	262.12
404.869	280.12
405.093	263.12
405.317	283.12
405.541	295.12
405.765	278.12
405.988	256.12
406.212	283.12
406.436	292.12
406.66	299.12
406.883	285.12
407.107	298.12
407.331	302.12
407.555	326.12
407.778	320.12
408.002	286.12
408.226	285.12
408.449	287.12
408.673	274.12
408.896	293.12
409.12	310.12
409.344	280.12
409.567	262.12
409.791	268.12
410.014	258.12
410.238	263.12
410.461	246.12
410.685	272.12
410.908	265.12
411.132	285.12
411.355	306.12
411.578	272.12
411.802	260.12
412.025	268.12
412.249	267.12
412.472	245.12
412.695	282.12
412.919	279.12
413.142	261.12
413.365	267.12
413.589	243.12
413.812	251.12
414.035	236.12
414.258	239.12
414.482	248.12
414.705	259.12
414.928	243.12
415.151	240.12
415.374	239.12
415.597	233.12
415.821	221.12
416.044	247.12
416.267	262.12
416.49	258.12
416.713	247.12
416.936	230.12
417.159	242.12
417.382	232.12
417.605	241.12
417.828	238.12
418.051	248.12
418.274	270.12
418.497	249.12
418.72	261.12
418.943	245.12
419.166	255.12
419.389	247.12
419.611	261.12
419.834	256.12
420.057	266.12
420.28	264.12
420.503	257.12
420.726	258.12
420.948	268.12
421.171	280.12
421.394	289.12
421.617	258.12
421.839	266.12
422.062	243.12
422.285	274.12
422.507	291.12
422.73	318.12
422.953	289.12
423.175	283.12
423.398	266.12
423.621	286.12
423.843	269.12
424.066	263.12
424.288	267.12
424.511	276.12
424.733	302.12
424.956	352.12
425.178	315.12
425.401	291.12
425.623	307.12
425.846	269.12
426.068	281.12
426.291	275.12
426.513	274.12
426.735	291.12
426.958	302.12
427.18	328.12
427.402	378.12
427.625	425.12
427.847	373.12
428.069	330.12
428.292	280.12
428.514	264.12
428.736	246.12
428.958	274.12
429.181	248.12
429.403	248.12
429.625	232.12
429.847	263.12
430.069	299.12
430.292	291.12
430.514	261.12
430.736	248.12
430.958	252.12
431.18	232.12
431.402	229.12
431.624	244.12
431.846	240.12
432.068	255.12
432.29	222.12
432.512	245.12
432.734	250.12
432.956	250.12
433.178	259.12
433.4	250.12
433.622	266.12
433.844	239.12
434.066	256.12
434.287	243.12
434.509	228.12
434.731	232.12
434.953	255.12
435.175	231.12
435.397	256.12
435.618	296.12
435.84	278.12
436.062	304.12
436.284	337.12
436.505	289.12
436.727	260.12
436.949	268.12
437.17	261.12
437.392	250.12
437.614	270.12
437.835	276.12
438.057	321.12
438.278	371.12
438.5	345.12
438.721	388.12
438.943	343.12
439.165	291.12
439.386	282.12
439.608	274.12
439.829	266.12
440.05	275.12
440.272	285.12
440.493	290.12
440.715	260.12
440.936	242.12
441.158	234.12
441.379	246.12
441.6	258.12
441.822	273.12
442.043	286.12
442.264	338.12
442.486	330.12
442.707	295.12
442.928	271.12
443.149	285.12
443.371	282.12
443.592	308.12
443.813	339.12
444.034	368.12
444.255	317.12
444.476	272.12
444.698	277.12
444.919	280.12
445.14	367.12
445.361	312.12
445.582	311.12
445.803	313.12
446.024	376.12
446.245	363.12
446.466	330.12
446.687	292.12
446.908	271.12
447.129	235.12
447.35	247.12
447.571	245.12
447.792	256.12
448.013	258.12
448.234	281.12
448.455	281.12
448.675	335.12
448.896	382.12
449.117	328.12
449.338	318.12
449.559	346.12
449.779	384.12
450	312.12
450.221	264.12
450.442	265.12
450.662	252.12
450.883	260.12
451.104	276.12
451.324	256.12
451.545	235.12
451.766	228.12
451.986	229.12
452.207	222.12
452.428	228.12
452.648	236.12
452.869	244.12
453.089	234.12
453.31	227.12
453.53	226.12
453.751	240.12
453.971	252.12
454.192	251.12
454.412	241.12
454.633	218.12
454.853	239.12
455.073	221.12
455.294	238.12
455.514	284.12
455.734	262.12
455.955	226.12
456.175	229.12
456.395	216.12
456.616	195.12
456.836	223.12
457.056	197.12
457.276	221.12
457.497	213.12
457.717	210.12
457.937	231.12
458.157	218.12
458.377	225.12
458.598	235.12
458.818	266.12
459.038	327.12
459.258	321.12
459.478	272.12
459.698	252.12
459.918	230.12
460.138	258.12
460.358	236.12
460.578	246.12
460.798	228.12
461.018	229.12
461.238	255.12
461.458	235.12
461.678	225.12
461.898	248.12
462.118	245.12
462.338	243.12
462.558	252.12
462.777	224.12
462.997	237.12
463.217	250.12
463.437	267.12
463.657	256.12
463.876	254.12
464.096	244.12
464.316	256.12
464.536	262.12
464.755	258.12
464.975	274.12
465.195	300.12
465.414	346.12
465.634	284.12
465.854	252.12
466.073	249.12
466.293	248.12
466.512	228.12
466.732	230.12
466.951	233.12
467.171	233.12
467.391	219.12
467.61	239.12
467.829	246.12
468.049	243.12
468.268	240.12
468.488	236.12
468.707	230.12
468.927	231.12
469.146	228.12
469.365	225.12
469.585	230.12
469.804	216.12
470.023	239.12
470.243	251.12
470.462	243.12
470.681	280.12
470.901	251.12
471.12	250.12
471.339	231.12
471.558	240.12
471.777	234.12
471.997	227.12
472.216	258.12
472.435	282.12
472.654	254.12
472.873	242.12
473.092	225.12
473.311	239.12
473.53	224.12
473.749	249.12
473.968	242.12
474.187	297.12
474.406	317.12
474.625	259.12
474.844	231.12
475.063	221.12
475.282	241.12
475.501	231.12
475.72	238.12
475.939	242.12
476.158	254.12
476.377	244.12
476.596	226.12
476.814	242.12
477.033	253.12
477.252	262.12
477.471	251.12
477.69	258.12
477.908	262.12
478.127	262.12
478.346	267.12
478.564	261.12
478.783	263.12
479.002	272.12
479.22	254.12
479.439	279.12
479.658	297.12
479.876	272.12
480.095	292.12
480.313	295.12
480.532	282.12
480.751	271.12
480.969	296.12
481.188	385.12
481.406	392.12
481.624	320.12
481.843	299.12
482.061	272.12
482.28	285.12
482.498	279.12
482.717	270.12
482.935	269.12
483.153	293.12
483.372	282.12
483.59	261.12
483.808	272.12
484.027	256.12
484.245	273.12
484.463	276.12
484.681	275.12
484.9	278.12
485.118	292.12
485.336	265.12
485.554	285.12
485.772	286.12
485.99	272.12
486.209	278.12
486.427	275.12
486.645	286.12
486.863	290.12
487.081	285.12
487.299	280.12
487.517	308.12
487.735	290.12
487.953	282.12
488.171	304.12
488.389	296.12
488.607	283.12
488.825	298.12
489.043	286.12
489.261	284.12
489.479	287.12
489.696	289.12
489.914	301.12
490.132	290.12
490.35	322.12
490.568	322.12
490.786	311.12
491.003	304.12
491.221	343.12
491.439	340.12
491.657	339.12
491.874	349.12
492.092	372.12
492.31	337.12
492.527	356.12
492.745	331.12
492.963	343.12
493.18	337.12
493.398	354.12
493.615	355.12
493.833	365.12
494.05	340.12
494.268	343.12
494.485	334.12
494.703	351.12
494.92	337.12
495.138	348.12
495.355	342.12
495.573	352.12
495.79	344.12
496.008	347.12
496.225	338.12
496.442	354.12
496.66	343.12
496.877	340.12
497.094	335.12
497.312	325.12
497.529	355.12
497.746	340.12
497.963	340.12
498.181	368.12
498.398	360.12
498.615	377.12
498.832	370.12
499.049	397.12
499.267	379.12
499.484	391.12
499.701	394.12
499.918	407.12
500.135	412.12
500.352	432.12
500.569	447.12
500.786	448.12
501.003	447.12
501.22	436.12
501.437	427.12
501.654	430.12
501.871	417.12
502.088	399.12
502.305	389.12
502.522	359.12
502.739	368.12
