Data from 1966.PennyLincolnUp.Lamp.En5.5.200Scan.071719.P1.Scan2.head_HRD10591_14-19-04-238.txt Node
Date: Thu Jul 18 14:19:04 EDT 2019
User: cochatt
Spectrometer: HR+D1059
Trigger mode: 1
Integration Time (sec): 1.000000E-1
Scans to average: 1
Electric dark correction enabled: true
Nonlinearity correction enabled: false
Boxcar width: 0
XAxis mode: Wavelengths
Number of Pixels in Spectrum: 2048
>>>>>Begin Spectral Data<<<<<
223.165	-9.06
223.4	-9.06
223.635	-9.06
223.869	-26.06
224.104	1.94
224.338	-29.06
224.573	-14.06
224.808	-14.06
225.042	-12.06
225.277	-10.06
225.511	-2.06
225.746	-1.06
225.98	10.94
226.215	20.94
226.449	9.94
226.683	23.94
226.918	19.94
227.152	29.94
227.387	34.94
227.621	37.94
227.856	40.94
228.09	34.94
228.324	42.94
228.559	46.94
228.793	67.94
229.027	95.94
229.262	114.94
229.496	110.94
229.73	147.94
229.964	149.94
230.199	126.94
230.433	107.94
230.667	110.94
230.901	119.94
231.136	118.94
231.37	116.94
231.604	108.94
231.838	122.94
232.072	119.94
232.306	114.94
232.541	102.94
232.775	102.94
233.009	114.94
233.243	113.94
233.477	113.94
233.711	120.94
233.945	122.94
234.179	117.94
234.413	109.94
234.647	101.94
234.881	109.94
235.115	105.94
235.349	106.94
235.583	123.94
235.817	126.94
236.051	127.94
236.285	113.94
236.519	125.94
236.753	121.94
236.987	156.94
237.221	200.94
237.455	243.94
237.689	187.94
237.922	160.94
238.156	147.94
238.39	142.94
238.624	149.94
238.858	135.94
239.091	121.94
239.325	131.94
239.559	139.94
239.793	136.94
240.027	131.94
240.26	140.94
240.494	174.94
240.728	151.94
240.961	163.94
241.195	151.94
241.429	146.94
241.662	134.94
241.896	145.94
242.13	133.94
242.363	150.94
242.597	135.94
242.83	146.94
243.064	148.94
243.298	134.94
243.531	142.94
243.765	142.94
243.998	143.94
244.232	158.94
244.465	139.94
244.699	143.94
244.932	138.94
245.166	148.94
245.399	149.94
245.633	143.94
245.866	152.94
246.099	154.94
246.333	148.94
246.566	157.94
246.8	153.94
247.033	158.94
247.266	165.94
247.5	173.94
247.733	185.94
247.966	182.94
248.2	171.94
248.433	183.94
248.666	193.94
248.899	186.94
249.133	197.94
249.366	223.94
249.599	191.94
249.832	194.94
250.066	175.94
250.299	163.94
250.532	196.94
250.765	200.94
250.998	225.94
251.231	233.94
251.465	213.94
251.698	213.94
251.931	221.94
252.164	213.94
252.397	205.94
252.63	204.94
252.863	219.94
253.096	221.94
253.329	229.94
253.562	215.94
253.795	218.94
254.028	221.94
254.261	220.94
254.494	234.94
254.727	271.94
254.96	276.94
255.193	278.94
255.426	232.94
255.659	243.94
255.892	248.94
256.124	261.94
256.357	232.94
256.59	241.94
256.823	233.94
257.056	228.94
257.289	199.94
257.521	211.94
257.754	213.94
257.987	222.94
258.22	202.94
258.452	219.94
258.685	230.94
258.918	221.94
259.151	217.94
259.383	225.94
259.616	219.94
259.849	241.94
260.081	261.94
260.314	274.94
260.547	276.94
260.779	260.94
261.012	238.94
261.244	254.94
261.477	229.94
261.71	217.94
261.942	232.94
262.175	234.94
262.407	230.94
262.64	230.94
262.872	214.94
263.105	242.94
263.337	237.94
263.57	221.94
263.802	218.94
264.035	212.94
264.267	210.94
264.499	210.94
264.732	223.94
264.964	231.94
265.197	225.94
265.429	226.94
265.661	213.94
265.894	213.94
266.126	214.94
266.358	224.94
266.591	236.94
266.823	237.94
267.055	212.94
267.287	233.94
267.52	234.94
267.752	225.94
267.984	247.94
268.216	237.94
268.448	243.94
268.681	239.94
268.913	247.94
269.145	276.94
269.377	293.94
269.609	274.94
269.841	272.94
270.073	285.94
270.306	306.94
270.538	325.94
270.77	323.94
271.002	307.94
271.234	303.94
271.466	307.94
271.698	311.94
271.93	317.94
272.162	312.94
272.394	312.94
272.626	324.94
272.858	294.94
273.09	291.94
273.322	279.94
273.553	277.94
273.785	270.94
274.017	281.94
274.249	263.94
274.481	267.94
274.713	262.94
274.945	286.94
275.176	283.94
275.408	267.94
275.64	284.94
275.872	269.94
276.104	269.94
276.335	273.94
276.567	285.94
276.799	298.94
277.031	301.94
277.262	333.94
277.494	323.94
277.726	308.94
277.957	295.94
278.189	293.94
278.421	293.94
278.652	282.94
278.884	298.94
279.115	298.94
279.347	295.94
279.579	273.94
279.81	284.94
280.042	281.94
280.273	266.94
280.505	273.94
280.736	275.94
280.968	269.94
281.199	259.94
281.431	291.94
281.662	276.94
281.894	284.94
282.125	277.94
282.356	299.94
282.588	317.94
282.819	311.94
283.051	298.94
283.282	289.94
283.513	286.94
283.745	287.94
283.976	301.94
284.207	293.94
284.439	279.94
284.67	279.94
284.901	295.94
285.132	282.94
285.364	284.94
285.595	281.94
285.826	277.94
286.057	284.94
286.288	316.94
286.52	284.94
286.751	291.94
286.982	293.94
287.213	292.94
287.444	303.94
287.675	288.94
287.906	297.94
288.138	322.94
288.369	312.94
288.6	319.94
288.831	316.94
289.062	282.94
289.293	293.94
289.524	303.94
289.755	304.94
289.986	314.94
290.217	302.94
290.448	294.94
290.679	310.94
290.91	307.94
291.141	275.94
291.371	300.94
291.602	291.94
291.833	310.94
292.064	303.94
292.295	312.94
292.526	298.94
292.757	307.94
292.987	321.94
293.218	302.94
293.449	306.94
293.68	297.94
293.91	286.94
294.141	313.94
294.372	315.94
294.603	307.94
294.833	298.94
295.064	311.94
295.295	327.94
295.525	315.94
295.756	321.94
295.987	307.94
296.217	323.94
296.448	345.94
296.679	330.94
296.909	307.94
297.14	325.94
297.37	316.94
297.601	324.94
297.831	298.94
298.062	310.94
298.292	325.94
298.523	310.94
298.753	332.94
298.984	316.94
299.214	323.94
299.445	325.94
299.675	321.94
299.905	331.94
300.136	336.94
300.366	318.94
300.597	318.94
300.827	316.94
301.057	332.94
301.288	335.94
301.518	340.94
301.748	331.94
301.979	321.94
302.209	332.94
302.439	349.94
302.669	335.94
302.9	321.94
303.13	313.94
303.36	338.94
303.59	336.94
303.82	345.94
304.051	330.94
304.281	337.94
304.511	347.94
304.741	334.94
304.971	355.94
305.201	329.94
305.431	340.94
305.661	345.94
305.891	337.94
306.121	352.94
306.352	358.94
306.582	351.94
306.812	340.94
307.042	353.94
307.272	347.94
307.502	340.94
307.731	365.94
307.961	350.94
308.191	354.94
308.421	342.94
308.651	361.94
308.881	347.94
309.111	360.94
309.341	361.94
309.571	366.94
309.8	376.94
310.03	382.94
310.26	399.94
310.49	385.94
310.72	390.94
310.949	417.94
311.179	431.94
311.409	387.94
311.639	401.94
311.868	392.94
312.098	385.94
312.328	383.94
312.557	401.94
312.787	421.94
313.017	418.94
313.246	394.94
313.476	391.94
313.706	389.94
313.935	380.94
314.165	423.94
314.394	436.94
314.624	421.94
314.853	419.94
315.083	395.94
315.312	399.94
315.542	394.94
315.771	397.94
316.001	380.94
316.23	402.94
316.46	401.94
316.689	393.94
316.919	398.94
317.148	384.94
317.377	412.94
317.607	408.94
317.836	394.94
318.065	402.94
318.295	393.94
318.524	379.94
318.753	391.94
318.983	367.94
319.212	389.94
319.441	383.94
319.67	405.94
319.9	406.94
320.129	394.94
320.358	407.94
320.587	393.94
320.816	403.94
321.046	413.94
321.275	409.94
321.504	415.94
321.733	412.94
321.962	415.94
322.191	445.94
322.42	435.94
322.649	460.94
322.878	459.94
323.108	460.94
323.337	501.94
323.566	502.94
323.795	534.94
324.024	581.94
324.253	707.94
324.482	1005.94
324.71	1581.94
324.939	2320.94
325.168	2009.94
325.397	997.94
325.626	657.94
325.855	569.94
326.084	541.94
326.313	494.94
326.542	521.94
326.77	567.94
326.999	665.94
327.228	886.94
327.457	1401.94
327.686	1754.94
327.914	1134.94
328.143	749.94
328.372	629.94
328.6	610.94
328.829	585.94
329.058	588.94
329.287	608.94
329.515	564.94
329.744	508.94
329.972	539.94
330.201	549.94
330.43	594.94
330.658	587.94
330.887	634.94
331.115	617.94
331.344	547.94
331.572	514.94
331.801	528.94
332.03	504.94
332.258	500.94
332.486	468.94
332.715	464.94
332.943	464.94
333.172	474.94
333.4	489.94
333.629	483.94
333.857	515.94
334.085	519.94
334.314	548.94
334.542	578.94
334.771	588.94
334.999	538.94
335.227	515.94
335.455	484.94
335.684	491.94
335.912	481.94
336.14	470.94
336.369	480.94
336.597	484.94
336.825	460.94
337.053	484.94
337.281	487.94
337.51	470.94
337.738	480.94
337.966	460.94
338.194	476.94
338.422	446.94
338.65	488.94
338.878	453.94
339.106	437.94
339.334	461.94
339.562	468.94
339.79	471.94
340.018	441.94
340.246	474.94
340.474	446.94
340.702	457.94
340.93	463.94
341.158	461.94
341.386	460.94
341.614	462.94
341.842	447.94
342.07	455.94
342.298	444.94
342.526	429.94
342.754	452.94
342.981	446.94
343.209	462.94
343.437	457.94
343.665	457.94
343.893	448.94
344.12	460.94
344.348	472.94
344.576	473.94
344.804	474.94
345.031	480.94
345.259	495.94
345.487	469.94
345.714	477.94
345.942	470.94
346.17	446.94
346.397	454.94
346.625	468.94
346.853	427.94
347.08	439.94
347.308	450.94
347.535	440.94
347.763	435.94
347.99	447.94
348.218	456.94
348.445	469.94
348.673	447.94
348.9	443.94
349.128	442.94
349.355	408.94
349.583	438.94
349.81	450.94
350.037	451.94
350.265	428.94
350.492	426.94
350.72	435.94
350.947	437.94
351.174	445.94
351.402	449.94
351.629	466.94
351.856	446.94
352.083	468.94
352.311	471.94
352.538	471.94
352.765	450.94
352.992	455.94
353.22	454.94
353.447	464.94
353.674	443.94
353.901	445.94
354.128	410.94
354.355	422.94
354.583	411.94
354.81	446.94
355.037	418.94
355.264	426.94
355.491	420.94
355.718	418.94
355.945	431.94
356.172	422.94
356.399	404.94
356.626	407.94
356.853	412.94
357.08	431.94
357.307	417.94
357.534	421.94
357.761	410.94
357.988	434.94
358.215	426.94
358.441	420.94
358.668	442.94
358.895	428.94
359.122	451.94
359.349	444.94
359.576	444.94
359.802	472.94
360.029	502.94
360.256	505.94
360.483	495.94
360.709	458.94
360.936	457.94
361.163	476.94
361.39	453.94
361.616	431.94
361.843	447.94
362.07	457.94
362.296	442.94
362.523	458.94
362.749	457.94
362.976	429.94
363.203	439.94
363.429	431.94
363.656	437.94
363.882	445.94
364.109	449.94
364.335	441.94
364.562	442.94
364.788	424.94
365.015	462.94
365.241	456.94
365.468	457.94
365.694	440.94
365.92	434.94
366.147	444.94
366.373	435.94
366.599	445.94
366.826	421.94
367.052	428.94
367.278	443.94
367.505	420.94
367.731	435.94
367.957	436.94
368.184	430.94
368.41	448.94
368.636	447.94
368.862	441.94
369.089	445.94
369.315	419.94
369.541	439.94
369.767	436.94
369.993	459.94
370.219	443.94
370.445	457.94
370.672	434.94
370.898	411.94
371.124	449.94
371.35	431.94
371.576	438.94
371.802	443.94
372.028	429.94
372.254	431.94
372.48	435.94
372.706	432.94
372.932	445.94
373.158	449.94
373.384	454.94
373.61	457.94
373.835	444.94
374.061	439.94
374.287	445.94
374.513	446.94
374.739	469.94
374.965	443.94
375.191	447.94
375.416	448.94
375.642	438.94
375.868	453.94
376.094	471.94
376.319	456.94
376.545	435.94
376.771	443.94
376.997	451.94
377.222	431.94
377.448	428.94
377.674	445.94
377.899	413.94
378.125	428.94
378.35	442.94
378.576	443.94
378.802	426.94
379.027	441.94
379.253	443.94
379.478	425.94
379.704	443.94
379.929	436.94
380.155	446.94
380.38	450.94
380.606	451.94
380.831	449.94
381.057	440.94
381.282	435.94
381.507	467.94
381.733	445.94
381.958	439.94
382.184	450.94
382.409	425.94
382.634	455.94
382.86	455.94
383.085	449.94
383.31	441.94
383.535	458.94
383.761	450.94
383.986	457.94
384.211	461.94
384.436	468.94
384.662	473.94
384.887	489.94
385.112	489.94
385.337	488.94
385.562	476.94
385.787	461.94
386.013	503.94
386.238	488.94
386.463	521.94
386.688	481.94
386.913	482.94
387.138	479.94
387.363	477.94
387.588	489.94
387.813	501.94
388.038	484.94
388.263	473.94
388.488	487.94
388.713	485.94
388.938	498.94
389.163	499.94
389.387	498.94
389.612	486.94
389.837	491.94
390.062	471.94
390.287	491.94
390.512	505.94
390.736	468.94
390.961	501.94
391.186	486.94
391.411	500.94
391.636	492.94
391.86	515.94
392.085	515.94
392.31	518.94
392.534	521.94
392.759	505.94
392.984	506.94
393.208	501.94
393.433	498.94
393.658	491.94
393.882	507.94
394.107	523.94
394.331	486.94
394.556	519.94
394.78	515.94
395.005	510.94
395.229	485.94
395.454	497.94
395.678	498.94
395.903	517.94
396.127	538.94
396.352	557.94
396.576	506.94
396.801	543.94
397.025	523.94
397.249	515.94
397.474	511.94
397.698	545.94
397.922	545.94
398.147	582.94
398.371	587.94
398.595	566.94
398.82	600.94
399.044	565.94
399.268	610.94
399.492	631.94
399.717	667.94
399.941	680.94
400.165	709.94
400.389	715.94
400.613	660.94
400.837	625.94
401.062	581.94
401.286	576.94
401.51	565.94
401.734	572.94
401.958	600.94
402.182	580.94
402.406	585.94
402.63	574.94
402.854	586.94
403.078	580.94
403.302	579.94
403.526	619.94
403.75	599.94
403.974	589.94
404.198	600.94
404.422	604.94
404.645	615.94
404.869	614.94
405.093	647.94
405.317	695.94
405.541	714.94
405.765	643.94
405.988	613.94
406.212	632.94
406.436	671.94
406.66	669.94
406.883	625.94
407.107	657.94
407.331	718.94
407.555	775.94
407.778	787.94
408.002	713.94
408.226	684.94
408.449	659.94
408.673	657.94
408.896	679.94
409.12	741.94
409.344	677.94
409.567	616.94
409.791	639.94
410.014	592.94
410.238	611.94
410.461	597.94
410.685	616.94
410.908	643.94
411.132	646.94
411.355	671.94
411.578	664.94
411.802	619.94
412.025	606.94
412.249	625.94
412.472	634.94
412.695	676.94
412.919	664.94
413.142	630.94
413.365	618.94
413.589	603.94
413.812	586.94
414.035	576.94
414.258	574.94
414.482	563.94
414.705	585.94
414.928	571.94
415.151	570.94
415.374	550.94
415.597	563.94
415.821	543.94
416.044	571.94
416.267	559.94
416.49	543.94
416.713	558.94
416.936	548.94
417.159	563.94
417.382	567.94
417.605	578.94
417.828	568.94
418.051	579.94
418.274	583.94
418.497	566.94
418.72	587.94
418.943	555.94
419.166	565.94
419.389	617.94
419.611	616.94
419.834	605.94
420.057	595.94
420.28	597.94
420.503	570.94
420.726	614.94
420.948	623.94
421.171	659.94
421.394	677.94
421.617	637.94
421.839	604.94
422.062	598.94
422.285	610.94
422.507	684.94
422.73	745.94
422.953	733.94
423.175	636.94
423.398	608.94
423.621	633.94
423.843	637.94
424.066	628.94
424.288	642.94
424.511	655.94
424.733	717.94
424.956	821.94
425.178	777.94
425.401	764.94
425.623	789.94
425.846	671.94
426.068	636.94
426.291	620.94
426.513	606.94
426.735	626.94
426.958	668.94
427.18	784.94
427.402	902.94
427.625	1032.94
427.847	901.94
428.069	789.94
428.292	703.94
428.514	653.94
428.736	604.94
428.958	604.94
429.181	565.94
429.403	577.94
429.625	597.94
429.847	639.94
430.069	720.94
430.292	707.94
430.514	605.94
430.736	604.94
430.958	593.94
431.18	572.94
431.402	559.94
431.624	533.94
431.846	547.94
432.068	538.94
432.29	551.94
432.512	571.94
432.734	565.94
432.956	564.94
433.178	604.94
433.4	586.94
433.622	582.94
433.844	559.94
434.066	559.94
434.287	564.94
434.509	549.94
434.731	564.94
434.953	569.94
435.175	595.94
435.397	625.94
435.618	646.94
435.84	695.94
436.062	765.94
436.284	872.94
436.505	706.94
436.727	664.94
436.949	595.94
437.17	577.94
437.392	573.94
437.614	601.94
437.835	630.94
438.057	758.94
438.278	870.94
438.5	859.94
438.721	933.94
438.943	891.94
439.165	718.94
439.386	648.94
439.608	647.94
439.829	649.94
440.05	686.94
440.272	735.94
440.493	676.94
440.715	636.94
440.936	612.94
441.158	588.94
441.379	620.94
441.6	621.94
441.822	607.94
442.043	665.94
442.264	783.94
442.486	814.94
442.707	682.94
442.928	671.94
443.149	683.94
443.371	698.94
443.592	742.94
443.813	834.94
444.034	899.94
444.255	742.94
444.476	677.94
444.698	641.94
444.919	654.94
445.14	735.94
445.361	719.94
445.582	705.94
445.803	728.94
446.024	907.94
446.245	900.94
446.466	807.94
446.687	671.94
446.908	631.94
447.129	605.94
447.35	584.94
447.571	581.94
447.792	575.94
448.013	588.94
448.234	609.94
448.455	653.94
448.675	791.94
448.896	897.94
449.117	772.94
449.338	721.94
449.559	853.94
449.779	937.94
450	767.94
450.221	655.94
450.442	611.94
450.662	558.94
450.883	563.94
451.104	574.94
451.324	588.94
451.545	561.94
451.766	530.94
451.986	534.94
452.207	542.94
452.428	537.94
452.648	538.94
452.869	515.94
453.089	525.94
453.31	548.94
453.53	550.94
453.751	500.94
453.971	531.94
454.192	553.94
454.412	531.94
454.633	525.94
454.853	513.94
455.073	500.94
455.294	567.94
455.514	615.94
455.734	618.94
455.955	529.94
456.175	521.94
456.395	521.94
456.616	514.94
456.836	486.94
457.056	502.94
457.276	503.94
457.497	519.94
457.717	514.94
457.937	513.94
458.157	511.94
458.377	540.94
458.598	543.94
458.818	612.94
459.038	671.94
459.258	704.94
459.478	619.94
459.698	557.94
459.918	566.94
460.138	553.94
460.358	551.94
460.578	567.94
460.798	575.94
461.018	596.94
461.238	576.94
461.458	578.94
461.678	572.94
461.898	590.94
462.118	586.94
462.338	612.94
462.558	598.94
462.777	586.94
462.997	614.94
463.217	606.94
463.437	606.94
463.657	607.94
463.876	602.94
464.096	622.94
464.316	614.94
464.536	606.94
464.755	616.94
464.975	617.94
465.195	650.94
465.414	716.94
465.634	638.94
465.854	585.94
466.073	571.94
466.293	573.94
466.512	561.94
466.732	539.94
466.951	533.94
467.171	556.94
467.391	530.94
467.61	549.94
467.829	567.94
468.049	551.94
468.268	543.94
468.488	533.94
468.707	525.94
468.927	537.94
469.146	526.94
469.365	533.94
469.585	534.94
469.804	545.94
470.023	550.94
470.243	537.94
470.462	537.94
470.681	540.94
470.901	562.94
471.12	559.94
471.339	553.94
471.558	540.94
471.777	563.94
471.997	553.94
472.216	547.94
472.435	580.94
472.654	588.94
472.873	526.94
473.092	572.94
473.311	542.94
473.53	540.94
473.749	543.94
473.968	583.94
474.187	737.94
474.406	743.94
474.625	613.94
474.844	556.94
475.063	556.94
475.282	575.94
475.501	551.94
475.72	553.94
475.939	587.94
476.158	564.94
476.377	568.94
476.596	567.94
476.814	566.94
477.033	566.94
477.252	581.94
477.471	567.94
477.69	586.94
477.908	597.94
478.127	614.94
478.346	608.94
478.564	626.94
478.783	614.94
479.002	625.94
479.22	641.94
479.439	647.94
479.658	645.94
479.876	645.94
480.095	669.94
480.313	702.94
480.532	710.94
480.751	669.94
480.969	695.94
481.188	781.94
481.406	803.94
481.624	695.94
481.843	654.94
482.061	669.94
482.28	647.94
482.498	663.94
482.717	630.94
482.935	633.94
483.153	641.94
483.372	644.94
483.59	647.94
483.808	654.94
484.027	642.94
484.245	663.94
484.463	650.94
484.681	665.94
484.9	666.94
485.118	673.94
485.336	647.94
485.554	687.94
485.772	684.94
485.99	685.94
486.209	675.94
486.427	680.94
486.645	669.94
486.863	702.94
487.081	708.94
487.299	696.94
487.517	698.94
487.735	681.94
487.953	675.94
488.171	668.94
488.389	708.94
488.607	688.94
488.825	684.94
489.043	722.94
489.261	699.94
489.479	701.94
489.696	702.94
489.914	708.94
490.132	701.94
490.35	737.94
490.568	718.94
490.786	753.94
491.003	771.94
491.221	749.94
491.439	777.94
491.657	792.94
491.874	799.94
492.092	801.94
492.31	785.94
492.527	801.94
492.745	801.94
492.963	796.94
493.18	830.94
493.398	834.94
493.615	839.94
493.833	851.94
494.05	841.94
494.268	822.94
494.485	831.94
494.703	826.94
494.92	833.94
495.138	829.94
495.355	843.94
495.573	835.94
495.79	807.94
496.008	847.94
496.225	814.94
496.442	834.94
496.66	839.94
496.877	822.94
497.094	848.94
497.312	841.94
497.529	846.94
497.746	865.94
497.963	888.94
498.181	911.94
498.398	920.94
498.615	924.94
498.832	966.94
499.049	975.94
499.267	1003.94
499.484	1026.94
499.701	1039.94
499.918	1099.94
500.135	1130.94
500.352	1195.94
500.569	1235.94
500.786	1198.94
501.003	1206.94
501.22	1185.94
501.437	1133.94
501.654	1067.94
