Data from 1966.PennyLincolnUp.Lamp.En5.5.200Scan.071719.P1.Scan2.head_HRD10591_14-16-34-038.txt Node
Date: Thu Jul 18 14:16:34 EDT 2019
User: cochatt
Spectrometer: HR+D1059
Trigger mode: 1
Integration Time (sec): 1.000000E-1
Scans to average: 1
Electric dark correction enabled: true
Nonlinearity correction enabled: false
Boxcar width: 0
XAxis mode: Wavelengths
Number of Pixels in Spectrum: 2048
>>>>>Begin Spectral Data<<<<<
223.165	-12.56
223.4	-12.56
223.635	-12.56
223.869	-14.56
224.104	-26.56
224.338	-3.56
224.573	-16.56
224.808	-10.56
225.042	-5.56
225.277	-15.56
225.511	-10.56
225.746	-5.56
225.98	1.44
226.215	22.44
226.449	25.44
226.683	23.44
226.918	25.44
227.152	23.44
227.387	40.44
227.621	44.44
227.856	28.44
228.09	46.44
228.324	40.44
228.559	66.44
228.793	67.44
229.027	94.44
229.262	89.44
229.496	100.44
229.73	116.44
229.964	129.44
230.199	113.44
230.433	104.44
230.667	108.44
230.901	102.44
231.136	102.44
231.37	117.44
231.604	98.44
231.838	102.44
232.072	108.44
232.306	118.44
232.541	106.44
232.775	108.44
233.009	106.44
233.243	108.44
233.477	112.44
233.711	110.44
233.945	90.44
234.179	123.44
234.413	121.44
234.647	103.44
234.881	97.44
235.115	112.44
235.349	111.44
235.583	111.44
235.817	114.44
236.051	110.44
236.285	123.44
236.519	118.44
236.753	114.44
236.987	128.44
237.221	170.44
237.455	193.44
237.689	151.44
237.922	131.44
238.156	133.44
238.39	125.44
238.624	108.44
238.858	115.44
239.091	113.44
239.325	120.44
239.559	113.44
239.793	123.44
240.027	137.44
240.26	117.44
240.494	135.44
240.728	141.44
240.961	132.44
241.195	136.44
241.429	134.44
241.662	124.44
241.896	123.44
242.13	129.44
242.363	142.44
242.597	127.44
242.83	124.44
243.064	133.44
243.298	131.44
243.531	127.44
243.765	130.44
243.998	127.44
244.232	114.44
244.465	145.44
244.699	131.44
244.932	140.44
245.166	125.44
245.399	151.44
245.633	131.44
245.866	133.44
246.099	137.44
246.333	139.44
246.566	151.44
246.8	139.44
247.033	142.44
247.266	148.44
247.5	163.44
247.733	149.44
247.966	154.44
248.2	166.44
248.433	172.44
248.666	155.44
248.899	150.44
249.133	184.44
249.366	183.44
249.599	176.44
249.832	164.44
250.066	162.44
250.299	155.44
250.532	163.44
250.765	184.44
250.998	181.44
251.231	195.44
251.465	187.44
251.698	179.44
251.931	163.44
252.164	163.44
252.397	163.44
252.63	167.44
252.863	178.44
253.096	181.44
253.329	212.44
253.562	192.44
253.795	190.44
254.028	186.44
254.261	176.44
254.494	200.44
254.727	204.44
254.96	231.44
255.193	230.44
255.426	217.44
255.659	194.44
255.892	193.44
256.124	201.44
256.357	207.44
256.59	193.44
256.823	176.44
257.056	197.44
257.289	180.44
257.521	183.44
257.754	195.44
257.987	181.44
258.22	189.44
258.452	181.44
258.685	175.44
258.918	167.44
259.151	183.44
259.383	198.44
259.616	187.44
259.849	193.44
260.081	199.44
260.314	210.44
260.547	211.44
260.779	217.44
261.012	218.44
261.244	200.44
261.477	189.44
261.71	202.44
261.942	204.44
262.175	210.44
262.407	226.44
262.64	198.44
262.872	181.44
263.105	171.44
263.337	188.44
263.57	188.44
263.802	203.44
264.035	193.44
264.267	196.44
264.499	197.44
264.732	196.44
264.964	203.44
265.197	196.44
265.429	193.44
265.661	194.44
265.894	202.44
266.126	213.44
266.358	222.44
266.591	207.44
266.823	196.44
267.055	202.44
267.287	213.44
267.52	217.44
267.752	196.44
267.984	199.44
268.216	197.44
268.448	212.44
268.681	216.44
268.913	228.44
269.145	221.44
269.377	224.44
269.609	238.44
269.841	213.44
270.073	234.44
270.306	243.44
270.538	263.44
270.77	247.44
271.002	255.44
271.234	263.44
271.466	259.44
271.698	264.44
271.93	277.44
272.162	249.44
272.394	267.44
272.626	263.44
272.858	253.44
273.09	256.44
273.322	255.44
273.553	213.44
273.785	245.44
274.017	237.44
274.249	233.44
274.481	227.44
274.713	248.44
274.945	220.44
275.176	222.44
275.408	214.44
275.64	239.44
275.872	244.44
276.104	243.44
276.335	239.44
276.567	236.44
276.799	251.44
277.031	274.44
277.262	284.44
277.494	250.44
277.726	261.44
277.957	290.44
278.189	240.44
278.421	260.44
278.652	249.44
278.884	237.44
279.115	219.44
279.347	220.44
279.579	264.44
279.81	257.44
280.042	235.44
280.273	252.44
280.505	245.44
280.736	252.44
280.968	240.44
281.199	265.44
281.431	237.44
281.662	261.44
281.894	247.44
282.125	244.44
282.356	263.44
282.588	257.44
282.819	281.44
283.051	258.44
283.282	241.44
283.513	253.44
283.745	268.44
283.976	244.44
284.207	253.44
284.439	264.44
284.67	261.44
284.901	278.44
285.132	261.44
285.364	258.44
285.595	244.44
285.826	254.44
286.057	263.44
286.288	261.44
286.52	261.44
286.751	266.44
286.982	247.44
287.213	255.44
287.444	260.44
287.675	276.44
287.906	268.44
288.138	271.44
288.369	278.44
288.6	275.44
288.831	279.44
289.062	276.44
289.293	269.44
289.524	253.44
289.755	282.44
289.986	279.44
290.217	257.44
290.448	264.44
290.679	277.44
290.91	279.44
291.141	257.44
291.371	275.44
291.602	266.44
291.833	273.44
292.064	251.44
292.295	252.44
292.526	272.44
292.757	248.44
292.987	272.44
293.218	282.44
293.449	268.44
293.68	255.44
293.91	271.44
294.141	276.44
294.372	251.44
294.603	272.44
294.833	263.44
295.064	269.44
295.295	265.44
295.525	278.44
295.756	300.44
295.987	273.44
296.217	288.44
296.448	301.44
296.679	282.44
296.909	284.44
297.14	275.44
297.37	254.44
297.601	282.44
297.831	258.44
298.062	270.44
298.292	288.44
298.523	301.44
298.753	275.44
298.984	307.44
299.214	284.44
299.445	252.44
299.675	297.44
299.905	281.44
300.136	286.44
300.366	291.44
300.597	297.44
300.827	291.44
301.057	291.44
301.288	292.44
301.518	286.44
301.748	298.44
301.979	301.44
302.209	304.44
302.439	301.44
302.669	291.44
302.9	307.44
303.13	307.44
303.36	307.44
303.59	301.44
303.82	286.44
304.051	307.44
304.281	294.44
304.511	299.44
304.741	309.44
304.971	300.44
305.201	291.44
305.431	292.44
305.661	321.44
305.891	299.44
306.121	293.44
306.352	289.44
306.582	311.44
306.812	296.44
307.042	288.44
307.272	298.44
307.502	300.44
307.731	304.44
307.961	303.44
308.191	304.44
308.421	304.44
308.651	305.44
308.881	298.44
309.111	305.44
309.341	320.44
309.571	313.44
309.8	320.44
310.03	339.44
310.26	320.44
310.49	319.44
310.72	318.44
310.949	330.44
311.179	327.44
311.409	332.44
311.639	329.44
311.868	331.44
312.098	340.44
312.328	327.44
312.557	347.44
312.787	362.44
313.017	349.44
313.246	345.44
313.476	339.44
313.706	344.44
313.935	357.44
314.165	346.44
314.394	351.44
314.624	354.44
314.853	347.44
315.083	338.44
315.312	325.44
315.542	340.44
315.771	341.44
316.001	332.44
316.23	343.44
316.46	334.44
316.689	349.44
316.919	358.44
317.148	327.44
317.377	352.44
317.607	352.44
317.836	342.44
318.065	341.44
318.295	351.44
318.524	343.44
318.753	338.44
318.983	314.44
319.212	344.44
319.441	356.44
319.67	362.44
319.9	324.44
320.129	340.44
320.358	333.44
320.587	359.44
320.816	338.44
321.046	362.44
321.275	372.44
321.504	356.44
321.733	344.44
321.962	351.44
322.191	347.44
322.42	369.44
322.649	383.44
322.878	397.44
323.108	374.44
323.337	400.44
323.566	401.44
323.795	415.44
324.024	432.44
324.253	523.44
324.482	720.44
324.71	1109.44
324.939	1633.44
325.168	1442.44
325.397	704.44
325.626	500.44
325.855	429.44
326.084	410.44
326.313	400.44
326.542	403.44
326.77	421.44
326.999	512.44
327.228	671.44
327.457	1018.44
327.686	1262.44
327.914	836.44
328.143	535.44
328.372	473.44
328.6	448.44
328.829	435.44
329.058	443.44
329.287	449.44
329.515	420.44
329.744	426.44
329.972	426.44
330.201	416.44
330.43	435.44
330.658	449.44
330.887	490.44
331.115	478.44
331.344	433.44
331.572	424.44
331.801	431.44
332.03	417.44
332.258	434.44
332.486	393.44
332.715	403.44
332.943	410.44
333.172	410.44
333.4	424.44
333.629	418.44
333.857	442.44
334.085	414.44
334.314	447.44
334.542	471.44
334.771	460.44
334.999	429.44
335.227	442.44
335.455	421.44
335.684	421.44
335.912	418.44
336.14	404.44
336.369	394.44
336.597	418.44
336.825	416.44
337.053	398.44
337.281	392.44
337.51	412.44
337.738	407.44
337.966	414.44
338.194	396.44
338.422	412.44
338.65	413.44
338.878	410.44
339.106	367.44
339.334	381.44
339.562	411.44
339.79	391.44
340.018	395.44
340.246	390.44
340.474	409.44
340.702	407.44
340.93	393.44
341.158	407.44
341.386	388.44
341.614	393.44
341.842	395.44
342.07	380.44
342.298	395.44
342.526	394.44
342.754	402.44
342.981	397.44
343.209	397.44
343.437	393.44
343.665	386.44
343.893	407.44
344.12	419.44
344.348	427.44
344.576	419.44
344.804	389.44
345.031	416.44
345.259	407.44
345.487	418.44
345.714	401.44
345.942	376.44
346.17	395.44
346.397	380.44
346.625	409.44
346.853	403.44
347.08	376.44
347.308	374.44
347.535	387.44
347.763	391.44
347.99	387.44
348.218	379.44
348.445	391.44
348.673	375.44
348.9	376.44
349.128	401.44
349.355	387.44
349.583	388.44
349.81	358.44
350.037	359.44
350.265	361.44
350.492	369.44
350.72	376.44
350.947	378.44
351.174	381.44
351.402	407.44
351.629	379.44
351.856	415.44
352.083	394.44
352.311	402.44
352.538	396.44
352.765	389.44
352.992	404.44
353.22	383.44
353.447	369.44
353.674	371.44
353.901	383.44
354.128	370.44
354.355	368.44
354.583	360.44
354.81	369.44
355.037	375.44
355.264	367.44
355.491	372.44
355.718	373.44
355.945	374.44
356.172	383.44
356.399	357.44
356.626	369.44
356.853	360.44
357.08	353.44
357.307	346.44
357.534	371.44
357.761	373.44
357.988	375.44
358.215	381.44
358.441	381.44
358.668	370.44
358.895	373.44
359.122	380.44
359.349	387.44
359.576	378.44
359.802	379.44
360.029	420.44
360.256	417.44
360.483	384.44
360.709	402.44
360.936	392.44
361.163	398.44
361.39	385.44
361.616	398.44
361.843	383.44
362.07	389.44
362.296	392.44
362.523	389.44
362.749	408.44
362.976	401.44
363.203	377.44
363.429	383.44
363.656	367.44
363.882	379.44
364.109	369.44
364.335	384.44
364.562	389.44
364.788	363.44
365.015	377.44
365.241	373.44
365.468	396.44
365.694	389.44
365.92	374.44
366.147	386.44
366.373	393.44
366.599	387.44
366.826	374.44
367.052	368.44
367.278	364.44
367.505	383.44
367.731	378.44
367.957	402.44
368.184	384.44
368.41	391.44
368.636	418.44
368.862	393.44
369.089	398.44
369.315	389.44
369.541	372.44
369.767	383.44
369.993	408.44
370.219	361.44
370.445	401.44
370.672	381.44
370.898	384.44
371.124	367.44
371.35	397.44
371.576	382.44
371.802	398.44
372.028	416.44
372.254	384.44
372.48	394.44
372.706	377.44
372.932	418.44
373.158	403.44
373.384	396.44
373.61	393.44
373.835	421.44
374.061	405.44
374.287	390.44
374.513	412.44
374.739	398.44
374.965	405.44
375.191	406.44
375.416	418.44
375.642	423.44
375.868	401.44
376.094	392.44
376.319	401.44
376.545	382.44
376.771	394.44
376.997	390.44
377.222	397.44
377.448	395.44
377.674	384.44
377.899	381.44
378.125	385.44
378.35	410.44
378.576	388.44
378.802	385.44
379.027	409.44
379.253	395.44
379.478	391.44
379.704	387.44
379.929	388.44
380.155	399.44
380.38	407.44
380.606	377.44
380.831	398.44
381.057	418.44
381.282	397.44
381.507	405.44
381.733	421.44
381.958	384.44
382.184	401.44
382.409	401.44
382.634	406.44
382.86	395.44
383.085	412.44
383.31	407.44
383.535	414.44
383.761	401.44
383.986	422.44
384.211	425.44
384.436	410.44
384.662	427.44
384.887	450.44
385.112	434.44
385.337	450.44
385.562	449.44
385.787	447.44
386.013	441.44
386.238	427.44
386.463	447.44
386.688	460.44
386.913	428.44
387.138	425.44
387.363	449.44
387.588	455.44
387.813	425.44
388.038	435.44
388.263	438.44
388.488	457.44
388.713	438.44
388.938	437.44
389.163	435.44
389.387	442.44
389.612	427.44
389.837	433.44
390.062	423.44
390.287	447.44
390.512	452.44
390.736	454.44
390.961	460.44
391.186	450.44
391.411	462.44
391.636	437.44
391.86	438.44
392.085	452.44
392.31	456.44
392.534	445.44
392.759	472.44
392.984	458.44
393.208	470.44
393.433	506.44
393.658	513.44
393.882	457.44
394.107	438.44
394.331	457.44
394.556	459.44
394.78	451.44
395.005	448.44
395.229	463.44
395.454	449.44
395.678	469.44
395.903	452.44
396.127	502.44
396.352	508.44
396.576	476.44
396.801	469.44
397.025	496.44
397.249	498.44
397.474	461.44
397.698	479.44
397.922	478.44
398.147	490.44
398.371	502.44
398.595	491.44
398.82	511.44
399.044	513.44
399.268	530.44
399.492	555.44
399.717	605.44
399.941	643.44
400.165	639.44
400.389	633.44
400.613	609.44
400.837	553.44
401.062	548.44
401.286	538.44
401.51	525.44
401.734	520.44
401.958	529.44
402.182	522.44
402.406	507.44
402.63	524.44
402.854	533.44
403.078	535.44
403.302	547.44
403.526	531.44
403.75	540.44
403.974	515.44
404.198	532.44
404.422	565.44
404.645	532.44
404.869	538.44
405.093	573.44
405.317	612.44
405.541	638.44
405.765	601.44
405.988	549.44
406.212	548.44
406.436	565.44
406.66	578.44
406.883	561.44
407.107	587.44
407.331	633.44
407.555	694.44
407.778	699.44
408.002	661.44
408.226	602.44
408.449	596.44
408.673	593.44
408.896	592.44
409.12	634.44
409.344	600.44
409.567	563.44
409.791	572.44
410.014	529.44
410.238	527.44
410.461	576.44
410.685	561.44
410.908	556.44
411.132	577.44
411.355	611.44
411.578	612.44
411.802	548.44
412.025	521.44
412.249	548.44
412.472	552.44
412.695	594.44
412.919	595.44
413.142	548.44
413.365	518.44
413.589	513.44
413.812	517.44
414.035	507.44
414.258	513.44
414.482	504.44
414.705	517.44
414.928	498.44
415.151	517.44
415.374	499.44
415.597	501.44
415.821	507.44
416.044	508.44
416.267	514.44
416.49	505.44
416.713	507.44
416.936	490.44
417.159	493.44
417.382	522.44
417.605	509.44
417.828	524.44
418.051	551.44
418.274	536.44
418.497	507.44
418.72	518.44
418.943	501.44
419.166	525.44
419.389	561.44
419.611	557.44
419.834	513.44
420.057	537.44
420.28	530.44
420.503	522.44
420.726	531.44
420.948	523.44
421.171	567.44
421.394	605.44
421.617	545.44
421.839	523.44
422.062	539.44
422.285	529.44
422.507	582.44
422.73	668.44
422.953	642.44
423.175	585.44
423.398	575.44
423.621	526.44
423.843	579.44
424.066	571.44
424.288	564.44
424.511	599.44
424.733	631.44
424.956	694.44
425.178	672.44
425.401	644.44
425.623	721.44
425.846	595.44
426.068	567.44
426.291	562.44
426.513	567.44
426.735	541.44
426.958	613.44
427.18	646.44
427.402	796.44
427.625	876.44
427.847	751.44
428.069	644.44
428.292	596.44
428.514	535.44
428.736	520.44
428.958	524.44
429.181	502.44
429.403	513.44
429.625	535.44
429.847	544.44
430.069	598.44
430.292	612.44
430.514	537.44
430.736	523.44
430.958	524.44
431.18	491.44
431.402	492.44
431.624	485.44
431.846	472.44
432.068	489.44
432.29	501.44
432.512	519.44
432.734	513.44
432.956	502.44
433.178	519.44
433.4	489.44
433.622	490.44
433.844	496.44
434.066	527.44
434.287	503.44
434.509	492.44
434.731	509.44
434.953	533.44
435.175	521.44
435.397	568.44
435.618	556.44
435.84	588.44
436.062	680.44
436.284	732.44
436.505	607.44
436.727	535.44
436.949	523.44
437.17	525.44
437.392	522.44
437.614	533.44
437.835	529.44
438.057	618.44
438.278	754.44
438.5	721.44
438.721	819.44
438.943	789.44
439.165	603.44
439.386	573.44
439.608	567.44
439.829	549.44
440.05	570.44
440.272	609.44
440.493	579.44
440.715	538.44
440.936	543.44
441.158	538.44
441.379	515.44
441.6	520.44
441.822	555.44
442.043	604.44
442.264	661.44
442.486	708.44
442.707	587.44
442.928	555.44
443.149	555.44
443.371	604.44
443.592	621.44
443.813	717.44
444.034	760.44
444.255	651.44
444.476	567.44
444.698	585.44
444.919	560.44
445.14	657.44
445.361	653.44
445.582	606.44
445.803	643.44
446.024	730.44
446.245	733.44
446.466	669.44
446.687	602.44
446.908	554.44
447.129	516.44
447.35	525.44
447.571	515.44
447.792	502.44
448.013	474.44
448.234	534.44
448.455	571.44
448.675	659.44
448.896	781.44
449.117	665.44
449.338	620.44
449.559	745.44
449.779	839.44
450	661.44
450.221	567.44
450.442	498.44
450.662	515.44
450.883	497.44
451.104	500.44
451.324	498.44
451.545	487.44
451.766	477.44
451.986	475.44
452.207	461.44
452.428	474.44
452.648	471.44
452.869	451.44
453.089	474.44
453.31	454.44
453.53	458.44
453.751	454.44
453.971	452.44
454.192	473.44
454.412	466.44
454.633	465.44
454.853	459.44
455.073	461.44
455.294	487.44
455.514	519.44
455.734	507.44
455.955	460.44
456.175	447.44
456.395	424.44
456.616	426.44
456.836	451.44
457.056	450.44
457.276	427.44
457.497	418.44
457.717	452.44
457.937	444.44
458.157	435.44
458.377	469.44
458.598	481.44
458.818	526.44
459.038	564.44
459.258	601.44
459.478	528.44
459.698	515.44
459.918	493.44
460.138	490.44
460.358	493.44
460.578	529.44
460.798	532.44
461.018	516.44
461.238	531.44
461.458	524.44
461.678	509.44
461.898	527.44
462.118	512.44
462.338	524.44
462.558	540.44
462.777	554.44
462.997	565.44
463.217	591.44
463.437	557.44
463.657	568.44
463.876	557.44
464.096	553.44
464.316	559.44
464.536	555.44
464.755	547.44
464.975	544.44
465.195	553.44
465.414	607.44
465.634	576.44
465.854	542.44
466.073	516.44
466.293	489.44
466.512	485.44
466.732	491.44
466.951	489.44
467.171	470.44
467.391	476.44
467.61	473.44
467.829	486.44
468.049	483.44
468.268	489.44
468.488	471.44
468.707	475.44
468.927	475.44
469.146	471.44
469.365	483.44
469.585	466.44
469.804	468.44
470.023	475.44
470.243	479.44
470.462	490.44
470.681	506.44
470.901	506.44
471.12	478.44
471.339	495.44
471.558	485.44
471.777	496.44
471.997	481.44
472.216	497.44
472.435	516.44
472.654	491.44
472.873	475.44
473.092	469.44
473.311	489.44
473.53	485.44
473.749	516.44
473.968	507.44
474.187	599.44
474.406	629.44
474.625	520.44
474.844	487.44
475.063	481.44
475.282	500.44
475.501	492.44
475.72	490.44
475.939	523.44
476.158	503.44
476.377	510.44
476.596	501.44
476.814	519.44
477.033	518.44
477.252	504.44
477.471	521.44
477.69	516.44
477.908	536.44
478.127	528.44
478.346	541.44
478.564	531.44
478.783	538.44
479.002	559.44
479.22	552.44
479.439	579.44
479.658	599.44
479.876	584.44
480.095	626.44
480.313	643.44
480.532	614.44
480.751	605.44
480.969	593.44
481.188	633.44
481.406	651.44
481.624	629.44
481.843	576.44
482.061	593.44
482.28	576.44
482.498	589.44
482.717	580.44
482.935	569.44
483.153	561.44
483.372	573.44
483.59	573.44
483.808	574.44
484.027	597.44
484.245	579.44
484.463	584.44
484.681	608.44
484.9	593.44
485.118	592.44
485.336	603.44
485.554	586.44
485.772	594.44
485.99	583.44
486.209	585.44
486.427	606.44
486.645	601.44
486.863	634.44
487.081	628.44
487.299	611.44
487.517	607.44
487.735	609.44
487.953	625.44
488.171	646.44
488.389	613.44
488.607	609.44
488.825	631.44
489.043	618.44
489.261	617.44
489.479	612.44
489.696	626.44
489.914	652.44
490.132	654.44
490.35	635.44
490.568	634.44
490.786	666.44
491.003	665.44
491.221	663.44
491.439	667.44
491.657	687.44
491.874	682.44
492.092	687.44
492.31	678.44
492.527	682.44
492.745	677.44
492.963	696.44
493.18	707.44
493.398	729.44
493.615	710.44
493.833	692.44
494.05	688.44
494.268	697.44
494.485	686.44
494.703	724.44
494.92	720.44
495.138	721.44
495.355	731.44
495.573	721.44
495.79	715.44
496.008	744.44
496.225	711.44
496.442	719.44
496.66	721.44
496.877	712.44
497.094	720.44
497.312	756.44
497.529	736.44
497.746	751.44
497.963	795.44
498.181	794.44
498.398	813.44
498.615	815.44
498.832	800.44
499.049	866.44
499.267	887.44
499.484	925.44
499.701	952.44
499.918	970.44
500.135	1059.44
500.352	1090.44
500.569	1059.44
500.786	1131.44
501.003	1085.44
501.22	1056.44
501.437	1001.44
501.654	970.44
