Data from 1966.PennyLincolnUp.Lamp.En5.5.200Scan.071719.P1.Scan2.head_HRD10591_14-17-50-140.txt Node
Date: Thu Jul 18 14:17:50 EDT 2019
User: cochatt
Spectrometer: HR+D1059
Trigger mode: 1
Integration Time (sec): 1.000000E-1
Scans to average: 1
Electric dark correction enabled: true
Nonlinearity correction enabled: false
Boxcar width: 0
XAxis mode: Wavelengths
Number of Pixels in Spectrum: 2048
>>>>>Begin Spectral Data<<<<<
223.165	-19.38
223.4	-19.38
223.635	-19.38
223.869	-12.38
224.104	-11.38
224.338	-27.38
224.573	-13.38
224.808	-22.38
225.042	-24.38
225.277	-10.38
225.511	14.62
225.746	-13.38
225.98	8.62
226.215	10.62
226.449	20.62
226.683	30.62
226.918	23.62
227.152	45.62
227.387	30.62
227.621	38.62
227.856	51.62
228.09	24.62
228.324	45.62
228.559	51.62
228.793	66.62
229.027	93.62
229.262	98.62
229.496	110.62
229.73	135.62
229.964	142.62
230.199	131.62
230.433	102.62
230.667	107.62
230.901	116.62
231.136	124.62
231.37	117.62
231.604	104.62
231.838	107.62
232.072	115.62
232.306	120.62
232.541	114.62
232.775	105.62
233.009	104.62
233.243	112.62
233.477	117.62
233.711	106.62
233.945	112.62
234.179	124.62
234.413	111.62
234.647	120.62
234.881	116.62
235.115	126.62
235.349	126.62
235.583	109.62
235.817	120.62
236.051	124.62
236.285	121.62
236.519	122.62
236.753	130.62
236.987	159.62
237.221	162.62
237.455	243.62
237.689	182.62
237.922	154.62
238.156	120.62
238.39	126.62
238.624	118.62
238.858	130.62
239.091	128.62
239.325	116.62
239.559	123.62
239.793	119.62
240.027	137.62
240.26	122.62
240.494	183.62
240.728	163.62
240.961	139.62
241.195	159.62
241.429	142.62
241.662	134.62
241.896	115.62
242.13	141.62
242.363	128.62
242.597	141.62
242.83	116.62
243.064	140.62
243.298	130.62
243.531	158.62
243.765	144.62
243.998	133.62
244.232	145.62
244.465	148.62
244.699	152.62
244.932	154.62
245.166	150.62
245.399	159.62
245.633	142.62
245.866	148.62
246.099	146.62
246.333	147.62
246.566	162.62
246.8	163.62
247.033	158.62
247.266	175.62
247.5	171.62
247.733	183.62
247.966	184.62
248.2	182.62
248.433	161.62
248.666	165.62
248.899	186.62
249.133	185.62
249.366	189.62
249.599	175.62
249.832	167.62
250.066	188.62
250.299	181.62
250.532	179.62
250.765	223.62
250.998	201.62
251.231	222.62
251.465	191.62
251.698	198.62
251.931	184.62
252.164	190.62
252.397	194.62
252.63	199.62
252.863	197.62
253.096	215.62
253.329	219.62
253.562	215.62
253.795	209.62
254.028	221.62
254.261	218.62
254.494	232.62
254.727	242.62
254.96	275.62
255.193	270.62
255.426	252.62
255.659	238.62
255.892	211.62
256.124	227.62
256.357	231.62
256.59	233.62
256.823	208.62
257.056	215.62
257.289	208.62
257.521	207.62
257.754	211.62
257.987	210.62
258.22	192.62
258.452	189.62
258.685	213.62
258.918	209.62
259.151	204.62
259.383	224.62
259.616	229.62
259.849	210.62
260.081	230.62
260.314	258.62
260.547	243.62
260.779	246.62
261.012	223.62
261.244	254.62
261.477	206.62
261.71	213.62
261.942	227.62
262.175	232.62
262.407	214.62
262.64	204.62
262.872	208.62
263.105	228.62
263.337	221.62
263.57	223.62
263.802	212.62
264.035	206.62
264.267	201.62
264.499	198.62
264.732	215.62
264.964	212.62
265.197	213.62
265.429	205.62
265.661	208.62
265.894	215.62
266.126	222.62
266.358	204.62
266.591	220.62
266.823	205.62
267.055	212.62
267.287	229.62
267.52	212.62
267.752	221.62
267.984	203.62
268.216	222.62
268.448	230.62
268.681	227.62
268.913	251.62
269.145	246.62
269.377	283.62
269.609	272.62
269.841	252.62
270.073	264.62
270.306	270.62
270.538	302.62
270.77	299.62
271.002	296.62
271.234	270.62
271.466	297.62
271.698	294.62
271.93	306.62
272.162	296.62
272.394	295.62
272.626	301.62
272.858	288.62
273.09	288.62
273.322	277.62
273.553	235.62
273.785	246.62
274.017	264.62
274.249	268.62
274.481	260.62
274.713	247.62
274.945	268.62
275.176	275.62
275.408	283.62
275.64	244.62
275.872	250.62
276.104	238.62
276.335	249.62
276.567	264.62
276.799	284.62
277.031	302.62
277.262	311.62
277.494	308.62
277.726	287.62
277.957	282.62
278.189	275.62
278.421	282.62
278.652	272.62
278.884	270.62
279.115	269.62
279.347	273.62
279.579	270.62
279.81	242.62
280.042	275.62
280.273	287.62
280.505	254.62
280.736	262.62
280.968	273.62
281.199	273.62
281.431	262.62
281.662	260.62
281.894	254.62
282.125	264.62
282.356	280.62
282.588	303.62
282.819	311.62
283.051	260.62
283.282	268.62
283.513	262.62
283.745	268.62
283.976	271.62
284.207	276.62
284.439	294.62
284.67	281.62
284.901	280.62
285.132	281.62
285.364	275.62
285.595	299.62
285.826	263.62
286.057	280.62
286.288	285.62
286.52	295.62
286.751	276.62
286.982	266.62
287.213	278.62
287.444	299.62
287.675	292.62
287.906	285.62
288.138	313.62
288.369	285.62
288.6	288.62
288.831	288.62
289.062	291.62
289.293	306.62
289.524	276.62
289.755	296.62
289.986	291.62
290.217	278.62
290.448	284.62
290.679	279.62
290.91	303.62
291.141	288.62
291.371	300.62
291.602	297.62
291.833	271.62
292.064	284.62
292.295	296.62
292.526	298.62
292.757	272.62
292.987	273.62
293.218	287.62
293.449	291.62
293.68	307.62
293.91	289.62
294.141	288.62
294.372	281.62
294.603	293.62
294.833	276.62
295.064	302.62
295.295	300.62
295.525	301.62
295.756	302.62
295.987	311.62
296.217	313.62
296.448	327.62
296.679	303.62
296.909	299.62
297.14	291.62
297.37	310.62
297.601	301.62
297.831	300.62
298.062	302.62
298.292	302.62
298.523	286.62
298.753	310.62
298.984	292.62
299.214	290.62
299.445	310.62
299.675	302.62
299.905	310.62
300.136	317.62
300.366	307.62
300.597	306.62
300.827	311.62
301.057	331.62
301.288	302.62
301.518	328.62
301.748	330.62
301.979	326.62
302.209	311.62
302.439	311.62
302.669	325.62
302.9	322.62
303.13	321.62
303.36	312.62
303.59	322.62
303.82	334.62
304.051	321.62
304.281	334.62
304.511	331.62
304.741	330.62
304.971	325.62
305.201	324.62
305.431	326.62
305.661	328.62
305.891	303.62
306.121	330.62
306.352	329.62
306.582	347.62
306.812	321.62
307.042	336.62
307.272	325.62
307.502	339.62
307.731	321.62
307.961	338.62
308.191	336.62
308.421	335.62
308.651	325.62
308.881	344.62
309.111	343.62
309.341	342.62
309.571	352.62
309.8	358.62
310.03	380.62
310.26	366.62
310.49	358.62
310.72	377.62
310.949	392.62
311.179	397.62
311.409	378.62
311.639	364.62
311.868	372.62
312.098	385.62
312.328	379.62
312.557	393.62
312.787	409.62
313.017	410.62
313.246	382.62
313.476	360.62
313.706	378.62
313.935	400.62
314.165	382.62
314.394	406.62
314.624	383.62
314.853	381.62
315.083	387.62
315.312	376.62
315.542	385.62
315.771	370.62
316.001	388.62
316.23	372.62
316.46	382.62
316.689	366.62
316.919	372.62
317.148	386.62
317.377	394.62
317.607	395.62
317.836	385.62
318.065	375.62
318.295	372.62
318.524	370.62
318.753	347.62
318.983	374.62
319.212	378.62
319.441	367.62
319.67	394.62
319.9	390.62
320.129	374.62
320.358	380.62
320.587	383.62
320.816	405.62
321.046	410.62
321.275	392.62
321.504	402.62
321.733	404.62
321.962	391.62
322.191	419.62
322.42	434.62
322.649	446.62
322.878	431.62
323.108	458.62
323.337	473.62
323.566	474.62
323.795	490.62
324.024	547.62
324.253	652.62
324.482	885.62
324.71	1342.62
324.939	2064.62
325.168	1759.62
325.397	884.62
325.626	615.62
325.855	518.62
326.084	489.62
326.313	491.62
326.542	494.62
326.77	493.62
326.999	598.62
327.228	793.62
327.457	1214.62
327.686	1541.62
327.914	1040.62
328.143	658.62
328.372	596.62
328.6	551.62
328.829	546.62
329.058	553.62
329.287	563.62
329.515	540.62
329.744	507.62
329.972	518.62
330.201	525.62
330.43	550.62
330.658	574.62
330.887	581.62
331.115	567.62
331.344	504.62
331.572	484.62
331.801	483.62
332.03	487.62
332.258	474.62
332.486	428.62
332.715	445.62
332.943	458.62
333.172	455.62
333.4	447.62
333.629	475.62
333.857	485.62
334.085	508.62
334.314	507.62
334.542	534.62
334.771	550.62
334.999	531.62
335.227	487.62
335.455	494.62
335.684	461.62
335.912	458.62
336.14	441.62
336.369	454.62
336.597	442.62
336.825	443.62
337.053	460.62
337.281	446.62
337.51	430.62
337.738	448.62
337.966	427.62
338.194	450.62
338.422	441.62
338.65	453.62
338.878	442.62
339.106	426.62
339.334	442.62
339.562	414.62
339.79	448.62
340.018	442.62
340.246	456.62
340.474	438.62
340.702	430.62
340.93	441.62
341.158	434.62
341.386	430.62
341.614	445.62
341.842	438.62
342.07	430.62
342.298	421.62
342.526	451.62
342.754	429.62
342.981	404.62
343.209	420.62
343.437	438.62
343.665	439.62
343.893	437.62
344.12	460.62
344.348	437.62
344.576	426.62
344.804	447.62
345.031	443.62
345.259	470.62
345.487	448.62
345.714	439.62
345.942	412.62
346.17	422.62
346.397	418.62
346.625	414.62
346.853	432.62
347.08	432.62
347.308	431.62
347.535	427.62
347.763	407.62
347.99	432.62
348.218	458.62
348.445	440.62
348.673	435.62
348.9	422.62
349.128	429.62
349.355	408.62
349.583	422.62
349.81	410.62
350.037	407.62
350.265	416.62
350.492	410.62
350.72	394.62
350.947	413.62
351.174	434.62
351.402	438.62
351.629	447.62
351.856	443.62
352.083	446.62
352.311	441.62
352.538	435.62
352.765	424.62
352.992	428.62
353.22	452.62
353.447	442.62
353.674	426.62
353.901	444.62
354.128	420.62
354.355	412.62
354.583	415.62
354.81	405.62
355.037	403.62
355.264	408.62
355.491	420.62
355.718	409.62
355.945	396.62
356.172	399.62
356.399	410.62
356.626	394.62
356.853	415.62
357.08	390.62
357.307	399.62
357.534	401.62
357.761	406.62
357.988	400.62
358.215	413.62
358.441	410.62
358.668	400.62
358.895	421.62
359.122	410.62
359.349	409.62
359.576	400.62
359.802	446.62
360.029	462.62
360.256	504.62
360.483	457.62
360.709	412.62
360.936	430.62
361.163	425.62
361.39	416.62
361.616	438.62
361.843	427.62
362.07	436.62
362.296	439.62
362.523	449.62
362.749	427.62
362.976	436.62
363.203	407.62
363.429	426.62
363.656	427.62
363.882	420.62
364.109	411.62
364.335	414.62
364.562	421.62
364.788	413.62
365.015	408.62
365.241	412.62
365.468	408.62
365.694	425.62
365.92	429.62
366.147	406.62
366.373	413.62
366.599	402.62
366.826	410.62
367.052	422.62
367.278	420.62
367.505	401.62
367.731	411.62
367.957	427.62
368.184	426.62
368.41	412.62
368.636	434.62
368.862	456.62
369.089	454.62
369.315	423.62
369.541	433.62
369.767	445.62
369.993	420.62
370.219	410.62
370.445	414.62
370.672	414.62
370.898	421.62
371.124	439.62
371.35	431.62
371.576	435.62
371.802	426.62
372.028	413.62
372.254	427.62
372.48	429.62
372.706	421.62
372.932	403.62
373.158	420.62
373.384	415.62
373.61	408.62
373.835	430.62
374.061	440.62
374.287	427.62
374.513	417.62
374.739	426.62
374.965	432.62
375.191	413.62
375.416	427.62
375.642	426.62
375.868	443.62
376.094	438.62
376.319	427.62
376.545	417.62
376.771	406.62
376.997	439.62
377.222	419.62
377.448	436.62
377.674	423.62
377.899	433.62
378.125	421.62
378.35	427.62
378.576	424.62
378.802	413.62
379.027	427.62
379.253	419.62
379.478	408.62
379.704	426.62
379.929	420.62
380.155	431.62
380.38	425.62
380.606	427.62
380.831	446.62
381.057	440.62
381.282	453.62
381.507	420.62
381.733	428.62
381.958	424.62
382.184	450.62
382.409	439.62
382.634	446.62
382.86	452.62
383.085	431.62
383.31	432.62
383.535	457.62
383.761	423.62
383.986	455.62
384.211	444.62
384.436	466.62
384.662	464.62
384.887	470.62
385.112	474.62
385.337	445.62
385.562	448.62
385.787	475.62
386.013	467.62
386.238	454.62
386.463	469.62
386.688	470.62
386.913	475.62
387.138	470.62
387.363	472.62
387.588	483.62
387.813	466.62
388.038	486.62
388.263	471.62
388.488	464.62
388.713	472.62
388.938	464.62
389.163	494.62
389.387	477.62
389.612	478.62
389.837	483.62
390.062	458.62
390.287	478.62
390.512	464.62
390.736	461.62
390.961	476.62
391.186	480.62
391.411	479.62
391.636	473.62
391.86	475.62
392.085	486.62
392.31	470.62
392.534	483.62
392.759	489.62
392.984	464.62
393.208	500.62
393.433	493.62
393.658	479.62
393.882	481.62
394.107	472.62
394.331	469.62
394.556	477.62
394.78	492.62
395.005	484.62
395.229	509.62
395.454	494.62
395.678	494.62
395.903	500.62
396.127	536.62
396.352	539.62
396.576	506.62
396.801	510.62
397.025	522.62
397.249	530.62
397.474	507.62
397.698	514.62
397.922	540.62
398.147	544.62
398.371	548.62
398.595	540.62
398.82	529.62
399.044	546.62
399.268	576.62
399.492	600.62
399.717	619.62
399.941	659.62
400.165	692.62
400.389	669.62
400.613	612.62
400.837	568.62
401.062	559.62
401.286	550.62
401.51	533.62
401.734	517.62
401.958	576.62
402.182	560.62
402.406	569.62
402.63	557.62
402.854	551.62
403.078	564.62
403.302	567.62
403.526	573.62
403.75	602.62
403.974	577.62
404.198	551.62
404.422	568.62
404.645	577.62
404.869	600.62
405.093	591.62
405.317	617.62
405.541	700.62
405.765	622.62
405.988	605.62
406.212	604.62
406.436	627.62
406.66	627.62
406.883	619.62
407.107	629.62
407.331	689.62
407.555	760.62
407.778	758.62
408.002	691.62
408.226	653.62
408.449	631.62
408.673	638.62
408.896	658.62
409.12	703.62
409.344	679.62
409.567	602.62
409.791	598.62
410.014	567.62
410.238	606.62
410.461	582.62
410.685	571.62
410.908	592.62
411.132	639.62
411.355	650.62
411.578	621.62
411.802	605.62
412.025	579.62
412.249	574.62
412.472	605.62
412.695	640.62
412.919	676.62
413.142	580.62
413.365	566.62
413.589	555.62
413.812	540.62
414.035	558.62
414.258	532.62
414.482	546.62
414.705	536.62
414.928	557.62
415.151	547.62
415.374	546.62
415.597	550.62
415.821	549.62
416.044	552.62
416.267	554.62
416.49	552.62
416.713	550.62
416.936	542.62
417.159	546.62
417.382	541.62
417.605	551.62
417.828	570.62
418.051	576.62
418.274	557.62
418.497	525.62
418.72	548.62
418.943	524.62
419.166	566.62
419.389	598.62
419.611	598.62
419.834	589.62
420.057	577.62
420.28	586.62
420.503	567.62
420.726	568.62
420.948	570.62
421.171	629.62
421.394	658.62
421.617	568.62
421.839	571.62
422.062	572.62
422.285	598.62
422.507	633.62
422.73	733.62
422.953	683.62
423.175	624.62
423.398	591.62
423.621	582.62
423.843	605.62
424.066	621.62
424.288	599.62
424.511	620.62
424.733	674.62
424.956	748.62
425.178	725.62
425.401	720.62
425.623	721.62
425.846	640.62
426.068	615.62
426.291	590.62
426.513	591.62
426.735	607.62
426.958	637.62
427.18	746.62
427.402	892.62
427.625	951.62
427.847	823.62
428.069	718.62
428.292	657.62
428.514	588.62
428.736	580.62
428.958	554.62
429.181	559.62
429.403	536.62
429.625	549.62
429.847	619.62
430.069	664.62
430.292	662.62
430.514	592.62
430.736	578.62
430.958	547.62
431.18	556.62
431.402	547.62
431.624	525.62
431.846	543.62
432.068	521.62
432.29	541.62
432.512	536.62
432.734	546.62
432.956	545.62
433.178	546.62
433.4	571.62
433.622	543.62
433.844	533.62
434.066	536.62
434.287	561.62
434.509	559.62
434.731	540.62
434.953	550.62
435.175	559.62
435.397	599.62
435.618	620.62
435.84	656.62
436.062	738.62
436.284	803.62
436.505	662.62
436.727	635.62
436.949	556.62
437.17	549.62
437.392	570.62
437.614	589.62
437.835	597.62
438.057	713.62
438.278	792.62
438.5	827.62
438.721	882.62
438.943	864.62
439.165	666.62
439.386	617.62
439.608	594.62
439.829	584.62
440.05	640.62
440.272	709.62
440.493	642.62
440.715	592.62
440.936	590.62
441.158	555.62
441.379	556.62
441.6	606.62
441.822	602.62
442.043	640.62
442.264	727.62
442.486	776.62
442.707	669.62
442.928	614.62
443.149	630.62
443.371	642.62
443.592	678.62
443.813	783.62
444.034	868.62
444.255	724.62
444.476	675.62
444.698	627.62
444.919	614.62
445.14	694.62
445.361	644.62
445.582	667.62
445.803	686.62
446.024	780.62
446.245	803.62
446.466	752.62
446.687	663.62
446.908	600.62
447.129	577.62
447.35	578.62
447.571	575.62
447.792	556.62
448.013	533.62
448.234	576.62
448.455	628.62
448.675	721.62
448.896	836.62
449.117	716.62
449.338	710.62
449.559	806.62
449.779	906.62
450	744.62
450.221	621.62
450.442	582.62
450.662	544.62
450.883	528.62
451.104	551.62
451.324	562.62
451.545	514.62
451.766	529.62
451.986	514.62
452.207	482.62
452.428	508.62
452.648	495.62
452.869	494.62
453.089	506.62
453.31	549.62
453.53	514.62
453.751	502.62
453.971	488.62
454.192	524.62
454.412	510.62
454.633	495.62
454.853	490.62
455.073	509.62
455.294	516.62
455.514	590.62
455.734	584.62
455.955	532.62
456.175	467.62
456.395	459.62
456.616	485.62
456.836	484.62
457.056	469.62
457.276	472.62
457.497	487.62
457.717	455.62
457.937	475.62
458.157	486.62
458.377	470.62
458.598	523.62
458.818	559.62
459.038	641.62
459.258	648.62
459.478	591.62
459.698	530.62
459.918	511.62
460.138	534.62
460.358	544.62
460.578	514.62
460.798	542.62
461.018	544.62
461.238	559.62
461.458	534.62
461.678	551.62
461.898	566.62
462.118	564.62
462.338	571.62
462.558	553.62
462.777	599.62
462.997	578.62
463.217	607.62
463.437	613.62
463.657	586.62
463.876	594.62
464.096	586.62
464.316	587.62
464.536	600.62
464.755	587.62
464.975	577.62
465.195	612.62
465.414	664.62
465.634	617.62
465.854	607.62
466.073	554.62
466.293	540.62
466.512	540.62
466.732	515.62
466.951	520.62
467.171	528.62
467.391	527.62
467.61	534.62
467.829	536.62
468.049	508.62
468.268	542.62
468.488	515.62
468.707	524.62
468.927	504.62
469.146	505.62
469.365	512.62
469.585	504.62
469.804	511.62
470.023	522.62
470.243	537.62
470.462	551.62
470.681	526.62
470.901	542.62
471.12	513.62
471.339	534.62
471.558	551.62
471.777	543.62
471.997	520.62
472.216	510.62
472.435	546.62
472.654	545.62
472.873	509.62
473.092	524.62
473.311	525.62
473.53	526.62
473.749	534.62
473.968	593.62
474.187	682.62
474.406	705.62
474.625	576.62
474.844	536.62
475.063	522.62
475.282	528.62
475.501	525.62
475.72	527.62
475.939	540.62
476.158	554.62
476.377	565.62
476.596	555.62
476.814	565.62
477.033	568.62
477.252	574.62
477.471	571.62
477.69	562.62
477.908	582.62
478.127	596.62
478.346	586.62
478.564	594.62
478.783	576.62
479.002	612.62
479.22	591.62
479.439	600.62
479.658	630.62
479.876	632.62
480.095	633.62
480.313	678.62
480.532	669.62
480.751	666.62
480.969	674.62
481.188	721.62
481.406	763.62
481.624	670.62
481.843	634.62
482.061	643.62
482.28	635.62
482.498	630.62
482.717	602.62
482.935	628.62
483.153	621.62
483.372	625.62
483.59	636.62
483.808	619.62
484.027	638.62
484.245	618.62
484.463	621.62
484.681	637.62
484.9	610.62
485.118	626.62
485.336	634.62
485.554	616.62
485.772	644.62
485.99	654.62
486.209	623.62
486.427	644.62
486.645	640.62
486.863	668.62
487.081	670.62
487.299	664.62
487.517	660.62
487.735	672.62
487.953	670.62
488.171	686.62
488.389	682.62
488.607	685.62
488.825	660.62
489.043	664.62
489.261	673.62
489.479	683.62
489.696	698.62
489.914	694.62
490.132	676.62
490.35	714.62
490.568	678.62
490.786	695.62
491.003	709.62
491.221	744.62
491.439	734.62
491.657	738.62
491.874	739.62
492.092	751.62
492.31	759.62
492.527	772.62
492.745	764.62
492.963	782.62
493.18	784.62
493.398	764.62
493.615	780.62
493.833	785.62
494.05	740.62
494.268	788.62
494.485	785.62
494.703	767.62
494.92	799.62
495.138	775.62
495.355	777.62
495.573	779.62
495.79	771.62
496.008	823.62
496.225	803.62
496.442	808.62
496.66	809.62
496.877	777.62
497.094	798.62
497.312	826.62
497.529	806.62
497.746	839.62
497.963	844.62
498.181	877.62
498.398	886.62
498.615	900.62
498.832	889.62
499.049	907.62
499.267	933.62
499.484	988.62
499.701	1000.62
499.918	1075.62
500.135	1082.62
500.352	1185.62
500.569	1182.62
500.786	1159.62
501.003	1174.62
501.22	1115.62
501.437	1094.62
501.654	1049.62
