Data from 1966.PennyLincolnUp.Lamp.En5.5.200Scan.071719.P1.Scan2.head_HRD10591_14-17-41-127.txt Node
Date: Thu Jul 18 14:17:41 EDT 2019
User: cochatt
Spectrometer: HR+D1059
Trigger mode: 1
Integration Time (sec): 1.000000E-1
Scans to average: 1
Electric dark correction enabled: true
Nonlinearity correction enabled: false
Boxcar width: 0
XAxis mode: Wavelengths
Number of Pixels in Spectrum: 2048
>>>>>Begin Spectral Data<<<<<
223.165	-4.31
223.4	-4.31
223.635	-4.31
223.869	-13.31
224.104	-22.31
224.338	-19.31
224.573	-2.31
224.808	-20.31
225.042	-17.31
225.277	0.69
225.511	-13.31
225.746	2.69
225.98	7.69
226.215	-0.31
226.449	17.69
226.683	27.69
226.918	24.69
227.152	31.69
227.387	40.69
227.621	25.69
227.856	31.69
228.09	49.69
228.324	56.69
228.559	45.69
228.793	68.69
229.027	84.69
229.262	92.69
229.496	106.69
229.73	132.69
229.964	150.69
230.199	131.69
230.433	110.69
230.667	118.69
230.901	119.69
231.136	96.69
231.37	111.69
231.604	110.69
231.838	105.69
232.072	121.69
232.306	117.69
232.541	114.69
232.775	104.69
233.009	118.69
233.243	109.69
233.477	125.69
233.711	118.69
233.945	127.69
234.179	110.69
234.413	124.69
234.647	120.69
234.881	124.69
235.115	116.69
235.349	124.69
235.583	124.69
235.817	108.69
236.051	126.69
236.285	127.69
236.519	131.69
236.753	133.69
236.987	151.69
237.221	172.69
237.455	234.69
237.689	179.69
237.922	139.69
238.156	133.69
238.39	128.69
238.624	124.69
238.858	127.69
239.091	122.69
239.325	142.69
239.559	119.69
239.793	126.69
240.027	155.69
240.26	151.69
240.494	163.69
240.728	163.69
240.961	147.69
241.195	156.69
241.429	137.69
241.662	133.69
241.896	133.69
242.13	137.69
242.363	145.69
242.597	118.69
242.83	140.69
243.064	142.69
243.298	162.69
243.531	152.69
243.765	136.69
243.998	125.69
244.232	152.69
244.465	137.69
244.699	143.69
244.932	148.69
245.166	151.69
245.399	158.69
245.633	165.69
245.866	139.69
246.099	143.69
246.333	147.69
246.566	149.69
246.8	148.69
247.033	165.69
247.266	153.69
247.5	151.69
247.733	165.69
247.966	179.69
248.2	183.69
248.433	158.69
248.666	177.69
248.899	173.69
249.133	189.69
249.366	198.69
249.599	178.69
249.832	180.69
250.066	177.69
250.299	177.69
250.532	182.69
250.765	207.69
250.998	217.69
251.231	212.69
251.465	223.69
251.698	191.69
251.931	197.69
252.164	189.69
252.397	189.69
252.63	186.69
252.863	188.69
253.096	214.69
253.329	212.69
253.562	213.69
253.795	213.69
254.028	219.69
254.261	210.69
254.494	225.69
254.727	248.69
254.96	286.69
255.193	268.69
255.426	233.69
255.659	226.69
255.892	238.69
256.124	228.69
256.357	223.69
256.59	227.69
256.823	234.69
257.056	223.69
257.289	225.69
257.521	214.69
257.754	220.69
257.987	210.69
258.22	215.69
258.452	199.69
258.685	201.69
258.918	213.69
259.151	215.69
259.383	223.69
259.616	234.69
259.849	214.69
260.081	230.69
260.314	241.69
260.547	263.69
260.779	254.69
261.012	229.69
261.244	211.69
261.477	229.69
261.71	228.69
261.942	216.69
262.175	238.69
262.407	217.69
262.64	230.69
262.872	222.69
263.105	221.69
263.337	220.69
263.57	214.69
263.802	229.69
264.035	225.69
264.267	217.69
264.499	222.69
264.732	226.69
264.964	214.69
265.197	207.69
265.429	218.69
265.661	221.69
265.894	202.69
266.126	211.69
266.358	226.69
266.591	233.69
266.823	223.69
267.055	226.69
267.287	227.69
267.52	242.69
267.752	229.69
267.984	238.69
268.216	218.69
268.448	249.69
268.681	237.69
268.913	250.69
269.145	272.69
269.377	271.69
269.609	285.69
269.841	250.69
270.073	273.69
270.306	277.69
270.538	303.69
270.77	311.69
271.002	321.69
271.234	299.69
271.466	290.69
271.698	296.69
271.93	313.69
272.162	313.69
272.394	329.69
272.626	317.69
272.858	286.69
273.09	286.69
273.322	272.69
273.553	269.69
273.785	257.69
274.017	267.69
274.249	262.69
274.481	241.69
274.713	259.69
274.945	260.69
275.176	235.69
275.408	269.69
275.64	251.69
275.872	261.69
276.104	257.69
276.335	274.69
276.567	278.69
276.799	293.69
277.031	290.69
277.262	293.69
277.494	303.69
277.726	307.69
277.957	299.69
278.189	305.69
278.421	267.69
278.652	244.69
278.884	275.69
279.115	272.69
279.347	281.69
279.579	284.69
279.81	272.69
280.042	257.69
280.273	269.69
280.505	258.69
280.736	250.69
280.968	277.69
281.199	250.69
281.431	276.69
281.662	266.69
281.894	265.69
282.125	283.69
282.356	309.69
282.588	308.69
282.819	307.69
283.051	297.69
283.282	277.69
283.513	267.69
283.745	278.69
283.976	291.69
284.207	299.69
284.439	279.69
284.67	277.69
284.901	277.69
285.132	286.69
285.364	289.69
285.595	273.69
285.826	281.69
286.057	296.69
286.288	282.69
286.52	274.69
286.751	268.69
286.982	275.69
287.213	287.69
287.444	273.69
287.675	285.69
287.906	273.69
288.138	314.69
288.369	319.69
288.6	305.69
288.831	299.69
289.062	289.69
289.293	306.69
289.524	308.69
289.755	277.69
289.986	270.69
290.217	294.69
290.448	277.69
290.679	284.69
290.91	281.69
291.141	290.69
291.371	289.69
291.602	293.69
291.833	293.69
292.064	300.69
292.295	296.69
292.526	322.69
292.757	299.69
292.987	270.69
293.218	282.69
293.449	301.69
293.68	295.69
293.91	269.69
294.141	289.69
294.372	300.69
294.603	298.69
294.833	294.69
295.064	291.69
295.295	305.69
295.525	302.69
295.756	301.69
295.987	297.69
296.217	322.69
296.448	341.69
296.679	315.69
296.909	321.69
297.14	300.69
297.37	306.69
297.601	311.69
297.831	315.69
298.062	311.69
298.292	319.69
298.523	324.69
298.753	322.69
298.984	284.69
299.214	321.69
299.445	298.69
299.675	323.69
299.905	316.69
300.136	327.69
300.366	331.69
300.597	324.69
300.827	305.69
301.057	322.69
301.288	339.69
301.518	342.69
301.748	313.69
301.979	344.69
302.209	334.69
302.439	319.69
302.669	341.69
302.9	333.69
303.13	303.69
303.36	357.69
303.59	332.69
303.82	324.69
304.051	358.69
304.281	317.69
304.511	337.69
304.741	320.69
304.971	325.69
305.201	322.69
305.431	346.69
305.661	332.69
305.891	329.69
306.121	328.69
306.352	350.69
306.582	340.69
306.812	334.69
307.042	330.69
307.272	334.69
307.502	334.69
307.731	350.69
307.961	327.69
308.191	324.69
308.421	338.69
308.651	346.69
308.881	333.69
309.111	336.69
309.341	346.69
309.571	344.69
309.8	382.69
310.03	373.69
310.26	366.69
310.49	377.69
310.72	364.69
310.949	383.69
311.179	387.69
311.409	385.69
311.639	376.69
311.868	363.69
312.098	382.69
312.328	373.69
312.557	388.69
312.787	421.69
313.017	397.69
313.246	406.69
313.476	382.69
313.706	367.69
313.935	381.69
314.165	387.69
314.394	386.69
314.624	387.69
314.853	396.69
315.083	393.69
315.312	378.69
315.542	373.69
315.771	398.69
316.001	362.69
316.23	367.69
316.46	387.69
316.689	385.69
316.919	378.69
317.148	392.69
317.377	378.69
317.607	377.69
317.836	384.69
318.065	396.69
318.295	363.69
318.524	393.69
318.753	378.69
318.983	372.69
319.212	377.69
319.441	376.69
319.67	408.69
319.9	388.69
320.129	382.69
320.358	370.69
320.587	380.69
320.816	387.69
321.046	419.69
321.275	405.69
321.504	409.69
321.733	419.69
321.962	395.69
322.191	407.69
322.42	423.69
322.649	431.69
322.878	437.69
323.108	453.69
323.337	463.69
323.566	483.69
323.795	493.69
324.024	546.69
324.253	662.69
324.482	887.69
324.71	1458.69
324.939	2094.69
325.168	1873.69
325.397	929.69
325.626	619.69
325.855	545.69
326.084	485.69
326.313	470.69
326.542	492.69
326.77	527.69
326.999	597.69
327.228	846.69
327.457	1293.69
327.686	1597.69
327.914	1071.69
328.143	695.69
328.372	614.69
328.6	566.69
328.829	543.69
329.058	561.69
329.287	577.69
329.515	531.69
329.744	515.69
329.972	520.69
330.201	536.69
330.43	558.69
330.658	603.69
330.887	591.69
331.115	574.69
331.344	503.69
331.572	485.69
331.801	504.69
332.03	483.69
332.258	491.69
332.486	481.69
332.715	477.69
332.943	461.69
333.172	443.69
333.4	444.69
333.629	465.69
333.857	489.69
334.085	486.69
334.314	499.69
334.542	550.69
334.771	546.69
334.999	532.69
335.227	510.69
335.455	476.69
335.684	441.69
335.912	453.69
336.14	440.69
336.369	484.69
336.597	472.69
336.825	467.69
337.053	479.69
337.281	483.69
337.51	469.69
337.738	479.69
337.966	450.69
338.194	462.69
338.422	459.69
338.65	436.69
338.878	437.69
339.106	437.69
339.334	458.69
339.562	446.69
339.79	461.69
340.018	434.69
340.246	430.69
340.474	445.69
340.702	458.69
340.93	444.69
341.158	440.69
341.386	467.69
341.614	445.69
341.842	451.69
342.07	428.69
342.298	425.69
342.526	450.69
342.754	433.69
342.981	448.69
343.209	423.69
343.437	453.69
343.665	446.69
343.893	451.69
344.12	470.69
344.348	468.69
344.576	435.69
344.804	455.69
345.031	482.69
345.259	470.69
345.487	467.69
345.714	463.69
345.942	433.69
346.17	423.69
346.397	435.69
346.625	429.69
346.853	430.69
347.08	424.69
347.308	438.69
347.535	451.69
347.763	446.69
347.99	437.69
348.218	435.69
348.445	418.69
348.673	421.69
348.9	429.69
349.128	425.69
349.355	413.69
349.583	418.69
349.81	423.69
350.037	421.69
350.265	411.69
350.492	407.69
350.72	418.69
350.947	411.69
351.174	435.69
351.402	443.69
351.629	428.69
351.856	434.69
352.083	442.69
352.311	444.69
352.538	443.69
352.765	437.69
352.992	439.69
353.22	439.69
353.447	444.69
353.674	438.69
353.901	424.69
354.128	399.69
354.355	436.69
354.583	409.69
354.81	418.69
355.037	414.69
355.264	403.69
355.491	409.69
355.718	393.69
355.945	404.69
356.172	407.69
356.399	417.69
356.626	397.69
356.853	397.69
357.08	400.69
357.307	397.69
357.534	397.69
357.761	413.69
357.988	433.69
358.215	426.69
358.441	425.69
358.668	422.69
358.895	413.69
359.122	415.69
359.349	420.69
359.576	441.69
359.802	460.69
360.029	467.69
360.256	479.69
360.483	478.69
360.709	448.69
360.936	454.69
361.163	428.69
361.39	435.69
361.616	427.69
361.843	435.69
362.07	443.69
362.296	440.69
362.523	442.69
362.749	430.69
362.976	445.69
363.203	441.69
363.429	406.69
363.656	435.69
363.882	435.69
364.109	390.69
364.335	450.69
364.562	433.69
364.788	423.69
365.015	418.69
365.241	411.69
365.468	441.69
365.694	438.69
365.92	433.69
366.147	441.69
366.373	427.69
366.599	428.69
366.826	429.69
367.052	421.69
367.278	435.69
367.505	409.69
367.731	403.69
367.957	440.69
368.184	443.69
368.41	426.69
368.636	467.69
368.862	447.69
369.089	444.69
369.315	429.69
369.541	435.69
369.767	423.69
369.993	445.69
370.219	437.69
370.445	418.69
370.672	431.69
370.898	433.69
371.124	425.69
371.35	435.69
371.576	419.69
371.802	453.69
372.028	411.69
372.254	418.69
372.48	422.69
372.706	441.69
372.932	415.69
373.158	421.69
373.384	424.69
373.61	428.69
373.835	454.69
374.061	447.69
374.287	443.69
374.513	434.69
374.739	431.69
374.965	428.69
375.191	450.69
375.416	461.69
375.642	445.69
375.868	429.69
376.094	436.69
376.319	442.69
376.545	439.69
376.771	434.69
376.997	430.69
377.222	421.69
377.448	413.69
377.674	419.69
377.899	410.69
378.125	423.69
378.35	418.69
378.576	418.69
378.802	435.69
379.027	427.69
379.253	439.69
379.478	423.69
379.704	408.69
379.929	437.69
380.155	426.69
380.38	428.69
380.606	429.69
380.831	427.69
381.057	444.69
381.282	447.69
381.507	448.69
381.733	435.69
381.958	434.69
382.184	457.69
382.409	450.69
382.634	456.69
382.86	454.69
383.085	455.69
383.31	465.69
383.535	459.69
383.761	440.69
383.986	452.69
384.211	451.69
384.436	481.69
384.662	453.69
384.887	481.69
385.112	450.69
385.337	497.69
385.562	479.69
385.787	466.69
386.013	505.69
386.238	497.69
386.463	503.69
386.688	476.69
386.913	470.69
387.138	483.69
387.363	475.69
387.588	490.69
387.813	471.69
388.038	458.69
388.263	477.69
388.488	476.69
388.713	471.69
388.938	510.69
389.163	485.69
389.387	476.69
389.612	497.69
389.837	481.69
390.062	470.69
390.287	470.69
390.512	495.69
390.736	484.69
390.961	468.69
391.186	486.69
391.411	506.69
391.636	479.69
391.86	489.69
392.085	507.69
392.31	517.69
392.534	518.69
392.759	524.69
392.984	510.69
393.208	505.69
393.433	481.69
393.658	485.69
393.882	485.69
394.107	486.69
394.331	491.69
394.556	495.69
394.78	522.69
395.005	510.69
395.229	490.69
395.454	496.69
395.678	526.69
395.903	531.69
396.127	550.69
396.352	548.69
396.576	534.69
396.801	520.69
397.025	509.69
397.249	520.69
397.474	534.69
397.698	535.69
397.922	552.69
398.147	541.69
398.371	571.69
398.595	572.69
398.82	545.69
399.044	548.69
399.268	582.69
399.492	612.69
399.717	647.69
399.941	671.69
400.165	701.69
400.389	689.69
400.613	620.69
400.837	595.69
401.062	585.69
401.286	563.69
401.51	588.69
401.734	579.69
401.958	575.69
402.182	572.69
402.406	608.69
402.63	577.69
402.854	579.69
403.078	603.69
403.302	587.69
403.526	594.69
403.75	589.69
403.974	589.69
404.198	585.69
404.422	576.69
404.645	595.69
404.869	597.69
405.093	633.69
405.317	660.69
405.541	693.69
405.765	653.69
405.988	620.69
406.212	615.69
406.436	641.69
406.66	655.69
406.883	630.69
407.107	691.69
407.331	703.69
407.555	760.69
407.778	763.69
408.002	696.69
408.226	638.69
408.449	641.69
408.673	640.69
408.896	683.69
409.12	713.69
409.344	674.69
409.567	615.69
409.791	609.69
410.014	595.69
410.238	591.69
410.461	589.69
410.685	571.69
410.908	603.69
411.132	636.69
411.355	673.69
411.578	642.69
411.802	581.69
412.025	582.69
412.249	591.69
412.472	635.69
412.695	647.69
412.919	644.69
413.142	578.69
413.365	572.69
413.589	579.69
413.812	572.69
414.035	571.69
414.258	577.69
414.482	561.69
414.705	560.69
414.928	566.69
415.151	559.69
415.374	580.69
415.597	549.69
415.821	549.69
416.044	570.69
416.267	563.69
416.49	543.69
416.713	548.69
416.936	557.69
417.159	554.69
417.382	563.69
417.605	574.69
417.828	572.69
418.051	581.69
418.274	585.69
418.497	539.69
418.72	554.69
418.943	566.69
419.166	585.69
419.389	615.69
419.611	602.69
419.834	611.69
420.057	599.69
420.28	591.69
420.503	587.69
420.726	574.69
420.948	553.69
421.171	614.69
421.394	670.69
421.617	618.69
421.839	588.69
422.062	587.69
422.285	589.69
422.507	667.69
422.73	732.69
422.953	706.69
423.175	639.69
423.398	629.69
423.621	589.69
423.843	623.69
424.066	656.69
424.288	628.69
424.511	637.69
424.733	686.69
424.956	789.69
425.178	753.69
425.401	743.69
425.623	781.69
425.846	684.69
426.068	625.69
426.291	629.69
426.513	596.69
426.735	634.69
426.958	673.69
427.18	748.69
427.402	885.69
427.625	996.69
427.847	854.69
428.069	734.69
428.292	655.69
428.514	627.69
428.736	578.69
428.958	597.69
429.181	571.69
429.403	566.69
429.625	571.69
429.847	625.69
430.069	687.69
430.292	685.69
430.514	584.69
430.736	557.69
430.958	568.69
431.18	554.69
431.402	546.69
431.624	516.69
431.846	512.69
432.068	543.69
432.29	557.69
432.512	529.69
432.734	552.69
432.956	559.69
433.178	527.69
433.4	571.69
433.622	574.69
433.844	533.69
434.066	543.69
434.287	567.69
434.509	567.69
434.731	552.69
434.953	558.69
435.175	584.69
435.397	616.69
435.618	628.69
435.84	670.69
436.062	749.69
436.284	839.69
436.505	695.69
436.727	623.69
436.949	616.69
437.17	590.69
437.392	579.69
437.614	601.69
437.835	621.69
438.057	725.69
438.278	839.69
438.5	840.69
438.721	914.69
438.943	894.69
439.165	676.69
439.386	648.69
439.608	639.69
439.829	617.69
440.05	655.69
440.272	691.69
440.493	663.69
440.715	619.69
440.936	590.69
441.158	574.69
441.379	590.69
441.6	603.69
441.822	622.69
442.043	675.69
442.264	783.69
442.486	767.69
442.707	673.69
442.928	639.69
443.149	649.69
443.371	677.69
443.592	704.69
443.813	798.69
444.034	894.69
444.255	692.69
444.476	643.69
444.698	647.69
444.919	630.69
445.14	737.69
445.361	669.69
445.582	655.69
445.803	730.69
446.024	849.69
446.245	842.69
446.466	778.69
446.687	671.69
446.908	605.69
447.129	600.69
447.35	595.69
447.571	544.69
447.792	574.69
448.013	586.69
448.234	617.69
448.455	646.69
448.675	774.69
448.896	877.69
449.117	761.69
449.338	703.69
449.559	826.69
449.779	952.69
450	743.69
450.221	623.69
450.442	600.69
450.662	557.69
450.883	571.69
451.104	598.69
451.324	565.69
451.545	571.69
451.766	538.69
451.986	506.69
452.207	519.69
452.428	520.69
452.648	503.69
452.869	525.69
453.089	517.69
453.31	528.69
453.53	499.69
453.751	498.69
453.971	514.69
454.192	526.69
454.412	509.69
454.633	522.69
454.853	487.69
455.073	520.69
455.294	540.69
455.514	600.69
455.734	596.69
455.955	495.69
456.175	497.69
456.395	501.69
456.616	487.69
456.836	500.69
457.056	497.69
457.276	476.69
457.497	465.69
457.717	494.69
457.937	497.69
458.157	481.69
458.377	514.69
458.598	510.69
458.818	605.69
459.038	681.69
459.258	686.69
459.478	592.69
459.698	574.69
459.918	562.69
460.138	549.69
460.358	539.69
460.578	560.69
460.798	574.69
461.018	562.69
461.238	568.69
461.458	559.69
461.678	567.69
461.898	570.69
462.118	573.69
462.338	589.69
462.558	583.69
462.777	589.69
462.997	603.69
463.217	607.69
463.437	614.69
463.657	617.69
463.876	616.69
464.096	619.69
464.316	623.69
464.536	622.69
464.755	612.69
464.975	613.69
465.195	604.69
465.414	693.69
465.634	607.69
465.854	596.69
466.073	572.69
466.293	580.69
466.512	524.69
466.732	538.69
466.951	523.69
467.171	517.69
467.391	553.69
467.61	534.69
467.829	532.69
468.049	523.69
468.268	535.69
468.488	513.69
468.707	503.69
468.927	519.69
469.146	501.69
469.365	501.69
469.585	528.69
469.804	525.69
470.023	559.69
470.243	533.69
470.462	543.69
470.681	569.69
470.901	533.69
471.12	555.69
471.339	568.69
471.558	565.69
471.777	536.69
471.997	540.69
472.216	558.69
472.435	589.69
472.654	562.69
472.873	537.69
473.092	533.69
473.311	535.69
473.53	539.69
473.749	535.69
473.968	588.69
474.187	699.69
474.406	691.69
474.625	603.69
474.844	555.69
475.063	542.69
475.282	557.69
475.501	550.69
475.72	569.69
475.939	563.69
476.158	544.69
476.377	567.69
476.596	557.69
476.814	586.69
477.033	569.69
477.252	569.69
477.471	586.69
477.69	568.69
477.908	588.69
478.127	585.69
478.346	610.69
478.564	609.69
478.783	611.69
479.002	611.69
479.22	613.69
479.439	641.69
479.658	637.69
479.876	663.69
480.095	666.69
480.313	686.69
480.532	673.69
480.751	649.69
480.969	687.69
481.188	728.69
481.406	748.69
481.624	685.69
481.843	661.69
482.061	650.69
482.28	643.69
482.498	652.69
482.717	637.69
482.935	641.69
483.153	645.69
483.372	638.69
483.59	653.69
483.808	649.69
484.027	649.69
484.245	654.69
484.463	626.69
484.681	636.69
484.9	638.69
485.118	640.69
485.336	654.69
485.554	639.69
485.772	641.69
485.99	661.69
486.209	661.69
486.427	671.69
486.645	670.69
486.863	674.69
487.081	672.69
487.299	675.69
487.517	669.69
487.735	659.69
487.953	669.69
488.171	670.69
488.389	637.69
488.607	675.69
488.825	701.69
489.043	675.69
489.261	691.69
489.479	682.69
489.696	693.69
489.914	698.69
490.132	692.69
490.35	721.69
490.568	696.69
490.786	725.69
491.003	740.69
491.221	746.69
491.439	746.69
491.657	738.69
491.874	757.69
492.092	814.69
492.31	798.69
492.527	774.69
492.745	786.69
492.963	780.69
493.18	769.69
493.398	794.69
493.615	811.69
493.833	806.69
494.05	805.69
494.268	801.69
494.485	800.69
494.703	792.69
494.92	791.69
495.138	800.69
495.355	803.69
495.573	794.69
495.79	802.69
496.008	810.69
496.225	820.69
496.442	793.69
496.66	797.69
496.877	828.69
497.094	835.69
497.312	802.69
497.529	822.69
497.746	832.69
497.963	855.69
498.181	867.69
498.398	885.69
498.615	915.69
498.832	952.69
499.049	949.69
499.267	943.69
499.484	996.69
499.701	1030.69
499.918	1076.69
500.135	1104.69
500.352	1164.69
500.569	1155.69
500.786	1190.69
501.003	1187.69
501.22	1143.69
501.437	1108.69
501.654	1061.69
