Data from 1966.PennyLincolnUp.Lamp.En5.5.200Scan.071719.P1.Scan2.head_HRD10591_14-17-04-079.txt Node
Date: Thu Jul 18 14:17:04 EDT 2019
User: cochatt
Spectrometer: HR+D1059
Trigger mode: 1
Integration Time (sec): 1.000000E-1
Scans to average: 1
Electric dark correction enabled: true
Nonlinearity correction enabled: false
Boxcar width: 0
XAxis mode: Wavelengths
Number of Pixels in Spectrum: 2048
>>>>>Begin Spectral Data<<<<<
223.165	-1.94
223.4	-1.94
223.635	-1.94
223.869	-12.94
224.104	-26.94
224.338	-23.94
224.573	-16.94
224.808	-13.94
225.042	-3.94
225.277	-10.94
225.511	-9.94
225.746	19.06
225.98	3.06
226.215	10.06
226.449	14.06
226.683	24.06
226.918	27.06
227.152	24.06
227.387	38.06
227.621	33.06
227.856	30.06
228.09	43.06
228.324	48.06
228.559	51.06
228.793	66.06
229.027	96.06
229.262	109.06
229.496	103.06
229.73	134.06
229.964	150.06
230.199	115.06
230.433	103.06
230.667	106.06
230.901	108.06
231.136	106.06
231.37	109.06
231.604	115.06
231.838	116.06
232.072	119.06
232.306	99.06
232.541	116.06
232.775	108.06
233.009	122.06
233.243	122.06
233.477	120.06
233.711	112.06
233.945	114.06
234.179	118.06
234.413	116.06
234.647	114.06
234.881	115.06
235.115	120.06
235.349	120.06
235.583	119.06
235.817	113.06
236.051	125.06
236.285	126.06
236.519	107.06
236.753	114.06
236.987	133.06
237.221	169.06
237.455	218.06
237.689	182.06
237.922	130.06
238.156	132.06
238.39	130.06
238.624	114.06
238.858	126.06
239.091	121.06
239.325	126.06
239.559	135.06
239.793	136.06
240.027	127.06
240.26	127.06
240.494	144.06
240.728	152.06
240.961	126.06
241.195	145.06
241.429	139.06
241.662	135.06
241.896	140.06
242.13	133.06
242.363	130.06
242.597	118.06
242.83	134.06
243.064	152.06
243.298	138.06
243.531	138.06
243.765	151.06
243.998	148.06
244.232	129.06
244.465	142.06
244.699	151.06
244.932	134.06
245.166	126.06
245.399	143.06
245.633	146.06
245.866	128.06
246.099	142.06
246.333	156.06
246.566	152.06
246.8	149.06
247.033	157.06
247.266	164.06
247.5	154.06
247.733	160.06
247.966	181.06
248.2	143.06
248.433	155.06
248.666	164.06
248.899	176.06
249.133	184.06
249.366	198.06
249.599	186.06
249.832	192.06
250.066	183.06
250.299	198.06
250.532	181.06
250.765	196.06
250.998	189.06
251.231	219.06
251.465	205.06
251.698	209.06
251.931	182.06
252.164	198.06
252.397	191.06
252.63	190.06
252.863	184.06
253.096	214.06
253.329	209.06
253.562	237.06
253.795	212.06
254.028	227.06
254.261	199.06
254.494	205.06
254.727	227.06
254.96	269.06
255.193	239.06
255.426	243.06
255.659	238.06
255.892	230.06
256.124	233.06
256.357	233.06
256.59	226.06
256.823	218.06
257.056	209.06
257.289	206.06
257.521	202.06
257.754	194.06
257.987	206.06
258.22	192.06
258.452	200.06
258.685	207.06
258.918	205.06
259.151	215.06
259.383	216.06
259.616	215.06
259.849	219.06
260.081	211.06
260.314	233.06
260.547	235.06
260.779	237.06
261.012	225.06
261.244	219.06
261.477	215.06
261.71	214.06
261.942	215.06
262.175	229.06
262.407	220.06
262.64	194.06
262.872	205.06
263.105	211.06
263.337	221.06
263.57	212.06
263.802	205.06
264.035	188.06
264.267	202.06
264.499	198.06
264.732	201.06
264.964	210.06
265.197	217.06
265.429	207.06
265.661	214.06
265.894	206.06
266.126	196.06
266.358	199.06
266.591	212.06
266.823	218.06
267.055	223.06
267.287	233.06
267.52	231.06
267.752	219.06
267.984	220.06
268.216	215.06
268.448	237.06
268.681	223.06
268.913	228.06
269.145	259.06
269.377	262.06
269.609	255.06
269.841	248.06
270.073	259.06
270.306	255.06
270.538	287.06
270.77	281.06
271.002	284.06
271.234	266.06
271.466	282.06
271.698	286.06
271.93	292.06
272.162	286.06
272.394	298.06
272.626	279.06
272.858	255.06
273.09	273.06
273.322	260.06
273.553	246.06
273.785	264.06
274.017	247.06
274.249	256.06
274.481	262.06
274.713	239.06
274.945	247.06
275.176	249.06
275.408	248.06
275.64	248.06
275.872	259.06
276.104	274.06
276.335	252.06
276.567	263.06
276.799	265.06
277.031	302.06
277.262	300.06
277.494	314.06
277.726	278.06
277.957	262.06
278.189	250.06
278.421	254.06
278.652	272.06
278.884	265.06
279.115	259.06
279.347	252.06
279.579	260.06
279.81	235.06
280.042	265.06
280.273	261.06
280.505	263.06
280.736	257.06
280.968	235.06
281.199	282.06
281.431	280.06
281.662	262.06
281.894	253.06
282.125	261.06
282.356	283.06
282.588	300.06
282.819	282.06
283.051	278.06
283.282	271.06
283.513	278.06
283.745	266.06
283.976	269.06
284.207	281.06
284.439	277.06
284.67	287.06
284.901	281.06
285.132	272.06
285.364	258.06
285.595	270.06
285.826	273.06
286.057	281.06
286.288	267.06
286.52	249.06
286.751	264.06
286.982	279.06
287.213	275.06
287.444	268.06
287.675	292.06
287.906	286.06
288.138	278.06
288.369	289.06
288.6	299.06
288.831	295.06
289.062	283.06
289.293	285.06
289.524	290.06
289.755	279.06
289.986	293.06
290.217	287.06
290.448	285.06
290.679	305.06
290.91	284.06
291.141	269.06
291.371	287.06
291.602	294.06
291.833	286.06
292.064	281.06
292.295	285.06
292.526	282.06
292.757	278.06
292.987	279.06
293.218	278.06
293.449	281.06
293.68	300.06
293.91	296.06
294.141	295.06
294.372	303.06
294.603	294.06
294.833	284.06
295.064	288.06
295.295	298.06
295.525	302.06
295.756	298.06
295.987	295.06
296.217	311.06
296.448	296.06
296.679	310.06
296.909	297.06
297.14	286.06
297.37	296.06
297.601	288.06
297.831	294.06
298.062	308.06
298.292	289.06
298.523	292.06
298.753	294.06
298.984	290.06
299.214	283.06
299.445	303.06
299.675	300.06
299.905	298.06
300.136	295.06
300.366	312.06
300.597	305.06
300.827	297.06
301.057	299.06
301.288	317.06
301.518	327.06
301.748	320.06
301.979	326.06
302.209	334.06
302.439	311.06
302.669	314.06
302.9	308.06
303.13	312.06
303.36	341.06
303.59	309.06
303.82	332.06
304.051	329.06
304.281	310.06
304.511	299.06
304.741	317.06
304.971	313.06
305.201	295.06
305.431	333.06
305.661	330.06
305.891	311.06
306.121	314.06
306.352	320.06
306.582	319.06
306.812	314.06
307.042	329.06
307.272	344.06
307.502	335.06
307.731	307.06
307.961	330.06
308.191	323.06
308.421	316.06
308.651	352.06
308.881	347.06
309.111	322.06
309.341	333.06
309.571	333.06
309.8	334.06
310.03	356.06
310.26	357.06
310.49	340.06
310.72	370.06
310.949	364.06
311.179	398.06
311.409	359.06
311.639	352.06
311.868	362.06
312.098	356.06
312.328	361.06
312.557	365.06
312.787	378.06
313.017	392.06
313.246	378.06
313.476	355.06
313.706	336.06
313.935	381.06
314.165	358.06
314.394	396.06
314.624	392.06
314.853	373.06
315.083	371.06
315.312	356.06
315.542	361.06
315.771	350.06
316.001	360.06
316.23	373.06
316.46	351.06
316.689	367.06
316.919	356.06
317.148	392.06
317.377	377.06
317.607	374.06
317.836	382.06
318.065	363.06
318.295	369.06
318.524	358.06
318.753	380.06
318.983	363.06
319.212	367.06
319.441	393.06
319.67	376.06
319.9	378.06
320.129	382.06
320.358	359.06
320.587	373.06
320.816	362.06
321.046	384.06
321.275	386.06
321.504	384.06
321.733	384.06
321.962	385.06
322.191	390.06
322.42	407.06
322.649	424.06
322.878	410.06
323.108	423.06
323.337	455.06
323.566	422.06
323.795	485.06
324.024	492.06
324.253	594.06
324.482	814.06
324.71	1253.06
324.939	1880.06
325.168	1645.06
325.397	815.06
325.626	571.06
325.855	504.06
326.084	457.06
326.313	459.06
326.542	465.06
326.77	499.06
326.999	577.06
327.228	723.06
327.457	1143.06
327.686	1450.06
327.914	950.06
328.143	633.06
328.372	587.06
328.6	524.06
328.829	498.06
329.058	520.06
329.287	533.06
329.515	494.06
329.744	475.06
329.972	468.06
330.201	469.06
330.43	512.06
330.658	553.06
330.887	550.06
331.115	566.06
331.344	472.06
331.572	469.06
331.801	458.06
332.03	461.06
332.258	473.06
332.486	450.06
332.715	435.06
332.943	458.06
333.172	448.06
333.4	451.06
333.629	468.06
333.857	478.06
334.085	480.06
334.314	485.06
334.542	526.06
334.771	522.06
334.999	492.06
335.227	465.06
335.455	441.06
335.684	430.06
335.912	461.06
336.14	436.06
336.369	447.06
336.597	451.06
336.825	451.06
337.053	448.06
337.281	438.06
337.51	425.06
337.738	436.06
337.966	425.06
338.194	442.06
338.422	447.06
338.65	437.06
338.878	431.06
339.106	442.06
339.334	429.06
339.562	414.06
339.79	396.06
340.018	401.06
340.246	420.06
340.474	422.06
340.702	412.06
340.93	436.06
341.158	406.06
341.386	417.06
341.614	427.06
341.842	429.06
342.07	391.06
342.298	420.06
342.526	409.06
342.754	416.06
342.981	422.06
343.209	379.06
343.437	411.06
343.665	423.06
343.893	425.06
344.12	438.06
344.348	440.06
344.576	447.06
344.804	445.06
345.031	440.06
345.259	452.06
345.487	459.06
345.714	427.06
345.942	419.06
346.17	418.06
346.397	417.06
346.625	395.06
346.853	412.06
347.08	407.06
347.308	419.06
347.535	421.06
347.763	414.06
347.99	447.06
348.218	420.06
348.445	426.06
348.673	420.06
348.9	436.06
349.128	418.06
349.355	386.06
349.583	403.06
349.81	401.06
350.037	424.06
350.265	400.06
350.492	406.06
350.72	406.06
350.947	398.06
351.174	404.06
351.402	454.06
351.629	422.06
351.856	399.06
352.083	390.06
352.311	421.06
352.538	420.06
352.765	437.06
352.992	408.06
353.22	429.06
353.447	417.06
353.674	403.06
353.901	412.06
354.128	409.06
354.355	390.06
354.583	395.06
354.81	392.06
355.037	389.06
355.264	392.06
355.491	401.06
355.718	397.06
355.945	402.06
356.172	414.06
356.399	375.06
356.626	412.06
356.853	393.06
357.08	412.06
357.307	390.06
357.534	383.06
357.761	406.06
357.988	412.06
358.215	401.06
358.441	386.06
358.668	407.06
358.895	380.06
359.122	406.06
359.349	386.06
359.576	385.06
359.802	413.06
360.029	431.06
360.256	467.06
360.483	436.06
360.709	434.06
360.936	428.06
361.163	408.06
361.39	408.06
361.616	410.06
361.843	406.06
362.07	410.06
362.296	423.06
362.523	399.06
362.749	396.06
362.976	419.06
363.203	410.06
363.429	410.06
363.656	415.06
363.882	407.06
364.109	386.06
364.335	392.06
364.562	383.06
364.788	383.06
365.015	416.06
365.241	391.06
365.468	416.06
365.694	414.06
365.92	415.06
366.147	409.06
366.373	390.06
366.599	399.06
366.826	413.06
367.052	400.06
367.278	446.06
367.505	415.06
367.731	406.06
367.957	408.06
368.184	416.06
368.41	406.06
368.636	419.06
368.862	424.06
369.089	431.06
369.315	420.06
369.541	394.06
369.767	422.06
369.993	413.06
370.219	393.06
370.445	416.06
370.672	401.06
370.898	395.06
371.124	387.06
371.35	416.06
371.576	412.06
371.802	438.06
372.028	425.06
372.254	421.06
372.48	426.06
372.706	419.06
372.932	432.06
373.158	417.06
373.384	407.06
373.61	420.06
373.835	420.06
374.061	430.06
374.287	450.06
374.513	420.06
374.739	428.06
374.965	425.06
375.191	429.06
375.416	424.06
375.642	426.06
375.868	440.06
376.094	423.06
376.319	426.06
376.545	391.06
376.771	420.06
376.997	429.06
377.222	428.06
377.448	406.06
377.674	418.06
377.899	400.06
378.125	422.06
378.35	422.06
378.576	418.06
378.802	415.06
379.027	422.06
379.253	413.06
379.478	411.06
379.704	419.06
379.929	421.06
380.155	388.06
380.38	438.06
380.606	410.06
380.831	408.06
381.057	442.06
381.282	405.06
381.507	404.06
381.733	408.06
381.958	402.06
382.184	436.06
382.409	442.06
382.634	432.06
382.86	440.06
383.085	444.06
383.31	436.06
383.535	428.06
383.761	443.06
383.986	454.06
384.211	428.06
384.436	448.06
384.662	454.06
384.887	449.06
385.112	459.06
385.337	458.06
385.562	472.06
385.787	442.06
386.013	461.06
386.238	450.06
386.463	463.06
386.688	481.06
386.913	458.06
387.138	474.06
387.363	476.06
387.588	441.06
387.813	468.06
388.038	466.06
388.263	469.06
388.488	460.06
388.713	460.06
388.938	476.06
389.163	474.06
389.387	475.06
389.612	461.06
389.837	476.06
390.062	491.06
390.287	452.06
390.512	432.06
390.736	446.06
390.961	472.06
391.186	467.06
391.411	466.06
391.636	467.06
391.86	491.06
392.085	503.06
392.31	493.06
392.534	481.06
392.759	486.06
392.984	496.06
393.208	468.06
393.433	504.06
393.658	513.06
393.882	494.06
394.107	473.06
394.331	481.06
394.556	484.06
394.78	469.06
395.005	490.06
395.229	465.06
395.454	475.06
395.678	492.06
395.903	500.06
396.127	532.06
396.352	504.06
396.576	484.06
396.801	510.06
397.025	487.06
397.249	484.06
397.474	511.06
397.698	503.06
397.922	525.06
398.147	518.06
398.371	517.06
398.595	530.06
398.82	530.06
399.044	558.06
399.268	578.06
399.492	616.06
399.717	642.06
399.941	654.06
400.165	687.06
400.389	673.06
400.613	620.06
400.837	567.06
401.062	562.06
401.286	559.06
401.51	548.06
401.734	543.06
401.958	534.06
402.182	558.06
402.406	570.06
402.63	557.06
402.854	574.06
403.078	562.06
403.302	567.06
403.526	574.06
403.75	570.06
403.974	575.06
404.198	559.06
404.422	563.06
404.645	580.06
404.869	584.06
405.093	611.06
405.317	630.06
405.541	671.06
405.765	622.06
405.988	578.06
406.212	620.06
406.436	603.06
406.66	596.06
406.883	589.06
407.107	630.06
407.331	682.06
407.555	734.06
407.778	727.06
408.002	636.06
408.226	631.06
408.449	637.06
408.673	598.06
408.896	637.06
409.12	710.06
409.344	675.06
409.567	591.06
409.791	589.06
410.014	564.06
410.238	557.06
410.461	562.06
410.685	566.06
410.908	594.06
411.132	632.06
411.355	644.06
411.578	627.06
411.802	558.06
412.025	547.06
412.249	578.06
412.472	588.06
412.695	637.06
412.919	615.06
413.142	559.06
413.365	567.06
413.589	562.06
413.812	548.06
414.035	519.06
414.258	528.06
414.482	537.06
414.705	550.06
414.928	532.06
415.151	538.06
415.374	551.06
415.597	535.06
415.821	522.06
416.044	542.06
416.267	545.06
416.49	543.06
416.713	528.06
416.936	520.06
417.159	537.06
417.382	540.06
417.605	548.06
417.828	560.06
418.051	563.06
418.274	584.06
418.497	508.06
418.72	536.06
418.943	527.06
419.166	554.06
419.389	570.06
419.611	578.06
419.834	562.06
420.057	560.06
420.28	559.06
420.503	548.06
420.726	576.06
420.948	559.06
421.171	632.06
421.394	650.06
421.617	592.06
421.839	565.06
422.062	550.06
422.285	576.06
422.507	638.06
422.73	739.06
422.953	654.06
423.175	628.06
423.398	595.06
423.621	569.06
423.843	608.06
424.066	612.06
424.288	592.06
424.511	608.06
424.733	642.06
424.956	755.06
425.178	715.06
425.401	722.06
425.623	723.06
425.846	624.06
426.068	571.06
426.291	586.06
426.513	601.06
426.735	607.06
426.958	640.06
427.18	725.06
427.402	826.06
427.625	936.06
427.847	786.06
428.069	715.06
428.292	632.06
428.514	569.06
428.736	573.06
428.958	563.06
429.181	559.06
429.403	542.06
429.625	560.06
429.847	597.06
430.069	667.06
430.292	643.06
430.514	570.06
430.736	569.06
430.958	526.06
431.18	519.06
431.402	519.06
431.624	513.06
431.846	531.06
432.068	533.06
432.29	519.06
432.512	523.06
432.734	534.06
432.956	536.06
433.178	514.06
433.4	531.06
433.622	518.06
433.844	520.06
434.066	527.06
434.287	525.06
434.509	548.06
434.731	548.06
434.953	559.06
435.175	582.06
435.397	589.06
435.618	556.06
435.84	639.06
436.062	715.06
436.284	798.06
436.505	656.06
436.727	593.06
436.949	557.06
437.17	576.06
437.392	548.06
437.614	548.06
437.835	572.06
438.057	678.06
438.278	780.06
438.5	800.06
438.721	867.06
438.943	820.06
439.165	657.06
439.386	584.06
439.608	586.06
439.829	585.06
440.05	620.06
440.272	648.06
440.493	648.06
440.715	571.06
440.936	584.06
441.158	555.06
441.379	527.06
441.6	573.06
441.822	560.06
442.043	647.06
442.264	703.06
442.486	743.06
442.707	613.06
442.928	601.06
443.149	611.06
443.371	606.06
443.592	684.06
443.813	754.06
444.034	829.06
444.255	686.06
444.476	626.06
444.698	599.06
444.919	598.06
445.14	707.06
445.361	664.06
445.582	629.06
445.803	670.06
446.024	803.06
446.245	808.06
446.466	742.06
446.687	633.06
446.908	614.06
447.129	586.06
447.35	570.06
447.571	534.06
447.792	534.06
448.013	541.06
448.234	547.06
448.455	619.06
448.675	723.06
448.896	856.06
449.117	757.06
449.338	676.06
449.559	776.06
449.779	898.06
450	709.06
450.221	593.06
450.442	554.06
450.662	534.06
450.883	533.06
451.104	542.06
451.324	546.06
451.545	503.06
451.766	503.06
451.986	497.06
452.207	503.06
452.428	487.06
452.648	468.06
452.869	501.06
453.089	500.06
453.31	515.06
453.53	490.06
453.751	494.06
453.971	499.06
454.192	500.06
454.412	516.06
454.633	487.06
454.853	487.06
455.073	490.06
455.294	504.06
455.514	559.06
455.734	548.06
455.955	483.06
456.175	477.06
456.395	469.06
456.616	479.06
456.836	474.06
457.056	464.06
457.276	455.06
457.497	459.06
457.717	457.06
457.937	475.06
458.157	479.06
458.377	490.06
458.598	526.06
458.818	558.06
459.038	599.06
459.258	620.06
459.478	556.06
459.698	526.06
459.918	534.06
460.138	533.06
460.358	506.06
460.578	549.06
460.798	538.06
461.018	566.06
461.238	540.06
461.458	542.06
461.678	543.06
461.898	522.06
462.118	553.06
462.338	576.06
462.558	566.06
462.777	566.06
462.997	630.06
463.217	632.06
463.437	595.06
463.657	605.06
463.876	578.06
464.096	604.06
464.316	586.06
464.536	592.06
464.755	564.06
464.975	569.06
465.195	603.06
465.414	666.06
465.634	578.06
465.854	570.06
466.073	562.06
466.293	532.06
466.512	526.06
466.732	522.06
466.951	520.06
467.171	515.06
467.391	502.06
467.61	504.06
467.829	526.06
468.049	540.06
468.268	512.06
468.488	509.06
468.707	492.06
468.927	510.06
469.146	496.06
469.365	502.06
469.585	494.06
469.804	526.06
470.023	515.06
470.243	524.06
470.462	520.06
470.681	537.06
470.901	517.06
471.12	512.06
471.339	521.06
471.558	519.06
471.777	511.06
471.997	512.06
472.216	532.06
472.435	555.06
472.654	544.06
472.873	520.06
473.092	532.06
473.311	522.06
473.53	518.06
473.749	532.06
473.968	548.06
474.187	631.06
474.406	662.06
474.625	585.06
474.844	539.06
475.063	541.06
475.282	518.06
475.501	508.06
475.72	517.06
475.939	532.06
476.158	536.06
476.377	545.06
476.596	518.06
476.814	548.06
477.033	545.06
477.252	575.06
477.471	555.06
477.69	584.06
477.908	568.06
478.127	574.06
478.346	586.06
478.564	575.06
478.783	556.06
479.002	588.06
479.22	590.06
479.439	600.06
479.658	621.06
479.876	630.06
480.095	620.06
480.313	656.06
480.532	635.06
480.751	632.06
480.969	631.06
481.188	680.06
481.406	711.06
481.624	654.06
481.843	610.06
482.061	633.06
482.28	634.06
482.498	613.06
482.717	598.06
482.935	612.06
483.153	605.06
483.372	602.06
483.59	610.06
483.808	613.06
484.027	598.06
484.245	620.06
484.463	607.06
484.681	626.06
484.9	607.06
485.118	640.06
485.336	638.06
485.554	629.06
485.772	636.06
485.99	629.06
486.209	636.06
486.427	630.06
486.645	644.06
486.863	648.06
487.081	660.06
487.299	664.06
487.517	637.06
487.735	652.06
487.953	628.06
488.171	653.06
488.389	642.06
488.607	634.06
488.825	660.06
489.043	653.06
489.261	656.06
489.479	643.06
489.696	649.06
489.914	656.06
490.132	676.06
490.35	662.06
490.568	673.06
490.786	702.06
491.003	719.06
491.221	685.06
491.439	718.06
491.657	723.06
491.874	728.06
492.092	754.06
492.31	757.06
492.527	720.06
492.745	732.06
492.963	751.06
493.18	719.06
493.398	773.06
493.615	766.06
493.833	764.06
494.05	772.06
494.268	772.06
494.485	762.06
494.703	748.06
494.92	744.06
495.138	750.06
495.355	757.06
495.573	756.06
495.79	775.06
496.008	758.06
496.225	782.06
496.442	772.06
496.66	783.06
496.877	775.06
497.094	795.06
497.312	793.06
497.529	784.06
497.746	818.06
497.963	818.06
498.181	843.06
498.398	850.06
498.615	890.06
498.832	895.06
499.049	908.06
499.267	949.06
499.484	954.06
499.701	968.06
499.918	1023.06
500.135	1100.06
500.352	1155.06
500.569	1126.06
500.786	1170.06
501.003	1133.06
501.22	1084.06
501.437	1096.06
501.654	1026.06
