Data from 1966.PennyLincolnUp.Lamp.En5.5.200Scan.071719.P1._HRD10591_14-13-51-915.txt Node
Date: Thu Jul 18 14:13:51 EDT 2019
User: cochatt
Spectrometer: HR+D1059
Trigger mode: 1
Integration Time (sec): 1.000000E-1
Scans to average: 1
Electric dark correction enabled: true
Nonlinearity correction enabled: false
Boxcar width: 0
XAxis mode: Wavelengths
Number of Pixels in Spectrum: 2048
>>>>>Begin Spectral Data<<<<<
223.165	-16.56
223.4	-16.56
223.635	-16.56
223.869	-20.56
224.104	-12.56
224.338	-14.56
224.573	-19.56
224.808	-8.56
225.042	-0.56
225.277	-5.56
225.511	-5.56
225.746	-6.56
225.98	7.44
226.215	12.44
226.449	16.44
226.683	21.44
226.918	18.44
227.152	34.44
227.387	36.44
227.621	31.44
227.856	43.44
228.09	60.44
228.324	52.44
228.559	69.44
228.793	63.44
229.027	72.44
229.262	92.44
229.496	73.44
229.73	97.44
229.964	123.44
230.199	95.44
230.433	81.44
230.667	82.44
230.901	92.44
231.136	85.44
231.37	92.44
231.604	99.44
231.838	75.44
232.072	92.44
232.306	92.44
232.541	84.44
232.775	89.44
233.009	96.44
233.243	85.44
233.477	86.44
233.711	92.44
233.945	88.44
234.179	97.44
234.413	80.44
234.647	100.44
234.881	86.44
235.115	97.44
235.349	99.44
235.583	96.44
235.817	107.44
236.051	117.44
236.285	94.44
236.519	97.44
236.753	107.44
236.987	101.44
237.221	110.44
237.455	132.44
237.689	129.44
237.922	108.44
238.156	104.44
238.39	103.44
238.624	90.44
238.858	91.44
239.091	101.44
239.325	107.44
239.559	94.44
239.793	93.44
240.027	96.44
240.26	120.44
240.494	107.44
240.728	110.44
240.961	107.44
241.195	114.44
241.429	102.44
241.662	96.44
241.896	106.44
242.13	91.44
242.363	98.44
242.597	100.44
242.83	101.44
243.064	104.44
243.298	104.44
243.531	104.44
243.765	90.44
243.998	116.44
244.232	90.44
244.465	112.44
244.699	116.44
244.932	96.44
245.166	117.44
245.399	106.44
245.633	99.44
245.866	108.44
246.099	107.44
246.333	94.44
246.566	106.44
246.8	110.44
247.033	106.44
247.266	113.44
247.5	114.44
247.733	125.44
247.966	113.44
248.2	108.44
248.433	104.44
248.666	111.44
248.899	128.44
249.133	127.44
249.366	144.44
249.599	148.44
249.832	122.44
250.066	114.44
250.299	120.44
250.532	128.44
250.765	133.44
250.998	144.44
251.231	148.44
251.465	114.44
251.698	136.44
251.931	124.44
252.164	126.44
252.397	124.44
252.63	131.44
252.863	130.44
253.096	145.44
253.329	142.44
253.562	147.44
253.795	142.44
254.028	154.44
254.261	142.44
254.494	144.44
254.727	172.44
254.96	162.44
255.193	144.44
255.426	149.44
255.659	139.44
255.892	156.44
256.124	160.44
256.357	153.44
256.59	140.44
256.823	136.44
257.056	125.44
257.289	136.44
257.521	125.44
257.754	134.44
257.987	138.44
258.22	148.44
258.452	127.44
258.685	133.44
258.918	138.44
259.151	131.44
259.383	139.44
259.616	136.44
259.849	131.44
260.081	152.44
260.314	157.44
260.547	167.44
260.779	164.44
261.012	148.44
261.244	157.44
261.477	136.44
261.71	138.44
261.942	148.44
262.175	137.44
262.407	153.44
262.64	139.44
262.872	135.44
263.105	125.44
263.337	120.44
263.57	139.44
263.802	126.44
264.035	144.44
264.267	111.44
264.499	131.44
264.732	131.44
264.964	125.44
265.197	131.44
265.429	137.44
265.661	151.44
265.894	135.44
266.126	136.44
266.358	137.44
266.591	130.44
266.823	143.44
267.055	142.44
267.287	139.44
267.52	136.44
267.752	144.44
267.984	136.44
268.216	135.44
268.448	153.44
268.681	139.44
268.913	146.44
269.145	146.44
269.377	142.44
269.609	161.44
269.841	160.44
270.073	155.44
270.306	181.44
270.538	194.44
270.77	196.44
271.002	195.44
271.234	184.44
271.466	172.44
271.698	186.44
271.93	170.44
272.162	186.44
272.394	192.44
272.626	171.44
272.858	179.44
273.09	157.44
273.322	154.44
273.553	148.44
273.785	152.44
274.017	157.44
274.249	169.44
274.481	172.44
274.713	173.44
274.945	167.44
275.176	156.44
275.408	151.44
275.64	164.44
275.872	143.44
276.104	162.44
276.335	161.44
276.567	170.44
276.799	171.44
277.031	176.44
277.262	186.44
277.494	190.44
277.726	191.44
277.957	171.44
278.189	175.44
278.421	164.44
278.652	149.44
278.884	150.44
279.115	145.44
279.347	158.44
279.579	165.44
279.81	170.44
280.042	163.44
280.273	149.44
280.505	166.44
280.736	160.44
280.968	172.44
281.199	157.44
281.431	157.44
281.662	169.44
281.894	165.44
282.125	163.44
282.356	157.44
282.588	163.44
282.819	180.44
283.051	171.44
283.282	178.44
283.513	169.44
283.745	154.44
283.976	175.44
284.207	162.44
284.439	174.44
284.67	175.44
284.901	151.44
285.132	158.44
285.364	167.44
285.595	158.44
285.826	154.44
286.057	162.44
286.288	188.44
286.52	179.44
286.751	162.44
286.982	160.44
287.213	163.44
287.444	170.44
287.675	171.44
287.906	178.44
288.138	179.44
288.369	178.44
288.6	185.44
288.831	175.44
289.062	160.44
289.293	180.44
289.524	180.44
289.755	166.44
289.986	162.44
290.217	166.44
290.448	185.44
290.679	166.44
290.91	173.44
291.141	154.44
291.371	167.44
291.602	190.44
291.833	158.44
292.064	173.44
292.295	180.44
292.526	162.44
292.757	155.44
292.987	154.44
293.218	155.44
293.449	187.44
293.68	180.44
293.91	154.44
294.141	172.44
294.372	169.44
294.603	173.44
294.833	151.44
295.064	166.44
295.295	178.44
295.525	182.44
295.756	181.44
295.987	173.44
296.217	200.44
296.448	182.44
296.679	177.44
296.909	191.44
297.14	178.44
297.37	165.44
297.601	174.44
297.831	181.44
298.062	180.44
298.292	168.44
298.523	188.44
298.753	176.44
298.984	174.44
299.214	188.44
299.445	174.44
299.675	178.44
299.905	205.44
300.136	184.44
300.366	171.44
300.597	179.44
300.827	179.44
301.057	184.44
301.288	182.44
301.518	183.44
301.748	195.44
301.979	179.44
302.209	205.44
302.439	190.44
302.669	175.44
302.9	182.44
303.13	184.44
303.36	191.44
303.59	164.44
303.82	184.44
304.051	202.44
304.281	189.44
304.511	182.44
304.741	197.44
304.971	191.44
305.201	196.44
305.431	191.44
305.661	188.44
305.891	182.44
306.121	179.44
306.352	194.44
306.582	187.44
306.812	193.44
307.042	170.44
307.272	196.44
307.502	180.44
307.731	202.44
307.961	191.44
308.191	188.44
308.421	194.44
308.651	210.44
308.881	194.44
309.111	190.44
309.341	187.44
309.571	203.44
309.8	195.44
310.03	206.44
310.26	213.44
310.49	212.44
310.72	214.44
310.949	217.44
311.179	228.44
311.409	221.44
311.639	202.44
311.868	211.44
312.098	210.44
312.328	202.44
312.557	231.44
312.787	238.44
313.017	220.44
313.246	207.44
313.476	206.44
313.706	210.44
313.935	213.44
314.165	230.44
314.394	214.44
314.624	216.44
314.853	220.44
315.083	200.44
315.312	202.44
315.542	194.44
315.771	195.44
316.001	193.44
316.23	201.44
316.46	203.44
316.689	202.44
316.919	205.44
317.148	214.44
317.377	223.44
317.607	221.44
317.836	202.44
318.065	193.44
318.295	211.44
318.524	205.44
318.753	203.44
318.983	203.44
319.212	206.44
319.441	214.44
319.67	224.44
319.9	220.44
320.129	197.44
320.358	192.44
320.587	204.44
320.816	217.44
321.046	193.44
321.275	220.44
321.504	223.44
321.733	211.44
321.962	227.44
322.191	237.44
322.42	238.44
322.649	242.44
322.878	248.44
323.108	236.44
323.337	257.44
323.566	284.44
323.795	284.44
324.024	276.44
324.253	359.44
324.482	504.44
324.71	756.44
324.939	1001.44
325.168	822.44
325.397	440.44
325.626	300.44
325.855	286.44
326.084	246.44
326.313	251.44
326.542	267.44
326.77	286.44
326.999	349.44
327.228	448.44
327.457	667.44
327.686	754.44
327.914	511.44
328.143	362.44
328.372	331.44
328.6	306.44
328.829	308.44
329.058	303.44
329.287	306.44
329.515	288.44
329.744	262.44
329.972	282.44
330.201	283.44
330.43	327.44
330.658	342.44
330.887	339.44
331.115	326.44
331.344	262.44
331.572	264.44
331.801	270.44
332.03	244.44
332.258	260.44
332.486	237.44
332.715	242.44
332.943	226.44
333.172	228.44
333.4	253.44
333.629	240.44
333.857	272.44
334.085	284.44
334.314	297.44
334.542	312.44
334.771	323.44
334.999	283.44
335.227	244.44
335.455	246.44
335.684	236.44
335.912	245.44
336.14	212.44
336.369	232.44
336.597	240.44
336.825	252.44
337.053	243.44
337.281	229.44
337.51	221.44
337.738	240.44
337.966	239.44
338.194	247.44
338.422	234.44
338.65	235.44
338.878	230.44
339.106	229.44
339.334	241.44
339.562	206.44
339.79	222.44
340.018	227.44
340.246	235.44
340.474	238.44
340.702	212.44
340.93	235.44
341.158	224.44
341.386	227.44
341.614	211.44
341.842	218.44
342.07	213.44
342.298	221.44
342.526	236.44
342.754	219.44
342.981	230.44
343.209	221.44
343.437	234.44
343.665	218.44
343.893	218.44
344.12	251.44
344.348	212.44
344.576	219.44
344.804	231.44
345.031	234.44
345.259	250.44
345.487	244.44
345.714	227.44
345.942	223.44
346.17	221.44
346.397	219.44
346.625	240.44
346.853	216.44
347.08	222.44
347.308	231.44
347.535	221.44
347.763	237.44
347.99	235.44
348.218	228.44
348.445	226.44
348.673	226.44
348.9	221.44
349.128	219.44
349.355	210.44
349.583	226.44
349.81	208.44
350.037	231.44
350.265	207.44
350.492	194.44
350.72	208.44
350.947	207.44
351.174	219.44
351.402	227.44
351.629	214.44
351.856	219.44
352.083	240.44
352.311	223.44
352.538	242.44
352.765	236.44
352.992	224.44
353.22	215.44
353.447	225.44
353.674	215.44
353.901	202.44
354.128	203.44
354.355	212.44
354.583	207.44
354.81	194.44
355.037	218.44
355.264	191.44
355.491	218.44
355.718	208.44
355.945	204.44
356.172	203.44
356.399	202.44
356.626	203.44
356.853	204.44
357.08	187.44
357.307	196.44
357.534	186.44
357.761	215.44
357.988	200.44
358.215	203.44
358.441	197.44
358.668	211.44
358.895	208.44
359.122	220.44
359.349	210.44
359.576	243.44
359.802	246.44
360.029	244.44
360.256	255.44
360.483	248.44
360.709	215.44
360.936	226.44
361.163	227.44
361.39	220.44
361.616	226.44
361.843	226.44
362.07	221.44
362.296	227.44
362.523	229.44
362.749	208.44
362.976	220.44
363.203	211.44
363.429	219.44
363.656	218.44
363.882	227.44
364.109	214.44
364.335	207.44
364.562	204.44
364.788	199.44
365.015	201.44
365.241	205.44
365.468	221.44
365.694	218.44
365.92	217.44
366.147	213.44
366.373	227.44
366.599	198.44
366.826	200.44
367.052	206.44
367.278	206.44
367.505	216.44
367.731	211.44
367.957	202.44
368.184	220.44
368.41	212.44
368.636	223.44
368.862	203.44
369.089	228.44
369.315	215.44
369.541	207.44
369.767	208.44
369.993	207.44
370.219	207.44
370.445	216.44
370.672	195.44
370.898	197.44
371.124	206.44
371.35	213.44
371.576	218.44
371.802	210.44
372.028	211.44
372.254	214.44
372.48	203.44
372.706	195.44
372.932	215.44
373.158	182.44
373.384	219.44
373.61	213.44
373.835	207.44
374.061	194.44
374.287	200.44
374.513	207.44
374.739	206.44
374.965	214.44
375.191	218.44
375.416	196.44
375.642	213.44
375.868	210.44
376.094	188.44
376.319	205.44
376.545	205.44
376.771	209.44
376.997	216.44
377.222	216.44
377.448	194.44
377.674	196.44
377.899	219.44
378.125	211.44
378.35	214.44
378.576	212.44
378.802	212.44
379.027	210.44
379.253	223.44
379.478	206.44
379.704	216.44
379.929	196.44
380.155	195.44
380.38	205.44
380.606	212.44
380.831	209.44
381.057	205.44
381.282	215.44
381.507	196.44
381.733	215.44
381.958	223.44
382.184	215.44
382.409	227.44
382.634	212.44
382.86	203.44
383.085	218.44
383.31	226.44
383.535	212.44
383.761	206.44
383.986	202.44
384.211	200.44
384.436	226.44
384.662	192.44
384.887	223.44
385.112	216.44
385.337	234.44
385.562	230.44
385.787	222.44
386.013	228.44
386.238	201.44
386.463	224.44
386.688	234.44
386.913	229.44
387.138	218.44
387.363	215.44
387.588	230.44
387.813	223.44
388.038	210.44
388.263	218.44
388.488	228.44
388.713	212.44
388.938	218.44
389.163	232.44
389.387	208.44
389.612	214.44
389.837	225.44
390.062	225.44
390.287	219.44
390.512	222.44
390.736	235.44
390.961	233.44
391.186	253.44
391.411	199.44
391.636	215.44
391.86	227.44
392.085	234.44
392.31	237.44
392.534	224.44
392.759	234.44
392.984	223.44
393.208	222.44
393.433	231.44
393.658	233.44
393.882	227.44
394.107	223.44
394.331	236.44
394.556	226.44
394.78	224.44
395.005	219.44
395.229	223.44
395.454	226.44
395.678	231.44
395.903	228.44
396.127	238.44
396.352	236.44
396.576	233.44
396.801	248.44
397.025	236.44
397.249	255.44
397.474	248.44
397.698	243.44
397.922	247.44
398.147	237.44
398.371	231.44
398.595	229.44
398.82	260.44
399.044	254.44
399.268	261.44
399.492	270.44
399.717	284.44
399.941	304.44
400.165	295.44
400.389	283.44
400.613	260.44
400.837	247.44
401.062	262.44
401.286	254.44
401.51	248.44
401.734	268.44
401.958	261.44
402.182	260.44
402.406	275.44
402.63	262.44
402.854	262.44
403.078	248.44
403.302	266.44
403.526	250.44
403.75	244.44
403.974	261.44
404.198	258.44
404.422	273.44
404.645	289.44
404.869	288.44
405.093	298.44
405.317	292.44
405.541	302.44
405.765	287.44
405.988	274.44
406.212	272.44
406.436	297.44
406.66	300.44
406.883	287.44
407.107	297.44
407.331	310.44
407.555	320.44
407.778	327.44
408.002	284.44
408.226	282.44
408.449	277.44
408.673	285.44
408.896	302.44
409.12	309.44
409.344	298.44
409.567	273.44
409.791	276.44
410.014	259.44
410.238	266.44
410.461	270.44
410.685	263.44
410.908	267.44
411.132	264.44
411.355	277.44
411.578	276.44
411.802	271.44
412.025	237.44
412.249	248.44
412.472	281.44
412.695	290.44
412.919	275.44
413.142	274.44
413.365	271.44
413.589	241.44
413.812	245.44
414.035	261.44
414.258	259.44
414.482	265.44
414.705	248.44
414.928	266.44
415.151	252.44
415.374	261.44
415.597	240.44
415.821	259.44
416.044	248.44
416.267	253.44
416.49	262.44
416.713	260.44
416.936	242.44
417.159	245.44
417.382	255.44
417.605	245.44
417.828	246.44
418.051	263.44
418.274	257.44
418.497	230.44
418.72	253.44
418.943	252.44
419.166	256.44
419.389	250.44
419.611	280.44
419.834	272.44
420.057	263.44
420.28	288.44
420.503	279.44
420.726	269.44
420.948	264.44
421.171	280.44
421.394	299.44
421.617	260.44
421.839	255.44
422.062	246.44
422.285	261.44
422.507	287.44
422.73	313.44
422.953	301.44
423.175	276.44
423.398	258.44
423.621	275.44
423.843	283.44
424.066	266.44
424.288	280.44
424.511	297.44
424.733	318.44
424.956	334.44
425.178	323.44
425.401	331.44
425.623	352.44
425.846	285.44
426.068	281.44
426.291	299.44
426.513	271.44
426.735	287.44
426.958	303.44
427.18	332.44
427.402	397.44
427.625	416.44
427.847	384.44
428.069	339.44
428.292	287.44
428.514	263.44
428.736	262.44
428.958	260.44
429.181	264.44
429.403	262.44
429.625	263.44
429.847	274.44
430.069	318.44
430.292	296.44
430.514	267.44
430.736	258.44
430.958	238.44
431.18	242.44
431.402	260.44
431.624	259.44
431.846	241.44
432.068	253.44
432.29	245.44
432.512	242.44
432.734	245.44
432.956	248.44
433.178	254.44
433.4	245.44
433.622	256.44
433.844	255.44
434.066	239.44
434.287	248.44
434.509	242.44
434.731	262.44
434.953	269.44
435.175	256.44
435.397	278.44
435.618	268.44
435.84	297.44
436.062	334.44
436.284	364.44
436.505	302.44
436.727	279.44
436.949	252.44
437.17	252.44
437.392	248.44
437.614	251.44
437.835	271.44
438.057	325.44
438.278	357.44
438.5	352.44
438.721	362.44
438.943	373.44
439.165	297.44
439.386	283.44
439.608	276.44
439.829	261.44
440.05	292.44
440.272	309.44
440.493	277.44
440.715	271.44
440.936	266.44
441.158	249.44
441.379	266.44
441.6	278.44
441.822	278.44
442.043	295.44
442.264	341.44
442.486	335.44
442.707	298.44
442.928	287.44
443.149	308.44
443.371	290.44
443.592	318.44
443.813	343.44
444.034	361.44
444.255	302.44
444.476	291.44
444.698	268.44
444.919	273.44
445.14	381.44
445.361	326.44
445.582	316.44
445.803	320.44
446.024	379.44
446.245	362.44
446.466	344.44
446.687	289.44
446.908	272.44
447.129	249.44
447.35	265.44
447.571	244.44
447.792	251.44
448.013	272.44
448.234	265.44
448.455	295.44
448.675	331.44
448.896	386.44
449.117	333.44
449.338	318.44
449.559	374.44
449.779	387.44
450	312.44
450.221	256.44
450.442	242.44
450.662	264.44
450.883	241.44
451.104	272.44
451.324	261.44
451.545	249.44
451.766	246.44
451.986	236.44
452.207	235.44
452.428	244.44
452.648	218.44
452.869	239.44
453.089	239.44
453.31	246.44
453.53	231.44
453.751	222.44
453.971	238.44
454.192	260.44
454.412	239.44
454.633	240.44
454.853	230.44
455.073	228.44
455.294	254.44
455.514	270.44
455.734	271.44
455.955	229.44
456.175	221.44
456.395	222.44
456.616	221.44
456.836	220.44
457.056	216.44
457.276	211.44
457.497	229.44
457.717	228.44
457.937	235.44
458.157	241.44
458.377	229.44
458.598	233.44
458.818	272.44
459.038	324.44
459.258	326.44
459.478	275.44
459.698	244.44
459.918	263.44
460.138	229.44
460.358	249.44
460.578	253.44
460.798	248.44
461.018	266.44
461.238	262.44
461.458	234.44
461.678	239.44
461.898	242.44
462.118	250.44
462.338	248.44
462.558	248.44
462.777	259.44
462.997	268.44
463.217	276.44
463.437	283.44
463.657	260.44
463.876	249.44
464.096	239.44
464.316	270.44
464.536	279.44
464.755	267.44
464.975	279.44
465.195	322.44
465.414	343.44
465.634	307.44
465.854	287.44
466.073	267.44
466.293	258.44
466.512	221.44
466.732	237.44
466.951	225.44
467.171	222.44
467.391	259.44
467.61	257.44
467.829	261.44
468.049	233.44
468.268	250.44
468.488	236.44
468.707	234.44
468.927	236.44
469.146	220.44
469.365	240.44
469.585	249.44
469.804	243.44
470.023	244.44
470.243	247.44
470.462	254.44
470.681	261.44
470.901	274.44
471.12	249.44
471.339	233.44
471.558	250.44
471.777	246.44
471.997	254.44
472.216	249.44
472.435	296.44
472.654	279.44
472.873	247.44
473.092	229.44
473.311	250.44
473.53	248.44
473.749	244.44
473.968	275.44
474.187	324.44
474.406	318.44
474.625	263.44
474.844	245.44
475.063	255.44
475.282	244.44
475.501	245.44
475.72	235.44
475.939	256.44
476.158	234.44
476.377	239.44
476.596	240.44
476.814	259.44
477.033	249.44
477.252	246.44
477.471	255.44
477.69	244.44
477.908	247.44
478.127	266.44
478.346	253.44
478.564	260.44
478.783	249.44
479.002	276.44
479.22	261.44
479.439	273.44
479.658	299.44
479.876	292.44
480.095	309.44
480.313	296.44
480.532	284.44
480.751	278.44
480.969	294.44
481.188	367.44
481.406	388.44
481.624	324.44
481.843	308.44
482.061	285.44
482.28	273.44
482.498	260.44
482.717	282.44
482.935	275.44
483.153	269.44
483.372	270.44
483.59	285.44
483.808	261.44
484.027	266.44
484.245	279.44
484.463	274.44
484.681	290.44
484.9	289.44
485.118	269.44
485.336	273.44
485.554	281.44
485.772	286.44
485.99	285.44
486.209	284.44
486.427	285.44
486.645	308.44
486.863	299.44
487.081	296.44
487.299	293.44
487.517	284.44
487.735	283.44
487.953	316.44
488.171	301.44
488.389	291.44
488.607	290.44
488.825	311.44
489.043	315.44
489.261	290.44
489.479	308.44
489.696	298.44
489.914	305.44
490.132	298.44
490.35	317.44
490.568	324.44
490.786	326.44
491.003	322.44
491.221	349.44
491.439	355.44
491.657	342.44
491.874	359.44
492.092	366.44
492.31	366.44
492.527	346.44
492.745	380.44
492.963	360.44
493.18	350.44
493.398	348.44
493.615	363.44
493.833	365.44
494.05	345.44
494.268	340.44
494.485	361.44
494.703	335.44
494.92	365.44
495.138	371.44
495.355	357.44
495.573	355.44
495.79	351.44
496.008	357.44
496.225	336.44
496.442	359.44
496.66	358.44
496.877	354.44
497.094	351.44
497.312	361.44
497.529	351.44
497.746	361.44
497.963	349.44
498.181	359.44
498.398	355.44
498.615	373.44
498.832	363.44
499.049	370.44
499.267	388.44
499.484	398.44
499.701	404.44
499.918	432.44
500.135	442.44
500.352	450.44
500.569	458.44
500.786	478.44
501.003	466.44
501.22	452.44
501.437	443.44
501.654	423.44
501.871	416.44
502.088	415.44
502.305	434.44
502.522	384.44
