Data from 1966.PennyLincolnUp.Lamp.En5.5.200Scan.071719.P1._HRD10591_14-14-35-915.txt Node
Date: Thu Jul 18 14:14:35 EDT 2019
User: cochatt
Spectrometer: HR+D1059
Trigger mode: 1
Integration Time (sec): 1.000000E-1
Scans to average: 1
Electric dark correction enabled: true
Nonlinearity correction enabled: false
Boxcar width: 0
XAxis mode: Wavelengths
Number of Pixels in Spectrum: 2048
>>>>>Begin Spectral Data<<<<<
223.165	-7.44
223.4	-7.44
223.635	-7.44
223.869	-15.44
224.104	-13.44
224.338	-14.44
224.573	-2.44
224.808	-7.44
225.042	-1.44
225.277	-6.44
225.511	-13.44
225.746	10.56
225.98	-2.44
226.215	13.56
226.449	11.56
226.683	10.56
226.918	5.56
227.152	32.56
227.387	28.56
227.621	38.56
227.856	44.56
228.09	46.56
228.324	36.56
228.559	45.56
228.793	62.56
229.027	73.56
229.262	78.56
229.496	93.56
229.73	98.56
229.964	95.56
230.199	103.56
230.433	86.56
230.667	85.56
230.901	99.56
231.136	83.56
231.37	94.56
231.604	84.56
231.838	84.56
232.072	97.56
232.306	85.56
232.541	102.56
232.775	101.56
233.009	99.56
233.243	89.56
233.477	80.56
233.711	89.56
233.945	109.56
234.179	89.56
234.413	89.56
234.647	90.56
234.881	93.56
235.115	103.56
235.349	89.56
235.583	106.56
235.817	104.56
236.051	89.56
236.285	68.56
236.519	97.56
236.753	93.56
236.987	106.56
237.221	140.56
237.455	138.56
237.689	115.56
237.922	110.56
238.156	106.56
238.39	81.56
238.624	100.56
238.858	84.56
239.091	93.56
239.325	91.56
239.559	86.56
239.793	86.56
240.027	103.56
240.26	104.56
240.494	110.56
240.728	120.56
240.961	93.56
241.195	102.56
241.429	90.56
241.662	96.56
241.896	101.56
242.13	105.56
242.363	114.56
242.597	112.56
242.83	107.56
243.064	91.56
243.298	96.56
243.531	109.56
243.765	101.56
243.998	106.56
244.232	98.56
244.465	118.56
244.699	107.56
244.932	100.56
245.166	101.56
245.399	103.56
245.633	98.56
245.866	104.56
246.099	104.56
246.333	117.56
246.566	101.56
246.8	112.56
247.033	119.56
247.266	108.56
247.5	104.56
247.733	113.56
247.966	128.56
248.2	121.56
248.433	112.56
248.666	112.56
248.899	119.56
249.133	131.56
249.366	123.56
249.599	131.56
249.832	134.56
250.066	115.56
250.299	123.56
250.532	132.56
250.765	132.56
250.998	128.56
251.231	136.56
251.465	128.56
251.698	145.56
251.931	124.56
252.164	111.56
252.397	124.56
252.63	122.56
252.863	135.56
253.096	138.56
253.329	141.56
253.562	125.56
253.795	133.56
254.028	132.56
254.261	132.56
254.494	145.56
254.727	146.56
254.96	162.56
255.193	156.56
255.426	140.56
255.659	131.56
255.892	149.56
256.124	161.56
256.357	148.56
256.59	124.56
256.823	130.56
257.056	123.56
257.289	128.56
257.521	128.56
257.754	138.56
257.987	144.56
258.22	140.56
258.452	132.56
258.685	142.56
258.918	134.56
259.151	124.56
259.383	142.56
259.616	136.56
259.849	138.56
260.081	139.56
260.314	146.56
260.547	156.56
260.779	159.56
261.012	152.56
261.244	139.56
261.477	144.56
261.71	118.56
261.942	120.56
262.175	150.56
262.407	160.56
262.64	134.56
262.872	128.56
263.105	124.56
263.337	145.56
263.57	118.56
263.802	121.56
264.035	135.56
264.267	128.56
264.499	122.56
264.732	131.56
264.964	130.56
265.197	129.56
265.429	144.56
265.661	141.56
265.894	142.56
266.126	120.56
266.358	128.56
266.591	122.56
266.823	137.56
267.055	155.56
267.287	122.56
267.52	130.56
267.752	133.56
267.984	138.56
268.216	127.56
268.448	163.56
268.681	158.56
268.913	160.56
269.145	158.56
269.377	161.56
269.609	151.56
269.841	163.56
270.073	161.56
270.306	171.56
270.538	187.56
270.77	180.56
271.002	157.56
271.234	174.56
271.466	174.56
271.698	168.56
271.93	183.56
272.162	182.56
272.394	179.56
272.626	176.56
272.858	169.56
273.09	148.56
273.322	148.56
273.553	150.56
273.785	158.56
274.017	164.56
274.249	148.56
274.481	139.56
274.713	152.56
274.945	159.56
275.176	159.56
275.408	151.56
275.64	147.56
275.872	155.56
276.104	164.56
276.335	160.56
276.567	157.56
276.799	176.56
277.031	201.56
277.262	189.56
277.494	167.56
277.726	166.56
277.957	171.56
278.189	174.56
278.421	160.56
278.652	160.56
278.884	160.56
279.115	155.56
279.347	152.56
279.579	156.56
279.81	166.56
280.042	160.56
280.273	171.56
280.505	158.56
280.736	162.56
280.968	162.56
281.199	152.56
281.431	169.56
281.662	146.56
281.894	160.56
282.125	156.56
282.356	172.56
282.588	184.56
282.819	165.56
283.051	155.56
283.282	152.56
283.513	168.56
283.745	158.56
283.976	171.56
284.207	168.56
284.439	140.56
284.67	160.56
284.901	166.56
285.132	173.56
285.364	160.56
285.595	163.56
285.826	160.56
286.057	190.56
286.288	156.56
286.52	145.56
286.751	167.56
286.982	150.56
287.213	164.56
287.444	164.56
287.675	185.56
287.906	177.56
288.138	185.56
288.369	172.56
288.6	189.56
288.831	169.56
289.062	184.56
289.293	171.56
289.524	158.56
289.755	155.56
289.986	166.56
290.217	163.56
290.448	168.56
290.679	160.56
290.91	160.56
291.141	172.56
291.371	169.56
291.602	157.56
291.833	156.56
292.064	184.56
292.295	169.56
292.526	173.56
292.757	156.56
292.987	178.56
293.218	165.56
293.449	164.56
293.68	165.56
293.91	167.56
294.141	167.56
294.372	158.56
294.603	168.56
294.833	164.56
295.064	178.56
295.295	171.56
295.525	160.56
295.756	180.56
295.987	174.56
296.217	172.56
296.448	192.56
296.679	172.56
296.909	172.56
297.14	165.56
297.37	163.56
297.601	158.56
297.831	187.56
298.062	176.56
298.292	160.56
298.523	181.56
298.753	195.56
298.984	175.56
299.214	173.56
299.445	178.56
299.675	182.56
299.905	184.56
300.136	170.56
300.366	173.56
300.597	172.56
300.827	171.56
301.057	193.56
301.288	201.56
301.518	180.56
301.748	188.56
301.979	178.56
302.209	202.56
302.439	190.56
302.669	185.56
302.9	184.56
303.13	180.56
303.36	185.56
303.59	186.56
303.82	186.56
304.051	188.56
304.281	184.56
304.511	193.56
304.741	182.56
304.971	192.56
305.201	185.56
305.431	187.56
305.661	180.56
305.891	190.56
306.121	197.56
306.352	189.56
306.582	199.56
306.812	195.56
307.042	176.56
307.272	193.56
307.502	182.56
307.731	192.56
307.961	195.56
308.191	190.56
308.421	178.56
308.651	198.56
308.881	186.56
309.111	194.56
309.341	189.56
309.571	176.56
309.8	203.56
310.03	192.56
310.26	197.56
310.49	200.56
310.72	211.56
310.949	206.56
311.179	219.56
311.409	218.56
311.639	208.56
311.868	193.56
312.098	206.56
312.328	210.56
312.557	227.56
312.787	220.56
313.017	219.56
313.246	202.56
313.476	185.56
313.706	196.56
313.935	221.56
314.165	221.56
314.394	217.56
314.624	215.56
314.853	214.56
315.083	201.56
315.312	220.56
315.542	205.56
315.771	192.56
316.001	198.56
316.23	198.56
316.46	189.56
316.689	205.56
316.919	212.56
317.148	220.56
317.377	209.56
317.607	210.56
317.836	212.56
318.065	209.56
318.295	208.56
318.524	218.56
318.753	202.56
318.983	187.56
319.212	186.56
319.441	197.56
319.67	204.56
319.9	205.56
320.129	217.56
320.358	204.56
320.587	197.56
320.816	197.56
321.046	214.56
321.275	233.56
321.504	206.56
321.733	223.56
321.962	206.56
322.191	210.56
322.42	231.56
322.649	219.56
322.878	246.56
323.108	269.56
323.337	258.56
323.566	272.56
323.795	276.56
324.024	296.56
324.253	369.56
324.482	522.56
324.71	791.56
324.939	1053.56
325.168	841.56
325.397	436.56
325.626	296.56
325.855	244.56
326.084	261.56
326.313	266.56
326.542	273.56
326.77	276.56
326.999	346.56
327.228	438.56
327.457	668.56
327.686	760.56
327.914	494.56
328.143	335.56
328.372	312.56
328.6	308.56
328.829	290.56
329.058	292.56
329.287	284.56
329.515	289.56
329.744	272.56
329.972	278.56
330.201	288.56
330.43	322.56
330.658	323.56
330.887	330.56
331.115	329.56
331.344	267.56
331.572	268.56
331.801	261.56
332.03	274.56
332.258	252.56
332.486	211.56
332.715	220.56
332.943	230.56
333.172	236.56
333.4	244.56
333.629	255.56
333.857	260.56
334.085	249.56
334.314	285.56
334.542	285.56
334.771	282.56
334.999	282.56
335.227	256.56
335.455	266.56
335.684	254.56
335.912	234.56
336.14	234.56
336.369	236.56
336.597	238.56
336.825	245.56
337.053	208.56
337.281	221.56
337.51	248.56
337.738	215.56
337.966	211.56
338.194	246.56
338.422	226.56
338.65	218.56
338.878	232.56
339.106	209.56
339.334	229.56
339.562	215.56
339.79	217.56
340.018	218.56
340.246	229.56
340.474	226.56
340.702	222.56
340.93	217.56
341.158	202.56
341.386	237.56
341.614	226.56
341.842	232.56
342.07	207.56
342.298	212.56
342.526	221.56
342.754	220.56
342.981	216.56
343.209	201.56
343.437	219.56
343.665	228.56
343.893	230.56
344.12	249.56
344.348	210.56
344.576	213.56
344.804	224.56
345.031	235.56
345.259	230.56
345.487	248.56
345.714	229.56
345.942	234.56
346.17	212.56
346.397	215.56
346.625	229.56
346.853	213.56
347.08	222.56
347.308	216.56
347.535	228.56
347.763	229.56
347.99	227.56
348.218	221.56
348.445	216.56
348.673	237.56
348.9	223.56
349.128	225.56
349.355	228.56
349.583	216.56
349.81	214.56
350.037	210.56
350.265	200.56
350.492	194.56
350.72	214.56
350.947	226.56
351.174	216.56
351.402	224.56
351.629	212.56
351.856	228.56
352.083	238.56
352.311	208.56
352.538	228.56
352.765	228.56
352.992	221.56
353.22	227.56
353.447	218.56
353.674	201.56
353.901	228.56
354.128	221.56
354.355	205.56
354.583	217.56
354.81	213.56
355.037	215.56
355.264	211.56
355.491	211.56
355.718	224.56
355.945	192.56
356.172	195.56
356.399	188.56
356.626	211.56
356.853	205.56
357.08	200.56
357.307	195.56
357.534	200.56
357.761	210.56
357.988	194.56
358.215	216.56
358.441	206.56
358.668	213.56
358.895	200.56
359.122	210.56
359.349	204.56
359.576	219.56
359.802	236.56
360.029	242.56
360.256	268.56
360.483	243.56
360.709	225.56
360.936	211.56
361.163	222.56
361.39	217.56
361.616	241.56
361.843	222.56
362.07	218.56
362.296	224.56
362.523	214.56
362.749	219.56
362.976	207.56
363.203	211.56
363.429	198.56
363.656	215.56
363.882	205.56
364.109	205.56
364.335	210.56
364.562	220.56
364.788	208.56
365.015	203.56
365.241	211.56
365.468	224.56
365.694	209.56
365.92	210.56
366.147	196.56
366.373	210.56
366.599	206.56
366.826	205.56
367.052	209.56
367.278	204.56
367.505	209.56
367.731	206.56
367.957	222.56
368.184	206.56
368.41	197.56
368.636	207.56
368.862	237.56
369.089	214.56
369.315	215.56
369.541	210.56
369.767	198.56
369.993	209.56
370.219	214.56
370.445	187.56
370.672	217.56
370.898	203.56
371.124	184.56
371.35	221.56
371.576	204.56
371.802	190.56
372.028	204.56
372.254	201.56
372.48	215.56
372.706	219.56
372.932	196.56
373.158	216.56
373.384	198.56
373.61	200.56
373.835	204.56
374.061	221.56
374.287	221.56
374.513	201.56
374.739	197.56
374.965	192.56
375.191	200.56
375.416	209.56
375.642	195.56
375.868	206.56
376.094	218.56
376.319	211.56
376.545	220.56
376.771	200.56
376.997	216.56
377.222	194.56
377.448	201.56
377.674	205.56
377.899	197.56
378.125	209.56
378.35	200.56
378.576	209.56
378.802	197.56
379.027	196.56
379.253	208.56
379.478	215.56
379.704	198.56
379.929	207.56
380.155	206.56
380.38	190.56
380.606	216.56
380.831	217.56
381.057	234.56
381.282	204.56
381.507	193.56
381.733	196.56
381.958	206.56
382.184	192.56
382.409	183.56
382.634	193.56
382.86	206.56
383.085	210.56
383.31	206.56
383.535	223.56
383.761	198.56
383.986	217.56
384.211	220.56
384.436	221.56
384.662	216.56
384.887	222.56
385.112	212.56
385.337	228.56
385.562	219.56
385.787	221.56
386.013	233.56
386.238	232.56
386.463	202.56
386.688	216.56
386.913	227.56
387.138	218.56
387.363	214.56
387.588	232.56
387.813	215.56
388.038	209.56
388.263	221.56
388.488	198.56
388.713	221.56
388.938	215.56
389.163	220.56
389.387	226.56
389.612	212.56
389.837	225.56
390.062	217.56
390.287	217.56
390.512	223.56
390.736	212.56
390.961	218.56
391.186	229.56
391.411	217.56
391.636	207.56
391.86	221.56
392.085	227.56
392.31	216.56
392.534	220.56
392.759	228.56
392.984	227.56
393.208	218.56
393.433	233.56
393.658	222.56
393.882	228.56
394.107	212.56
394.331	225.56
394.556	220.56
394.78	229.56
395.005	224.56
395.229	213.56
395.454	237.56
395.678	229.56
395.903	245.56
396.127	238.56
396.352	233.56
396.576	213.56
396.801	225.56
397.025	233.56
397.249	240.56
397.474	226.56
397.698	249.56
397.922	259.56
398.147	238.56
398.371	237.56
398.595	244.56
398.82	247.56
399.044	236.56
399.268	257.56
399.492	274.56
399.717	288.56
399.941	303.56
400.165	293.56
400.389	316.56
400.613	275.56
400.837	266.56
401.062	264.56
401.286	232.56
401.51	246.56
401.734	244.56
401.958	258.56
402.182	258.56
402.406	257.56
402.63	261.56
402.854	243.56
403.078	268.56
403.302	247.56
403.526	254.56
403.75	260.56
403.974	259.56
404.198	269.56
404.422	265.56
404.645	259.56
404.869	251.56
405.093	275.56
405.317	301.56
405.541	314.56
405.765	285.56
405.988	272.56
406.212	274.56
406.436	289.56
406.66	309.56
406.883	283.56
407.107	301.56
407.331	320.56
407.555	334.56
407.778	334.56
408.002	296.56
408.226	286.56
408.449	287.56
408.673	267.56
408.896	254.56
409.12	280.56
409.344	293.56
409.567	272.56
409.791	275.56
410.014	276.56
410.238	271.56
410.461	264.56
410.685	262.56
410.908	265.56
411.132	296.56
411.355	288.56
411.578	266.56
411.802	278.56
412.025	256.56
412.249	258.56
412.472	280.56
412.695	272.56
412.919	271.56
413.142	265.56
413.365	251.56
413.589	263.56
413.812	234.56
414.035	272.56
414.258	260.56
414.482	248.56
414.705	250.56
414.928	233.56
415.151	241.56
415.374	244.56
415.597	252.56
415.821	269.56
416.044	240.56
416.267	244.56
416.49	252.56
416.713	240.56
416.936	231.56
417.159	252.56
417.382	251.56
417.605	259.56
417.828	253.56
418.051	252.56
418.274	247.56
418.497	260.56
418.72	244.56
418.943	255.56
419.166	249.56
419.389	250.56
419.611	266.56
419.834	263.56
420.057	265.56
420.28	260.56
420.503	263.56
420.726	261.56
420.948	261.56
421.171	287.56
421.394	292.56
421.617	260.56
421.839	245.56
422.062	268.56
422.285	253.56
422.507	278.56
422.73	338.56
422.953	317.56
423.175	273.56
423.398	260.56
423.621	274.56
423.843	291.56
424.066	278.56
424.288	276.56
424.511	274.56
424.733	307.56
424.956	314.56
425.178	304.56
425.401	313.56
425.623	344.56
425.846	306.56
426.068	284.56
426.291	260.56
426.513	275.56
426.735	270.56
426.958	301.56
427.18	334.56
427.402	386.56
427.625	414.56
427.847	371.56
428.069	312.56
428.292	277.56
428.514	256.56
428.736	230.56
428.958	248.56
429.181	248.56
429.403	248.56
429.625	246.56
429.847	279.56
430.069	300.56
430.292	283.56
430.514	241.56
430.736	257.56
430.958	248.56
431.18	236.56
431.402	264.56
431.624	229.56
431.846	220.56
432.068	227.56
432.29	243.56
432.512	256.56
432.734	247.56
432.956	250.56
433.178	258.56
433.4	261.56
433.622	233.56
433.844	254.56
434.066	237.56
434.287	237.56
434.509	242.56
434.731	268.56
434.953	260.56
435.175	251.56
435.397	270.56
435.618	270.56
435.84	326.56
436.062	334.56
436.284	372.56
436.505	300.56
436.727	262.56
436.949	246.56
437.17	240.56
437.392	255.56
437.614	272.56
437.835	287.56
438.057	323.56
438.278	361.56
438.5	352.56
438.721	354.56
438.943	356.56
439.165	278.56
439.386	286.56
439.608	268.56
439.829	276.56
440.05	280.56
440.272	300.56
440.493	278.56
440.715	259.56
440.936	258.56
441.158	261.56
441.379	266.56
441.6	258.56
441.822	275.56
442.043	288.56
442.264	334.56
442.486	361.56
442.707	288.56
442.928	289.56
443.149	301.56
443.371	299.56
443.592	312.56
443.813	352.56
444.034	370.56
444.255	316.56
444.476	269.56
444.698	270.56
444.919	265.56
445.14	359.56
445.361	295.56
445.582	297.56
445.803	321.56
446.024	388.56
446.245	365.56
446.466	325.56
446.687	304.56
446.908	262.56
447.129	261.56
447.35	252.56
447.571	248.56
447.792	247.56
448.013	258.56
448.234	282.56
448.455	290.56
448.675	334.56
448.896	359.56
449.117	318.56
449.338	299.56
449.559	363.56
449.779	373.56
450	296.56
450.221	270.56
450.442	258.56
450.662	243.56
450.883	250.56
451.104	278.56
451.324	268.56
451.545	257.56
451.766	236.56
451.986	232.56
452.207	224.56
452.428	208.56
452.648	244.56
452.869	242.56
453.089	229.56
453.31	233.56
453.53	221.56
453.751	231.56
453.971	248.56
454.192	245.56
454.412	234.56
454.633	229.56
454.853	226.56
455.073	224.56
455.294	235.56
455.514	293.56
455.734	278.56
455.955	218.56
456.175	231.56
456.395	213.56
456.616	209.56
456.836	235.56
457.056	192.56
457.276	206.56
457.497	230.56
457.717	212.56
457.937	221.56
458.157	219.56
458.377	218.56
458.598	232.56
458.818	261.56
459.038	304.56
459.258	331.56
459.478	269.56
459.698	235.56
459.918	248.56
460.138	242.56
460.358	258.56
460.578	255.56
460.798	226.56
461.018	245.56
461.238	267.56
461.458	219.56
461.678	235.56
461.898	255.56
462.118	253.56
462.338	234.56
462.558	254.56
462.777	263.56
462.997	247.56
463.217	276.56
463.437	250.56
463.657	262.56
463.876	237.56
464.096	255.56
464.316	250.56
464.536	257.56
464.755	255.56
464.975	266.56
465.195	296.56
465.414	341.56
465.634	299.56
465.854	255.56
466.073	266.56
466.293	246.56
466.512	242.56
466.732	245.56
466.951	237.56
467.171	221.56
467.391	245.56
467.61	242.56
467.829	247.56
468.049	240.56
468.268	234.56
468.488	248.56
468.707	247.56
468.927	221.56
469.146	209.56
469.365	234.56
469.585	233.56
469.804	248.56
470.023	238.56
470.243	256.56
470.462	261.56
470.681	255.56
470.901	236.56
471.12	258.56
471.339	237.56
471.558	238.56
471.777	250.56
471.997	244.56
472.216	232.56
472.435	290.56
472.654	247.56
472.873	232.56
473.092	221.56
473.311	226.56
473.53	245.56
473.749	252.56
473.968	270.56
474.187	318.56
474.406	323.56
474.625	266.56
474.844	233.56
475.063	243.56
475.282	239.56
475.501	233.56
475.72	235.56
475.939	241.56
476.158	250.56
476.377	247.56
476.596	252.56
476.814	225.56
477.033	266.56
477.252	260.56
477.471	255.56
477.69	251.56
477.908	260.56
478.127	241.56
478.346	246.56
478.564	260.56
478.783	266.56
479.002	251.56
479.22	254.56
479.439	273.56
479.658	267.56
479.876	302.56
480.095	283.56
480.313	290.56
480.532	284.56
480.751	284.56
480.969	319.56
481.188	363.56
481.406	388.56
481.624	310.56
481.843	305.56
482.061	270.56
482.28	274.56
482.498	276.56
482.717	261.56
482.935	268.56
483.153	269.56
483.372	267.56
483.59	282.56
483.808	293.56
484.027	276.56
484.245	268.56
484.463	269.56
484.681	283.56
484.9	300.56
485.118	278.56
485.336	284.56
485.554	289.56
485.772	279.56
485.99	277.56
486.209	274.56
486.427	282.56
486.645	301.56
486.863	323.56
487.081	304.56
487.299	283.56
487.517	297.56
487.735	285.56
487.953	274.56
488.171	290.56
488.389	293.56
488.607	295.56
488.825	291.56
489.043	284.56
489.261	304.56
489.479	294.56
489.696	306.56
489.914	291.56
490.132	294.56
490.35	315.56
490.568	316.56
490.786	318.56
491.003	313.56
491.221	316.56
491.439	331.56
491.657	340.56
491.874	350.56
492.092	347.56
492.31	354.56
492.527	348.56
492.745	353.56
492.963	353.56
493.18	348.56
493.398	335.56
493.615	329.56
493.833	327.56
494.05	356.56
494.268	342.56
494.485	374.56
494.703	348.56
494.92	328.56
495.138	340.56
495.355	339.56
495.573	354.56
495.79	341.56
496.008	354.56
496.225	350.56
496.442	340.56
496.66	348.56
496.877	332.56
497.094	339.56
497.312	366.56
497.529	330.56
497.746	357.56
497.963	368.56
498.181	382.56
498.398	367.56
498.615	354.56
498.832	366.56
499.049	378.56
499.267	390.56
499.484	382.56
499.701	409.56
499.918	430.56
500.135	413.56
500.352	449.56
500.569	456.56
500.786	479.56
501.003	463.56
501.22	451.56
501.437	420.56
501.654	428.56
501.871	413.56
502.088	396.56
502.305	394.56
502.522	380.56
