Data from 1966.PennyLincolnUp.Lamp.En5.5.200Scan.071719.P1._HRD10591_14-13-37-914.txt Node
Date: Thu Jul 18 14:13:37 EDT 2019
User: cochatt
Spectrometer: HR+D1059
Trigger mode: 1
Integration Time (sec): 1.000000E-1
Scans to average: 1
Electric dark correction enabled: true
Nonlinearity correction enabled: false
Boxcar width: 0
XAxis mode: Wavelengths
Number of Pixels in Spectrum: 2048
>>>>>Begin Spectral Data<<<<<
223.165	-10.44
223.4	-10.44
223.635	-10.44
223.869	-19.44
224.104	-11.44
224.338	-14.44
224.573	1.56
224.808	-14.44
225.042	-10.44
225.277	-0.44
225.511	-0.44
225.746	3.56
225.98	-7.44
226.215	6.56
226.449	-4.44
226.683	21.56
226.918	21.56
227.152	38.56
227.387	38.56
227.621	28.56
227.856	40.56
228.09	45.56
228.324	43.56
228.559	45.56
228.793	49.56
229.027	71.56
229.262	67.56
229.496	76.56
229.73	91.56
229.964	113.56
230.199	97.56
230.433	69.56
230.667	83.56
230.901	90.56
231.136	80.56
231.37	104.56
231.604	83.56
231.838	91.56
232.072	88.56
232.306	99.56
232.541	85.56
232.775	87.56
233.009	86.56
233.243	88.56
233.477	82.56
233.711	99.56
233.945	95.56
234.179	96.56
234.413	85.56
234.647	80.56
234.881	83.56
235.115	99.56
235.349	86.56
235.583	101.56
235.817	94.56
236.051	101.56
236.285	77.56
236.519	94.56
236.753	109.56
236.987	104.56
237.221	103.56
237.455	136.56
237.689	131.56
237.922	102.56
238.156	99.56
238.39	81.56
238.624	106.56
238.858	76.56
239.091	101.56
239.325	85.56
239.559	98.56
239.793	88.56
240.027	91.56
240.26	105.56
240.494	108.56
240.728	103.56
240.961	111.56
241.195	101.56
241.429	103.56
241.662	82.56
241.896	104.56
242.13	76.56
242.363	89.56
242.597	89.56
242.83	103.56
243.064	104.56
243.298	93.56
243.531	78.56
243.765	89.56
243.998	114.56
244.232	100.56
244.465	104.56
244.699	102.56
244.932	97.56
245.166	115.56
245.399	100.56
245.633	87.56
245.866	94.56
246.099	97.56
246.333	95.56
246.566	100.56
246.8	104.56
247.033	114.56
247.266	106.56
247.5	107.56
247.733	133.56
247.966	120.56
248.2	123.56
248.433	121.56
248.666	121.56
248.899	129.56
249.133	122.56
249.366	130.56
249.599	140.56
249.832	120.56
250.066	111.56
250.299	136.56
250.532	129.56
250.765	136.56
250.998	138.56
251.231	132.56
251.465	114.56
251.698	125.56
251.931	112.56
252.164	119.56
252.397	123.56
252.63	127.56
252.863	128.56
253.096	134.56
253.329	139.56
253.562	126.56
253.795	145.56
254.028	136.56
254.261	121.56
254.494	126.56
254.727	167.56
254.96	184.56
255.193	166.56
255.426	152.56
255.659	147.56
255.892	145.56
256.124	133.56
256.357	138.56
256.59	146.56
256.823	130.56
257.056	134.56
257.289	128.56
257.521	125.56
257.754	120.56
257.987	130.56
258.22	114.56
258.452	111.56
258.685	127.56
258.918	144.56
259.151	143.56
259.383	126.56
259.616	140.56
259.849	126.56
260.081	124.56
260.314	143.56
260.547	156.56
260.779	157.56
261.012	144.56
261.244	131.56
261.477	140.56
261.71	144.56
261.942	145.56
262.175	148.56
262.407	143.56
262.64	127.56
262.872	135.56
263.105	129.56
263.337	143.56
263.57	137.56
263.802	126.56
264.035	120.56
264.267	125.56
264.499	128.56
264.732	130.56
264.964	138.56
265.197	130.56
265.429	128.56
265.661	122.56
265.894	125.56
266.126	142.56
266.358	127.56
266.591	137.56
266.823	136.56
267.055	139.56
267.287	141.56
267.52	124.56
267.752	150.56
267.984	128.56
268.216	140.56
268.448	147.56
268.681	151.56
268.913	155.56
269.145	162.56
269.377	165.56
269.609	154.56
269.841	163.56
270.073	150.56
270.306	169.56
270.538	192.56
270.77	179.56
271.002	181.56
271.234	162.56
271.466	174.56
271.698	180.56
271.93	172.56
272.162	180.56
272.394	183.56
272.626	172.56
272.858	167.56
273.09	148.56
273.322	162.56
273.553	153.56
273.785	145.56
274.017	156.56
274.249	149.56
274.481	156.56
274.713	139.56
274.945	160.56
275.176	165.56
275.408	155.56
275.64	137.56
275.872	159.56
276.104	159.56
276.335	152.56
276.567	145.56
276.799	153.56
277.031	175.56
277.262	187.56
277.494	175.56
277.726	169.56
277.957	161.56
278.189	161.56
278.421	155.56
278.652	148.56
278.884	150.56
279.115	161.56
279.347	159.56
279.579	163.56
279.81	149.56
280.042	164.56
280.273	141.56
280.505	154.56
280.736	160.56
280.968	158.56
281.199	140.56
281.431	151.56
281.662	162.56
281.894	161.56
282.125	157.56
282.356	175.56
282.588	171.56
282.819	184.56
283.051	163.56
283.282	162.56
283.513	144.56
283.745	160.56
283.976	157.56
284.207	162.56
284.439	183.56
284.67	137.56
284.901	163.56
285.132	134.56
285.364	141.56
285.595	153.56
285.826	140.56
286.057	166.56
286.288	167.56
286.52	155.56
286.751	157.56
286.982	160.56
287.213	175.56
287.444	145.56
287.675	160.56
287.906	172.56
288.138	171.56
288.369	178.56
288.6	170.56
288.831	163.56
289.062	160.56
289.293	160.56
289.524	166.56
289.755	189.56
289.986	161.56
290.217	162.56
290.448	161.56
290.679	155.56
290.91	167.56
291.141	156.56
291.371	172.56
291.602	154.56
291.833	158.56
292.064	151.56
292.295	168.56
292.526	159.56
292.757	159.56
292.987	167.56
293.218	160.56
293.449	156.56
293.68	169.56
293.91	167.56
294.141	155.56
294.372	172.56
294.603	160.56
294.833	157.56
295.064	160.56
295.295	173.56
295.525	162.56
295.756	160.56
295.987	168.56
296.217	195.56
296.448	177.56
296.679	167.56
296.909	161.56
297.14	170.56
297.37	176.56
297.601	181.56
297.831	178.56
298.062	164.56
298.292	175.56
298.523	171.56
298.753	172.56
298.984	174.56
299.214	177.56
299.445	151.56
299.675	179.56
299.905	180.56
300.136	177.56
300.366	167.56
300.597	180.56
300.827	183.56
301.057	169.56
301.288	161.56
301.518	174.56
301.748	161.56
301.979	163.56
302.209	174.56
302.439	166.56
302.669	179.56
302.9	183.56
303.13	176.56
303.36	171.56
303.59	183.56
303.82	174.56
304.051	171.56
304.281	182.56
304.511	179.56
304.741	175.56
304.971	174.56
305.201	180.56
305.431	193.56
305.661	189.56
305.891	167.56
306.121	189.56
306.352	186.56
306.582	186.56
306.812	192.56
307.042	183.56
307.272	175.56
307.502	177.56
307.731	196.56
307.961	193.56
308.191	181.56
308.421	191.56
308.651	185.56
308.881	182.56
309.111	184.56
309.341	177.56
309.571	192.56
309.8	185.56
310.03	203.56
310.26	214.56
310.49	189.56
310.72	195.56
310.949	214.56
311.179	215.56
311.409	201.56
311.639	200.56
311.868	201.56
312.098	204.56
312.328	201.56
312.557	206.56
312.787	225.56
313.017	223.56
313.246	185.56
313.476	213.56
313.706	188.56
313.935	200.56
314.165	183.56
314.394	218.56
314.624	212.56
314.853	192.56
315.083	203.56
315.312	203.56
315.542	209.56
315.771	201.56
316.001	190.56
316.23	201.56
316.46	209.56
316.689	197.56
316.919	221.56
317.148	202.56
317.377	213.56
317.607	210.56
317.836	200.56
318.065	212.56
318.295	195.56
318.524	201.56
318.753	199.56
318.983	197.56
319.212	175.56
319.441	203.56
319.67	211.56
319.9	194.56
320.129	194.56
320.358	207.56
320.587	197.56
320.816	224.56
321.046	208.56
321.275	208.56
321.504	220.56
321.733	210.56
321.962	208.56
322.191	219.56
322.42	205.56
322.649	229.56
322.878	229.56
323.108	245.56
323.337	234.56
323.566	259.56
323.795	284.56
324.024	270.56
324.253	352.56
324.482	474.56
324.71	718.56
324.939	972.56
325.168	789.56
325.397	415.56
325.626	298.56
325.855	270.56
326.084	243.56
326.313	257.56
326.542	251.56
326.77	260.56
326.999	323.56
327.228	456.56
327.457	645.56
327.686	725.56
327.914	471.56
328.143	351.56
328.372	308.56
328.6	309.56
328.829	288.56
329.058	287.56
329.287	293.56
329.515	277.56
329.744	267.56
329.972	264.56
330.201	280.56
330.43	300.56
330.658	327.56
330.887	315.56
331.115	316.56
331.344	268.56
331.572	244.56
331.801	244.56
332.03	235.56
332.258	263.56
332.486	246.56
332.715	230.56
332.943	210.56
333.172	231.56
333.4	237.56
333.629	213.56
333.857	242.56
334.085	241.56
334.314	277.56
334.542	296.56
334.771	311.56
334.999	259.56
335.227	230.56
335.455	236.56
335.684	221.56
335.912	236.56
336.14	227.56
336.369	228.56
336.597	228.56
336.825	247.56
337.053	222.56
337.281	213.56
337.51	234.56
337.738	218.56
337.966	205.56
338.194	217.56
338.422	239.56
338.65	226.56
338.878	217.56
339.106	208.56
339.334	221.56
339.562	228.56
339.79	205.56
340.018	234.56
340.246	213.56
340.474	218.56
340.702	214.56
340.93	217.56
341.158	214.56
341.386	226.56
341.614	214.56
341.842	213.56
342.07	222.56
342.298	229.56
342.526	212.56
342.754	200.56
342.981	217.56
343.209	213.56
343.437	218.56
343.665	220.56
343.893	211.56
344.12	232.56
344.348	219.56
344.576	223.56
344.804	248.56
345.031	222.56
345.259	229.56
345.487	229.56
345.714	236.56
345.942	208.56
346.17	208.56
346.397	218.56
346.625	215.56
346.853	214.56
347.08	211.56
347.308	208.56
347.535	217.56
347.763	227.56
347.99	204.56
348.218	219.56
348.445	232.56
348.673	222.56
348.9	223.56
349.128	198.56
349.355	202.56
349.583	205.56
349.81	204.56
350.037	203.56
350.265	209.56
350.492	213.56
350.72	216.56
350.947	233.56
351.174	215.56
351.402	215.56
351.629	221.56
351.856	215.56
352.083	215.56
352.311	224.56
352.538	232.56
352.765	232.56
352.992	221.56
353.22	206.56
353.447	211.56
353.674	206.56
353.901	187.56
354.128	216.56
354.355	217.56
354.583	193.56
354.81	198.56
355.037	189.56
355.264	201.56
355.491	211.56
355.718	194.56
355.945	200.56
356.172	212.56
356.399	192.56
356.626	187.56
356.853	220.56
357.08	205.56
357.307	225.56
357.534	187.56
357.761	200.56
357.988	208.56
358.215	193.56
358.441	209.56
358.668	209.56
358.895	197.56
359.122	224.56
359.349	204.56
359.576	207.56
359.802	232.56
360.029	263.56
360.256	248.56
360.483	223.56
360.709	220.56
360.936	203.56
361.163	189.56
361.39	213.56
361.616	222.56
361.843	218.56
362.07	226.56
362.296	211.56
362.523	214.56
362.749	209.56
362.976	226.56
363.203	208.56
363.429	206.56
363.656	205.56
363.882	212.56
364.109	186.56
364.335	202.56
364.562	203.56
364.788	217.56
365.015	193.56
365.241	190.56
365.468	212.56
365.694	225.56
365.92	216.56
366.147	192.56
366.373	210.56
366.599	205.56
366.826	204.56
367.052	193.56
367.278	193.56
367.505	208.56
367.731	198.56
367.957	208.56
368.184	205.56
368.41	216.56
368.636	225.56
368.862	213.56
369.089	199.56
369.315	195.56
369.541	195.56
369.767	203.56
369.993	213.56
370.219	216.56
370.445	197.56
370.672	216.56
370.898	206.56
371.124	203.56
371.35	216.56
371.576	189.56
371.802	195.56
372.028	199.56
372.254	201.56
372.48	196.56
372.706	194.56
372.932	212.56
373.158	186.56
373.384	223.56
373.61	199.56
373.835	207.56
374.061	191.56
374.287	195.56
374.513	197.56
374.739	193.56
374.965	207.56
375.191	192.56
375.416	216.56
375.642	217.56
375.868	218.56
376.094	192.56
376.319	203.56
376.545	205.56
376.771	187.56
376.997	201.56
377.222	212.56
377.448	214.56
377.674	197.56
377.899	200.56
378.125	185.56
378.35	185.56
378.576	187.56
378.802	200.56
379.027	195.56
379.253	213.56
379.478	212.56
379.704	193.56
379.929	203.56
380.155	204.56
380.38	201.56
380.606	207.56
380.831	211.56
381.057	225.56
381.282	188.56
381.507	205.56
381.733	197.56
381.958	208.56
382.184	196.56
382.409	204.56
382.634	214.56
382.86	214.56
383.085	186.56
383.31	201.56
383.535	208.56
383.761	206.56
383.986	215.56
384.211	208.56
384.436	215.56
384.662	202.56
384.887	203.56
385.112	211.56
385.337	215.56
385.562	223.56
385.787	216.56
386.013	229.56
386.238	226.56
386.463	224.56
386.688	228.56
386.913	205.56
387.138	189.56
387.363	217.56
387.588	225.56
387.813	230.56
388.038	204.56
388.263	213.56
388.488	211.56
388.713	220.56
388.938	224.56
389.163	221.56
389.387	213.56
389.612	217.56
389.837	215.56
390.062	223.56
390.287	215.56
390.512	205.56
390.736	227.56
390.961	223.56
391.186	215.56
391.411	232.56
391.636	219.56
391.86	224.56
392.085	224.56
392.31	218.56
392.534	221.56
392.759	224.56
392.984	210.56
393.208	228.56
393.433	219.56
393.658	213.56
393.882	200.56
394.107	202.56
394.331	221.56
394.556	215.56
394.78	223.56
395.005	219.56
395.229	200.56
395.454	224.56
395.678	234.56
395.903	232.56
396.127	229.56
396.352	227.56
396.576	215.56
396.801	222.56
397.025	228.56
397.249	234.56
397.474	221.56
397.698	219.56
397.922	226.56
398.147	224.56
398.371	249.56
398.595	224.56
398.82	242.56
399.044	244.56
399.268	241.56
399.492	265.56
399.717	287.56
399.941	277.56
400.165	294.56
400.389	286.56
400.613	278.56
400.837	260.56
401.062	251.56
401.286	255.56
401.51	242.56
401.734	245.56
401.958	246.56
402.182	253.56
402.406	253.56
402.63	256.56
402.854	259.56
403.078	261.56
403.302	243.56
403.526	256.56
403.75	244.56
403.974	239.56
404.198	258.56
404.422	257.56
404.645	249.56
404.869	281.56
405.093	282.56
405.317	289.56
405.541	311.56
405.765	271.56
405.988	250.56
406.212	277.56
406.436	275.56
406.66	284.56
406.883	287.56
407.107	279.56
407.331	297.56
407.555	326.56
407.778	316.56
408.002	301.56
408.226	286.56
408.449	269.56
408.673	293.56
408.896	278.56
409.12	294.56
409.344	269.56
409.567	263.56
409.791	263.56
410.014	257.56
410.238	249.56
410.461	248.56
410.685	248.56
410.908	243.56
411.132	273.56
411.355	292.56
411.578	279.56
411.802	251.56
412.025	240.56
412.249	256.56
412.472	275.56
412.695	275.56
412.919	279.56
413.142	256.56
413.365	253.56
413.589	259.56
413.812	245.56
414.035	229.56
414.258	239.56
414.482	224.56
414.705	243.56
414.928	245.56
415.151	247.56
415.374	249.56
415.597	245.56
415.821	261.56
416.044	260.56
416.267	251.56
416.49	239.56
416.713	247.56
416.936	245.56
417.159	245.56
417.382	268.56
417.605	236.56
417.828	272.56
418.051	255.56
418.274	246.56
418.497	239.56
418.72	246.56
418.943	233.56
419.166	255.56
419.389	245.56
419.611	263.56
419.834	261.56
420.057	275.56
420.28	268.56
420.503	263.56
420.726	247.56
420.948	251.56
421.171	279.56
421.394	293.56
421.617	283.56
421.839	250.56
422.062	255.56
422.285	260.56
422.507	300.56
422.73	315.56
422.953	304.56
423.175	263.56
423.398	262.56
423.621	260.56
423.843	285.56
424.066	287.56
424.288	279.56
424.511	281.56
424.733	300.56
424.956	319.56
425.178	314.56
425.401	304.56
425.623	325.56
425.846	287.56
426.068	259.56
426.291	289.56
426.513	267.56
426.735	268.56
426.958	309.56
427.18	334.56
427.402	378.56
427.625	413.56
427.847	379.56
428.069	327.56
428.292	275.56
428.514	268.56
428.736	266.56
428.958	229.56
429.181	247.56
429.403	246.56
429.625	258.56
429.847	271.56
430.069	286.56
430.292	282.56
430.514	253.56
430.736	257.56
430.958	233.56
431.18	222.56
431.402	242.56
431.624	217.56
431.846	226.56
432.068	228.56
432.29	241.56
432.512	257.56
432.734	240.56
432.956	252.56
433.178	248.56
433.4	242.56
433.622	236.56
433.844	229.56
434.066	253.56
434.287	234.56
434.509	237.56
434.731	245.56
434.953	243.56
435.175	247.56
435.397	259.56
435.618	268.56
435.84	287.56
436.062	337.56
436.284	344.56
436.505	289.56
436.727	256.56
436.949	264.56
437.17	264.56
437.392	253.56
437.614	242.56
437.835	267.56
438.057	313.56
438.278	347.56
438.5	338.56
438.721	364.56
438.943	341.56
439.165	280.56
439.386	286.56
439.608	279.56
439.829	263.56
440.05	287.56
440.272	297.56
440.493	284.56
440.715	247.56
440.936	258.56
441.158	257.56
441.379	243.56
441.6	264.56
441.822	287.56
442.043	296.56
442.264	330.56
442.486	353.56
442.707	293.56
442.928	293.56
443.149	292.56
443.371	298.56
443.592	319.56
443.813	345.56
444.034	357.56
444.255	305.56
444.476	258.56
444.698	280.56
444.919	254.56
445.14	371.56
445.361	317.56
445.582	295.56
445.803	335.56
446.024	377.56
446.245	356.56
446.466	337.56
446.687	291.56
446.908	266.56
447.129	262.56
447.35	248.56
447.571	233.56
447.792	244.56
448.013	248.56
448.234	267.56
448.455	287.56
448.675	332.56
448.896	367.56
449.117	305.56
449.338	307.56
449.559	322.56
449.779	361.56
450	309.56
450.221	250.56
450.442	265.56
450.662	246.56
450.883	239.56
451.104	263.56
451.324	257.56
451.545	237.56
451.766	227.56
451.986	241.56
452.207	223.56
452.428	234.56
452.648	215.56
452.869	247.56
453.089	253.56
453.31	230.56
453.53	222.56
453.751	227.56
453.971	233.56
454.192	246.56
454.412	240.56
454.633	213.56
454.853	233.56
455.073	215.56
455.294	237.56
455.514	278.56
455.734	275.56
455.955	225.56
456.175	219.56
456.395	209.56
456.616	212.56
456.836	192.56
457.056	202.56
457.276	216.56
457.497	205.56
457.717	204.56
457.937	227.56
458.157	215.56
458.377	221.56
458.598	239.56
458.818	281.56
459.038	320.56
459.258	315.56
459.478	248.56
459.698	252.56
459.918	252.56
460.138	252.56
460.358	227.56
460.578	246.56
460.798	244.56
461.018	266.56
461.238	240.56
461.458	255.56
461.678	237.56
461.898	248.56
462.118	239.56
462.338	233.56
462.558	245.56
462.777	250.56
462.997	264.56
463.217	269.56
463.437	262.56
463.657	265.56
463.876	261.56
464.096	269.56
464.316	242.56
464.536	249.56
464.755	253.56
464.975	269.56
465.195	288.56
465.414	330.56
465.634	300.56
465.854	261.56
466.073	241.56
466.293	228.56
466.512	223.56
466.732	241.56
466.951	227.56
467.171	242.56
467.391	237.56
467.61	245.56
467.829	256.56
468.049	239.56
468.268	261.56
468.488	240.56
468.707	232.56
468.927	225.56
469.146	217.56
469.365	224.56
469.585	237.56
469.804	233.56
470.023	240.56
470.243	229.56
470.462	223.56
470.681	242.56
470.901	237.56
471.12	250.56
471.339	234.56
471.558	242.56
471.777	239.56
471.997	236.56
472.216	233.56
472.435	252.56
472.654	257.56
472.873	239.56
473.092	235.56
473.311	234.56
473.53	232.56
473.749	246.56
473.968	257.56
474.187	289.56
474.406	336.56
474.625	270.56
474.844	261.56
475.063	235.56
475.282	244.56
475.501	216.56
475.72	226.56
475.939	232.56
476.158	231.56
476.377	229.56
476.596	247.56
476.814	233.56
477.033	251.56
477.252	245.56
477.471	242.56
477.69	246.56
477.908	252.56
478.127	266.56
478.346	261.56
478.564	251.56
478.783	267.56
479.002	260.56
479.22	266.56
479.439	275.56
479.658	295.56
479.876	301.56
480.095	283.56
480.313	283.56
480.532	291.56
480.751	277.56
480.969	296.56
481.188	355.56
481.406	374.56
481.624	299.56
481.843	289.56
482.061	272.56
482.28	273.56
482.498	269.56
482.717	273.56
482.935	282.56
483.153	279.56
483.372	272.56
483.59	269.56
483.808	257.56
484.027	272.56
484.245	282.56
484.463	279.56
484.681	268.56
484.9	276.56
485.118	262.56
485.336	267.56
485.554	275.56
485.772	292.56
485.99	272.56
486.209	273.56
486.427	284.56
486.645	281.56
486.863	293.56
487.081	296.56
487.299	285.56
487.517	295.56
487.735	291.56
487.953	284.56
488.171	291.56
488.389	308.56
488.607	287.56
488.825	283.56
489.043	290.56
489.261	298.56
489.479	292.56
489.696	295.56
489.914	289.56
490.132	292.56
490.35	304.56
490.568	309.56
490.786	312.56
491.003	296.56
491.221	334.56
491.439	325.56
491.657	310.56
491.874	344.56
492.092	346.56
492.31	319.56
492.527	327.56
492.745	338.56
492.963	341.56
493.18	350.56
493.398	347.56
493.615	340.56
493.833	340.56
494.05	347.56
494.268	339.56
494.485	349.56
494.703	339.56
494.92	343.56
495.138	347.56
495.355	346.56
495.573	352.56
495.79	338.56
496.008	336.56
496.225	330.56
496.442	313.56
496.66	341.56
496.877	326.56
497.094	348.56
497.312	337.56
497.529	335.56
497.746	355.56
497.963	341.56
498.181	359.56
498.398	349.56
498.615	350.56
498.832	368.56
499.049	377.56
499.267	382.56
499.484	388.56
499.701	406.56
499.918	395.56
500.135	427.56
500.352	450.56
500.569	465.56
500.786	437.56
501.003	449.56
501.22	437.56
501.437	420.56
501.654	425.56
501.871	400.56
502.088	391.56
502.305	371.56
502.522	361.56
502.739	335.56
