Data from 1966.PennyLincolnUp.Lamp.En5.5.200Scan.071719.P1._HRD10591_14-12-34-913.txt Node
Date: Thu Jul 18 14:12:34 EDT 2019
User: cochatt
Spectrometer: HR+D1059
Trigger mode: 1
Integration Time (sec): 1.000000E-1
Scans to average: 1
Electric dark correction enabled: true
Nonlinearity correction enabled: false
Boxcar width: 0
XAxis mode: Wavelengths
Number of Pixels in Spectrum: 2048
>>>>>Begin Spectral Data<<<<<
223.165	-13.69
223.4	-13.69
223.635	-13.69
223.869	-20.69
224.104	-13.69
224.338	-8.69
224.573	-9.69
224.808	-19.69
225.042	-5.69
225.277	-11.69
225.511	-1.69
225.746	-7.69
225.98	10.31
226.215	12.31
226.449	14.31
226.683	19.31
226.918	24.31
227.152	32.31
227.387	29.31
227.621	28.31
227.856	33.31
228.09	52.31
228.324	41.31
228.559	42.31
228.793	63.31
229.027	74.31
229.262	83.31
229.496	76.31
229.73	87.31
229.964	81.31
230.199	84.31
230.433	88.31
230.667	73.31
230.901	88.31
231.136	83.31
231.37	94.31
231.604	89.31
231.838	91.31
232.072	107.31
232.306	93.31
232.541	94.31
232.775	78.31
233.009	87.31
233.243	87.31
233.477	98.31
233.711	89.31
233.945	90.31
234.179	89.31
234.413	90.31
234.647	92.31
234.881	100.31
235.115	76.31
235.349	87.31
235.583	85.31
235.817	90.31
236.051	91.31
236.285	89.31
236.519	85.31
236.753	114.31
236.987	102.31
237.221	122.31
237.455	146.31
237.689	118.31
237.922	110.31
238.156	93.31
238.39	97.31
238.624	87.31
238.858	90.31
239.091	97.31
239.325	93.31
239.559	102.31
239.793	99.31
240.027	69.31
240.26	103.31
240.494	117.31
240.728	105.31
240.961	111.31
241.195	110.31
241.429	95.31
241.662	96.31
241.896	90.31
242.13	97.31
242.363	115.31
242.597	83.31
242.83	97.31
243.064	100.31
243.298	94.31
243.531	117.31
243.765	95.31
243.998	103.31
244.232	102.31
244.465	98.31
244.699	98.31
244.932	110.31
245.166	100.31
245.399	93.31
245.633	101.31
245.866	91.31
246.099	98.31
246.333	98.31
246.566	96.31
246.8	99.31
247.033	106.31
247.266	109.31
247.5	104.31
247.733	104.31
247.966	114.31
248.2	103.31
248.433	115.31
248.666	113.31
248.899	117.31
249.133	122.31
249.366	120.31
249.599	122.31
249.832	123.31
250.066	124.31
250.299	98.31
250.532	123.31
250.765	106.31
250.998	123.31
251.231	132.31
251.465	113.31
251.698	111.31
251.931	117.31
252.164	117.31
252.397	109.31
252.63	118.31
252.863	115.31
253.096	142.31
253.329	130.31
253.562	143.31
253.795	128.31
254.028	118.31
254.261	135.31
254.494	131.31
254.727	133.31
254.96	137.31
255.193	161.31
255.426	139.31
255.659	139.31
255.892	123.31
256.124	140.31
256.357	133.31
256.59	126.31
256.823	133.31
257.056	127.31
257.289	108.31
257.521	107.31
257.754	107.31
257.987	114.31
258.22	134.31
258.452	143.31
258.685	123.31
258.918	118.31
259.151	123.31
259.383	135.31
259.616	120.31
259.849	129.31
260.081	132.31
260.314	148.31
260.547	125.31
260.779	133.31
261.012	133.31
261.244	141.31
261.477	130.31
261.71	123.31
261.942	136.31
262.175	141.31
262.407	140.31
262.64	132.31
262.872	125.31
263.105	147.31
263.337	126.31
263.57	126.31
263.802	123.31
264.035	132.31
264.267	133.31
264.499	125.31
264.732	143.31
264.964	117.31
265.197	119.31
265.429	118.31
265.661	126.31
265.894	117.31
266.126	133.31
266.358	127.31
266.591	131.31
266.823	131.31
267.055	147.31
267.287	138.31
267.52	153.31
267.752	136.31
267.984	134.31
268.216	129.31
268.448	139.31
268.681	131.31
268.913	158.31
269.145	146.31
269.377	154.31
269.609	155.31
269.841	134.31
270.073	144.31
270.306	167.31
270.538	170.31
270.77	158.31
271.002	165.31
271.234	161.31
271.466	162.31
271.698	171.31
271.93	163.31
272.162	155.31
272.394	185.31
272.626	153.31
272.858	161.31
273.09	161.31
273.322	155.31
273.553	142.31
273.785	139.31
274.017	141.31
274.249	138.31
274.481	152.31
274.713	148.31
274.945	152.31
275.176	149.31
275.408	147.31
275.64	143.31
275.872	148.31
276.104	134.31
276.335	162.31
276.567	147.31
276.799	144.31
277.031	185.31
277.262	163.31
277.494	171.31
277.726	169.31
277.957	163.31
278.189	147.31
278.421	160.31
278.652	167.31
278.884	159.31
279.115	155.31
279.347	144.31
279.579	148.31
279.81	139.31
280.042	149.31
280.273	147.31
280.505	149.31
280.736	153.31
280.968	151.31
281.199	142.31
281.431	143.31
281.662	158.31
281.894	150.31
282.125	151.31
282.356	163.31
282.588	178.31
282.819	174.31
283.051	155.31
283.282	143.31
283.513	143.31
283.745	137.31
283.976	153.31
284.207	159.31
284.439	167.31
284.67	152.31
284.901	167.31
285.132	149.31
285.364	137.31
285.595	143.31
285.826	164.31
286.057	169.31
286.288	155.31
286.52	152.31
286.751	157.31
286.982	171.31
287.213	179.31
287.444	155.31
287.675	154.31
287.906	140.31
288.138	148.31
288.369	174.31
288.6	158.31
288.831	158.31
289.062	158.31
289.293	142.31
289.524	160.31
289.755	167.31
289.986	148.31
290.217	147.31
290.448	153.31
290.679	157.31
290.91	133.31
291.141	149.31
291.371	142.31
291.602	141.31
291.833	141.31
292.064	155.31
292.295	151.31
292.526	162.31
292.757	154.31
292.987	164.31
293.218	153.31
293.449	152.31
293.68	152.31
293.91	146.31
294.141	172.31
294.372	157.31
294.603	167.31
294.833	165.31
295.064	154.31
295.295	163.31
295.525	166.31
295.756	169.31
295.987	162.31
296.217	179.31
296.448	165.31
296.679	154.31
296.909	160.31
297.14	165.31
297.37	165.31
297.601	169.31
297.831	158.31
298.062	154.31
298.292	161.31
298.523	156.31
298.753	167.31
298.984	157.31
299.214	173.31
299.445	149.31
299.675	167.31
299.905	159.31
300.136	181.31
300.366	172.31
300.597	164.31
300.827	159.31
301.057	162.31
301.288	169.31
301.518	164.31
301.748	160.31
301.979	168.31
302.209	171.31
302.439	172.31
302.669	173.31
302.9	180.31
303.13	173.31
303.36	157.31
303.59	163.31
303.82	168.31
304.051	190.31
304.281	171.31
304.511	171.31
304.741	178.31
304.971	160.31
305.201	159.31
305.431	156.31
305.661	169.31
305.891	170.31
306.121	167.31
306.352	175.31
306.582	167.31
306.812	163.31
307.042	169.31
307.272	163.31
307.502	153.31
307.731	166.31
307.961	172.31
308.191	190.31
308.421	173.31
308.651	181.31
308.881	182.31
309.111	182.31
309.341	171.31
309.571	168.31
309.8	189.31
310.03	170.31
310.26	195.31
310.49	196.31
310.72	196.31
310.949	186.31
311.179	201.31
311.409	177.31
311.639	181.31
311.868	196.31
312.098	191.31
312.328	201.31
312.557	207.31
312.787	203.31
313.017	211.31
313.246	195.31
313.476	192.31
313.706	194.31
313.935	194.31
314.165	197.31
314.394	215.31
314.624	192.31
314.853	201.31
315.083	202.31
315.312	187.31
315.542	185.31
315.771	186.31
316.001	186.31
316.23	189.31
316.46	177.31
316.689	182.31
316.919	183.31
317.148	195.31
317.377	200.31
317.607	194.31
317.836	168.31
318.065	201.31
318.295	185.31
318.524	182.31
318.753	206.31
318.983	196.31
319.212	182.31
319.441	201.31
319.67	199.31
319.9	200.31
320.129	194.31
320.358	200.31
320.587	191.31
320.816	195.31
321.046	190.31
321.275	200.31
321.504	183.31
321.733	194.31
321.962	191.31
322.191	205.31
322.42	218.31
322.649	209.31
322.878	209.31
323.108	225.31
323.337	224.31
323.566	244.31
323.795	234.31
324.024	269.31
324.253	305.31
324.482	452.31
324.71	655.31
324.939	857.31
325.168	710.31
325.397	359.31
325.626	269.31
325.855	239.31
326.084	217.31
326.313	205.31
326.542	242.31
326.77	269.31
326.999	299.31
327.228	417.31
327.457	583.31
327.686	674.31
327.914	431.31
328.143	316.31
328.372	296.31
328.6	277.31
328.829	253.31
329.058	264.31
329.287	275.31
329.515	266.31
329.744	245.31
329.972	241.31
330.201	261.31
330.43	268.31
330.658	276.31
330.887	314.31
331.115	281.31
331.344	245.31
331.572	222.31
331.801	248.31
332.03	236.31
332.258	219.31
332.486	215.31
332.715	222.31
332.943	218.31
333.172	220.31
333.4	229.31
333.629	233.31
333.857	254.31
334.085	232.31
334.314	258.31
334.542	262.31
334.771	289.31
334.999	254.31
335.227	228.31
335.455	230.31
335.684	223.31
335.912	218.31
336.14	199.31
336.369	221.31
336.597	211.31
336.825	223.31
337.053	208.31
337.281	209.31
337.51	207.31
337.738	208.31
337.966	205.31
338.194	201.31
338.422	218.31
338.65	210.31
338.878	218.31
339.106	215.31
339.334	211.31
339.562	210.31
339.79	197.31
340.018	219.31
340.246	204.31
340.474	221.31
340.702	210.31
340.93	217.31
341.158	209.31
341.386	198.31
341.614	209.31
341.842	213.31
342.07	197.31
342.298	212.31
342.526	202.31
342.754	211.31
342.981	204.31
343.209	201.31
343.437	206.31
343.665	199.31
343.893	216.31
344.12	211.31
344.348	210.31
344.576	232.31
344.804	195.31
345.031	214.31
345.259	211.31
345.487	203.31
345.714	212.31
345.942	177.31
346.17	200.31
346.397	208.31
346.625	221.31
346.853	206.31
347.08	202.31
347.308	205.31
347.535	202.31
347.763	202.31
347.99	196.31
348.218	207.31
348.445	198.31
348.673	197.31
348.9	195.31
349.128	206.31
349.355	191.31
349.583	186.31
349.81	199.31
350.037	200.31
350.265	183.31
350.492	193.31
350.72	197.31
350.947	193.31
351.174	202.31
351.402	212.31
351.629	189.31
351.856	190.31
352.083	216.31
352.311	208.31
352.538	213.31
352.765	217.31
352.992	202.31
353.22	197.31
353.447	195.31
353.674	205.31
353.901	200.31
354.128	180.31
354.355	205.31
354.583	212.31
354.81	209.31
355.037	181.31
355.264	177.31
355.491	190.31
355.718	179.31
355.945	170.31
356.172	191.31
356.399	196.31
356.626	191.31
356.853	195.31
357.08	177.31
357.307	195.31
357.534	191.31
357.761	189.31
357.988	190.31
358.215	190.31
358.441	173.31
358.668	185.31
358.895	202.31
359.122	200.31
359.349	190.31
359.576	200.31
359.802	215.31
360.029	229.31
360.256	232.31
360.483	213.31
360.709	197.31
360.936	187.31
361.163	190.31
361.39	206.31
361.616	211.31
361.843	186.31
362.07	205.31
362.296	204.31
362.523	195.31
362.749	172.31
362.976	193.31
363.203	206.31
363.429	204.31
363.656	197.31
363.882	197.31
364.109	195.31
364.335	187.31
364.562	195.31
364.788	202.31
365.015	207.31
365.241	191.31
365.468	181.31
365.694	196.31
365.92	202.31
366.147	196.31
366.373	190.31
366.599	198.31
366.826	175.31
367.052	189.31
367.278	188.31
367.505	195.31
367.731	209.31
367.957	197.31
368.184	182.31
368.41	182.31
368.636	179.31
368.862	214.31
369.089	194.31
369.315	192.31
369.541	198.31
369.767	205.31
369.993	199.31
370.219	197.31
370.445	200.31
370.672	189.31
370.898	197.31
371.124	175.31
371.35	183.31
371.576	192.31
371.802	208.31
372.028	185.31
372.254	178.31
372.48	181.31
372.706	199.31
372.932	211.31
373.158	195.31
373.384	197.31
373.61	198.31
373.835	189.31
374.061	197.31
374.287	183.31
374.513	181.31
374.739	192.31
374.965	188.31
375.191	189.31
375.416	207.31
375.642	208.31
375.868	204.31
376.094	192.31
376.319	193.31
376.545	217.31
376.771	193.31
376.997	197.31
377.222	174.31
377.448	211.31
377.674	190.31
377.899	187.31
378.125	198.31
378.35	194.31
378.576	188.31
378.802	177.31
379.027	172.31
379.253	199.31
379.478	215.31
379.704	183.31
379.929	181.31
380.155	181.31
380.38	181.31
380.606	189.31
380.831	189.31
381.057	184.31
381.282	183.31
381.507	189.31
381.733	183.31
381.958	191.31
382.184	196.31
382.409	191.31
382.634	193.31
382.86	193.31
383.085	200.31
383.31	208.31
383.535	190.31
383.761	211.31
383.986	190.31
384.211	205.31
384.436	213.31
384.662	207.31
384.887	216.31
385.112	215.31
385.337	207.31
385.562	212.31
385.787	197.31
386.013	216.31
386.238	221.31
386.463	213.31
386.688	209.31
386.913	201.31
387.138	208.31
387.363	197.31
387.588	195.31
387.813	213.31
388.038	185.31
388.263	198.31
388.488	213.31
388.713	201.31
388.938	206.31
389.163	212.31
389.387	204.31
389.612	194.31
389.837	210.31
390.062	202.31
390.287	215.31
390.512	192.31
390.736	207.31
390.961	202.31
391.186	202.31
391.411	214.31
391.636	198.31
391.86	214.31
392.085	185.31
392.31	206.31
392.534	213.31
392.759	209.31
392.984	211.31
393.208	225.31
393.433	214.31
393.658	210.31
393.882	213.31
394.107	205.31
394.331	195.31
394.556	211.31
394.78	208.31
395.005	218.31
395.229	210.31
395.454	220.31
395.678	228.31
395.903	231.31
396.127	230.31
396.352	221.31
396.576	213.31
396.801	215.31
397.025	207.31
397.249	225.31
397.474	212.31
397.698	209.31
397.922	233.31
398.147	213.31
398.371	218.31
398.595	214.31
398.82	222.31
399.044	203.31
399.268	259.31
399.492	260.31
399.717	263.31
399.941	276.31
400.165	286.31
400.389	267.31
400.613	231.31
400.837	221.31
401.062	229.31
401.286	235.31
401.51	226.31
401.734	234.31
401.958	229.31
402.182	249.31
402.406	232.31
402.63	240.31
402.854	241.31
403.078	253.31
403.302	233.31
403.526	240.31
403.75	257.31
403.974	255.31
404.198	247.31
404.422	217.31
404.645	229.31
404.869	260.31
405.093	271.31
405.317	287.31
405.541	285.31
405.765	256.31
405.988	253.31
406.212	279.31
406.436	273.31
406.66	278.31
406.883	280.31
407.107	253.31
407.331	278.31
407.555	307.31
407.778	295.31
408.002	279.31
408.226	256.31
408.449	262.31
408.673	264.31
408.896	271.31
409.12	283.31
409.344	272.31
409.567	244.31
409.791	252.31
410.014	247.31
410.238	247.31
410.461	261.31
410.685	242.31
410.908	232.31
411.132	263.31
411.355	275.31
411.578	255.31
411.802	243.31
412.025	223.31
412.249	226.31
412.472	266.31
412.695	279.31
412.919	275.31
413.142	255.31
413.365	231.31
413.589	257.31
413.812	228.31
414.035	228.31
414.258	247.31
414.482	225.31
414.705	225.31
414.928	231.31
415.151	234.31
415.374	210.31
415.597	231.31
415.821	223.31
416.044	238.31
416.267	224.31
416.49	215.31
416.713	220.31
416.936	220.31
417.159	229.31
417.382	235.31
417.605	247.31
417.828	260.31
418.051	229.31
418.274	227.31
418.497	227.31
418.72	230.31
418.943	234.31
419.166	227.31
419.389	238.31
419.611	234.31
419.834	238.31
420.057	246.31
420.28	238.31
420.503	230.31
420.726	241.31
420.948	236.31
421.171	269.31
421.394	280.31
421.617	259.31
421.839	229.31
422.062	226.31
422.285	240.31
422.507	279.31
422.73	300.31
422.953	257.31
423.175	249.31
423.398	258.31
423.621	255.31
423.843	263.31
424.066	243.31
424.288	254.31
424.511	255.31
424.733	278.31
424.956	313.31
425.178	283.31
425.401	299.31
425.623	314.31
425.846	266.31
426.068	263.31
426.291	245.31
426.513	231.31
426.735	250.31
426.958	261.31
427.18	288.31
427.402	350.31
427.625	390.31
427.847	341.31
428.069	281.31
428.292	267.31
428.514	257.31
428.736	238.31
428.958	234.31
429.181	245.31
429.403	225.31
429.625	226.31
429.847	255.31
430.069	271.31
430.292	277.31
430.514	243.31
430.736	241.31
430.958	231.31
431.18	228.31
431.402	219.31
431.624	235.31
431.846	223.31
432.068	225.31
432.29	214.31
432.512	231.31
432.734	245.31
432.956	241.31
433.178	257.31
433.4	248.31
433.622	223.31
433.844	235.31
434.066	214.31
434.287	213.31
434.509	230.31
434.731	249.31
434.953	230.31
435.175	241.31
435.397	259.31
435.618	256.31
435.84	260.31
436.062	315.31
436.284	334.31
436.505	283.31
436.727	245.31
436.949	242.31
437.17	239.31
437.392	239.31
437.614	233.31
437.835	262.31
438.057	303.31
438.278	335.31
438.5	305.31
438.721	341.31
438.943	328.31
439.165	274.31
439.386	263.31
439.608	267.31
439.829	265.31
440.05	273.31
440.272	278.31
440.493	286.31
440.715	244.31
440.936	236.31
441.158	235.31
441.379	235.31
441.6	232.31
441.822	256.31
442.043	277.31
442.264	305.31
442.486	324.31
442.707	245.31
442.928	250.31
443.149	253.31
443.371	268.31
443.592	281.31
443.813	324.31
444.034	338.31
444.255	299.31
444.476	266.31
444.698	249.31
444.919	257.31
445.14	344.31
445.361	299.31
445.582	274.31
445.803	307.31
446.024	332.31
446.245	346.31
446.466	293.31
446.687	255.31
446.908	247.31
447.129	229.31
447.35	208.31
447.571	246.31
447.792	242.31
448.013	223.31
448.234	220.31
448.455	264.31
448.675	311.31
448.896	339.31
449.117	296.31
449.338	285.31
449.559	327.31
449.779	348.31
450	291.31
450.221	257.31
450.442	220.31
450.662	205.31
450.883	230.31
451.104	232.31
451.324	243.31
451.545	221.31
451.766	234.31
451.986	222.31
452.207	208.31
452.428	203.31
452.648	216.31
452.869	209.31
453.089	223.31
453.31	221.31
453.53	217.31
453.751	219.31
453.971	218.31
454.192	225.31
454.412	211.31
454.633	220.31
454.853	206.31
455.073	215.31
455.294	217.31
455.514	242.31
455.734	241.31
455.955	202.31
456.175	205.31
456.395	206.31
456.616	202.31
456.836	200.31
457.056	205.31
457.276	196.31
457.497	217.31
457.717	205.31
457.937	201.31
458.157	195.31
458.377	209.31
458.598	226.31
458.818	261.31
459.038	279.31
459.258	299.31
459.478	251.31
459.698	219.31
459.918	233.31
460.138	214.31
460.358	217.31
460.578	234.31
460.798	216.31
461.018	229.31
461.238	212.31
461.458	233.31
461.678	218.31
461.898	214.31
462.118	215.31
462.338	237.31
462.558	244.31
462.777	249.31
462.997	252.31
463.217	246.31
463.437	255.31
463.657	259.31
463.876	243.31
464.096	235.31
464.316	261.31
464.536	251.31
464.755	222.31
464.975	238.31
465.195	278.31
465.414	292.31
465.634	260.31
465.854	227.31
466.073	223.31
466.293	234.31
466.512	228.31
466.732	221.31
466.951	201.31
467.171	217.31
467.391	218.31
467.61	225.31
467.829	237.31
468.049	220.31
468.268	228.31
468.488	223.31
468.707	195.31
468.927	206.31
469.146	210.31
469.365	216.31
469.585	211.31
469.804	208.31
470.023	210.31
470.243	233.31
470.462	235.31
470.681	234.31
470.901	239.31
471.12	230.31
471.339	226.31
471.558	221.31
471.777	214.31
471.997	228.31
472.216	222.31
472.435	241.31
472.654	224.31
472.873	214.31
473.092	221.31
473.311	222.31
473.53	218.31
473.749	233.31
473.968	244.31
474.187	294.31
474.406	301.31
474.625	234.31
474.844	225.31
475.063	219.31
475.282	229.31
475.501	218.31
475.72	221.31
475.939	237.31
476.158	226.31
476.377	243.31
476.596	225.31
476.814	217.31
477.033	222.31
477.252	233.31
477.471	220.31
477.69	231.31
477.908	243.31
478.127	243.31
478.346	241.31
478.564	250.31
478.783	247.31
479.002	243.31
479.22	245.31
479.439	254.31
479.658	258.31
479.876	279.31
480.095	267.31
480.313	267.31
480.532	269.31
480.751	281.31
480.969	283.31
481.188	319.31
481.406	344.31
481.624	271.31
481.843	252.31
482.061	238.31
482.28	251.31
482.498	266.31
482.717	244.31
482.935	253.31
483.153	232.31
483.372	245.31
483.59	264.31
483.808	242.31
484.027	247.31
484.245	242.31
484.463	253.31
484.681	267.31
484.9	267.31
485.118	261.31
485.336	256.31
485.554	249.31
485.772	258.31
485.99	275.31
486.209	254.31
486.427	249.31
486.645	281.31
486.863	281.31
487.081	283.31
487.299	269.31
487.517	272.31
487.735	275.31
487.953	278.31
488.171	274.31
488.389	262.31
488.607	250.31
488.825	287.31
489.043	267.31
489.261	267.31
489.479	261.31
489.696	282.31
489.914	283.31
490.132	279.31
490.35	290.31
490.568	282.31
490.786	293.31
491.003	289.31
491.221	316.31
491.439	316.31
491.657	314.31
491.874	309.31
492.092	318.31
492.31	313.31
492.527	327.31
492.745	325.31
492.963	322.31
493.18	325.31
493.398	331.31
493.615	294.31
493.833	327.31
494.05	305.31
494.268	326.31
494.485	320.31
494.703	313.31
494.92	316.31
495.138	323.31
495.355	329.31
495.573	325.31
495.79	321.31
496.008	319.31
496.225	308.31
496.442	323.31
496.66	319.31
496.877	314.31
497.094	316.31
497.312	296.31
497.529	316.31
497.746	318.31
497.963	330.31
498.181	344.31
498.398	339.31
498.615	351.31
498.832	354.31
499.049	347.31
499.267	352.31
499.484	358.31
499.701	369.31
499.918	381.31
500.135	408.31
500.352	399.31
500.569	422.31
500.786	429.31
501.003	395.31
501.22	406.31
501.437	408.31
501.654	385.31
501.871	394.31
502.088	371.31
502.305	363.31
502.522	356.31
502.739	325.31
