Data from 1966.PennyLincolnUp.Lamp.En5.5.200Scan.071719.P1.Scan2.head_HRD10591_14-17-31-114.txt Node
Date: Thu Jul 18 14:17:31 EDT 2019
User: cochatt
Spectrometer: HR+D1059
Trigger mode: 1
Integration Time (sec): 1.000000E-1
Scans to average: 1
Electric dark correction enabled: true
Nonlinearity correction enabled: false
Boxcar width: 0
XAxis mode: Wavelengths
Number of Pixels in Spectrum: 2048
>>>>>Begin Spectral Data<<<<<
223.165	-13.75
223.4	-13.75
223.635	-13.75
223.869	-12.75
224.104	-4.75
224.338	-17.75
224.573	-17.75
224.808	-17.75
225.042	4.25
225.277	-15.75
225.511	1.25
225.746	10.25
225.98	7.25
226.215	2.25
226.449	21.25
226.683	13.25
226.918	9.25
227.152	31.25
227.387	25.25
227.621	29.25
227.856	41.25
228.09	46.25
228.324	50.25
228.559	37.25
228.793	59.25
229.027	81.25
229.262	110.25
229.496	111.25
229.73	134.25
229.964	141.25
230.199	124.25
230.433	115.25
230.667	108.25
230.901	104.25
231.136	109.25
231.37	102.25
231.604	99.25
231.838	105.25
232.072	123.25
232.306	101.25
232.541	117.25
232.775	121.25
233.009	105.25
233.243	104.25
233.477	103.25
233.711	119.25
233.945	115.25
234.179	123.25
234.413	126.25
234.647	127.25
234.881	118.25
235.115	105.25
235.349	141.25
235.583	121.25
235.817	122.25
236.051	133.25
236.285	133.25
236.519	117.25
236.753	120.25
236.987	135.25
237.221	174.25
237.455	234.25
237.689	186.25
237.922	117.25
238.156	127.25
238.39	139.25
238.624	122.25
238.858	125.25
239.091	115.25
239.325	119.25
239.559	117.25
239.793	133.25
240.027	141.25
240.26	147.25
240.494	154.25
240.728	151.25
240.961	145.25
241.195	136.25
241.429	133.25
241.662	138.25
241.896	133.25
242.13	125.25
242.363	124.25
242.597	127.25
242.83	126.25
243.064	147.25
243.298	133.25
243.531	145.25
243.765	127.25
243.998	137.25
244.232	142.25
244.465	147.25
244.699	147.25
244.932	146.25
245.166	142.25
245.399	142.25
245.633	137.25
245.866	140.25
246.099	154.25
246.333	144.25
246.566	138.25
246.8	149.25
247.033	152.25
247.266	151.25
247.5	161.25
247.733	169.25
247.966	159.25
248.2	189.25
248.433	169.25
248.666	165.25
248.899	187.25
249.133	204.25
249.366	203.25
249.599	216.25
249.832	186.25
250.066	188.25
250.299	173.25
250.532	179.25
250.765	190.25
250.998	212.25
251.231	231.25
251.465	203.25
251.698	194.25
251.931	183.25
252.164	181.25
252.397	198.25
252.63	210.25
252.863	185.25
253.096	206.25
253.329	216.25
253.562	201.25
253.795	199.25
254.028	206.25
254.261	212.25
254.494	223.25
254.727	251.25
254.96	255.25
255.193	267.25
255.426	237.25
255.659	220.25
255.892	231.25
256.124	226.25
256.357	239.25
256.59	229.25
256.823	211.25
257.056	206.25
257.289	220.25
257.521	207.25
257.754	215.25
257.987	202.25
258.22	204.25
258.452	209.25
258.685	198.25
258.918	198.25
259.151	200.25
259.383	215.25
259.616	220.25
259.849	201.25
260.081	212.25
260.314	245.25
260.547	249.25
260.779	238.25
261.012	239.25
261.244	202.25
261.477	230.25
261.71	231.25
261.942	222.25
262.175	221.25
262.407	220.25
262.64	214.25
262.872	212.25
263.105	224.25
263.337	214.25
263.57	207.25
263.802	213.25
264.035	213.25
264.267	216.25
264.499	199.25
264.732	205.25
264.964	218.25
265.197	214.25
265.429	231.25
265.661	225.25
265.894	209.25
266.126	213.25
266.358	236.25
266.591	200.25
266.823	212.25
267.055	216.25
267.287	210.25
267.52	229.25
267.752	230.25
267.984	219.25
268.216	209.25
268.448	228.25
268.681	241.25
268.913	233.25
269.145	261.25
269.377	262.25
269.609	270.25
269.841	250.25
270.073	262.25
270.306	278.25
270.538	300.25
270.77	289.25
271.002	283.25
271.234	277.25
271.466	279.25
271.698	290.25
271.93	307.25
272.162	312.25
272.394	292.25
272.626	305.25
272.858	279.25
273.09	273.25
273.322	256.25
273.553	249.25
273.785	234.25
274.017	250.25
274.249	247.25
274.481	261.25
274.713	262.25
274.945	278.25
275.176	257.25
275.408	261.25
275.64	248.25
275.872	262.25
276.104	275.25
276.335	265.25
276.567	252.25
276.799	275.25
277.031	290.25
277.262	287.25
277.494	316.25
277.726	298.25
277.957	290.25
278.189	275.25
278.421	283.25
278.652	265.25
278.884	283.25
279.115	255.25
279.347	274.25
279.579	262.25
279.81	253.25
280.042	259.25
280.273	273.25
280.505	259.25
280.736	258.25
280.968	236.25
281.199	291.25
281.431	275.25
281.662	263.25
281.894	276.25
282.125	279.25
282.356	292.25
282.588	301.25
282.819	307.25
283.051	285.25
283.282	272.25
283.513	285.25
283.745	264.25
283.976	279.25
284.207	271.25
284.439	278.25
284.67	269.25
284.901	285.25
285.132	281.25
285.364	272.25
285.595	267.25
285.826	280.25
286.057	287.25
286.288	271.25
286.52	268.25
286.751	263.25
286.982	271.25
287.213	279.25
287.444	291.25
287.675	292.25
287.906	280.25
288.138	281.25
288.369	289.25
288.6	290.25
288.831	299.25
289.062	286.25
289.293	284.25
289.524	295.25
289.755	280.25
289.986	292.25
290.217	279.25
290.448	277.25
290.679	269.25
290.91	298.25
291.141	287.25
291.371	280.25
291.602	283.25
291.833	295.25
292.064	309.25
292.295	293.25
292.526	302.25
292.757	297.25
292.987	301.25
293.218	289.25
293.449	294.25
293.68	289.25
293.91	292.25
294.141	288.25
294.372	297.25
294.603	298.25
294.833	286.25
295.064	293.25
295.295	272.25
295.525	275.25
295.756	281.25
295.987	307.25
296.217	317.25
296.448	332.25
296.679	306.25
296.909	287.25
297.14	307.25
297.37	298.25
297.601	285.25
297.831	302.25
298.062	305.25
298.292	314.25
298.523	300.25
298.753	307.25
298.984	309.25
299.214	306.25
299.445	290.25
299.675	309.25
299.905	305.25
300.136	302.25
300.366	298.25
300.597	311.25
300.827	313.25
301.057	325.25
301.288	323.25
301.518	324.25
301.748	301.25
301.979	316.25
302.209	317.25
302.439	327.25
302.669	345.25
302.9	330.25
303.13	327.25
303.36	315.25
303.59	334.25
303.82	337.25
304.051	337.25
304.281	329.25
304.511	339.25
304.741	329.25
304.971	314.25
305.201	313.25
305.431	323.25
305.661	320.25
305.891	308.25
306.121	301.25
306.352	333.25
306.582	329.25
306.812	344.25
307.042	336.25
307.272	316.25
307.502	335.25
307.731	326.25
307.961	321.25
308.191	338.25
308.421	323.25
308.651	326.25
308.881	332.25
309.111	333.25
309.341	336.25
309.571	362.25
309.8	333.25
310.03	363.25
310.26	358.25
310.49	371.25
310.72	353.25
310.949	389.25
311.179	377.25
311.409	362.25
311.639	350.25
311.868	359.25
312.098	358.25
312.328	355.25
312.557	365.25
312.787	400.25
313.017	398.25
313.246	384.25
313.476	369.25
313.706	367.25
313.935	371.25
314.165	350.25
314.394	401.25
314.624	383.25
314.853	379.25
315.083	377.25
315.312	370.25
315.542	365.25
315.771	359.25
316.001	350.25
316.23	372.25
316.46	365.25
316.689	385.25
316.919	367.25
317.148	381.25
317.377	370.25
317.607	388.25
317.836	384.25
318.065	380.25
318.295	381.25
318.524	389.25
318.753	375.25
318.983	367.25
319.212	382.25
319.441	393.25
319.67	379.25
319.9	378.25
320.129	375.25
320.358	364.25
320.587	365.25
320.816	385.25
321.046	395.25
321.275	390.25
321.504	382.25
321.733	399.25
321.962	405.25
322.191	387.25
322.42	429.25
322.649	419.25
322.878	429.25
323.108	433.25
323.337	446.25
323.566	469.25
323.795	494.25
324.024	529.25
324.253	612.25
324.482	844.25
324.71	1393.25
324.939	2081.25
325.168	1805.25
325.397	918.25
325.626	623.25
325.855	502.25
326.084	492.25
326.313	483.25
326.542	488.25
326.77	501.25
326.999	593.25
327.228	790.25
327.457	1229.25
327.686	1517.25
327.914	1003.25
328.143	661.25
328.372	570.25
328.6	549.25
328.829	513.25
329.058	525.25
329.287	554.25
329.515	517.25
329.744	501.25
329.972	484.25
330.201	498.25
330.43	542.25
330.658	575.25
330.887	557.25
331.115	576.25
331.344	519.25
331.572	446.25
331.801	483.25
332.03	486.25
332.258	460.25
332.486	441.25
332.715	432.25
332.943	459.25
333.172	464.25
333.4	469.25
333.629	471.25
333.857	499.25
334.085	468.25
334.314	499.25
334.542	499.25
334.771	518.25
334.999	497.25
335.227	473.25
335.455	461.25
335.684	454.25
335.912	460.25
336.14	427.25
336.369	454.25
336.597	449.25
336.825	464.25
337.053	433.25
337.281	429.25
337.51	418.25
337.738	422.25
337.966	445.25
338.194	450.25
338.422	459.25
338.65	472.25
338.878	450.25
339.106	429.25
339.334	435.25
339.562	424.25
339.79	421.25
340.018	447.25
340.246	452.25
340.474	417.25
340.702	442.25
340.93	446.25
341.158	427.25
341.386	459.25
341.614	444.25
341.842	445.25
342.07	421.25
342.298	428.25
342.526	426.25
342.754	415.25
342.981	407.25
343.209	416.25
343.437	408.25
343.665	423.25
343.893	449.25
344.12	461.25
344.348	444.25
344.576	451.25
344.804	432.25
345.031	434.25
345.259	444.25
345.487	437.25
345.714	445.25
345.942	401.25
346.17	435.25
346.397	435.25
346.625	425.25
346.853	425.25
347.08	400.25
347.308	430.25
347.535	424.25
347.763	415.25
347.99	435.25
348.218	415.25
348.445	448.25
348.673	441.25
348.9	421.25
349.128	427.25
349.355	407.25
349.583	409.25
349.81	388.25
350.037	402.25
350.265	395.25
350.492	409.25
350.72	395.25
350.947	422.25
351.174	434.25
351.402	427.25
351.629	407.25
351.856	412.25
352.083	420.25
352.311	427.25
352.538	435.25
352.765	440.25
352.992	421.25
353.22	430.25
353.447	424.25
353.674	403.25
353.901	397.25
354.128	417.25
354.355	414.25
354.583	391.25
354.81	405.25
355.037	392.25
355.264	409.25
355.491	412.25
355.718	390.25
355.945	389.25
356.172	409.25
356.399	378.25
356.626	397.25
356.853	405.25
357.08	386.25
357.307	395.25
357.534	421.25
357.761	415.25
357.988	398.25
358.215	389.25
358.441	395.25
358.668	390.25
358.895	408.25
359.122	411.25
359.349	406.25
359.576	429.25
359.802	454.25
360.029	468.25
360.256	473.25
360.483	453.25
360.709	427.25
360.936	435.25
361.163	431.25
361.39	414.25
361.616	433.25
361.843	412.25
362.07	419.25
362.296	424.25
362.523	426.25
362.749	419.25
362.976	399.25
363.203	436.25
363.429	403.25
363.656	399.25
363.882	421.25
364.109	407.25
364.335	419.25
364.562	414.25
364.788	405.25
365.015	399.25
365.241	418.25
365.468	403.25
365.694	416.25
365.92	433.25
366.147	412.25
366.373	421.25
366.599	418.25
366.826	430.25
367.052	407.25
367.278	404.25
367.505	393.25
367.731	420.25
367.957	419.25
368.184	445.25
368.41	415.25
368.636	439.25
368.862	426.25
369.089	428.25
369.315	423.25
369.541	419.25
369.767	413.25
369.993	430.25
370.219	424.25
370.445	413.25
370.672	411.25
370.898	417.25
371.124	438.25
371.35	415.25
371.576	409.25
371.802	422.25
372.028	405.25
372.254	431.25
372.48	415.25
372.706	420.25
372.932	422.25
373.158	413.25
373.384	437.25
373.61	427.25
373.835	425.25
374.061	425.25
374.287	420.25
374.513	431.25
374.739	439.25
374.965	435.25
375.191	421.25
375.416	417.25
375.642	446.25
375.868	423.25
376.094	413.25
376.319	433.25
376.545	425.25
376.771	423.25
376.997	425.25
377.222	412.25
377.448	430.25
377.674	414.25
377.899	403.25
378.125	422.25
378.35	416.25
378.576	430.25
378.802	422.25
379.027	425.25
379.253	414.25
379.478	418.25
379.704	436.25
379.929	415.25
380.155	425.25
380.38	441.25
380.606	416.25
380.831	393.25
381.057	410.25
381.282	438.25
381.507	430.25
381.733	417.25
381.958	406.25
382.184	421.25
382.409	450.25
382.634	452.25
382.86	436.25
383.085	414.25
383.31	441.25
383.535	455.25
383.761	442.25
383.986	433.25
384.211	443.25
384.436	444.25
384.662	456.25
384.887	461.25
385.112	446.25
385.337	450.25
385.562	457.25
385.787	463.25
386.013	476.25
386.238	452.25
386.463	465.25
386.688	469.25
386.913	458.25
387.138	459.25
387.363	453.25
387.588	468.25
387.813	466.25
388.038	473.25
388.263	459.25
388.488	500.25
388.713	475.25
388.938	485.25
389.163	477.25
389.387	475.25
389.612	458.25
389.837	469.25
390.062	455.25
390.287	475.25
390.512	480.25
390.736	475.25
390.961	469.25
391.186	490.25
391.411	473.25
391.636	487.25
391.86	470.25
392.085	468.25
392.31	512.25
392.534	510.25
392.759	502.25
392.984	476.25
393.208	485.25
393.433	493.25
393.658	495.25
393.882	465.25
394.107	485.25
394.331	475.25
394.556	486.25
394.78	466.25
395.005	503.25
395.229	492.25
395.454	478.25
395.678	485.25
395.903	475.25
396.127	524.25
396.352	510.25
396.576	477.25
396.801	484.25
397.025	513.25
397.249	483.25
397.474	499.25
397.698	511.25
397.922	542.25
398.147	553.25
398.371	550.25
398.595	547.25
398.82	558.25
399.044	567.25
399.268	574.25
399.492	595.25
399.717	639.25
399.941	661.25
400.165	670.25
400.389	673.25
400.613	641.25
400.837	592.25
401.062	583.25
401.286	560.25
401.51	560.25
401.734	547.25
401.958	559.25
402.182	542.25
402.406	566.25
402.63	540.25
402.854	548.25
403.078	546.25
403.302	564.25
403.526	542.25
403.75	561.25
403.974	579.25
404.198	553.25
404.422	577.25
404.645	575.25
404.869	582.25
405.093	597.25
405.317	663.25
405.541	710.25
405.765	630.25
405.988	604.25
406.212	586.25
406.436	615.25
406.66	632.25
406.883	641.25
407.107	641.25
407.331	694.25
407.555	722.25
407.778	744.25
408.002	693.25
408.226	637.25
408.449	619.25
408.673	632.25
408.896	647.25
409.12	708.25
409.344	672.25
409.567	605.25
409.791	569.25
410.014	566.25
410.238	568.25
410.461	575.25
410.685	584.25
410.908	593.25
411.132	641.25
411.355	656.25
411.578	618.25
411.802	558.25
412.025	575.25
412.249	606.25
412.472	595.25
412.695	631.25
412.919	638.25
413.142	572.25
413.365	580.25
413.589	579.25
413.812	548.25
414.035	563.25
414.258	541.25
414.482	566.25
414.705	523.25
414.928	518.25
415.151	518.25
415.374	547.25
415.597	540.25
415.821	525.25
416.044	526.25
416.267	550.25
416.49	511.25
416.713	512.25
416.936	533.25
417.159	556.25
417.382	537.25
417.605	543.25
417.828	573.25
418.051	552.25
418.274	555.25
418.497	520.25
418.72	545.25
418.943	531.25
419.166	541.25
419.389	587.25
419.611	574.25
419.834	580.25
420.057	555.25
420.28	573.25
420.503	581.25
420.726	565.25
420.948	599.25
421.171	630.25
421.394	675.25
421.617	588.25
421.839	581.25
422.062	567.25
422.285	561.25
422.507	636.25
422.73	704.25
422.953	667.25
423.175	616.25
423.398	598.25
423.621	594.25
423.843	590.25
424.066	599.25
424.288	602.25
424.511	618.25
424.733	678.25
424.956	785.25
425.178	750.25
425.401	730.25
425.623	757.25
425.846	645.25
426.068	616.25
426.291	583.25
426.513	579.25
426.735	625.25
426.958	650.25
427.18	748.25
427.402	876.25
427.625	945.25
427.847	805.25
428.069	724.25
428.292	653.25
428.514	606.25
428.736	577.25
428.958	597.25
429.181	561.25
429.403	572.25
429.625	578.25
429.847	593.25
430.069	677.25
430.292	650.25
430.514	589.25
430.736	549.25
430.958	548.25
431.18	545.25
431.402	526.25
431.624	508.25
431.846	524.25
432.068	525.25
432.29	540.25
432.512	533.25
432.734	542.25
432.956	546.25
433.178	540.25
433.4	556.25
433.622	517.25
433.844	529.25
434.066	516.25
434.287	535.25
434.509	533.25
434.731	543.25
434.953	559.25
435.175	562.25
435.397	581.25
435.618	605.25
435.84	642.25
436.062	732.25
436.284	809.25
436.505	670.25
436.727	593.25
436.949	580.25
437.17	572.25
437.392	545.25
437.614	586.25
437.835	594.25
438.057	690.25
438.278	825.25
438.5	801.25
438.721	891.25
438.943	859.25
439.165	675.25
439.386	609.25
439.608	621.25
439.829	612.25
440.05	630.25
440.272	671.25
440.493	627.25
440.715	612.25
440.936	577.25
441.158	584.25
441.379	572.25
441.6	589.25
441.822	591.25
442.043	620.25
442.264	693.25
442.486	792.25
442.707	656.25
442.928	622.25
443.149	628.25
443.371	621.25
443.592	669.25
443.813	794.25
444.034	851.25
444.255	712.25
444.476	645.25
444.698	622.25
444.919	618.25
445.14	710.25
445.361	678.25
445.582	674.25
445.803	708.25
446.024	805.25
446.245	822.25
446.466	739.25
446.687	656.25
446.908	602.25
447.129	569.25
447.35	565.25
447.571	563.25
447.792	535.25
448.013	562.25
448.234	571.25
448.455	609.25
448.675	734.25
448.896	857.25
449.117	724.25
449.338	711.25
449.559	818.25
449.779	935.25
450	750.25
450.221	630.25
450.442	558.25
450.662	545.25
450.883	563.25
451.104	528.25
451.324	550.25
451.545	526.25
451.766	538.25
451.986	500.25
452.207	483.25
452.428	523.25
452.648	498.25
452.869	494.25
453.089	533.25
453.31	508.25
453.53	490.25
453.751	485.25
453.971	489.25
454.192	524.25
454.412	502.25
454.633	483.25
454.853	501.25
455.073	476.25
455.294	517.25
455.514	588.25
455.734	594.25
455.955	497.25
456.175	459.25
456.395	460.25
456.616	464.25
456.836	461.25
457.056	469.25
457.276	448.25
457.497	467.25
457.717	488.25
457.937	467.25
458.157	486.25
458.377	500.25
458.598	517.25
458.818	571.25
459.038	638.25
459.258	687.25
459.478	570.25
459.698	543.25
459.918	533.25
460.138	529.25
460.358	545.25
460.578	534.25
460.798	567.25
461.018	547.25
461.238	554.25
461.458	563.25
461.678	555.25
461.898	531.25
462.118	558.25
462.338	549.25
462.558	561.25
462.777	572.25
462.997	598.25
463.217	614.25
463.437	627.25
463.657	574.25
463.876	591.25
464.096	597.25
464.316	591.25
464.536	617.25
464.755	599.25
464.975	586.25
465.195	599.25
465.414	655.25
465.634	618.25
465.854	565.25
466.073	528.25
466.293	526.25
466.512	529.25
466.732	511.25
466.951	526.25
467.171	510.25
467.391	532.25
467.61	517.25
467.829	523.25
468.049	515.25
468.268	519.25
468.488	509.25
468.707	493.25
468.927	512.25
469.146	480.25
469.365	515.25
469.585	528.25
469.804	503.25
470.023	522.25
470.243	513.25
470.462	534.25
470.681	534.25
470.901	501.25
471.12	526.25
471.339	506.25
471.558	539.25
471.777	531.25
471.997	532.25
472.216	515.25
472.435	571.25
472.654	547.25
472.873	509.25
473.092	523.25
473.311	509.25
473.53	514.25
473.749	539.25
473.968	573.25
474.187	670.25
474.406	678.25
474.625	565.25
474.844	540.25
475.063	523.25
475.282	523.25
475.501	516.25
475.72	510.25
475.939	535.25
476.158	564.25
476.377	562.25
476.596	527.25
476.814	565.25
477.033	544.25
477.252	555.25
477.471	542.25
477.69	558.25
477.908	568.25
478.127	561.25
478.346	589.25
478.564	577.25
478.783	599.25
479.002	605.25
479.22	602.25
479.439	614.25
479.658	642.25
479.876	604.25
480.095	637.25
480.313	676.25
480.532	665.25
480.751	642.25
480.969	633.25
481.188	705.25
481.406	747.25
481.624	666.25
481.843	635.25
482.061	645.25
482.28	634.25
482.498	598.25
482.717	636.25
482.935	637.25
483.153	609.25
483.372	612.25
483.59	639.25
483.808	617.25
484.027	613.25
484.245	630.25
484.463	615.25
484.681	623.25
484.9	625.25
485.118	631.25
485.336	631.25
485.554	639.25
485.772	637.25
485.99	642.25
486.209	638.25
486.427	623.25
486.645	641.25
486.863	667.25
487.081	645.25
487.299	649.25
487.517	650.25
487.735	661.25
487.953	645.25
488.171	664.25
488.389	635.25
488.607	671.25
488.825	668.25
489.043	663.25
489.261	666.25
489.479	661.25
489.696	665.25
489.914	660.25
490.132	679.25
490.35	693.25
490.568	708.25
490.786	701.25
491.003	709.25
491.221	715.25
491.439	759.25
491.657	734.25
491.874	766.25
492.092	749.25
492.31	738.25
492.527	746.25
492.745	756.25
492.963	758.25
493.18	780.25
493.398	773.25
493.615	791.25
493.833	773.25
494.05	782.25
494.268	770.25
494.485	772.25
494.703	771.25
494.92	773.25
495.138	781.25
495.355	773.25
495.573	799.25
495.79	778.25
496.008	782.25
496.225	803.25
496.442	818.25
496.66	774.25
496.877	815.25
497.094	818.25
497.312	805.25
497.529	791.25
497.746	801.25
497.963	826.25
498.181	862.25
498.398	850.25
498.615	881.25
498.832	926.25
499.049	914.25
499.267	930.25
499.484	960.25
499.701	1000.25
499.918	1036.25
500.135	1106.25
500.352	1141.25
500.569	1143.25
500.786	1162.25
501.003	1153.25
501.22	1090.25
501.437	1039.25
501.654	1029.25
