Data from 1966.PennyLincolnUp.Lamp.En5.5.200Scan.071719.P1.Scan2.head_HRD10591_14-17-09-085.txt Node
Date: Thu Jul 18 14:17:09 EDT 2019
User: cochatt
Spectrometer: HR+D1059
Trigger mode: 1
Integration Time (sec): 1.000000E-1
Scans to average: 1
Electric dark correction enabled: true
Nonlinearity correction enabled: false
Boxcar width: 0
XAxis mode: Wavelengths
Number of Pixels in Spectrum: 2048
>>>>>Begin Spectral Data<<<<<
223.165	-19.38
223.4	-19.38
223.635	-19.38
223.869	-13.38
224.104	-11.38
224.338	-8.38
224.573	-16.38
224.808	-19.38
225.042	-5.38
225.277	-10.38
225.511	-2.38
225.746	15.62
225.98	-3.38
226.215	8.62
226.449	14.62
226.683	22.62
226.918	21.62
227.152	26.62
227.387	26.62
227.621	41.62
227.856	32.62
228.09	45.62
228.324	57.62
228.559	67.62
228.793	59.62
229.027	113.62
229.262	111.62
229.496	109.62
229.73	148.62
229.964	158.62
230.199	134.62
230.433	119.62
230.667	118.62
230.901	110.62
231.136	119.62
231.37	98.62
231.604	101.62
231.838	123.62
232.072	133.62
232.306	120.62
232.541	119.62
232.775	121.62
233.009	107.62
233.243	116.62
233.477	96.62
233.711	103.62
233.945	109.62
234.179	116.62
234.413	118.62
234.647	114.62
234.881	121.62
235.115	125.62
235.349	121.62
235.583	125.62
235.817	124.62
236.051	128.62
236.285	129.62
236.519	98.62
236.753	126.62
236.987	164.62
237.221	180.62
237.455	237.62
237.689	188.62
237.922	140.62
238.156	128.62
238.39	129.62
238.624	134.62
238.858	116.62
239.091	140.62
239.325	128.62
239.559	133.62
239.793	133.62
240.027	134.62
240.26	140.62
240.494	146.62
240.728	147.62
240.961	156.62
241.195	136.62
241.429	136.62
241.662	141.62
241.896	129.62
242.13	123.62
242.363	126.62
242.597	133.62
242.83	144.62
243.064	150.62
243.298	149.62
243.531	146.62
243.765	142.62
243.998	150.62
244.232	124.62
244.465	146.62
244.699	143.62
244.932	145.62
245.166	159.62
245.399	148.62
245.633	144.62
245.866	145.62
246.099	145.62
246.333	164.62
246.566	158.62
246.8	168.62
247.033	173.62
247.266	138.62
247.5	160.62
247.733	158.62
247.966	175.62
248.2	167.62
248.433	167.62
248.666	173.62
248.899	159.62
249.133	185.62
249.366	211.62
249.599	210.62
249.832	181.62
250.066	181.62
250.299	189.62
250.532	197.62
250.765	181.62
250.998	217.62
251.231	222.62
251.465	210.62
251.698	214.62
251.931	188.62
252.164	186.62
252.397	190.62
252.63	190.62
252.863	195.62
253.096	215.62
253.329	216.62
253.562	209.62
253.795	214.62
254.028	199.62
254.261	218.62
254.494	225.62
254.727	240.62
254.96	260.62
255.193	276.62
255.426	229.62
255.659	222.62
255.892	225.62
256.124	232.62
256.357	219.62
256.59	215.62
256.823	212.62
257.056	196.62
257.289	209.62
257.521	207.62
257.754	210.62
257.987	201.62
258.22	208.62
258.452	207.62
258.685	209.62
258.918	216.62
259.151	218.62
259.383	204.62
259.616	227.62
259.849	198.62
260.081	232.62
260.314	255.62
260.547	248.62
260.779	248.62
261.012	229.62
261.244	232.62
261.477	230.62
261.71	224.62
261.942	223.62
262.175	227.62
262.407	221.62
262.64	221.62
262.872	217.62
263.105	227.62
263.337	217.62
263.57	197.62
263.802	212.62
264.035	220.62
264.267	203.62
264.499	208.62
264.732	199.62
264.964	214.62
265.197	219.62
265.429	210.62
265.661	216.62
265.894	205.62
266.126	226.62
266.358	236.62
266.591	234.62
266.823	229.62
267.055	220.62
267.287	218.62
267.52	218.62
267.752	221.62
267.984	218.62
268.216	232.62
268.448	234.62
268.681	234.62
268.913	229.62
269.145	249.62
269.377	272.62
269.609	278.62
269.841	255.62
270.073	273.62
270.306	285.62
270.538	310.62
270.77	304.62
271.002	282.62
271.234	288.62
271.466	274.62
271.698	292.62
271.93	303.62
272.162	296.62
272.394	311.62
272.626	290.62
272.858	270.62
273.09	279.62
273.322	263.62
273.553	237.62
273.785	260.62
274.017	262.62
274.249	254.62
274.481	267.62
274.713	278.62
274.945	273.62
275.176	241.62
275.408	241.62
275.64	250.62
275.872	264.62
276.104	254.62
276.335	249.62
276.567	280.62
276.799	254.62
277.031	300.62
277.262	305.62
277.494	292.62
277.726	285.62
277.957	286.62
278.189	269.62
278.421	271.62
278.652	264.62
278.884	270.62
279.115	268.62
279.347	261.62
279.579	272.62
279.81	252.62
280.042	248.62
280.273	263.62
280.505	268.62
280.736	262.62
280.968	287.62
281.199	263.62
281.431	276.62
281.662	272.62
281.894	278.62
282.125	254.62
282.356	271.62
282.588	305.62
282.819	299.62
283.051	269.62
283.282	269.62
283.513	259.62
283.745	272.62
283.976	278.62
284.207	278.62
284.439	275.62
284.67	280.62
284.901	265.62
285.132	286.62
285.364	288.62
285.595	285.62
285.826	255.62
286.057	275.62
286.288	281.62
286.52	293.62
286.751	291.62
286.982	284.62
287.213	289.62
287.444	274.62
287.675	286.62
287.906	274.62
288.138	295.62
288.369	288.62
288.6	292.62
288.831	287.62
289.062	302.62
289.293	284.62
289.524	323.62
289.755	296.62
289.986	278.62
290.217	287.62
290.448	301.62
290.679	283.62
290.91	295.62
291.141	295.62
291.371	295.62
291.602	292.62
291.833	294.62
292.064	295.62
292.295	305.62
292.526	294.62
292.757	301.62
292.987	297.62
293.218	304.62
293.449	309.62
293.68	284.62
293.91	276.62
294.141	289.62
294.372	297.62
294.603	306.62
294.833	284.62
295.064	284.62
295.295	295.62
295.525	302.62
295.756	304.62
295.987	288.62
296.217	328.62
296.448	343.62
296.679	301.62
296.909	323.62
297.14	300.62
297.37	289.62
297.601	302.62
297.831	296.62
298.062	309.62
298.292	312.62
298.523	310.62
298.753	294.62
298.984	322.62
299.214	318.62
299.445	304.62
299.675	309.62
299.905	318.62
300.136	301.62
300.366	303.62
300.597	295.62
300.827	319.62
301.057	313.62
301.288	324.62
301.518	320.62
301.748	309.62
301.979	313.62
302.209	314.62
302.439	335.62
302.669	338.62
302.9	332.62
303.13	322.62
303.36	328.62
303.59	331.62
303.82	344.62
304.051	338.62
304.281	348.62
304.511	317.62
304.741	326.62
304.971	342.62
305.201	332.62
305.431	320.62
305.661	319.62
305.891	343.62
306.121	333.62
306.352	334.62
306.582	343.62
306.812	328.62
307.042	346.62
307.272	355.62
307.502	318.62
307.731	339.62
307.961	322.62
308.191	326.62
308.421	321.62
308.651	353.62
308.881	327.62
309.111	339.62
309.341	330.62
309.571	345.62
309.8	353.62
310.03	354.62
310.26	357.62
310.49	372.62
310.72	395.62
310.949	391.62
311.179	399.62
311.409	365.62
311.639	359.62
311.868	360.62
312.098	385.62
312.328	357.62
312.557	389.62
312.787	390.62
313.017	409.62
313.246	367.62
313.476	378.62
313.706	372.62
313.935	374.62
314.165	406.62
314.394	383.62
314.624	384.62
314.853	362.62
315.083	374.62
315.312	374.62
315.542	382.62
315.771	390.62
316.001	373.62
316.23	356.62
316.46	354.62
316.689	377.62
316.919	368.62
317.148	400.62
317.377	380.62
317.607	374.62
317.836	360.62
318.065	369.62
318.295	372.62
318.524	378.62
318.753	357.62
318.983	360.62
319.212	376.62
319.441	380.62
319.67	376.62
319.9	378.62
320.129	398.62
320.358	376.62
320.587	378.62
320.816	389.62
321.046	406.62
321.275	389.62
321.504	389.62
321.733	386.62
321.962	398.62
322.191	411.62
322.42	423.62
322.649	444.62
322.878	442.62
323.108	448.62
323.337	451.62
323.566	460.62
323.795	514.62
324.024	534.62
324.253	601.62
324.482	829.62
324.71	1304.62
324.939	1960.62
325.168	1735.62
325.397	859.62
325.626	582.62
325.855	484.62
326.084	455.62
326.313	448.62
326.542	473.62
326.77	497.62
326.999	607.62
327.228	768.62
327.457	1198.62
327.686	1511.62
327.914	986.62
328.143	657.62
328.372	551.62
328.6	559.62
328.829	516.62
329.058	510.62
329.287	544.62
329.515	525.62
329.744	463.62
329.972	477.62
330.201	503.62
330.43	526.62
330.658	550.62
330.887	559.62
331.115	568.62
331.344	504.62
331.572	493.62
331.801	456.62
332.03	479.62
332.258	459.62
332.486	457.62
332.715	442.62
332.943	451.62
333.172	436.62
333.4	470.62
333.629	483.62
333.857	449.62
334.085	497.62
334.314	504.62
334.542	503.62
334.771	548.62
334.999	483.62
335.227	459.62
335.455	453.62
335.684	464.62
335.912	444.62
336.14	446.62
336.369	445.62
336.597	442.62
336.825	432.62
337.053	458.62
337.281	442.62
337.51	443.62
337.738	453.62
337.966	441.62
338.194	434.62
338.422	467.62
338.65	430.62
338.878	441.62
339.106	424.62
339.334	442.62
339.562	440.62
339.79	421.62
340.018	436.62
340.246	426.62
340.474	425.62
340.702	430.62
340.93	432.62
341.158	444.62
341.386	433.62
341.614	431.62
341.842	439.62
342.07	429.62
342.298	417.62
342.526	434.62
342.754	427.62
342.981	433.62
343.209	434.62
343.437	451.62
343.665	426.62
343.893	454.62
344.12	440.62
344.348	465.62
344.576	447.62
344.804	441.62
345.031	457.62
345.259	463.62
345.487	474.62
345.714	442.62
345.942	414.62
346.17	410.62
346.397	447.62
346.625	422.62
346.853	420.62
347.08	427.62
347.308	409.62
347.535	412.62
347.763	430.62
347.99	418.62
348.218	419.62
348.445	433.62
348.673	424.62
348.9	420.62
349.128	407.62
349.355	425.62
349.583	425.62
349.81	416.62
350.037	420.62
350.265	409.62
350.492	408.62
350.72	428.62
350.947	396.62
351.174	432.62
351.402	437.62
351.629	425.62
351.856	424.62
352.083	407.62
352.311	450.62
352.538	426.62
352.765	440.62
352.992	417.62
353.22	454.62
353.447	435.62
353.674	398.62
353.901	418.62
354.128	395.62
354.355	404.62
354.583	396.62
354.81	408.62
355.037	422.62
355.264	400.62
355.491	387.62
355.718	387.62
355.945	405.62
356.172	410.62
356.399	405.62
356.626	402.62
356.853	398.62
357.08	383.62
357.307	389.62
357.534	398.62
357.761	400.62
357.988	427.62
358.215	374.62
358.441	402.62
358.668	390.62
358.895	409.62
359.122	433.62
359.349	414.62
359.576	434.62
359.802	434.62
360.029	475.62
360.256	468.62
360.483	454.62
360.709	438.62
360.936	424.62
361.163	432.62
361.39	427.62
361.616	448.62
361.843	440.62
362.07	415.62
362.296	412.62
362.523	439.62
362.749	432.62
362.976	420.62
363.203	434.62
363.429	402.62
363.656	414.62
363.882	400.62
364.109	423.62
364.335	436.62
364.562	434.62
364.788	408.62
365.015	398.62
365.241	413.62
365.468	423.62
365.694	444.62
365.92	402.62
366.147	424.62
366.373	399.62
366.599	408.62
366.826	394.62
367.052	433.62
367.278	405.62
367.505	431.62
367.731	426.62
367.957	412.62
368.184	438.62
368.41	407.62
368.636	433.62
368.862	425.62
369.089	427.62
369.315	429.62
369.541	433.62
369.767	417.62
369.993	429.62
370.219	430.62
370.445	437.62
370.672	417.62
370.898	435.62
371.124	398.62
371.35	427.62
371.576	434.62
371.802	445.62
372.028	427.62
372.254	429.62
372.48	443.62
372.706	436.62
372.932	424.62
373.158	437.62
373.384	448.62
373.61	422.62
373.835	420.62
374.061	427.62
374.287	424.62
374.513	437.62
374.739	448.62
374.965	438.62
375.191	449.62
375.416	430.62
375.642	446.62
375.868	430.62
376.094	429.62
376.319	420.62
376.545	432.62
376.771	429.62
376.997	433.62
377.222	422.62
377.448	413.62
377.674	444.62
377.899	438.62
378.125	432.62
378.35	403.62
378.576	410.62
378.802	414.62
379.027	425.62
379.253	420.62
379.478	414.62
379.704	419.62
379.929	433.62
380.155	443.62
380.38	434.62
380.606	428.62
380.831	439.62
381.057	451.62
381.282	421.62
381.507	428.62
381.733	437.62
381.958	417.62
382.184	429.62
382.409	433.62
382.634	433.62
382.86	440.62
383.085	440.62
383.31	461.62
383.535	456.62
383.761	436.62
383.986	455.62
384.211	439.62
384.436	469.62
384.662	480.62
384.887	474.62
385.112	460.62
385.337	468.62
385.562	452.62
385.787	472.62
386.013	496.62
386.238	483.62
386.463	495.62
386.688	488.62
386.913	475.62
387.138	487.62
387.363	471.62
387.588	471.62
387.813	470.62
388.038	467.62
388.263	473.62
388.488	477.62
388.713	477.62
388.938	479.62
389.163	462.62
389.387	476.62
389.612	463.62
389.837	466.62
390.062	497.62
390.287	448.62
390.512	472.62
390.736	480.62
390.961	475.62
391.186	454.62
391.411	495.62
391.636	476.62
391.86	492.62
392.085	501.62
392.31	475.62
392.534	502.62
392.759	512.62
392.984	482.62
393.208	499.62
393.433	494.62
393.658	498.62
393.882	496.62
394.107	497.62
394.331	492.62
394.556	493.62
394.78	484.62
395.005	491.62
395.229	486.62
395.454	482.62
395.678	504.62
395.903	532.62
396.127	542.62
396.352	542.62
396.576	489.62
396.801	501.62
397.025	530.62
397.249	501.62
397.474	495.62
397.698	516.62
397.922	559.62
398.147	557.62
398.371	544.62
398.595	544.62
398.82	545.62
399.044	552.62
399.268	555.62
399.492	606.62
399.717	636.62
399.941	673.62
400.165	670.62
400.389	684.62
400.613	630.62
400.837	640.62
401.062	576.62
401.286	565.62
401.51	554.62
401.734	555.62
401.958	564.62
402.182	575.62
402.406	590.62
402.63	571.62
402.854	554.62
403.078	576.62
403.302	582.62
403.526	573.62
403.75	605.62
403.974	592.62
404.198	569.62
404.422	594.62
404.645	591.62
404.869	573.62
405.093	619.62
405.317	648.62
405.541	696.62
405.765	648.62
405.988	628.62
406.212	623.62
406.436	634.62
406.66	639.62
406.883	630.62
407.107	662.62
407.331	678.62
407.555	754.62
407.778	742.62
408.002	691.62
408.226	642.62
408.449	644.62
408.673	634.62
408.896	656.62
409.12	719.62
409.344	663.62
409.567	612.62
409.791	600.62
410.014	598.62
410.238	583.62
410.461	573.62
410.685	596.62
410.908	595.62
411.132	614.62
411.355	674.62
411.578	616.62
411.802	572.62
412.025	562.62
412.249	594.62
412.472	612.62
412.695	662.62
412.919	632.62
413.142	600.62
413.365	585.62
413.589	548.62
413.812	561.62
414.035	554.62
414.258	530.62
414.482	558.62
414.705	552.62
414.928	557.62
415.151	552.62
415.374	564.62
415.597	546.62
415.821	544.62
416.044	545.62
416.267	556.62
416.49	542.62
416.713	543.62
416.936	534.62
417.159	516.62
417.382	551.62
417.605	543.62
417.828	555.62
418.051	552.62
418.274	581.62
418.497	549.62
418.72	551.62
418.943	557.62
419.166	548.62
419.389	591.62
419.611	585.62
419.834	606.62
420.057	593.62
420.28	556.62
420.503	576.62
420.726	570.62
420.948	583.62
421.171	642.62
421.394	645.62
421.617	568.62
421.839	573.62
422.062	566.62
422.285	589.62
422.507	640.62
422.73	716.62
422.953	698.62
423.175	607.62
423.398	586.62
423.621	593.62
423.843	620.62
424.066	608.62
424.288	579.62
424.511	602.62
424.733	686.62
424.956	757.62
425.178	718.62
425.401	733.62
425.623	762.62
425.846	662.62
426.068	617.62
426.291	591.62
426.513	595.62
426.735	616.62
426.958	639.62
427.18	724.62
427.402	876.62
427.625	964.62
427.847	843.62
428.069	722.62
428.292	642.62
428.514	599.62
428.736	578.62
428.958	576.62
429.181	535.62
429.403	542.62
429.625	572.62
429.847	613.62
430.069	662.62
430.292	662.62
430.514	576.62
430.736	566.62
430.958	553.62
431.18	542.62
431.402	542.62
431.624	537.62
431.846	519.62
432.068	542.62
432.29	547.62
432.512	528.62
432.734	516.62
432.956	555.62
433.178	560.62
433.4	531.62
433.622	560.62
433.844	529.62
434.066	554.62
434.287	568.62
434.509	537.62
434.731	546.62
434.953	558.62
435.175	559.62
435.397	569.62
435.618	593.62
435.84	654.62
436.062	734.62
436.284	825.62
436.505	675.62
436.727	608.62
436.949	581.62
437.17	559.62
437.392	558.62
437.614	576.62
437.835	615.62
438.057	688.62
438.278	820.62
438.5	806.62
438.721	908.62
438.943	865.62
439.165	670.62
439.386	638.62
439.608	601.62
439.829	612.62
440.05	640.62
440.272	668.62
440.493	635.62
440.715	591.62
440.936	584.62
441.158	577.62
441.379	587.62
441.6	578.62
441.822	604.62
442.043	642.62
442.264	732.62
442.486	794.62
442.707	669.62
442.928	628.62
443.149	628.62
443.371	630.62
443.592	687.62
443.813	788.62
444.034	864.62
444.255	699.62
444.476	648.62
444.698	630.62
444.919	637.62
445.14	729.62
445.361	683.62
445.582	637.62
445.803	721.62
446.024	834.62
446.245	815.62
446.466	744.62
446.687	652.62
446.908	591.62
447.129	566.62
447.35	561.62
447.571	558.62
447.792	561.62
448.013	548.62
448.234	582.62
448.455	630.62
448.675	751.62
448.896	875.62
449.117	723.62
449.338	675.62
449.559	813.62
449.779	896.62
450	711.62
450.221	613.62
450.442	576.62
450.662	535.62
450.883	543.62
451.104	541.62
451.324	534.62
451.545	541.62
451.766	503.62
451.986	503.62
452.207	502.62
452.428	494.62
452.648	498.62
452.869	492.62
453.089	521.62
453.31	534.62
453.53	530.62
453.751	505.62
453.971	510.62
454.192	530.62
454.412	509.62
454.633	508.62
454.853	505.62
455.073	473.62
455.294	524.62
455.514	580.62
455.734	600.62
455.955	486.62
456.175	487.62
456.395	492.62
456.616	490.62
456.836	450.62
457.056	474.62
457.276	463.62
457.497	484.62
457.717	491.62
457.937	482.62
458.157	516.62
458.377	496.62
458.598	514.62
458.818	556.62
459.038	644.62
459.258	671.62
459.478	584.62
459.698	554.62
459.918	549.62
460.138	552.62
460.358	538.62
460.578	553.62
460.798	548.62
461.018	553.62
461.238	531.62
461.458	581.62
461.678	547.62
461.898	572.62
462.118	542.62
462.338	604.62
462.558	590.62
462.777	602.62
462.997	584.62
463.217	598.62
463.437	623.62
463.657	620.62
463.876	598.62
464.096	600.62
464.316	601.62
464.536	602.62
464.755	594.62
464.975	604.62
465.195	597.62
465.414	688.62
465.634	618.62
465.854	584.62
466.073	550.62
466.293	571.62
466.512	515.62
466.732	510.62
466.951	503.62
467.171	517.62
467.391	512.62
467.61	536.62
467.829	553.62
468.049	536.62
468.268	534.62
468.488	521.62
468.707	532.62
468.927	512.62
469.146	506.62
469.365	522.62
469.585	517.62
469.804	512.62
470.023	516.62
470.243	509.62
470.462	513.62
470.681	529.62
470.901	556.62
471.12	529.62
471.339	534.62
471.558	554.62
471.777	548.62
471.997	539.62
472.216	534.62
472.435	568.62
472.654	564.62
472.873	533.62
473.092	506.62
473.311	515.62
473.53	528.62
473.749	553.62
473.968	584.62
474.187	673.62
474.406	695.62
474.625	566.62
474.844	548.62
475.063	561.62
475.282	561.62
475.501	534.62
475.72	545.62
475.939	546.62
476.158	531.62
476.377	538.62
476.596	554.62
476.814	569.62
477.033	551.62
477.252	570.62
477.471	589.62
477.69	566.62
477.908	570.62
478.127	571.62
478.346	573.62
478.564	595.62
478.783	582.62
479.002	589.62
479.22	619.62
479.439	612.62
479.658	618.62
479.876	637.62
480.095	639.62
480.313	689.62
480.532	642.62
480.751	630.62
480.969	662.62
481.188	694.62
481.406	735.62
481.624	686.62
481.843	643.62
482.061	649.62
482.28	617.62
482.498	621.62
482.717	607.62
482.935	623.62
483.153	638.62
483.372	637.62
483.59	620.62
483.808	640.62
484.027	625.62
484.245	634.62
484.463	632.62
484.681	632.62
484.9	607.62
485.118	632.62
485.336	636.62
485.554	648.62
485.772	633.62
485.99	637.62
486.209	638.62
486.427	658.62
486.645	657.62
486.863	679.62
487.081	665.62
487.299	658.62
487.517	655.62
487.735	674.62
487.953	664.62
488.171	662.62
488.389	656.62
488.607	668.62
488.825	670.62
489.043	673.62
489.261	670.62
489.479	668.62
489.696	698.62
489.914	685.62
490.132	692.62
490.35	692.62
490.568	726.62
490.786	693.62
491.003	710.62
491.221	737.62
491.439	737.62
491.657	769.62
491.874	745.62
492.092	745.62
492.31	757.62
492.527	766.62
492.745	779.62
492.963	767.62
493.18	785.62
493.398	809.62
493.615	772.62
493.833	780.62
494.05	792.62
494.268	768.62
494.485	773.62
494.703	786.62
494.92	773.62
495.138	765.62
495.355	788.62
495.573	789.62
495.79	790.62
496.008	779.62
496.225	772.62
496.442	808.62
496.66	776.62
496.877	806.62
497.094	770.62
497.312	793.62
497.529	828.62
497.746	822.62
497.963	834.62
498.181	873.62
498.398	846.62
498.615	897.62
498.832	898.62
499.049	923.62
499.267	942.62
499.484	962.62
499.701	1010.62
499.918	1057.62
500.135	1108.62
500.352	1153.62
500.569	1160.62
500.786	1185.62
501.003	1172.62
501.22	1134.62
501.437	1060.62
501.654	1064.62
