Data from 1966.PennyLincolnUp.Lamp.En5.5.200Scan.071719.P1.Scan2.head_HRD10591_14-19-17-255.txt Node
Date: Thu Jul 18 14:19:17 EDT 2019
User: cochatt
Spectrometer: HR+D1059
Trigger mode: 1
Integration Time (sec): 1.000000E-1
Scans to average: 1
Electric dark correction enabled: true
Nonlinearity correction enabled: false
Boxcar width: 0
XAxis mode: Wavelengths
Number of Pixels in Spectrum: 2048
>>>>>Begin Spectral Data<<<<<
223.165	-7.5
223.4	-7.5
223.635	-7.5
223.869	-16.5
224.104	-26.5
224.338	-20.5
224.573	-12.5
224.808	-12.5
225.042	2.5
225.277	-3.5
225.511	-18.5
225.746	6.5
225.98	20.5
226.215	5.5
226.449	20.5
226.683	20.5
226.918	23.5
227.152	18.5
227.387	36.5
227.621	43.5
227.856	36.5
228.09	29.5
228.324	32.5
228.559	41.5
228.793	68.5
229.027	94.5
229.262	94.5
229.496	113.5
229.73	127.5
229.964	165.5
230.199	135.5
230.433	113.5
230.667	110.5
230.901	96.5
231.136	114.5
231.37	94.5
231.604	115.5
231.838	107.5
232.072	112.5
232.306	112.5
232.541	116.5
232.775	125.5
233.009	105.5
233.243	106.5
233.477	103.5
233.711	108.5
233.945	123.5
234.179	124.5
234.413	108.5
234.647	126.5
234.881	116.5
235.115	122.5
235.349	124.5
235.583	119.5
235.817	130.5
236.051	128.5
236.285	123.5
236.519	124.5
236.753	127.5
236.987	148.5
237.221	193.5
237.455	236.5
237.689	207.5
237.922	164.5
238.156	152.5
238.39	147.5
238.624	136.5
238.858	119.5
239.091	122.5
239.325	128.5
239.559	133.5
239.793	142.5
240.027	140.5
240.26	149.5
240.494	165.5
240.728	161.5
240.961	160.5
241.195	143.5
241.429	134.5
241.662	132.5
241.896	140.5
242.13	135.5
242.363	138.5
242.597	128.5
242.83	131.5
243.064	146.5
243.298	136.5
243.531	138.5
243.765	137.5
243.998	129.5
244.232	140.5
244.465	150.5
244.699	160.5
244.932	148.5
245.166	161.5
245.399	149.5
245.633	149.5
245.866	137.5
246.099	150.5
246.333	149.5
246.566	148.5
246.8	140.5
247.033	160.5
247.266	160.5
247.5	159.5
247.733	173.5
247.966	176.5
248.2	173.5
248.433	197.5
248.666	166.5
248.899	188.5
249.133	195.5
249.366	212.5
249.599	207.5
249.832	186.5
250.066	175.5
250.299	164.5
250.532	192.5
250.765	201.5
250.998	224.5
251.231	245.5
251.465	223.5
251.698	209.5
251.931	203.5
252.164	193.5
252.397	207.5
252.63	201.5
252.863	218.5
253.096	226.5
253.329	233.5
253.562	242.5
253.795	240.5
254.028	224.5
254.261	233.5
254.494	235.5
254.727	270.5
254.96	296.5
255.193	295.5
255.426	247.5
255.659	250.5
255.892	229.5
256.124	233.5
256.357	249.5
256.59	222.5
256.823	204.5
257.056	223.5
257.289	203.5
257.521	198.5
257.754	196.5
257.987	201.5
258.22	218.5
258.452	218.5
258.685	217.5
258.918	206.5
259.151	215.5
259.383	224.5
259.616	228.5
259.849	219.5
260.081	235.5
260.314	269.5
260.547	265.5
260.779	269.5
261.012	257.5
261.244	229.5
261.477	228.5
261.71	244.5
261.942	238.5
262.175	229.5
262.407	225.5
262.64	220.5
262.872	216.5
263.105	233.5
263.337	233.5
263.57	216.5
263.802	226.5
264.035	213.5
264.267	204.5
264.499	219.5
264.732	214.5
264.964	220.5
265.197	220.5
265.429	220.5
265.661	224.5
265.894	208.5
266.126	220.5
266.358	217.5
266.591	214.5
266.823	224.5
267.055	262.5
267.287	237.5
267.52	209.5
267.752	228.5
267.984	247.5
268.216	237.5
268.448	228.5
268.681	244.5
268.913	270.5
269.145	258.5
269.377	289.5
269.609	284.5
269.841	266.5
270.073	284.5
270.306	288.5
270.538	325.5
270.77	320.5
271.002	306.5
271.234	305.5
271.466	318.5
271.698	309.5
271.93	315.5
272.162	326.5
272.394	311.5
272.626	314.5
272.858	307.5
273.09	305.5
273.322	277.5
273.553	265.5
273.785	286.5
274.017	262.5
274.249	260.5
274.481	282.5
274.713	270.5
274.945	264.5
275.176	254.5
275.408	260.5
275.64	271.5
275.872	271.5
276.104	257.5
276.335	268.5
276.567	283.5
276.799	292.5
277.031	305.5
277.262	322.5
277.494	327.5
277.726	306.5
277.957	306.5
278.189	284.5
278.421	279.5
278.652	278.5
278.884	290.5
279.115	278.5
279.347	273.5
279.579	253.5
279.81	275.5
280.042	266.5
280.273	275.5
280.505	298.5
280.736	277.5
280.968	295.5
281.199	278.5
281.431	273.5
281.662	280.5
281.894	276.5
282.125	276.5
282.356	323.5
282.588	315.5
282.819	313.5
283.051	306.5
283.282	282.5
283.513	290.5
283.745	282.5
283.976	301.5
284.207	304.5
284.439	295.5
284.67	272.5
284.901	275.5
285.132	286.5
285.364	278.5
285.595	264.5
285.826	280.5
286.057	290.5
286.288	285.5
286.52	297.5
286.751	293.5
286.982	298.5
287.213	295.5
287.444	297.5
287.675	312.5
287.906	310.5
288.138	310.5
288.369	320.5
288.6	323.5
288.831	292.5
289.062	306.5
289.293	285.5
289.524	297.5
289.755	297.5
289.986	305.5
290.217	294.5
290.448	315.5
290.679	284.5
290.91	305.5
291.141	306.5
291.371	296.5
291.602	283.5
291.833	308.5
292.064	290.5
292.295	315.5
292.526	304.5
292.757	316.5
292.987	285.5
293.218	304.5
293.449	304.5
293.68	297.5
293.91	294.5
294.141	316.5
294.372	300.5
294.603	290.5
294.833	313.5
295.064	325.5
295.295	307.5
295.525	302.5
295.756	299.5
295.987	308.5
296.217	340.5
296.448	346.5
296.679	329.5
296.909	316.5
297.14	306.5
297.37	315.5
297.601	304.5
297.831	309.5
298.062	324.5
298.292	314.5
298.523	323.5
298.753	314.5
298.984	324.5
299.214	316.5
299.445	312.5
299.675	317.5
299.905	339.5
300.136	326.5
300.366	330.5
300.597	324.5
300.827	326.5
301.057	326.5
301.288	341.5
301.518	340.5
301.748	331.5
301.979	332.5
302.209	350.5
302.439	331.5
302.669	334.5
302.9	348.5
303.13	338.5
303.36	325.5
303.59	355.5
303.82	352.5
304.051	363.5
304.281	353.5
304.511	337.5
304.741	325.5
304.971	333.5
305.201	334.5
305.431	332.5
305.661	335.5
305.891	339.5
306.121	350.5
306.352	343.5
306.582	348.5
306.812	329.5
307.042	348.5
307.272	360.5
307.502	343.5
307.731	345.5
307.961	355.5
308.191	341.5
308.421	343.5
308.651	346.5
308.881	363.5
309.111	361.5
309.341	360.5
309.571	356.5
309.8	382.5
310.03	396.5
310.26	389.5
310.49	386.5
310.72	408.5
310.949	399.5
311.179	418.5
311.409	394.5
311.639	400.5
311.868	391.5
312.098	395.5
312.328	413.5
312.557	412.5
312.787	417.5
313.017	414.5
313.246	388.5
313.476	403.5
313.706	408.5
313.935	389.5
314.165	391.5
314.394	422.5
314.624	416.5
314.853	417.5
315.083	405.5
315.312	409.5
315.542	392.5
315.771	370.5
316.001	371.5
316.23	394.5
316.46	376.5
316.689	371.5
316.919	402.5
317.148	393.5
317.377	393.5
317.607	397.5
317.836	404.5
318.065	381.5
318.295	389.5
318.524	405.5
318.753	394.5
318.983	380.5
319.212	392.5
319.441	391.5
319.67	413.5
319.9	392.5
320.129	405.5
320.358	408.5
320.587	436.5
320.816	417.5
321.046	422.5
321.275	426.5
321.504	422.5
321.733	441.5
321.962	424.5
322.191	444.5
322.42	452.5
322.649	466.5
322.878	461.5
323.108	473.5
323.337	482.5
323.566	524.5
323.795	536.5
324.024	560.5
324.253	705.5
324.482	985.5
324.71	1554.5
324.939	2372.5
325.168	2033.5
325.397	986.5
325.626	642.5
325.855	594.5
326.084	546.5
326.313	517.5
326.542	526.5
326.77	573.5
326.999	640.5
327.228	905.5
327.457	1408.5
327.686	1765.5
327.914	1122.5
328.143	727.5
328.372	650.5
328.6	610.5
328.829	591.5
329.058	631.5
329.287	597.5
329.515	572.5
329.744	508.5
329.972	533.5
330.201	536.5
330.43	618.5
330.658	621.5
330.887	627.5
331.115	631.5
331.344	567.5
331.572	538.5
331.801	519.5
332.03	510.5
332.258	485.5
332.486	499.5
332.715	487.5
332.943	480.5
333.172	496.5
333.4	486.5
333.629	508.5
333.857	492.5
334.085	512.5
334.314	538.5
334.542	578.5
334.771	596.5
334.999	562.5
335.227	515.5
335.455	512.5
335.684	475.5
335.912	479.5
336.14	470.5
336.369	450.5
336.597	472.5
336.825	465.5
337.053	477.5
337.281	476.5
337.51	461.5
337.738	465.5
337.966	449.5
338.194	468.5
338.422	484.5
338.65	452.5
338.878	465.5
339.106	468.5
339.334	462.5
339.562	429.5
339.79	460.5
340.018	464.5
340.246	455.5
340.474	443.5
340.702	454.5
340.93	461.5
341.158	437.5
341.386	490.5
341.614	462.5
341.842	446.5
342.07	441.5
342.298	452.5
342.526	442.5
342.754	444.5
342.981	455.5
343.209	452.5
343.437	446.5
343.665	449.5
343.893	457.5
344.12	456.5
344.348	485.5
344.576	486.5
344.804	465.5
345.031	477.5
345.259	476.5
345.487	488.5
345.714	447.5
345.942	458.5
346.17	444.5
346.397	460.5
346.625	461.5
346.853	427.5
347.08	441.5
347.308	424.5
347.535	457.5
347.763	451.5
347.99	447.5
348.218	449.5
348.445	454.5
348.673	449.5
348.9	450.5
349.128	459.5
349.355	441.5
349.583	444.5
349.81	434.5
350.037	420.5
350.265	441.5
350.492	434.5
350.72	437.5
350.947	446.5
351.174	469.5
351.402	444.5
351.629	448.5
351.856	441.5
352.083	467.5
352.311	474.5
352.538	444.5
352.765	470.5
352.992	462.5
353.22	439.5
353.447	457.5
353.674	445.5
353.901	434.5
354.128	424.5
354.355	443.5
354.583	432.5
354.81	435.5
355.037	410.5
355.264	415.5
355.491	413.5
355.718	411.5
355.945	436.5
356.172	408.5
356.399	408.5
356.626	421.5
356.853	430.5
357.08	426.5
357.307	425.5
357.534	414.5
357.761	418.5
357.988	427.5
358.215	411.5
358.441	420.5
358.668	410.5
358.895	434.5
359.122	443.5
359.349	422.5
359.576	454.5
359.802	467.5
360.029	493.5
360.256	516.5
360.483	489.5
360.709	462.5
360.936	435.5
361.163	440.5
361.39	463.5
361.616	431.5
361.843	445.5
362.07	460.5
362.296	428.5
362.523	426.5
362.749	448.5
362.976	440.5
363.203	439.5
363.429	440.5
363.656	444.5
363.882	439.5
364.109	442.5
364.335	451.5
364.562	449.5
364.788	442.5
365.015	437.5
365.241	430.5
365.468	425.5
365.694	449.5
365.92	448.5
366.147	438.5
366.373	434.5
366.599	430.5
366.826	430.5
367.052	442.5
367.278	450.5
367.505	428.5
367.731	439.5
367.957	420.5
368.184	454.5
368.41	444.5
368.636	460.5
368.862	458.5
369.089	447.5
369.315	434.5
369.541	440.5
369.767	440.5
369.993	438.5
370.219	442.5
370.445	438.5
370.672	452.5
370.898	433.5
371.124	432.5
371.35	414.5
371.576	448.5
371.802	432.5
372.028	411.5
372.254	454.5
372.48	421.5
372.706	438.5
372.932	453.5
373.158	441.5
373.384	436.5
373.61	455.5
373.835	433.5
374.061	435.5
374.287	446.5
374.513	451.5
374.739	478.5
374.965	451.5
375.191	448.5
375.416	456.5
375.642	445.5
375.868	452.5
376.094	439.5
376.319	454.5
376.545	442.5
376.771	421.5
376.997	442.5
377.222	426.5
377.448	441.5
377.674	439.5
377.899	420.5
378.125	447.5
378.35	451.5
378.576	439.5
378.802	460.5
379.027	446.5
379.253	446.5
379.478	454.5
379.704	459.5
379.929	438.5
380.155	446.5
380.38	446.5
380.606	443.5
380.831	463.5
381.057	423.5
381.282	447.5
381.507	440.5
381.733	451.5
381.958	440.5
382.184	443.5
382.409	429.5
382.634	453.5
382.86	454.5
383.085	433.5
383.31	450.5
383.535	472.5
383.761	468.5
383.986	445.5
384.211	450.5
384.436	466.5
384.662	466.5
384.887	466.5
385.112	471.5
385.337	469.5
385.562	482.5
385.787	452.5
386.013	485.5
386.238	487.5
386.463	500.5
386.688	480.5
386.913	476.5
387.138	469.5
387.363	489.5
387.588	467.5
387.813	483.5
388.038	475.5
388.263	481.5
388.488	486.5
388.713	514.5
388.938	491.5
389.163	508.5
389.387	482.5
389.612	483.5
389.837	491.5
390.062	492.5
390.287	494.5
390.512	513.5
390.736	488.5
390.961	478.5
391.186	501.5
391.411	493.5
391.636	502.5
391.86	506.5
392.085	515.5
392.31	495.5
392.534	501.5
392.759	500.5
392.984	496.5
393.208	499.5
393.433	506.5
393.658	508.5
393.882	520.5
394.107	497.5
394.331	514.5
394.556	509.5
394.78	500.5
395.005	491.5
395.229	486.5
395.454	520.5
395.678	512.5
395.903	527.5
396.127	522.5
396.352	557.5
396.576	522.5
396.801	531.5
397.025	517.5
397.249	506.5
397.474	525.5
397.698	523.5
397.922	540.5
398.147	548.5
398.371	584.5
398.595	579.5
398.82	569.5
399.044	562.5
399.268	569.5
399.492	625.5
399.717	654.5
399.941	658.5
400.165	698.5
400.389	708.5
400.613	669.5
400.837	621.5
401.062	630.5
401.286	576.5
401.51	566.5
401.734	550.5
401.958	584.5
402.182	548.5
402.406	580.5
402.63	613.5
402.854	584.5
403.078	595.5
403.302	585.5
403.526	596.5
403.75	620.5
403.974	590.5
404.198	606.5
404.422	597.5
404.645	596.5
404.869	603.5
405.093	646.5
405.317	704.5
405.541	718.5
405.765	681.5
405.988	635.5
406.212	635.5
406.436	678.5
406.66	650.5
406.883	674.5
407.107	695.5
407.331	734.5
407.555	781.5
407.778	804.5
408.002	740.5
408.226	685.5
408.449	676.5
408.673	661.5
408.896	692.5
409.12	770.5
409.344	684.5
409.567	626.5
409.791	618.5
410.014	607.5
410.238	602.5
410.461	610.5
410.685	588.5
410.908	626.5
411.132	666.5
411.355	691.5
411.578	668.5
411.802	613.5
412.025	592.5
412.249	614.5
412.472	638.5
412.695	678.5
412.919	666.5
413.142	636.5
413.365	585.5
413.589	594.5
413.812	596.5
414.035	584.5
414.258	567.5
414.482	564.5
414.705	563.5
414.928	585.5
415.151	556.5
415.374	556.5
415.597	554.5
415.821	540.5
416.044	567.5
416.267	576.5
416.49	569.5
416.713	546.5
416.936	538.5
417.159	548.5
417.382	576.5
417.605	566.5
417.828	587.5
418.051	582.5
418.274	582.5
418.497	564.5
418.72	572.5
418.943	577.5
419.166	572.5
419.389	629.5
419.611	620.5
419.834	594.5
420.057	609.5
420.28	600.5
420.503	604.5
420.726	615.5
420.948	620.5
421.171	652.5
421.394	698.5
421.617	632.5
421.839	580.5
422.062	594.5
422.285	604.5
422.507	681.5
422.73	750.5
422.953	730.5
423.175	645.5
423.398	629.5
423.621	620.5
423.843	627.5
424.066	650.5
424.288	626.5
424.511	657.5
424.733	716.5
424.956	816.5
425.178	790.5
425.401	760.5
425.623	814.5
425.846	691.5
426.068	628.5
426.291	626.5
426.513	651.5
426.735	646.5
426.958	711.5
427.18	808.5
427.402	933.5
427.625	1039.5
427.847	885.5
428.069	799.5
428.292	680.5
428.514	644.5
428.736	626.5
428.958	593.5
429.181	577.5
429.403	590.5
429.625	602.5
429.847	637.5
430.069	728.5
430.292	734.5
430.514	628.5
430.736	613.5
430.958	594.5
431.18	579.5
431.402	566.5
431.624	553.5
431.846	525.5
432.068	565.5
432.29	556.5
432.512	569.5
432.734	540.5
432.956	557.5
433.178	546.5
433.4	590.5
433.622	545.5
433.844	546.5
434.066	549.5
434.287	549.5
434.509	566.5
434.731	574.5
434.953	588.5
435.175	603.5
435.397	644.5
435.618	629.5
435.84	702.5
436.062	797.5
436.284	877.5
436.505	724.5
436.727	647.5
436.949	604.5
437.17	600.5
437.392	617.5
437.614	597.5
437.835	635.5
438.057	718.5
438.278	853.5
438.5	859.5
438.721	929.5
438.943	898.5
439.165	736.5
439.386	639.5
439.608	629.5
439.829	632.5
440.05	668.5
440.272	732.5
440.493	680.5
440.715	613.5
440.936	600.5
441.158	604.5
441.379	588.5
441.6	619.5
441.822	647.5
442.043	677.5
442.264	769.5
442.486	842.5
442.707	717.5
442.928	653.5
443.149	660.5
443.371	687.5
443.592	702.5
443.813	845.5
444.034	912.5
444.255	772.5
444.476	686.5
444.698	685.5
444.919	659.5
445.14	754.5
445.361	728.5
445.582	720.5
445.803	760.5
446.024	890.5
446.245	902.5
446.466	800.5
446.687	679.5
446.908	634.5
447.129	608.5
447.35	591.5
447.571	592.5
447.792	569.5
448.013	583.5
448.234	598.5
448.455	654.5
448.675	796.5
448.896	934.5
449.117	798.5
449.338	732.5
449.559	873.5
449.779	1011.5
450	768.5
450.221	643.5
450.442	598.5
450.662	570.5
450.883	595.5
451.104	598.5
451.324	583.5
451.545	581.5
451.766	559.5
451.986	540.5
452.207	525.5
452.428	543.5
452.648	552.5
452.869	538.5
453.089	541.5
453.31	548.5
453.53	553.5
453.751	526.5
453.971	519.5
454.192	532.5
454.412	546.5
454.633	549.5
454.853	515.5
455.073	530.5
455.294	547.5
455.514	637.5
455.734	609.5
455.955	522.5
456.175	505.5
456.395	476.5
456.616	490.5
456.836	493.5
457.056	500.5
457.276	478.5
457.497	515.5
457.717	489.5
457.937	530.5
458.157	529.5
458.377	540.5
458.598	549.5
458.818	589.5
459.038	681.5
459.258	712.5
459.478	606.5
459.698	570.5
459.918	548.5
460.138	570.5
460.358	566.5
460.578	575.5
460.798	587.5
461.018	601.5
461.238	585.5
461.458	568.5
461.678	581.5
461.898	571.5
462.118	557.5
462.338	579.5
462.558	593.5
462.777	596.5
462.997	637.5
463.217	616.5
463.437	638.5
463.657	640.5
463.876	631.5
464.096	634.5
464.316	616.5
464.536	615.5
464.755	597.5
464.975	624.5
465.195	634.5
465.414	696.5
465.634	645.5
465.854	608.5
466.073	573.5
466.293	559.5
466.512	561.5
466.732	542.5
466.951	554.5
467.171	524.5
467.391	544.5
467.61	547.5
467.829	571.5
468.049	563.5
468.268	561.5
468.488	552.5
468.707	538.5
468.927	513.5
469.146	514.5
469.365	524.5
469.585	547.5
469.804	546.5
470.023	550.5
470.243	545.5
470.462	549.5
470.681	562.5
470.901	576.5
471.12	540.5
471.339	556.5
471.558	544.5
471.777	533.5
471.997	530.5
472.216	554.5
472.435	602.5
472.654	581.5
472.873	556.5
473.092	537.5
473.311	539.5
473.53	544.5
473.749	557.5
473.968	595.5
474.187	708.5
474.406	721.5
474.625	634.5
474.844	550.5
475.063	543.5
475.282	534.5
475.501	545.5
475.72	579.5
475.939	555.5
476.158	560.5
476.377	562.5
476.596	567.5
476.814	578.5
477.033	572.5
477.252	581.5
477.471	573.5
477.69	589.5
477.908	596.5
478.127	591.5
478.346	595.5
478.564	608.5
478.783	604.5
479.002	611.5
479.22	638.5
479.439	646.5
479.658	673.5
479.876	669.5
480.095	680.5
480.313	721.5
480.532	681.5
480.751	690.5
480.969	700.5
481.188	725.5
481.406	810.5
481.624	716.5
481.843	668.5
482.061	665.5
482.28	644.5
482.498	664.5
482.717	646.5
482.935	646.5
483.153	636.5
483.372	653.5
483.59	647.5
483.808	646.5
484.027	644.5
484.245	649.5
484.463	641.5
484.681	684.5
484.9	666.5
485.118	654.5
485.336	695.5
485.554	668.5
485.772	659.5
485.99	673.5
486.209	677.5
486.427	673.5
486.645	680.5
486.863	697.5
487.081	700.5
487.299	710.5
487.517	705.5
487.735	693.5
487.953	685.5
488.171	693.5
488.389	714.5
488.607	700.5
488.825	696.5
489.043	684.5
489.261	726.5
489.479	724.5
489.696	735.5
489.914	737.5
490.132	727.5
490.35	715.5
490.568	705.5
490.786	755.5
491.003	778.5
491.221	773.5
491.439	784.5
491.657	776.5
491.874	790.5
492.092	783.5
492.31	801.5
492.527	820.5
492.745	779.5
492.963	828.5
493.18	845.5
493.398	851.5
493.615	828.5
493.833	849.5
494.05	802.5
494.268	818.5
494.485	834.5
494.703	819.5
494.92	826.5
495.138	812.5
495.355	820.5
495.573	830.5
495.79	840.5
496.008	840.5
496.225	845.5
496.442	822.5
496.66	848.5
496.877	824.5
497.094	850.5
497.312	834.5
497.529	874.5
497.746	883.5
497.963	868.5
498.181	887.5
498.398	908.5
498.615	906.5
498.832	948.5
499.049	968.5
499.267	980.5
499.484	1006.5
499.701	1017.5
499.918	1086.5
500.135	1170.5
500.352	1170.5
500.569	1199.5
500.786	1239.5
501.003	1202.5
501.22	1149.5
501.437	1096.5
501.654	1074.5
501.871	1084.5
502.088	1029.5
502.305	986.5
502.522	955.5
502.739	927.5
502.956	910.5
503.172	904.5
503.389	880.5
503.606	873.5
503.823	886.5
504.04	873.5
504.256	840.5
504.473	861.5
504.69	824.5
504.907	840.5
505.123	830.5
505.34	826.5
505.557	800.5
505.773	790.5
505.99	800.5
506.207	788.5
506.423	808.5
506.64	782.5
506.856	780.5
507.073	767.5
507.289	772.5
507.506	760.5
507.722	795.5
507.939	796.5
508.155	766.5
508.372	757.5
508.588	730.5
508.805	739.5
509.021	728.5
509.238	757.5
509.454	759.5
509.67	769.5
509.887	743.5
510.103	762.5
510.319	730.5
510.536	846.5
510.752	1315.5
510.968	1097.5
511.184	749.5
511.401	700.5
511.617	716.5
511.833	720.5
512.049	682.5
512.265	693.5
512.481	695.5
512.698	682.5
512.914	707.5
513.13	692.5
513.346	675.5
513.562	686.5
513.778	706.5
513.994	723.5
514.21	720.5
514.426	743.5
514.642	764.5
514.858	779.5
515.074	858.5
515.29	966.5
515.506	1373.5
515.721	1141.5
515.937	838.5
516.153	776.5
516.369	752.5
516.585	758.5
516.801	738.5
517.016	728.5
517.232	725.5
517.448	730.5
517.664	765.5
517.879	739.5
518.095	739.5
518.311	736.5
518.527	733.5
518.742	726.5
518.958	683.5
519.173	721.5
519.389	726.5
519.605	709.5
