Data from 1966.PennyLincolnUp.Lamp.En5.5.200Scan.071719.P1._HRD10591_14-14-37-914.txt Node
Date: Thu Jul 18 14:14:37 EDT 2019
User: cochatt
Spectrometer: HR+D1059
Trigger mode: 1
Integration Time (sec): 1.000000E-1
Scans to average: 1
Electric dark correction enabled: true
Nonlinearity correction enabled: false
Boxcar width: 0
XAxis mode: Wavelengths
Number of Pixels in Spectrum: 2048
>>>>>Begin Spectral Data<<<<<
223.165	-10.38
223.4	-10.38
223.635	-10.38
223.869	-18.38
224.104	-8.38
224.338	-18.38
224.573	-19.38
224.808	-10.38
225.042	-0.38
225.277	-3.38
225.511	2.62
225.746	-11.38
225.98	8.62
226.215	1.62
226.449	16.62
226.683	17.62
226.918	23.62
227.152	29.62
227.387	34.62
227.621	37.62
227.856	34.62
228.09	53.62
228.324	50.62
228.559	48.62
228.793	56.62
229.027	75.62
229.262	78.62
229.496	97.62
229.73	100.62
229.964	116.62
230.199	90.62
230.433	82.62
230.667	86.62
230.901	86.62
231.136	90.62
231.37	105.62
231.604	99.62
231.838	100.62
232.072	79.62
232.306	91.62
232.541	85.62
232.775	93.62
233.009	94.62
233.243	86.62
233.477	107.62
233.711	85.62
233.945	89.62
234.179	94.62
234.413	102.62
234.647	106.62
234.881	108.62
235.115	110.62
235.349	91.62
235.583	92.62
235.817	103.62
236.051	86.62
236.285	91.62
236.519	85.62
236.753	105.62
236.987	113.62
237.221	126.62
237.455	159.62
237.689	129.62
237.922	103.62
238.156	107.62
238.39	99.62
238.624	103.62
238.858	83.62
239.091	101.62
239.325	104.62
239.559	100.62
239.793	98.62
240.027	103.62
240.26	91.62
240.494	102.62
240.728	114.62
240.961	109.62
241.195	100.62
241.429	107.62
241.662	116.62
241.896	120.62
242.13	107.62
242.363	93.62
242.597	94.62
242.83	109.62
243.064	108.62
243.298	102.62
243.531	99.62
243.765	97.62
243.998	114.62
244.232	99.62
244.465	106.62
244.699	94.62
244.932	114.62
245.166	114.62
245.399	101.62
245.633	102.62
245.866	104.62
246.099	99.62
246.333	94.62
246.566	115.62
246.8	110.62
247.033	117.62
247.266	101.62
247.5	89.62
247.733	103.62
247.966	129.62
248.2	122.62
248.433	115.62
248.666	121.62
248.899	132.62
249.133	129.62
249.366	136.62
249.599	125.62
249.832	131.62
250.066	133.62
250.299	128.62
250.532	122.62
250.765	136.62
250.998	136.62
251.231	150.62
251.465	133.62
251.698	121.62
251.931	128.62
252.164	115.62
252.397	118.62
252.63	135.62
252.863	120.62
253.096	133.62
253.329	148.62
253.562	147.62
253.795	134.62
254.028	129.62
254.261	139.62
254.494	150.62
254.727	168.62
254.96	163.62
255.193	169.62
255.426	151.62
255.659	143.62
255.892	142.62
256.124	145.62
256.357	147.62
256.59	139.62
256.823	128.62
257.056	120.62
257.289	121.62
257.521	128.62
257.754	119.62
257.987	135.62
258.22	134.62
258.452	115.62
258.685	134.62
258.918	131.62
259.151	133.62
259.383	139.62
259.616	131.62
259.849	148.62
260.081	155.62
260.314	157.62
260.547	172.62
260.779	153.62
261.012	143.62
261.244	140.62
261.477	150.62
261.71	140.62
261.942	147.62
262.175	132.62
262.407	151.62
262.64	149.62
262.872	141.62
263.105	137.62
263.337	140.62
263.57	131.62
263.802	138.62
264.035	142.62
264.267	133.62
264.499	139.62
264.732	134.62
264.964	136.62
265.197	125.62
265.429	143.62
265.661	131.62
265.894	127.62
266.126	142.62
266.358	138.62
266.591	138.62
266.823	148.62
267.055	139.62
267.287	155.62
267.52	143.62
267.752	142.62
267.984	132.62
268.216	132.62
268.448	156.62
268.681	147.62
268.913	148.62
269.145	158.62
269.377	162.62
269.609	153.62
269.841	161.62
270.073	172.62
270.306	169.62
270.538	188.62
270.77	197.62
271.002	166.62
271.234	177.62
271.466	179.62
271.698	183.62
271.93	187.62
272.162	184.62
272.394	193.62
272.626	186.62
272.858	164.62
273.09	161.62
273.322	157.62
273.553	151.62
273.785	157.62
274.017	161.62
274.249	165.62
274.481	158.62
274.713	168.62
274.945	165.62
275.176	160.62
275.408	151.62
275.64	161.62
275.872	174.62
276.104	151.62
276.335	161.62
276.567	165.62
276.799	185.62
277.031	181.62
277.262	194.62
277.494	187.62
277.726	183.62
277.957	165.62
278.189	147.62
278.421	169.62
278.652	161.62
278.884	151.62
279.115	162.62
279.347	155.62
279.579	157.62
279.81	168.62
280.042	159.62
280.273	156.62
280.505	163.62
280.736	156.62
280.968	147.62
281.199	156.62
281.431	166.62
281.662	157.62
281.894	168.62
282.125	174.62
282.356	166.62
282.588	182.62
282.819	178.62
283.051	172.62
283.282	170.62
283.513	178.62
283.745	158.62
283.976	167.62
284.207	173.62
284.439	163.62
284.67	167.62
284.901	148.62
285.132	159.62
285.364	163.62
285.595	154.62
285.826	183.62
286.057	161.62
286.288	161.62
286.52	162.62
286.751	165.62
286.982	167.62
287.213	157.62
287.444	161.62
287.675	180.62
287.906	190.62
288.138	188.62
288.369	185.62
288.6	172.62
288.831	172.62
289.062	161.62
289.293	185.62
289.524	193.62
289.755	149.62
289.986	167.62
290.217	175.62
290.448	176.62
290.679	161.62
290.91	188.62
291.141	155.62
291.371	166.62
291.602	165.62
291.833	166.62
292.064	166.62
292.295	173.62
292.526	172.62
292.757	166.62
292.987	185.62
293.218	174.62
293.449	161.62
293.68	172.62
293.91	167.62
294.141	161.62
294.372	169.62
294.603	165.62
294.833	178.62
295.064	166.62
295.295	172.62
295.525	171.62
295.756	159.62
295.987	158.62
296.217	201.62
296.448	202.62
296.679	180.62
296.909	189.62
297.14	170.62
297.37	167.62
297.601	178.62
297.831	169.62
298.062	186.62
298.292	184.62
298.523	183.62
298.753	180.62
298.984	159.62
299.214	173.62
299.445	169.62
299.675	174.62
299.905	177.62
300.136	174.62
300.366	179.62
300.597	178.62
300.827	196.62
301.057	195.62
301.288	193.62
301.518	195.62
301.748	187.62
301.979	203.62
302.209	197.62
302.439	196.62
302.669	191.62
302.9	178.62
303.13	182.62
303.36	167.62
303.59	197.62
303.82	197.62
304.051	199.62
304.281	190.62
304.511	183.62
304.741	182.62
304.971	175.62
305.201	185.62
305.431	166.62
305.661	182.62
305.891	174.62
306.121	189.62
306.352	180.62
306.582	179.62
306.812	190.62
307.042	193.62
307.272	187.62
307.502	179.62
307.731	200.62
307.961	190.62
308.191	181.62
308.421	181.62
308.651	183.62
308.881	192.62
309.111	186.62
309.341	208.62
309.571	204.62
309.8	207.62
310.03	204.62
310.26	184.62
310.49	192.62
310.72	215.62
310.949	248.62
311.179	232.62
311.409	214.62
311.639	203.62
311.868	207.62
312.098	204.62
312.328	214.62
312.557	210.62
312.787	220.62
313.017	228.62
313.246	199.62
313.476	213.62
313.706	209.62
313.935	203.62
314.165	220.62
314.394	217.62
314.624	217.62
314.853	212.62
315.083	207.62
315.312	199.62
315.542	204.62
315.771	207.62
316.001	205.62
316.23	198.62
316.46	200.62
316.689	212.62
316.919	221.62
317.148	221.62
317.377	205.62
317.607	217.62
317.836	203.62
318.065	203.62
318.295	209.62
318.524	203.62
318.753	203.62
318.983	198.62
319.212	194.62
319.441	211.62
319.67	205.62
319.9	206.62
320.129	204.62
320.358	218.62
320.587	208.62
320.816	205.62
321.046	222.62
321.275	211.62
321.504	215.62
321.733	218.62
321.962	202.62
322.191	223.62
322.42	223.62
322.649	245.62
322.878	239.62
323.108	240.62
323.337	258.62
323.566	273.62
323.795	294.62
324.024	309.62
324.253	355.62
324.482	503.62
324.71	799.62
324.939	1066.62
325.168	871.62
325.397	422.62
325.626	311.62
325.855	280.62
326.084	256.62
326.313	252.62
326.542	257.62
326.77	275.62
326.999	360.62
327.228	491.62
327.457	691.62
327.686	806.62
327.914	511.62
328.143	380.62
328.372	330.62
328.6	313.62
328.829	289.62
329.058	329.62
329.287	340.62
329.515	310.62
329.744	281.62
329.972	266.62
330.201	291.62
330.43	311.62
330.658	343.62
330.887	341.62
331.115	340.62
331.344	290.62
331.572	247.62
331.801	254.62
332.03	278.62
332.258	239.62
332.486	225.62
332.715	230.62
332.943	232.62
333.172	254.62
333.4	235.62
333.629	252.62
333.857	270.62
334.085	280.62
334.314	293.62
334.542	309.62
334.771	317.62
334.999	267.62
335.227	261.62
335.455	239.62
335.684	248.62
335.912	266.62
336.14	226.62
336.369	216.62
336.597	246.62
336.825	251.62
337.053	246.62
337.281	246.62
337.51	238.62
337.738	223.62
337.966	208.62
338.194	231.62
338.422	238.62
338.65	224.62
338.878	225.62
339.106	233.62
339.334	246.62
339.562	221.62
339.79	237.62
340.018	223.62
340.246	231.62
340.474	225.62
340.702	231.62
340.93	226.62
341.158	223.62
341.386	218.62
341.614	242.62
341.842	226.62
342.07	234.62
342.298	244.62
342.526	221.62
342.754	233.62
342.981	214.62
343.209	224.62
343.437	218.62
343.665	219.62
343.893	241.62
344.12	209.62
344.348	227.62
344.576	238.62
344.804	236.62
345.031	247.62
345.259	240.62
345.487	233.62
345.714	227.62
345.942	207.62
346.17	225.62
346.397	225.62
346.625	230.62
346.853	225.62
347.08	215.62
347.308	211.62
347.535	215.62
347.763	219.62
347.99	234.62
348.218	226.62
348.445	239.62
348.673	216.62
348.9	221.62
349.128	227.62
349.355	219.62
349.583	205.62
349.81	218.62
350.037	211.62
350.265	223.62
350.492	225.62
350.72	220.62
350.947	226.62
351.174	218.62
351.402	242.62
351.629	219.62
351.856	207.62
352.083	229.62
352.311	224.62
352.538	228.62
352.765	228.62
352.992	230.62
353.22	224.62
353.447	243.62
353.674	211.62
353.901	219.62
354.128	202.62
354.355	202.62
354.583	195.62
354.81	209.62
355.037	202.62
355.264	195.62
355.491	200.62
355.718	214.62
355.945	194.62
356.172	191.62
356.399	206.62
356.626	193.62
356.853	203.62
357.08	199.62
357.307	210.62
357.534	210.62
357.761	201.62
357.988	204.62
358.215	217.62
358.441	207.62
358.668	197.62
358.895	211.62
359.122	215.62
359.349	202.62
359.576	241.62
359.802	233.62
360.029	236.62
360.256	262.62
360.483	238.62
360.709	211.62
360.936	207.62
361.163	204.62
361.39	221.62
361.616	221.62
361.843	218.62
362.07	232.62
362.296	226.62
362.523	216.62
362.749	208.62
362.976	212.62
363.203	220.62
363.429	215.62
363.656	216.62
363.882	215.62
364.109	199.62
364.335	206.62
364.562	215.62
364.788	206.62
365.015	215.62
365.241	225.62
365.468	231.62
365.694	216.62
365.92	221.62
366.147	229.62
366.373	213.62
366.599	204.62
366.826	218.62
367.052	192.62
367.278	218.62
367.505	199.62
367.731	196.62
367.957	199.62
368.184	217.62
368.41	211.62
368.636	211.62
368.862	224.62
369.089	224.62
369.315	227.62
369.541	213.62
369.767	207.62
369.993	210.62
370.219	205.62
370.445	223.62
370.672	222.62
370.898	208.62
371.124	205.62
371.35	206.62
371.576	197.62
371.802	193.62
372.028	207.62
372.254	216.62
372.48	211.62
372.706	194.62
372.932	203.62
373.158	200.62
373.384	221.62
373.61	199.62
373.835	208.62
374.061	199.62
374.287	204.62
374.513	213.62
374.739	210.62
374.965	215.62
375.191	212.62
375.416	207.62
375.642	211.62
375.868	218.62
376.094	216.62
376.319	204.62
376.545	199.62
376.771	207.62
376.997	196.62
377.222	210.62
377.448	220.62
377.674	215.62
377.899	197.62
378.125	198.62
378.35	196.62
378.576	203.62
378.802	205.62
379.027	208.62
379.253	216.62
379.478	205.62
379.704	211.62
379.929	199.62
380.155	217.62
380.38	185.62
380.606	194.62
380.831	225.62
381.057	218.62
381.282	217.62
381.507	212.62
381.733	191.62
381.958	210.62
382.184	213.62
382.409	195.62
382.634	216.62
382.86	221.62
383.085	202.62
383.31	210.62
383.535	207.62
383.761	202.62
383.986	211.62
384.211	216.62
384.436	196.62
384.662	230.62
384.887	217.62
385.112	226.62
385.337	205.62
385.562	223.62
385.787	213.62
386.013	228.62
386.238	228.62
386.463	226.62
386.688	221.62
386.913	223.62
387.138	216.62
387.363	216.62
387.588	213.62
387.813	223.62
388.038	213.62
388.263	222.62
388.488	220.62
388.713	205.62
388.938	200.62
389.163	214.62
389.387	236.62
389.612	226.62
389.837	233.62
390.062	226.62
390.287	212.62
390.512	230.62
390.736	207.62
390.961	219.62
391.186	228.62
391.411	214.62
391.636	221.62
391.86	218.62
392.085	237.62
392.31	215.62
392.534	238.62
392.759	249.62
392.984	227.62
393.208	222.62
393.433	226.62
393.658	226.62
393.882	231.62
394.107	211.62
394.331	218.62
394.556	216.62
394.78	218.62
395.005	221.62
395.229	227.62
395.454	222.62
395.678	223.62
395.903	228.62
396.127	244.62
396.352	242.62
396.576	244.62
396.801	224.62
397.025	235.62
397.249	227.62
397.474	222.62
397.698	231.62
397.922	235.62
398.147	238.62
398.371	247.62
398.595	247.62
398.82	234.62
399.044	245.62
399.268	271.62
399.492	269.62
399.717	284.62
399.941	269.62
400.165	305.62
400.389	280.62
400.613	278.62
400.837	266.62
401.062	245.62
401.286	233.62
401.51	266.62
401.734	235.62
401.958	245.62
402.182	241.62
402.406	258.62
402.63	268.62
402.854	252.62
403.078	265.62
403.302	249.62
403.526	257.62
403.75	246.62
403.974	257.62
404.198	242.62
404.422	271.62
404.645	280.62
404.869	269.62
405.093	291.62
405.317	296.62
405.541	292.62
405.765	288.62
405.988	272.62
406.212	276.62
406.436	307.62
406.66	298.62
406.883	286.62
407.107	285.62
407.331	310.62
407.555	316.62
407.778	318.62
408.002	299.62
408.226	286.62
408.449	284.62
408.673	272.62
408.896	272.62
409.12	305.62
409.344	291.62
409.567	246.62
409.791	258.62
410.014	263.62
410.238	250.62
410.461	260.62
410.685	264.62
410.908	271.62
411.132	289.62
411.355	286.62
411.578	269.62
411.802	272.62
412.025	268.62
412.249	261.62
412.472	263.62
412.695	287.62
412.919	276.62
413.142	260.62
413.365	247.62
413.589	245.62
413.812	239.62
414.035	236.62
414.258	244.62
414.482	237.62
414.705	253.62
414.928	255.62
415.151	263.62
415.374	233.62
415.597	245.62
415.821	235.62
416.044	236.62
416.267	259.62
416.49	239.62
416.713	253.62
416.936	250.62
417.159	248.62
417.382	246.62
417.605	259.62
417.828	261.62
418.051	271.62
418.274	250.62
418.497	242.62
418.72	247.62
418.943	246.62
419.166	250.62
419.389	262.62
419.611	270.62
419.834	242.62
420.057	263.62
420.28	247.62
420.503	263.62
420.726	260.62
420.948	267.62
421.171	283.62
421.394	292.62
421.617	259.62
421.839	236.62
422.062	271.62
422.285	259.62
422.507	305.62
422.73	311.62
422.953	316.62
423.175	284.62
423.398	276.62
423.621	269.62
423.843	281.62
424.066	281.62
424.288	275.62
424.511	263.62
424.733	317.62
424.956	357.62
425.178	322.62
425.401	342.62
425.623	330.62
425.846	299.62
426.068	277.62
426.291	275.62
426.513	286.62
426.735	277.62
426.958	295.62
427.18	361.62
427.402	419.62
427.625	426.62
427.847	388.62
428.069	326.62
428.292	290.62
428.514	287.62
428.736	257.62
428.958	243.62
429.181	259.62
429.403	254.62
429.625	246.62
429.847	289.62
430.069	307.62
430.292	288.62
430.514	274.62
430.736	254.62
430.958	263.62
431.18	234.62
431.402	243.62
431.624	236.62
431.846	233.62
432.068	228.62
432.29	251.62
432.512	236.62
432.734	243.62
432.956	256.62
433.178	252.62
433.4	247.62
433.622	236.62
433.844	255.62
434.066	253.62
434.287	250.62
434.509	246.62
434.731	246.62
434.953	247.62
435.175	270.62
435.397	255.62
435.618	277.62
435.84	302.62
436.062	356.62
436.284	360.62
436.505	289.62
436.727	270.62
436.949	260.62
437.17	269.62
437.392	254.62
437.614	268.62
437.835	267.62
438.057	346.62
438.278	365.62
438.5	351.62
438.721	364.62
438.943	357.62
439.165	287.62
439.386	297.62
439.608	265.62
439.829	271.62
440.05	289.62
440.272	314.62
440.493	306.62
440.715	277.62
440.936	263.62
441.158	250.62
441.379	269.62
441.6	279.62
441.822	282.62
442.043	305.62
442.264	339.62
442.486	335.62
442.707	310.62
442.928	299.62
443.149	295.62
443.371	297.62
443.592	317.62
443.813	354.62
444.034	362.62
444.255	318.62
444.476	272.62
444.698	293.62
444.919	276.62
445.14	361.62
445.361	313.62
445.582	304.62
445.803	327.62
446.024	383.62
446.245	367.62
446.466	340.62
446.687	297.62
446.908	300.62
447.129	274.62
447.35	246.62
447.571	261.62
447.792	259.62
448.013	255.62
448.234	255.62
448.455	287.62
448.675	323.62
448.896	383.62
449.117	307.62
449.338	319.62
449.559	374.62
449.779	386.62
450	318.62
450.221	269.62
450.442	273.62
450.662	246.62
450.883	250.62
451.104	290.62
451.324	267.62
451.545	249.62
451.766	230.62
451.986	216.62
452.207	222.62
452.428	234.62
452.648	216.62
452.869	245.62
453.089	247.62
453.31	235.62
453.53	257.62
453.751	232.62
453.971	238.62
454.192	266.62
454.412	249.62
454.633	228.62
454.853	241.62
455.073	221.62
455.294	257.62
455.514	286.62
455.734	275.62
455.955	233.62
456.175	207.62
456.395	207.62
456.616	223.62
456.836	218.62
457.056	213.62
457.276	220.62
457.497	229.62
457.717	210.62
457.937	227.62
458.157	218.62
458.377	223.62
458.598	233.62
458.818	268.62
459.038	319.62
459.258	311.62
459.478	265.62
459.698	234.62
459.918	261.62
460.138	246.62
460.358	250.62
460.578	235.62
460.798	257.62
461.018	255.62
461.238	244.62
461.458	247.62
461.678	250.62
461.898	246.62
462.118	241.62
462.338	230.62
462.558	257.62
462.777	255.62
462.997	268.62
463.217	283.62
463.437	266.62
463.657	263.62
463.876	254.62
464.096	269.62
464.316	267.62
464.536	268.62
464.755	268.62
464.975	262.62
465.195	294.62
465.414	345.62
465.634	284.62
465.854	265.62
466.073	233.62
466.293	247.62
466.512	253.62
466.732	244.62
466.951	245.62
467.171	255.62
467.391	243.62
467.61	244.62
467.829	260.62
468.049	263.62
468.268	247.62
468.488	248.62
468.707	243.62
468.927	236.62
469.146	227.62
469.365	238.62
469.585	222.62
469.804	257.62
470.023	265.62
470.243	259.62
470.462	232.62
470.681	272.62
470.901	253.62
471.12	259.62
471.339	231.62
471.558	259.62
471.777	233.62
471.997	225.62
472.216	250.62
472.435	285.62
472.654	264.62
472.873	243.62
473.092	233.62
473.311	208.62
473.53	236.62
473.749	246.62
473.968	285.62
474.187	320.62
474.406	339.62
474.625	249.62
474.844	255.62
475.063	216.62
475.282	229.62
475.501	238.62
475.72	251.62
475.939	261.62
476.158	230.62
476.377	250.62
476.596	247.62
476.814	239.62
477.033	259.62
477.252	257.62
477.471	258.62
477.69	254.62
477.908	251.62
478.127	247.62
478.346	262.62
478.564	264.62
478.783	276.62
479.002	269.62
479.22	279.62
479.439	272.62
479.658	308.62
479.876	291.62
480.095	265.62
480.313	310.62
480.532	305.62
480.751	292.62
480.969	322.62
481.188	365.62
481.406	372.62
481.624	302.62
481.843	299.62
482.061	290.62
482.28	285.62
482.498	281.62
482.717	273.62
482.935	263.62
483.153	276.62
483.372	290.62
483.59	272.62
483.808	281.62
484.027	284.62
484.245	277.62
484.463	290.62
484.681	291.62
484.9	263.62
485.118	291.62
485.336	290.62
485.554	269.62
485.772	282.62
485.99	297.62
486.209	276.62
486.427	288.62
486.645	287.62
486.863	300.62
487.081	324.62
487.299	282.62
487.517	288.62
487.735	307.62
487.953	317.62
488.171	301.62
488.389	306.62
488.607	295.62
488.825	293.62
489.043	314.62
489.261	308.62
489.479	305.62
489.696	303.62
489.914	304.62
490.132	308.62
490.35	317.62
490.568	322.62
490.786	339.62
491.003	331.62
491.221	324.62
491.439	338.62
491.657	351.62
491.874	340.62
492.092	366.62
492.31	355.62
492.527	338.62
492.745	342.62
492.963	349.62
493.18	351.62
493.398	373.62
493.615	374.62
493.833	345.62
494.05	345.62
494.268	353.62
494.485	342.62
494.703	355.62
494.92	353.62
495.138	357.62
495.355	345.62
495.573	373.62
495.79	346.62
496.008	355.62
496.225	329.62
496.442	357.62
496.66	335.62
496.877	338.62
497.094	361.62
497.312	358.62
497.529	365.62
497.746	361.62
497.963	375.62
498.181	387.62
498.398	397.62
498.615	382.62
498.832	385.62
499.049	398.62
499.267	390.62
499.484	400.62
499.701	399.62
499.918	408.62
500.135	437.62
500.352	468.62
500.569	493.62
500.786	452.62
501.003	467.62
501.22	435.62
501.437	434.62
501.654	424.62
501.871	423.62
502.088	409.62
502.305	381.62
502.522	378.62
