Data from 1966.PennyLincolnUp.Lamp.En5.5.200Scan.071719.P1._HRD10591_14-15-22-944.txt Node
Date: Thu Jul 18 14:15:22 EDT 2019
User: cochatt
Spectrometer: HR+D1059
Trigger mode: 1
Integration Time (sec): 1.000000E-1
Scans to average: 1
Electric dark correction enabled: true
Nonlinearity correction enabled: false
Boxcar width: 0
XAxis mode: Wavelengths
Number of Pixels in Spectrum: 2048
>>>>>Begin Spectral Data<<<<<
223.165	-8.38
223.4	-8.38
223.635	-8.38
223.869	-13.38
224.104	-17.38
224.338	-17.38
224.573	-21.38
224.808	-7.38
225.042	-1.38
225.277	6.62
225.511	6.62
225.746	2.62
225.98	-11.38
226.215	11.62
226.449	11.62
226.683	16.62
226.918	17.62
227.152	24.62
227.387	19.62
227.621	25.62
227.856	22.62
228.09	41.62
228.324	56.62
228.559	56.62
228.793	52.62
229.027	68.62
229.262	73.62
229.496	91.62
229.73	95.62
229.964	88.62
230.199	81.62
230.433	95.62
230.667	82.62
230.901	88.62
231.136	71.62
231.37	95.62
231.604	85.62
231.838	80.62
232.072	93.62
232.306	97.62
232.541	83.62
232.775	97.62
233.009	89.62
233.243	92.62
233.477	94.62
233.711	108.62
233.945	102.62
234.179	78.62
234.413	84.62
234.647	94.62
234.881	87.62
235.115	92.62
235.349	86.62
235.583	97.62
235.817	88.62
236.051	90.62
236.285	98.62
236.519	99.62
236.753	94.62
236.987	114.62
237.221	121.62
237.455	141.62
237.689	122.62
237.922	104.62
238.156	100.62
238.39	86.62
238.624	101.62
238.858	87.62
239.091	98.62
239.325	78.62
239.559	86.62
239.793	99.62
240.027	99.62
240.26	112.62
240.494	123.62
240.728	109.62
240.961	90.62
241.195	101.62
241.429	95.62
241.662	95.62
241.896	94.62
242.13	106.62
242.363	96.62
242.597	102.62
242.83	98.62
243.064	93.62
243.298	92.62
243.531	101.62
243.765	96.62
243.998	95.62
244.232	95.62
244.465	113.62
244.699	118.62
244.932	94.62
245.166	95.62
245.399	101.62
245.633	139.62
245.866	100.62
246.099	88.62
246.333	118.62
246.566	126.62
246.8	108.62
247.033	116.62
247.266	107.62
247.5	114.62
247.733	112.62
247.966	103.62
248.2	122.62
248.433	115.62
248.666	114.62
248.899	138.62
249.133	134.62
249.366	140.62
249.599	132.62
249.832	120.62
250.066	132.62
250.299	120.62
250.532	142.62
250.765	140.62
250.998	144.62
251.231	152.62
251.465	122.62
251.698	130.62
251.931	130.62
252.164	117.62
252.397	127.62
252.63	123.62
252.863	135.62
253.096	135.62
253.329	157.62
253.562	139.62
253.795	128.62
254.028	141.62
254.261	131.62
254.494	131.62
254.727	167.62
254.96	175.62
255.193	166.62
255.426	148.62
255.659	140.62
255.892	140.62
256.124	145.62
256.357	148.62
256.59	129.62
256.823	119.62
257.056	135.62
257.289	119.62
257.521	138.62
257.754	134.62
257.987	129.62
258.22	122.62
258.452	128.62
258.685	131.62
258.918	119.62
259.151	132.62
259.383	133.62
259.616	131.62
259.849	135.62
260.081	148.62
260.314	167.62
260.547	165.62
260.779	148.62
261.012	140.62
261.244	140.62
261.477	141.62
261.71	126.62
261.942	150.62
262.175	140.62
262.407	164.62
262.64	134.62
262.872	151.62
263.105	122.62
263.337	134.62
263.57	133.62
263.802	140.62
264.035	131.62
264.267	141.62
264.499	131.62
264.732	144.62
264.964	124.62
265.197	134.62
265.429	138.62
265.661	147.62
265.894	137.62
266.126	135.62
266.358	154.62
266.591	128.62
266.823	138.62
267.055	147.62
267.287	140.62
267.52	133.62
267.752	154.62
267.984	137.62
268.216	143.62
268.448	154.62
268.681	144.62
268.913	147.62
269.145	156.62
269.377	165.62
269.609	160.62
269.841	153.62
270.073	159.62
270.306	195.62
270.538	167.62
270.77	179.62
271.002	175.62
271.234	169.62
271.466	168.62
271.698	202.62
271.93	195.62
272.162	212.62
272.394	183.62
272.626	162.62
272.858	170.62
273.09	147.62
273.322	146.62
273.553	161.62
273.785	147.62
274.017	154.62
274.249	160.62
274.481	162.62
274.713	159.62
274.945	137.62
275.176	165.62
275.408	162.62
275.64	152.62
275.872	144.62
276.104	155.62
276.335	162.62
276.567	166.62
276.799	188.62
277.031	182.62
277.262	213.62
277.494	190.62
277.726	189.62
277.957	182.62
278.189	178.62
278.421	191.62
278.652	171.62
278.884	150.62
279.115	162.62
279.347	169.62
279.579	140.62
279.81	167.62
280.042	160.62
280.273	163.62
280.505	145.62
280.736	179.62
280.968	172.62
281.199	154.62
281.431	166.62
281.662	164.62
281.894	161.62
282.125	147.62
282.356	168.62
282.588	187.62
282.819	202.62
283.051	172.62
283.282	167.62
283.513	163.62
283.745	168.62
283.976	168.62
284.207	180.62
284.439	173.62
284.67	180.62
284.901	171.62
285.132	142.62
285.364	143.62
285.595	177.62
285.826	153.62
286.057	163.62
286.288	162.62
286.52	171.62
286.751	164.62
286.982	166.62
287.213	162.62
287.444	163.62
287.675	183.62
287.906	174.62
288.138	174.62
288.369	175.62
288.6	188.62
288.831	171.62
289.062	171.62
289.293	162.62
289.524	163.62
289.755	175.62
289.986	161.62
290.217	170.62
290.448	174.62
290.679	156.62
290.91	172.62
291.141	166.62
291.371	137.62
291.602	177.62
291.833	174.62
292.064	169.62
292.295	174.62
292.526	166.62
292.757	177.62
292.987	177.62
293.218	159.62
293.449	174.62
293.68	178.62
293.91	159.62
294.141	171.62
294.372	171.62
294.603	177.62
294.833	160.62
295.064	184.62
295.295	167.62
295.525	158.62
295.756	187.62
295.987	163.62
296.217	196.62
296.448	199.62
296.679	170.62
296.909	190.62
297.14	180.62
297.37	181.62
297.601	171.62
297.831	182.62
298.062	178.62
298.292	179.62
298.523	186.62
298.753	177.62
298.984	156.62
299.214	178.62
299.445	165.62
299.675	182.62
299.905	188.62
300.136	169.62
300.366	165.62
300.597	175.62
300.827	186.62
301.057	190.62
301.288	186.62
301.518	198.62
301.748	185.62
301.979	192.62
302.209	199.62
302.439	163.62
302.669	205.62
302.9	190.62
303.13	186.62
303.36	185.62
303.59	201.62
303.82	190.62
304.051	190.62
304.281	191.62
304.511	197.62
304.741	188.62
304.971	186.62
305.201	183.62
305.431	190.62
305.661	193.62
305.891	201.62
306.121	184.62
306.352	206.62
306.582	203.62
306.812	186.62
307.042	194.62
307.272	186.62
307.502	198.62
307.731	204.62
307.961	192.62
308.191	207.62
308.421	181.62
308.651	176.62
308.881	192.62
309.111	184.62
309.341	193.62
309.571	198.62
309.8	208.62
310.03	204.62
310.26	206.62
310.49	220.62
310.72	231.62
310.949	228.62
311.179	238.62
311.409	215.62
311.639	221.62
311.868	210.62
312.098	217.62
312.328	202.62
312.557	227.62
312.787	231.62
313.017	222.62
313.246	212.62
313.476	213.62
313.706	209.62
313.935	215.62
314.165	241.62
314.394	218.62
314.624	236.62
314.853	216.62
315.083	228.62
315.312	221.62
315.542	206.62
315.771	210.62
316.001	198.62
316.23	196.62
316.46	195.62
316.689	210.62
316.919	210.62
317.148	206.62
317.377	223.62
317.607	212.62
317.836	210.62
318.065	210.62
318.295	203.62
318.524	204.62
318.753	197.62
318.983	218.62
319.212	204.62
319.441	216.62
319.67	238.62
319.9	217.62
320.129	215.62
320.358	220.62
320.587	211.62
320.816	213.62
321.046	216.62
321.275	230.62
321.504	212.62
321.733	222.62
321.962	223.62
322.191	238.62
322.42	245.62
322.649	244.62
322.878	254.62
323.108	260.62
323.337	281.62
323.566	272.62
323.795	302.62
324.024	306.62
324.253	385.62
324.482	559.62
324.71	866.62
324.939	1096.62
325.168	898.62
325.397	458.62
325.626	303.62
325.855	263.62
326.084	258.62
326.313	266.62
326.542	262.62
326.77	315.62
326.999	352.62
327.228	506.62
327.457	732.62
327.686	818.62
327.914	566.62
328.143	362.62
328.372	343.62
328.6	338.62
328.829	322.62
329.058	331.62
329.287	328.62
329.515	307.62
329.744	294.62
329.972	274.62
330.201	298.62
330.43	324.62
330.658	333.62
330.887	340.62
331.115	355.62
331.344	302.62
331.572	273.62
331.801	269.62
332.03	277.62
332.258	259.62
332.486	232.62
332.715	232.62
332.943	234.62
333.172	262.62
333.4	244.62
333.629	244.62
333.857	266.62
334.085	270.62
334.314	300.62
334.542	310.62
334.771	320.62
334.999	279.62
335.227	280.62
335.455	260.62
335.684	245.62
335.912	252.62
336.14	234.62
336.369	235.62
336.597	247.62
336.825	238.62
337.053	241.62
337.281	229.62
337.51	242.62
337.738	240.62
337.966	243.62
338.194	243.62
338.422	235.62
338.65	246.62
338.878	226.62
339.106	230.62
339.334	222.62
339.562	226.62
339.79	250.62
340.018	224.62
340.246	226.62
340.474	240.62
340.702	230.62
340.93	246.62
341.158	250.62
341.386	219.62
341.614	240.62
341.842	234.62
342.07	229.62
342.298	224.62
342.526	218.62
342.754	224.62
342.981	223.62
343.209	227.62
343.437	217.62
343.665	236.62
343.893	240.62
344.12	233.62
344.348	246.62
344.576	225.62
344.804	256.62
345.031	258.62
345.259	234.62
345.487	240.62
345.714	233.62
345.942	223.62
346.17	228.62
346.397	232.62
346.625	240.62
346.853	224.62
347.08	250.62
347.308	230.62
347.535	213.62
347.763	243.62
347.99	216.62
348.218	233.62
348.445	233.62
348.673	244.62
348.9	238.62
349.128	227.62
349.355	218.62
349.583	218.62
349.81	211.62
350.037	227.62
350.265	216.62
350.492	207.62
350.72	216.62
350.947	214.62
351.174	219.62
351.402	224.62
351.629	233.62
351.856	222.62
352.083	218.62
352.311	231.62
352.538	227.62
352.765	229.62
352.992	242.62
353.22	240.62
353.447	208.62
353.674	218.62
353.901	220.62
354.128	209.62
354.355	189.62
354.583	199.62
354.81	218.62
355.037	215.62
355.264	221.62
355.491	211.62
355.718	213.62
355.945	203.62
356.172	207.62
356.399	207.62
356.626	203.62
356.853	212.62
357.08	207.62
357.307	203.62
357.534	206.62
357.761	201.62
357.988	210.62
358.215	210.62
358.441	213.62
358.668	210.62
358.895	220.62
359.122	219.62
359.349	216.62
359.576	242.62
359.802	238.62
360.029	275.62
360.256	257.62
360.483	248.62
360.709	224.62
360.936	219.62
361.163	222.62
361.39	235.62
361.616	231.62
361.843	243.62
362.07	222.62
362.296	218.62
362.523	225.62
362.749	230.62
362.976	220.62
363.203	216.62
363.429	223.62
363.656	214.62
363.882	228.62
364.109	216.62
364.335	224.62
364.562	200.62
364.788	213.62
365.015	214.62
365.241	216.62
365.468	211.62
365.694	229.62
365.92	219.62
366.147	197.62
366.373	215.62
366.599	190.62
366.826	208.62
367.052	196.62
367.278	221.62
367.505	208.62
367.731	215.62
367.957	207.62
368.184	227.62
368.41	210.62
368.636	240.62
368.862	216.62
369.089	220.62
369.315	216.62
369.541	198.62
369.767	219.62
369.993	220.62
370.219	200.62
370.445	195.62
370.672	211.62
370.898	218.62
371.124	218.62
371.35	206.62
371.576	210.62
371.802	195.62
372.028	186.62
372.254	218.62
372.48	201.62
372.706	204.62
372.932	219.62
373.158	211.62
373.384	216.62
373.61	196.62
373.835	213.62
374.061	202.62
374.287	207.62
374.513	206.62
374.739	196.62
374.965	198.62
375.191	209.62
375.416	219.62
375.642	213.62
375.868	213.62
376.094	220.62
376.319	202.62
376.545	207.62
376.771	215.62
376.997	214.62
377.222	200.62
377.448	207.62
377.674	202.62
377.899	208.62
378.125	194.62
378.35	191.62
378.576	190.62
378.802	210.62
379.027	189.62
379.253	204.62
379.478	210.62
379.704	203.62
379.929	197.62
380.155	207.62
380.38	201.62
380.606	203.62
380.831	214.62
381.057	228.62
381.282	220.62
381.507	203.62
381.733	213.62
381.958	226.62
382.184	228.62
382.409	214.62
382.634	190.62
382.86	207.62
383.085	205.62
383.31	214.62
383.535	212.62
383.761	212.62
383.986	216.62
384.211	212.62
384.436	222.62
384.662	240.62
384.887	213.62
385.112	212.62
385.337	214.62
385.562	197.62
385.787	212.62
386.013	238.62
386.238	228.62
386.463	229.62
386.688	231.62
386.913	228.62
387.138	216.62
387.363	238.62
387.588	244.62
387.813	225.62
388.038	222.62
388.263	212.62
388.488	220.62
388.713	217.62
388.938	221.62
389.163	224.62
389.387	222.62
389.612	212.62
389.837	225.62
390.062	220.62
390.287	239.62
390.512	230.62
390.736	217.62
390.961	220.62
391.186	225.62
391.411	210.62
391.636	234.62
391.86	232.62
392.085	215.62
392.31	210.62
392.534	210.62
392.759	223.62
392.984	227.62
393.208	231.62
393.433	222.62
393.658	206.62
393.882	220.62
394.107	222.62
394.331	218.62
394.556	230.62
394.78	227.62
395.005	228.62
395.229	233.62
395.454	237.62
395.678	252.62
395.903	232.62
396.127	240.62
396.352	257.62
396.576	231.62
396.801	228.62
397.025	219.62
397.249	219.62
397.474	230.62
397.698	232.62
397.922	251.62
398.147	256.62
398.371	248.62
398.595	223.62
398.82	240.62
399.044	243.62
399.268	270.62
399.492	271.62
399.717	297.62
399.941	292.62
400.165	308.62
400.389	313.62
400.613	276.62
400.837	250.62
401.062	250.62
401.286	266.62
401.51	257.62
401.734	248.62
401.958	258.62
402.182	274.62
402.406	267.62
402.63	264.62
402.854	273.62
403.078	257.62
403.302	288.62
403.526	277.62
403.75	279.62
403.974	265.62
404.198	278.62
404.422	272.62
404.645	270.62
404.869	263.62
405.093	280.62
405.317	288.62
405.541	304.62
405.765	290.62
405.988	278.62
406.212	284.62
406.436	321.62
406.66	311.62
406.883	310.62
407.107	316.62
407.331	302.62
407.555	330.62
407.778	329.62
408.002	316.62
408.226	288.62
408.449	294.62
408.673	298.62
408.896	285.62
409.12	319.62
409.344	286.62
409.567	294.62
409.791	271.62
410.014	262.62
410.238	246.62
410.461	254.62
410.685	263.62
410.908	270.62
411.132	288.62
411.355	293.62
411.578	267.62
411.802	262.62
412.025	267.62
412.249	246.62
412.472	273.62
412.695	288.62
412.919	300.62
413.142	243.62
413.365	253.62
413.589	262.62
413.812	240.62
414.035	238.62
414.258	258.62
414.482	252.62
414.705	260.62
414.928	247.62
415.151	266.62
415.374	265.62
415.597	259.62
415.821	251.62
416.044	241.62
416.267	258.62
416.49	252.62
416.713	265.62
416.936	248.62
417.159	262.62
417.382	258.62
417.605	251.62
417.828	257.62
418.051	285.62
418.274	255.62
418.497	251.62
418.72	241.62
418.943	256.62
419.166	266.62
419.389	276.62
419.611	257.62
419.834	259.62
420.057	276.62
420.28	276.62
420.503	259.62
420.726	256.62
420.948	259.62
421.171	276.62
421.394	307.62
421.617	271.62
421.839	253.62
422.062	256.62
422.285	272.62
422.507	310.62
422.73	334.62
422.953	322.62
423.175	295.62
423.398	259.62
423.621	274.62
423.843	274.62
424.066	278.62
424.288	283.62
424.511	304.62
424.733	288.62
424.956	339.62
425.178	357.62
425.401	319.62
425.623	351.62
425.846	281.62
426.068	284.62
426.291	281.62
426.513	299.62
426.735	294.62
426.958	294.62
427.18	352.62
427.402	388.62
427.625	435.62
427.847	378.62
428.069	329.62
428.292	270.62
428.514	281.62
428.736	260.62
428.958	253.62
429.181	253.62
429.403	243.62
429.625	260.62
429.847	273.62
430.069	296.62
430.292	303.62
430.514	269.62
430.736	266.62
430.958	249.62
431.18	254.62
431.402	256.62
431.624	245.62
431.846	234.62
432.068	240.62
432.29	251.62
432.512	253.62
432.734	266.62
432.956	235.62
433.178	254.62
433.4	247.62
433.622	250.62
433.844	262.62
434.066	241.62
434.287	246.62
434.509	249.62
434.731	257.62
434.953	261.62
435.175	266.62
435.397	279.62
435.618	274.62
435.84	306.62
436.062	350.62
436.284	359.62
436.505	306.62
436.727	294.62
436.949	236.62
437.17	231.62
437.392	250.62
437.614	268.62
437.835	280.62
438.057	339.62
438.278	379.62
438.5	350.62
438.721	402.62
438.943	374.62
439.165	286.62
439.386	275.62
439.608	303.62
439.829	273.62
440.05	286.62
440.272	324.62
440.493	306.62
440.715	271.62
440.936	264.62
441.158	266.62
441.379	264.62
441.6	266.62
441.822	297.62
442.043	306.62
442.264	353.62
442.486	355.62
442.707	306.62
442.928	293.62
443.149	294.62
443.371	296.62
443.592	313.62
443.813	365.62
444.034	378.62
444.255	310.62
444.476	288.62
444.698	285.62
444.919	287.62
445.14	355.62
445.361	326.62
445.582	293.62
445.803	340.62
446.024	386.62
446.245	389.62
446.466	347.62
446.687	294.62
446.908	285.62
447.129	269.62
447.35	267.62
447.571	256.62
447.792	261.62
448.013	261.62
448.234	273.62
448.455	287.62
448.675	343.62
448.896	386.62
449.117	346.62
449.338	332.62
449.559	377.62
449.779	402.62
450	318.62
450.221	272.62
450.442	254.62
450.662	249.62
450.883	266.62
451.104	252.62
451.324	275.62
451.545	258.62
451.766	242.62
451.986	250.62
452.207	229.62
452.428	245.62
452.648	231.62
452.869	255.62
453.089	228.62
453.31	238.62
453.53	258.62
453.751	238.62
453.971	233.62
454.192	251.62
454.412	247.62
454.633	247.62
454.853	227.62
455.073	232.62
455.294	243.62
455.514	288.62
455.734	264.62
455.955	253.62
456.175	221.62
456.395	227.62
456.616	227.62
456.836	227.62
457.056	210.62
457.276	221.62
457.497	221.62
457.717	244.62
457.937	232.62
458.157	231.62
458.377	225.62
458.598	241.62
458.818	288.62
459.038	331.62
459.258	313.62
459.478	271.62
459.698	251.62
459.918	250.62
460.138	252.62
460.358	275.62
460.578	266.62
460.798	251.62
461.018	251.62
461.238	240.62
461.458	236.62
461.678	252.62
461.898	244.62
462.118	253.62
462.338	246.62
462.558	257.62
462.777	256.62
462.997	268.62
463.217	277.62
463.437	266.62
463.657	254.62
463.876	275.62
464.096	262.62
464.316	256.62
464.536	254.62
464.755	287.62
464.975	264.62
465.195	322.62
465.414	382.62
465.634	290.62
465.854	263.62
466.073	254.62
466.293	251.62
466.512	258.62
466.732	237.62
466.951	240.62
467.171	239.62
467.391	236.62
467.61	269.62
467.829	270.62
468.049	262.62
468.268	258.62
468.488	245.62
468.707	223.62
468.927	260.62
469.146	229.62
469.365	242.62
469.585	240.62
469.804	229.62
470.023	241.62
470.243	246.62
470.462	254.62
470.681	263.62
470.901	275.62
471.12	234.62
471.339	241.62
471.558	251.62
471.777	245.62
471.997	246.62
472.216	252.62
472.435	295.62
472.654	267.62
472.873	245.62
473.092	231.62
473.311	240.62
473.53	233.62
473.749	244.62
473.968	262.62
474.187	334.62
474.406	324.62
474.625	268.62
474.844	247.62
475.063	238.62
475.282	253.62
475.501	251.62
475.72	255.62
475.939	240.62
476.158	240.62
476.377	245.62
476.596	227.62
476.814	272.62
477.033	273.62
477.252	262.62
477.471	267.62
477.69	262.62
477.908	253.62
478.127	254.62
478.346	259.62
478.564	267.62
478.783	275.62
479.002	291.62
479.22	278.62
479.439	291.62
479.658	292.62
479.876	308.62
480.095	288.62
480.313	308.62
480.532	296.62
480.751	314.62
480.969	314.62
481.188	357.62
481.406	402.62
481.624	318.62
481.843	304.62
482.061	312.62
482.28	273.62
482.498	258.62
482.717	269.62
482.935	280.62
483.153	262.62
483.372	261.62
483.59	284.62
483.808	288.62
484.027	282.62
484.245	286.62
484.463	280.62
484.681	294.62
484.9	270.62
485.118	288.62
485.336	282.62
485.554	287.62
485.772	298.62
485.99	285.62
486.209	309.62
486.427	281.62
486.645	298.62
486.863	294.62
487.081	310.62
487.299	282.62
487.517	308.62
487.735	299.62
487.953	304.62
488.171	304.62
488.389	318.62
488.607	307.62
488.825	294.62
489.043	290.62
489.261	288.62
489.479	295.62
489.696	307.62
489.914	294.62
490.132	325.62
490.35	340.62
490.568	318.62
490.786	316.62
491.003	321.62
491.221	338.62
491.439	351.62
491.657	363.62
491.874	351.62
492.092	342.62
492.31	360.62
492.527	330.62
492.745	352.62
492.963	374.62
493.18	335.62
493.398	364.62
493.615	351.62
493.833	360.62
494.05	360.62
494.268	364.62
494.485	345.62
494.703	356.62
494.92	368.62
495.138	346.62
495.355	356.62
495.573	354.62
495.79	365.62
496.008	366.62
496.225	362.62
496.442	350.62
496.66	340.62
496.877	368.62
497.094	348.62
497.312	366.62
497.529	359.62
497.746	362.62
497.963	367.62
498.181	378.62
498.398	386.62
498.615	390.62
498.832	379.62
499.049	379.62
499.267	390.62
499.484	397.62
499.701	426.62
499.918	444.62
500.135	450.62
500.352	464.62
500.569	475.62
500.786	479.62
501.003	449.62
501.22	466.62
501.437	457.62
501.654	417.62
501.871	456.62
502.088	430.62
502.305	390.62
502.522	370.62
502.739	356.62
