Data from 1966.PennyLincolnUp.Lamp.En5.5.200Scan.071719.P1.Scan2.head_HRD10591_14-18-49-219.txt Node
Date: Thu Jul 18 14:18:49 EDT 2019
User: cochatt
Spectrometer: HR+D1059
Trigger mode: 1
Integration Time (sec): 1.000000E-1
Scans to average: 1
Electric dark correction enabled: true
Nonlinearity correction enabled: false
Boxcar width: 0
XAxis mode: Wavelengths
Number of Pixels in Spectrum: 2048
>>>>>Begin Spectral Data<<<<<
223.165	-18.62
223.4	-18.62
223.635	-18.62
223.869	-8.62
224.104	-14.62
224.338	-7.62
224.573	-15.62
224.808	-19.62
225.042	-0.62
225.277	-2.62
225.511	-2.62
225.746	-6.62
225.98	0.38
226.215	12.38
226.449	10.38
226.683	20.38
226.918	26.38
227.152	27.38
227.387	20.38
227.621	31.38
227.856	43.38
228.09	59.38
228.324	46.38
228.559	64.38
228.793	79.38
229.027	96.38
229.262	94.38
229.496	126.38
229.73	115.38
229.964	168.38
230.199	136.38
230.433	116.38
230.667	102.38
230.901	107.38
231.136	126.38
231.37	109.38
231.604	108.38
231.838	96.38
232.072	111.38
232.306	107.38
232.541	126.38
232.775	113.38
233.009	123.38
233.243	111.38
233.477	110.38
233.711	123.38
233.945	124.38
234.179	115.38
234.413	106.38
234.647	115.38
234.881	111.38
235.115	114.38
235.349	129.38
235.583	116.38
235.817	124.38
236.051	132.38
236.285	129.38
236.519	141.38
236.753	128.38
236.987	142.38
237.221	181.38
237.455	262.38
237.689	193.38
237.922	147.38
238.156	139.38
238.39	122.38
238.624	119.38
238.858	127.38
239.091	137.38
239.325	129.38
239.559	125.38
239.793	138.38
240.027	129.38
240.26	158.38
240.494	156.38
240.728	147.38
240.961	145.38
241.195	137.38
241.429	139.38
241.662	153.38
241.896	144.38
242.13	131.38
242.363	131.38
242.597	153.38
242.83	139.38
243.064	139.38
243.298	135.38
243.531	151.38
243.765	138.38
243.998	142.38
244.232	146.38
244.465	140.38
244.699	148.38
244.932	154.38
245.166	143.38
245.399	138.38
245.633	160.38
245.866	157.38
246.099	151.38
246.333	151.38
246.566	167.38
246.8	156.38
247.033	166.38
247.266	156.38
247.5	160.38
247.733	200.38
247.966	159.38
248.2	163.38
248.433	172.38
248.666	193.38
248.899	192.38
249.133	204.38
249.366	204.38
249.599	204.38
249.832	175.38
250.066	190.38
250.299	201.38
250.532	202.38
250.765	212.38
250.998	215.38
251.231	232.38
251.465	224.38
251.698	203.38
251.931	207.38
252.164	214.38
252.397	202.38
252.63	189.38
252.863	214.38
253.096	209.38
253.329	238.38
253.562	244.38
253.795	246.38
254.028	221.38
254.261	229.38
254.494	216.38
254.727	255.38
254.96	274.38
255.193	265.38
255.426	252.38
255.659	228.38
255.892	231.38
256.124	228.38
256.357	249.38
256.59	217.38
256.823	209.38
257.056	205.38
257.289	220.38
257.521	201.38
257.754	207.38
257.987	210.38
258.22	215.38
258.452	229.38
258.685	224.38
258.918	230.38
259.151	209.38
259.383	217.38
259.616	221.38
259.849	209.38
260.081	230.38
260.314	236.38
260.547	266.38
260.779	255.38
261.012	248.38
261.244	238.38
261.477	223.38
261.71	220.38
261.942	240.38
262.175	241.38
262.407	238.38
262.64	217.38
262.872	219.38
263.105	214.38
263.337	221.38
263.57	227.38
263.802	203.38
264.035	215.38
264.267	216.38
264.499	208.38
264.732	220.38
264.964	205.38
265.197	215.38
265.429	221.38
265.661	214.38
265.894	222.38
266.126	208.38
266.358	209.38
266.591	209.38
266.823	223.38
267.055	247.38
267.287	234.38
267.52	218.38
267.752	221.38
267.984	220.38
268.216	236.38
268.448	237.38
268.681	236.38
268.913	248.38
269.145	275.38
269.377	277.38
269.609	261.38
269.841	260.38
270.073	294.38
270.306	313.38
270.538	328.38
270.77	317.38
271.002	325.38
271.234	298.38
271.466	317.38
271.698	321.38
271.93	304.38
272.162	314.38
272.394	316.38
272.626	300.38
272.858	299.38
273.09	289.38
273.322	273.38
273.553	280.38
273.785	284.38
274.017	257.38
274.249	271.38
274.481	260.38
274.713	261.38
274.945	282.38
275.176	277.38
275.408	272.38
275.64	279.38
275.872	261.38
276.104	274.38
276.335	265.38
276.567	285.38
276.799	295.38
277.031	317.38
277.262	342.38
277.494	341.38
277.726	325.38
277.957	293.38
278.189	280.38
278.421	265.38
278.652	273.38
278.884	281.38
279.115	272.38
279.347	277.38
279.579	265.38
279.81	265.38
280.042	271.38
280.273	280.38
280.505	259.38
280.736	268.38
280.968	272.38
281.199	266.38
281.431	260.38
281.662	279.38
281.894	288.38
282.125	302.38
282.356	279.38
282.588	308.38
282.819	320.38
283.051	299.38
283.282	285.38
283.513	274.38
283.745	284.38
283.976	274.38
284.207	292.38
284.439	279.38
284.67	283.38
284.901	293.38
285.132	269.38
285.364	277.38
285.595	280.38
285.826	279.38
286.057	277.38
286.288	295.38
286.52	285.38
286.751	282.38
286.982	280.38
287.213	279.38
287.444	283.38
287.675	293.38
287.906	312.38
288.138	303.38
288.369	310.38
288.6	330.38
288.831	334.38
289.062	296.38
289.293	299.38
289.524	293.38
289.755	298.38
289.986	290.38
290.217	299.38
290.448	299.38
290.679	279.38
290.91	305.38
291.141	298.38
291.371	282.38
291.602	301.38
291.833	311.38
292.064	288.38
292.295	306.38
292.526	289.38
292.757	280.38
292.987	302.38
293.218	305.38
293.449	309.38
293.68	303.38
293.91	267.38
294.141	293.38
294.372	316.38
294.603	313.38
294.833	301.38
295.064	305.38
295.295	295.38
295.525	308.38
295.756	303.38
295.987	315.38
296.217	327.38
296.448	347.38
296.679	323.38
296.909	304.38
297.14	294.38
297.37	305.38
297.601	323.38
297.831	286.38
298.062	311.38
298.292	321.38
298.523	327.38
298.753	311.38
298.984	310.38
299.214	323.38
299.445	335.38
299.675	312.38
299.905	315.38
300.136	321.38
300.366	312.38
300.597	324.38
300.827	311.38
301.057	341.38
301.288	320.38
301.518	333.38
301.748	330.38
301.979	342.38
302.209	330.38
302.439	327.38
302.669	335.38
302.9	343.38
303.13	356.38
303.36	331.38
303.59	352.38
303.82	348.38
304.051	356.38
304.281	352.38
304.511	327.38
304.741	333.38
304.971	339.38
305.201	317.38
305.431	340.38
305.661	332.38
305.891	341.38
306.121	322.38
306.352	342.38
306.582	333.38
306.812	342.38
307.042	349.38
307.272	357.38
307.502	335.38
307.731	312.38
307.961	326.38
308.191	338.38
308.421	341.38
308.651	341.38
308.881	352.38
309.111	332.38
309.341	341.38
309.571	351.38
309.8	364.38
310.03	373.38
310.26	369.38
310.49	385.38
310.72	379.38
310.949	390.38
311.179	395.38
311.409	397.38
311.639	392.38
311.868	388.38
312.098	373.38
312.328	387.38
312.557	389.38
312.787	435.38
313.017	429.38
313.246	403.38
313.476	354.38
313.706	387.38
313.935	396.38
314.165	412.38
314.394	424.38
314.624	399.38
314.853	379.38
315.083	378.38
315.312	383.38
315.542	378.38
315.771	373.38
316.001	380.38
316.23	378.38
316.46	368.38
316.689	379.38
316.919	389.38
317.148	404.38
317.377	401.38
317.607	397.38
317.836	389.38
318.065	385.38
318.295	371.38
318.524	371.38
318.753	383.38
318.983	392.38
319.212	386.38
319.441	386.38
319.67	406.38
319.9	387.38
320.129	410.38
320.358	375.38
320.587	398.38
320.816	420.38
321.046	395.38
321.275	413.38
321.504	409.38
321.733	409.38
321.962	411.38
322.191	416.38
322.42	456.38
322.649	466.38
322.878	465.38
323.108	474.38
323.337	470.38
323.566	483.38
323.795	533.38
324.024	573.38
324.253	684.38
324.482	963.38
324.71	1536.38
324.939	2267.38
325.168	1977.38
325.397	967.38
325.626	659.38
325.855	547.38
326.084	519.38
326.313	495.38
326.542	499.38
326.77	554.38
326.999	642.38
327.228	896.38
327.457	1354.38
327.686	1727.38
327.914	1129.38
328.143	712.38
328.372	635.38
328.6	611.38
328.829	569.38
329.058	577.38
329.287	611.38
329.515	572.38
329.744	531.38
329.972	522.38
330.201	536.38
330.43	590.38
330.658	602.38
330.887	633.38
331.115	612.38
331.344	539.38
331.572	516.38
331.801	516.38
332.03	502.38
332.258	487.38
332.486	458.38
332.715	461.38
332.943	467.38
333.172	477.38
333.4	481.38
333.629	483.38
333.857	487.38
334.085	539.38
334.314	521.38
334.542	579.38
334.771	573.38
334.999	532.38
335.227	497.38
335.455	502.38
335.684	477.38
335.912	457.38
336.14	465.38
336.369	467.38
336.597	464.38
336.825	469.38
337.053	464.38
337.281	467.38
337.51	463.38
337.738	462.38
337.966	467.38
338.194	461.38
338.422	468.38
338.65	465.38
338.878	460.38
339.106	459.38
339.334	438.38
339.562	435.38
339.79	423.38
340.018	453.38
340.246	440.38
340.474	464.38
340.702	439.38
340.93	441.38
341.158	451.38
341.386	430.38
341.614	449.38
341.842	445.38
342.07	449.38
342.298	443.38
342.526	436.38
342.754	437.38
342.981	437.38
343.209	429.38
343.437	446.38
343.665	459.38
343.893	437.38
344.12	464.38
344.348	468.38
344.576	487.38
344.804	483.38
345.031	456.38
345.259	476.38
345.487	469.38
345.714	460.38
345.942	425.38
346.17	448.38
346.397	439.38
346.625	425.38
346.853	437.38
347.08	437.38
347.308	453.38
347.535	450.38
347.763	464.38
347.99	427.38
348.218	459.38
348.445	439.38
348.673	446.38
348.9	447.38
349.128	428.38
349.355	423.38
349.583	425.38
349.81	417.38
350.037	429.38
350.265	433.38
350.492	438.38
350.72	437.38
350.947	415.38
351.174	442.38
351.402	436.38
351.629	467.38
351.856	454.38
352.083	466.38
352.311	460.38
352.538	465.38
352.765	465.38
352.992	456.38
353.22	451.38
353.447	448.38
353.674	435.38
353.901	421.38
354.128	421.38
354.355	424.38
354.583	423.38
354.81	428.38
355.037	384.38
355.264	429.38
355.491	402.38
355.718	407.38
355.945	429.38
356.172	413.38
356.399	409.38
356.626	421.38
356.853	414.38
357.08	421.38
357.307	432.38
357.534	415.38
357.761	421.38
357.988	428.38
358.215	429.38
358.441	403.38
358.668	417.38
358.895	415.38
359.122	407.38
359.349	432.38
359.576	428.38
359.802	469.38
360.029	499.38
360.256	488.38
360.483	482.38
360.709	448.38
360.936	440.38
361.163	455.38
361.39	456.38
361.616	462.38
361.843	437.38
362.07	447.38
362.296	450.38
362.523	443.38
362.749	439.38
362.976	431.38
363.203	426.38
363.429	423.38
363.656	453.38
363.882	425.38
364.109	425.38
364.335	419.38
364.562	431.38
364.788	416.38
365.015	432.38
365.241	425.38
365.468	439.38
365.694	433.38
365.92	436.38
366.147	440.38
366.373	430.38
366.599	431.38
366.826	435.38
367.052	412.38
367.278	439.38
367.505	425.38
367.731	432.38
367.957	436.38
368.184	421.38
368.41	451.38
368.636	438.38
368.862	458.38
369.089	429.38
369.315	438.38
369.541	432.38
369.767	437.38
369.993	439.38
370.219	428.38
370.445	447.38
370.672	430.38
370.898	445.38
371.124	448.38
371.35	451.38
371.576	437.38
371.802	440.38
372.028	435.38
372.254	448.38
372.48	431.38
372.706	435.38
372.932	407.38
373.158	438.38
373.384	435.38
373.61	421.38
373.835	431.38
374.061	435.38
374.287	431.38
374.513	441.38
374.739	445.38
374.965	458.38
375.191	448.38
375.416	416.38
375.642	439.38
375.868	460.38
376.094	448.38
376.319	425.38
376.545	429.38
376.771	451.38
376.997	436.38
377.222	440.38
377.448	431.38
377.674	427.38
377.899	416.38
378.125	421.38
378.35	429.38
378.576	417.38
378.802	431.38
379.027	441.38
379.253	440.38
379.478	430.38
379.704	424.38
379.929	414.38
380.155	432.38
380.38	407.38
380.606	433.38
380.831	428.38
381.057	450.38
381.282	420.38
381.507	435.38
381.733	450.38
381.958	454.38
382.184	471.38
382.409	459.38
382.634	446.38
382.86	446.38
383.085	440.38
383.31	450.38
383.535	463.38
383.761	453.38
383.986	465.38
384.211	467.38
384.436	464.38
384.662	461.38
384.887	473.38
385.112	449.38
385.337	470.38
385.562	463.38
385.787	479.38
386.013	471.38
386.238	491.38
386.463	516.38
386.688	477.38
386.913	478.38
387.138	488.38
387.363	486.38
387.588	478.38
387.813	481.38
388.038	478.38
388.263	484.38
388.488	492.38
388.713	486.38
388.938	498.38
389.163	487.38
389.387	488.38
389.612	506.38
389.837	494.38
390.062	465.38
390.287	472.38
390.512	479.38
390.736	474.38
390.961	480.38
391.186	497.38
391.411	511.38
391.636	481.38
391.86	491.38
392.085	495.38
392.31	495.38
392.534	482.38
392.759	495.38
392.984	472.38
393.208	493.38
393.433	517.38
393.658	513.38
393.882	492.38
394.107	506.38
394.331	498.38
394.556	499.38
394.78	492.38
395.005	484.38
395.229	488.38
395.454	511.38
395.678	523.38
395.903	506.38
396.127	536.38
396.352	541.38
396.576	509.38
396.801	523.38
397.025	518.38
397.249	522.38
397.474	515.38
397.698	515.38
397.922	561.38
398.147	553.38
398.371	549.38
398.595	559.38
398.82	559.38
399.044	566.38
399.268	589.38
399.492	624.38
399.717	663.38
399.941	684.38
400.165	711.38
400.389	697.38
400.613	662.38
400.837	624.38
401.062	592.38
401.286	587.38
401.51	579.38
401.734	543.38
401.958	551.38
402.182	563.38
402.406	576.38
402.63	589.38
402.854	571.38
403.078	550.38
403.302	621.38
403.526	592.38
403.75	584.38
403.974	582.38
404.198	546.38
404.422	591.38
404.645	591.38
404.869	599.38
405.093	663.38
405.317	673.38
405.541	703.38
405.765	643.38
405.988	622.38
406.212	641.38
406.436	647.38
406.66	666.38
406.883	639.38
407.107	647.38
407.331	723.38
407.555	791.38
407.778	781.38
408.002	703.38
408.226	678.38
408.449	644.38
408.673	661.38
408.896	692.38
409.12	723.38
409.344	695.38
409.567	589.38
409.791	603.38
410.014	597.38
410.238	594.38
410.461	607.38
410.685	589.38
410.908	613.38
411.132	671.38
411.355	685.38
411.578	632.38
411.802	601.38
412.025	623.38
412.249	586.38
412.472	633.38
412.695	669.38
412.919	652.38
413.142	594.38
413.365	586.38
413.589	567.38
413.812	549.38
414.035	565.38
414.258	559.38
414.482	545.38
414.705	554.38
414.928	552.38
415.151	580.38
415.374	573.38
415.597	551.38
415.821	572.38
416.044	553.38
416.267	550.38
416.49	557.38
416.713	548.38
416.936	541.38
417.159	543.38
417.382	563.38
417.605	536.38
417.828	582.38
418.051	591.38
418.274	591.38
418.497	548.38
418.72	552.38
418.943	559.38
419.166	592.38
419.389	620.38
419.611	605.38
419.834	590.38
420.057	569.38
420.28	599.38
420.503	592.38
420.726	584.38
420.948	602.38
421.171	631.38
421.394	680.38
421.617	603.38
421.839	585.38
422.062	579.38
422.285	579.38
422.507	648.38
422.73	732.38
422.953	743.38
423.175	637.38
423.398	619.38
423.621	597.38
423.843	621.38
424.066	617.38
424.288	614.38
424.511	634.38
424.733	696.38
424.956	805.38
425.178	754.38
425.401	767.38
425.623	784.38
425.846	687.38
426.068	645.38
426.291	623.38
426.513	613.38
426.735	623.38
426.958	705.38
427.18	740.38
427.402	917.38
427.625	999.38
427.847	871.38
428.069	746.38
428.292	689.38
428.514	604.38
428.736	615.38
428.958	620.38
429.181	587.38
429.403	565.38
429.625	585.38
429.847	631.38
430.069	721.38
430.292	683.38
430.514	611.38
430.736	596.38
430.958	567.38
431.18	558.38
431.402	571.38
431.624	563.38
431.846	536.38
432.068	542.38
432.29	543.38
432.512	542.38
432.734	560.38
432.956	539.38
433.178	569.38
433.4	568.38
433.622	555.38
433.844	553.38
434.066	547.38
434.287	564.38
434.509	557.38
434.731	571.38
434.953	561.38
435.175	622.38
435.397	635.38
435.618	640.38
435.84	676.38
436.062	770.38
436.284	873.38
436.505	693.38
436.727	648.38
436.949	613.38
437.17	584.38
437.392	548.38
437.614	593.38
437.835	619.38
438.057	733.38
438.278	865.38
438.5	848.38
438.721	923.38
438.943	906.38
439.165	733.38
439.386	643.38
439.608	636.38
439.829	639.38
440.05	667.38
440.272	708.38
440.493	667.38
440.715	599.38
440.936	583.38
441.158	603.38
441.379	583.38
441.6	612.38
441.822	619.38
442.043	631.38
442.264	760.38
442.486	838.38
442.707	700.38
442.928	616.38
443.149	628.38
443.371	664.38
443.592	725.38
443.813	807.38
444.034	904.38
444.255	719.38
444.476	672.38
444.698	643.38
444.919	641.38
445.14	744.38
445.361	729.38
445.582	716.38
445.803	761.38
446.024	889.38
446.245	865.38
446.466	816.38
446.687	652.38
446.908	607.38
447.129	613.38
447.35	583.38
447.571	564.38
447.792	579.38
448.013	573.38
448.234	597.38
448.455	664.38
448.675	779.38
448.896	901.38
449.117	791.38
449.338	709.38
449.559	849.38
449.779	972.38
450	744.38
450.221	631.38
450.442	576.38
450.662	587.38
450.883	560.38
451.104	587.38
451.324	577.38
451.545	535.38
451.766	527.38
451.986	519.38
452.207	508.38
452.428	501.38
452.648	494.38
452.869	511.38
453.089	517.38
453.31	523.38
453.53	525.38
453.751	532.38
453.971	545.38
454.192	538.38
454.412	534.38
454.633	495.38
454.853	522.38
455.073	503.38
455.294	537.38
455.514	611.38
455.734	606.38
455.955	525.38
456.175	489.38
456.395	485.38
456.616	508.38
456.836	481.38
457.056	484.38
457.276	467.38
457.497	516.38
457.717	499.38
457.937	519.38
458.157	500.38
458.377	504.38
458.598	529.38
458.818	591.38
459.038	691.38
459.258	709.38
459.478	617.38
459.698	572.38
459.918	553.38
460.138	550.38
460.358	570.38
460.578	557.38
460.798	568.38
461.018	579.38
461.238	585.38
461.458	581.38
461.678	552.38
461.898	573.38
462.118	559.38
462.338	596.38
462.558	579.38
462.777	601.38
462.997	602.38
463.217	617.38
463.437	631.38
463.657	611.38
463.876	620.38
464.096	602.38
464.316	601.38
464.536	622.38
464.755	602.38
464.975	621.38
465.195	615.38
465.414	719.38
465.634	639.38
465.854	576.38
466.073	559.38
466.293	547.38
466.512	547.38
466.732	539.38
466.951	553.38
467.171	551.38
467.391	555.38
467.61	536.38
467.829	544.38
468.049	550.38
468.268	545.38
468.488	518.38
468.707	539.38
468.927	516.38
469.146	520.38
469.365	511.38
469.585	528.38
469.804	525.38
470.023	563.38
470.243	527.38
470.462	541.38
470.681	574.38
470.901	559.38
471.12	534.38
471.339	544.38
471.558	526.38
471.777	536.38
471.997	519.38
472.216	569.38
472.435	595.38
472.654	568.38
472.873	552.38
473.092	556.38
473.311	530.38
473.53	548.38
473.749	549.38
473.968	590.38
474.187	755.38
474.406	714.38
474.625	592.38
474.844	558.38
475.063	573.38
475.282	557.38
475.501	530.38
475.72	560.38
475.939	561.38
476.158	554.38
476.377	554.38
476.596	555.38
476.814	572.38
477.033	575.38
477.252	563.38
477.471	580.38
477.69	577.38
477.908	597.38
478.127	594.38
478.346	583.38
478.564	613.38
478.783	613.38
479.002	618.38
479.22	593.38
479.439	627.38
479.658	643.38
479.876	656.38
480.095	677.38
480.313	709.38
480.532	680.38
480.751	671.38
480.969	702.38
481.188	750.38
481.406	785.38
481.624	705.38
481.843	681.38
482.061	667.38
482.28	651.38
482.498	654.38
482.717	640.38
482.935	650.38
483.153	638.38
483.372	640.38
483.59	648.38
483.808	648.38
484.027	625.38
484.245	659.38
484.463	669.38
484.681	638.38
484.9	655.38
485.118	661.38
485.336	654.38
485.554	650.38
485.772	685.38
485.99	695.38
486.209	677.38
486.427	666.38
486.645	687.38
486.863	734.38
487.081	683.38
487.299	702.38
487.517	699.38
487.735	683.38
487.953	676.38
488.171	703.38
488.389	656.38
488.607	681.38
488.825	708.38
489.043	705.38
489.261	696.38
489.479	703.38
489.696	707.38
489.914	702.38
490.132	722.38
490.35	716.38
490.568	730.38
490.786	735.38
491.003	731.38
491.221	754.38
491.439	760.38
491.657	760.38
491.874	772.38
492.092	785.38
492.31	773.38
492.527	805.38
492.745	810.38
492.963	828.38
493.18	802.38
493.398	803.38
493.615	848.38
493.833	816.38
494.05	803.38
494.268	823.38
494.485	797.38
494.703	807.38
494.92	829.38
495.138	831.38
495.355	804.38
495.573	826.38
495.79	829.38
496.008	841.38
496.225	832.38
496.442	836.38
496.66	849.38
496.877	804.38
497.094	814.38
497.312	834.38
497.529	847.38
497.746	865.38
497.963	857.38
498.181	865.38
498.398	873.38
498.615	924.38
498.832	935.38
499.049	959.38
499.267	960.38
499.484	1008.38
499.701	1055.38
499.918	1057.38
500.135	1111.38
500.352	1153.38
500.569	1147.38
500.786	1183.38
501.003	1173.38
501.22	1161.38
501.437	1121.38
501.654	1058.38
