Data from 1966.PennyLincolnUp.Lamp.En5.5.200Scan.071719.P1.Scan2.head_HRD10591_14-18-36-200.txt Node
Date: Thu Jul 18 14:18:36 EDT 2019
User: cochatt
Spectrometer: HR+D1059
Trigger mode: 1
Integration Time (sec): 1.000000E-1
Scans to average: 1
Electric dark correction enabled: true
Nonlinearity correction enabled: false
Boxcar width: 0
XAxis mode: Wavelengths
Number of Pixels in Spectrum: 2048
>>>>>Begin Spectral Data<<<<<
223.165	-6.88
223.4	-6.88
223.635	-6.88
223.869	-31.88
224.104	-10.88
224.338	-14.88
224.573	-6.88
224.808	-7.88
225.042	-11.88
225.277	-13.88
225.511	-12.88
225.746	9.12
225.98	2.12
226.215	5.12
226.449	5.12
226.683	19.12
226.918	41.12
227.152	36.12
227.387	37.12
227.621	44.12
227.856	39.12
228.09	47.12
228.324	59.12
228.559	60.12
228.793	68.12
229.027	97.12
229.262	104.12
229.496	122.12
229.73	129.12
229.964	157.12
230.199	137.12
230.433	108.12
230.667	108.12
230.901	113.12
231.136	121.12
231.37	109.12
231.604	114.12
231.838	116.12
232.072	98.12
232.306	97.12
232.541	97.12
232.775	109.12
233.009	107.12
233.243	109.12
233.477	117.12
233.711	125.12
233.945	126.12
234.179	109.12
234.413	123.12
234.647	130.12
234.881	127.12
235.115	117.12
235.349	114.12
235.583	127.12
235.817	126.12
236.051	133.12
236.285	146.12
236.519	108.12
236.753	141.12
236.987	151.12
237.221	196.12
237.455	263.12
237.689	195.12
237.922	140.12
238.156	143.12
238.39	141.12
238.624	122.12
238.858	139.12
239.091	126.12
239.325	119.12
239.559	127.12
239.793	135.12
240.027	125.12
240.26	142.12
240.494	159.12
240.728	165.12
240.961	160.12
241.195	153.12
241.429	153.12
241.662	143.12
241.896	138.12
242.13	138.12
242.363	134.12
242.597	148.12
242.83	153.12
243.064	149.12
243.298	137.12
243.531	127.12
243.765	140.12
243.998	156.12
244.232	147.12
244.465	166.12
244.699	139.12
244.932	149.12
245.166	164.12
245.399	142.12
245.633	148.12
245.866	153.12
246.099	158.12
246.333	153.12
246.566	157.12
246.8	141.12
247.033	169.12
247.266	150.12
247.5	174.12
247.733	183.12
247.966	185.12
248.2	179.12
248.433	182.12
248.666	185.12
248.899	189.12
249.133	199.12
249.366	215.12
249.599	205.12
249.832	187.12
250.066	189.12
250.299	188.12
250.532	206.12
250.765	221.12
250.998	244.12
251.231	213.12
251.465	230.12
251.698	208.12
251.931	189.12
252.164	206.12
252.397	218.12
252.63	205.12
252.863	223.12
253.096	210.12
253.329	227.12
253.562	229.12
253.795	218.12
254.028	228.12
254.261	225.12
254.494	230.12
254.727	246.12
254.96	283.12
255.193	277.12
255.426	265.12
255.659	247.12
255.892	246.12
256.124	250.12
256.357	231.12
256.59	246.12
256.823	221.12
257.056	235.12
257.289	232.12
257.521	231.12
257.754	207.12
257.987	208.12
258.22	191.12
258.452	215.12
258.685	210.12
258.918	208.12
259.151	213.12
259.383	205.12
259.616	223.12
259.849	245.12
260.081	248.12
260.314	274.12
260.547	277.12
260.779	245.12
261.012	234.12
261.244	224.12
261.477	239.12
261.71	229.12
261.942	232.12
262.175	237.12
262.407	224.12
262.64	220.12
262.872	217.12
263.105	219.12
263.337	186.12
263.57	206.12
263.802	227.12
264.035	214.12
264.267	215.12
264.499	222.12
264.732	217.12
264.964	230.12
265.197	209.12
265.429	213.12
265.661	217.12
265.894	212.12
266.126	233.12
266.358	230.12
266.591	235.12
266.823	241.12
267.055	237.12
267.287	249.12
267.52	224.12
267.752	229.12
267.984	244.12
268.216	246.12
268.448	241.12
268.681	246.12
268.913	248.12
269.145	277.12
269.377	265.12
269.609	294.12
269.841	265.12
270.073	289.12
270.306	312.12
270.538	332.12
270.77	327.12
271.002	318.12
271.234	307.12
271.466	311.12
271.698	320.12
271.93	319.12
272.162	317.12
272.394	318.12
272.626	290.12
272.858	313.12
273.09	277.12
273.322	293.12
273.553	284.12
273.785	284.12
274.017	277.12
274.249	277.12
274.481	288.12
274.713	277.12
274.945	294.12
275.176	283.12
275.408	263.12
275.64	255.12
275.872	264.12
276.104	283.12
276.335	277.12
276.567	282.12
276.799	299.12
277.031	321.12
277.262	339.12
277.494	335.12
277.726	337.12
277.957	321.12
278.189	289.12
278.421	290.12
278.652	291.12
278.884	292.12
279.115	282.12
279.347	280.12
279.579	282.12
279.81	271.12
280.042	285.12
280.273	281.12
280.505	280.12
280.736	275.12
280.968	271.12
281.199	283.12
281.431	280.12
281.662	294.12
281.894	281.12
282.125	289.12
282.356	303.12
282.588	307.12
282.819	319.12
283.051	295.12
283.282	267.12
283.513	283.12
283.745	277.12
283.976	287.12
284.207	301.12
284.439	300.12
284.67	287.12
284.901	284.12
285.132	297.12
285.364	287.12
285.595	294.12
285.826	280.12
286.057	293.12
286.288	304.12
286.52	302.12
286.751	304.12
286.982	310.12
287.213	299.12
287.444	305.12
287.675	303.12
287.906	308.12
288.138	315.12
288.369	317.12
288.6	317.12
288.831	314.12
289.062	289.12
289.293	307.12
289.524	307.12
289.755	314.12
289.986	301.12
290.217	328.12
290.448	317.12
290.679	302.12
290.91	310.12
291.141	305.12
291.371	303.12
291.602	313.12
291.833	307.12
292.064	314.12
292.295	302.12
292.526	309.12
292.757	289.12
292.987	305.12
293.218	303.12
293.449	300.12
293.68	318.12
293.91	295.12
294.141	299.12
294.372	295.12
294.603	311.12
294.833	309.12
295.064	305.12
295.295	303.12
295.525	304.12
295.756	297.12
295.987	315.12
296.217	331.12
296.448	350.12
296.679	318.12
296.909	306.12
297.14	293.12
297.37	321.12
297.601	321.12
297.831	314.12
298.062	320.12
298.292	322.12
298.523	327.12
298.753	346.12
298.984	320.12
299.214	309.12
299.445	315.12
299.675	324.12
299.905	327.12
300.136	340.12
300.366	306.12
300.597	310.12
300.827	332.12
301.057	344.12
301.288	335.12
301.518	351.12
301.748	331.12
301.979	339.12
302.209	344.12
302.439	334.12
302.669	351.12
302.9	347.12
303.13	314.12
303.36	341.12
303.59	335.12
303.82	351.12
304.051	358.12
304.281	331.12
304.511	344.12
304.741	351.12
304.971	340.12
305.201	344.12
305.431	350.12
305.661	353.12
305.891	349.12
306.121	346.12
306.352	332.12
306.582	355.12
306.812	354.12
307.042	353.12
307.272	332.12
307.502	341.12
307.731	356.12
307.961	342.12
308.191	344.12
308.421	335.12
308.651	343.12
308.881	343.12
309.111	350.12
309.341	375.12
309.571	372.12
309.8	375.12
310.03	392.12
310.26	393.12
310.49	378.12
310.72	407.12
310.949	401.12
311.179	400.12
311.409	386.12
311.639	389.12
311.868	375.12
312.098	391.12
312.328	403.12
312.557	412.12
312.787	435.12
313.017	423.12
313.246	381.12
313.476	394.12
313.706	403.12
313.935	394.12
314.165	413.12
314.394	398.12
314.624	413.12
314.853	403.12
315.083	400.12
315.312	415.12
315.542	415.12
315.771	385.12
316.001	401.12
316.23	404.12
316.46	396.12
316.689	402.12
316.919	405.12
317.148	398.12
317.377	401.12
317.607	412.12
317.836	409.12
318.065	390.12
318.295	391.12
318.524	406.12
318.753	412.12
318.983	392.12
319.212	402.12
319.441	394.12
319.67	402.12
319.9	408.12
320.129	415.12
320.358	394.12
320.587	403.12
320.816	430.12
321.046	427.12
321.275	433.12
321.504	421.12
321.733	425.12
321.962	430.12
322.191	437.12
322.42	447.12
322.649	463.12
322.878	453.12
323.108	462.12
323.337	495.12
323.566	513.12
323.795	525.12
324.024	579.12
324.253	679.12
324.482	993.12
324.71	1562.12
324.939	2318.12
325.168	2028.12
325.397	997.12
325.626	656.12
325.855	563.12
326.084	531.12
326.313	501.12
326.542	525.12
326.77	586.12
326.999	665.12
327.228	933.12
327.457	1406.12
327.686	1758.12
327.914	1154.12
328.143	727.12
328.372	658.12
328.6	595.12
328.829	581.12
329.058	593.12
329.287	612.12
329.515	574.12
329.744	529.12
329.972	545.12
330.201	569.12
330.43	590.12
330.658	606.12
330.887	628.12
331.115	619.12
331.344	541.12
331.572	508.12
331.801	518.12
332.03	517.12
332.258	518.12
332.486	471.12
332.715	474.12
332.943	489.12
333.172	476.12
333.4	466.12
333.629	500.12
333.857	520.12
334.085	508.12
334.314	519.12
334.542	569.12
334.771	569.12
334.999	542.12
335.227	518.12
335.455	488.12
335.684	510.12
335.912	507.12
336.14	461.12
336.369	479.12
336.597	490.12
336.825	493.12
337.053	483.12
337.281	475.12
337.51	458.12
337.738	471.12
337.966	478.12
338.194	482.12
338.422	472.12
338.65	469.12
338.878	450.12
339.106	466.12
339.334	461.12
339.562	449.12
339.79	457.12
340.018	460.12
340.246	446.12
340.474	455.12
340.702	457.12
340.93	456.12
341.158	451.12
341.386	447.12
341.614	465.12
341.842	463.12
342.07	467.12
342.298	463.12
342.526	452.12
342.754	464.12
342.981	462.12
343.209	447.12
343.437	459.12
343.665	471.12
343.893	483.12
344.12	468.12
344.348	483.12
344.576	446.12
344.804	470.12
345.031	482.12
345.259	465.12
345.487	491.12
345.714	463.12
345.942	450.12
346.17	442.12
346.397	459.12
346.625	446.12
346.853	441.12
347.08	423.12
347.308	443.12
347.535	455.12
347.763	475.12
347.99	429.12
348.218	462.12
348.445	473.12
348.673	437.12
348.9	443.12
349.128	447.12
349.355	436.12
349.583	430.12
349.81	445.12
350.037	417.12
350.265	439.12
350.492	444.12
350.72	441.12
350.947	452.12
351.174	452.12
351.402	467.12
351.629	454.12
351.856	454.12
352.083	473.12
352.311	462.12
352.538	473.12
352.765	479.12
352.992	465.12
353.22	449.12
353.447	462.12
353.674	451.12
353.901	437.12
354.128	463.12
354.355	440.12
354.583	410.12
354.81	426.12
355.037	416.12
355.264	424.12
355.491	439.12
355.718	405.12
355.945	422.12
356.172	444.12
356.399	429.12
356.626	440.12
356.853	416.12
357.08	425.12
357.307	445.12
357.534	425.12
357.761	429.12
357.988	437.12
358.215	429.12
358.441	422.12
358.668	412.12
358.895	423.12
359.122	419.12
359.349	431.12
359.576	450.12
359.802	485.12
360.029	506.12
360.256	499.12
360.483	491.12
360.709	474.12
360.936	458.12
361.163	443.12
361.39	452.12
361.616	480.12
361.843	467.12
362.07	458.12
362.296	454.12
362.523	462.12
362.749	470.12
362.976	460.12
363.203	447.12
363.429	445.12
363.656	446.12
363.882	450.12
364.109	440.12
364.335	442.12
364.562	424.12
364.788	408.12
365.015	440.12
365.241	420.12
365.468	435.12
365.694	456.12
365.92	439.12
366.147	433.12
366.373	449.12
366.599	440.12
366.826	443.12
367.052	435.12
367.278	440.12
367.505	429.12
367.731	443.12
367.957	443.12
368.184	428.12
368.41	453.12
368.636	470.12
368.862	469.12
369.089	439.12
369.315	454.12
369.541	408.12
369.767	431.12
369.993	441.12
370.219	445.12
370.445	452.12
370.672	454.12
370.898	437.12
371.124	458.12
371.35	435.12
371.576	442.12
371.802	428.12
372.028	456.12
372.254	449.12
372.48	455.12
372.706	465.12
372.932	481.12
373.158	426.12
373.384	457.12
373.61	455.12
373.835	451.12
374.061	441.12
374.287	452.12
374.513	470.12
374.739	445.12
374.965	459.12
375.191	455.12
375.416	450.12
375.642	441.12
375.868	439.12
376.094	457.12
376.319	454.12
376.545	451.12
376.771	459.12
376.997	463.12
377.222	438.12
377.448	435.12
377.674	433.12
377.899	425.12
378.125	420.12
378.35	437.12
378.576	445.12
378.802	451.12
379.027	413.12
379.253	442.12
379.478	435.12
379.704	451.12
379.929	446.12
380.155	437.12
380.38	451.12
380.606	458.12
380.831	439.12
381.057	450.12
381.282	433.12
381.507	425.12
381.733	465.12
381.958	446.12
382.184	466.12
382.409	449.12
382.634	449.12
382.86	468.12
383.085	458.12
383.31	464.12
383.535	445.12
383.761	454.12
383.986	457.12
384.211	497.12
384.436	466.12
384.662	460.12
384.887	478.12
385.112	470.12
385.337	478.12
385.562	491.12
385.787	495.12
386.013	498.12
386.238	507.12
386.463	494.12
386.688	491.12
386.913	497.12
387.138	501.12
387.363	491.12
387.588	489.12
387.813	488.12
388.038	505.12
388.263	484.12
388.488	518.12
388.713	508.12
388.938	493.12
389.163	500.12
389.387	486.12
389.612	489.12
389.837	509.12
390.062	498.12
390.287	529.12
390.512	487.12
390.736	488.12
390.961	487.12
391.186	519.12
391.411	509.12
391.636	517.12
391.86	509.12
392.085	512.12
392.31	503.12
392.534	485.12
392.759	513.12
392.984	511.12
393.208	516.12
393.433	507.12
393.658	514.12
393.882	511.12
394.107	492.12
394.331	491.12
394.556	498.12
394.78	519.12
395.005	517.12
395.229	497.12
395.454	513.12
395.678	523.12
395.903	551.12
396.127	563.12
396.352	549.12
396.576	546.12
396.801	534.12
397.025	530.12
397.249	521.12
397.474	525.12
397.698	539.12
397.922	562.12
398.147	580.12
398.371	582.12
398.595	557.12
398.82	570.12
399.044	577.12
399.268	618.12
399.492	621.12
399.717	682.12
399.941	703.12
400.165	713.12
400.389	701.12
400.613	668.12
400.837	621.12
401.062	594.12
401.286	577.12
401.51	566.12
401.734	592.12
401.958	585.12
402.182	577.12
402.406	619.12
402.63	581.12
402.854	620.12
403.078	588.12
403.302	583.12
403.526	612.12
403.75	604.12
403.974	600.12
404.198	593.12
404.422	612.12
404.645	609.12
404.869	613.12
405.093	667.12
405.317	661.12
405.541	723.12
405.765	658.12
405.988	635.12
406.212	640.12
406.436	668.12
406.66	656.12
406.883	644.12
407.107	667.12
407.331	743.12
407.555	817.12
407.778	820.12
408.002	724.12
408.226	708.12
408.449	656.12
408.673	656.12
408.896	683.12
409.12	733.12
409.344	685.12
409.567	631.12
409.791	617.12
410.014	612.12
410.238	629.12
410.461	596.12
410.685	634.12
410.908	634.12
411.132	649.12
411.355	715.12
411.578	658.12
411.802	620.12
412.025	619.12
412.249	624.12
412.472	641.12
412.695	681.12
412.919	682.12
413.142	621.12
413.365	599.12
413.589	582.12
413.812	578.12
414.035	576.12
414.258	593.12
414.482	555.12
414.705	578.12
414.928	582.12
415.151	571.12
415.374	565.12
415.597	566.12
415.821	568.12
416.044	597.12
416.267	585.12
416.49	582.12
416.713	573.12
416.936	570.12
417.159	554.12
417.382	558.12
417.605	596.12
417.828	566.12
418.051	597.12
418.274	588.12
418.497	572.12
418.72	555.12
418.943	567.12
419.166	579.12
419.389	635.12
419.611	602.12
419.834	611.12
420.057	591.12
420.28	621.12
420.503	590.12
420.726	601.12
420.948	619.12
421.171	655.12
421.394	656.12
421.617	647.12
421.839	610.12
422.062	589.12
422.285	594.12
422.507	656.12
422.73	765.12
422.953	732.12
423.175	653.12
423.398	627.12
423.621	630.12
423.843	657.12
424.066	643.12
424.288	636.12
424.511	661.12
424.733	735.12
424.956	819.12
425.178	759.12
425.401	782.12
425.623	820.12
425.846	685.12
426.068	647.12
426.291	641.12
426.513	629.12
426.735	642.12
426.958	685.12
427.18	788.12
427.402	962.12
427.625	1029.12
427.847	887.12
428.069	757.12
428.292	679.12
428.514	635.12
428.736	624.12
428.958	618.12
429.181	585.12
429.403	595.12
429.625	591.12
429.847	666.12
430.069	706.12
430.292	705.12
430.514	626.12
430.736	600.12
430.958	595.12
431.18	552.12
431.402	559.12
431.624	553.12
431.846	570.12
432.068	553.12
432.29	559.12
432.512	568.12
432.734	569.12
432.956	550.12
433.178	577.12
433.4	569.12
433.622	584.12
433.844	558.12
434.066	575.12
434.287	571.12
434.509	548.12
434.731	590.12
434.953	597.12
435.175	594.12
435.397	635.12
435.618	643.12
435.84	679.12
436.062	780.12
436.284	865.12
436.505	724.12
436.727	654.12
436.949	601.12
437.17	599.12
437.392	608.12
437.614	609.12
437.835	634.12
438.057	755.12
438.278	853.12
438.5	858.12
438.721	940.12
438.943	919.12
439.165	728.12
439.386	666.12
439.608	640.12
439.829	639.12
440.05	690.12
440.272	752.12
440.493	686.12
440.715	625.12
440.936	608.12
441.158	601.12
441.379	598.12
441.6	636.12
441.822	610.12
442.043	667.12
442.264	789.12
442.486	829.12
442.707	727.12
442.928	659.12
443.149	696.12
443.371	676.12
443.592	731.12
443.813	852.12
444.034	918.12
444.255	750.12
444.476	675.12
444.698	669.12
444.919	647.12
445.14	779.12
445.361	718.12
445.582	684.12
445.803	775.12
446.024	895.12
446.245	912.12
446.466	803.12
446.687	685.12
446.908	639.12
447.129	615.12
447.35	593.12
447.571	586.12
447.792	555.12
448.013	595.12
448.234	617.12
448.455	653.12
448.675	813.12
448.896	926.12
449.117	780.12
449.338	743.12
449.559	867.12
449.779	1003.12
450	799.12
450.221	635.12
450.442	605.12
450.662	580.12
450.883	583.12
451.104	602.12
451.324	579.12
451.545	557.12
451.766	563.12
451.986	514.12
452.207	506.12
452.428	515.12
452.648	520.12
452.869	525.12
453.089	537.12
453.31	561.12
453.53	550.12
453.751	525.12
453.971	527.12
454.192	547.12
454.412	547.12
454.633	534.12
454.853	514.12
455.073	548.12
455.294	553.12
455.514	636.12
455.734	613.12
455.955	524.12
456.175	521.12
456.395	499.12
456.616	497.12
456.836	497.12
457.056	493.12
457.276	478.12
457.497	506.12
457.717	500.12
457.937	495.12
458.157	537.12
458.377	511.12
458.598	544.12
458.818	600.12
459.038	689.12
459.258	704.12
459.478	613.12
459.698	585.12
459.918	565.12
460.138	558.12
460.358	577.12
460.578	585.12
460.798	611.12
461.018	574.12
461.238	555.12
461.458	583.12
461.678	570.12
461.898	570.12
462.118	554.12
462.338	611.12
462.558	604.12
462.777	590.12
462.997	621.12
463.217	655.12
463.437	638.12
463.657	641.12
463.876	610.12
464.096	634.12
464.316	615.12
464.536	605.12
464.755	625.12
464.975	643.12
465.195	651.12
465.414	736.12
465.634	655.12
465.854	616.12
466.073	581.12
466.293	561.12
466.512	559.12
466.732	545.12
466.951	548.12
467.171	531.12
467.391	525.12
467.61	558.12
467.829	557.12
468.049	545.12
468.268	547.12
468.488	537.12
468.707	534.12
468.927	525.12
469.146	534.12
469.365	527.12
469.585	528.12
469.804	539.12
470.023	550.12
470.243	542.12
470.462	552.12
470.681	582.12
470.901	555.12
471.12	531.12
471.339	557.12
471.558	556.12
471.777	557.12
471.997	556.12
472.216	561.12
472.435	612.12
472.654	578.12
472.873	555.12
473.092	571.12
473.311	539.12
473.53	555.12
473.749	554.12
473.968	596.12
474.187	720.12
474.406	717.12
474.625	616.12
474.844	561.12
475.063	549.12
475.282	551.12
475.501	570.12
475.72	566.12
475.939	567.12
476.158	571.12
476.377	577.12
476.596	566.12
476.814	582.12
477.033	582.12
477.252	595.12
477.471	588.12
477.69	594.12
477.908	613.12
478.127	596.12
478.346	601.12
478.564	630.12
478.783	609.12
479.002	631.12
479.22	651.12
479.439	660.12
479.658	639.12
479.876	667.12
480.095	686.12
480.313	709.12
480.532	674.12
480.751	689.12
480.969	695.12
481.188	765.12
481.406	793.12
481.624	741.12
481.843	681.12
482.061	677.12
482.28	659.12
482.498	667.12
482.717	661.12
482.935	676.12
483.153	665.12
483.372	669.12
483.59	644.12
483.808	650.12
484.027	671.12
484.245	670.12
484.463	656.12
484.681	679.12
484.9	648.12
485.118	677.12
485.336	680.12
485.554	676.12
485.772	676.12
485.99	667.12
486.209	685.12
486.427	689.12
486.645	686.12
486.863	705.12
487.081	715.12
487.299	694.12
487.517	710.12
487.735	737.12
487.953	757.12
488.171	716.12
488.389	669.12
488.607	699.12
488.825	715.12
489.043	706.12
489.261	730.12
489.479	725.12
489.696	709.12
489.914	742.12
490.132	738.12
490.35	735.12
490.568	741.12
490.786	758.12
491.003	777.12
491.221	794.12
491.439	775.12
491.657	801.12
491.874	795.12
492.092	774.12
492.31	807.12
492.527	786.12
492.745	808.12
492.963	825.12
493.18	822.12
493.398	821.12
493.615	847.12
493.833	834.12
494.05	823.12
494.268	813.12
494.485	835.12
494.703	842.12
494.92	821.12
495.138	821.12
495.355	844.12
495.573	846.12
495.79	847.12
496.008	855.12
496.225	835.12
496.442	859.12
496.66	834.12
496.877	847.12
497.094	841.12
497.312	840.12
497.529	863.12
497.746	870.12
497.963	863.12
498.181	877.12
498.398	917.12
498.615	933.12
498.832	978.12
499.049	986.12
499.267	991.12
499.484	1036.12
499.701	1103.12
499.918	1087.12
500.135	1133.12
500.352	1219.12
500.569	1224.12
500.786	1208.12
501.003	1206.12
501.22	1188.12
501.437	1141.12
501.654	1113.12
