Data from 1966.PennyLincolnUp.Lamp.En5.5.200Scan.071719.P1._HRD10591_14-14-56-915.txt Node
Date: Thu Jul 18 14:14:56 EDT 2019
User: cochatt
Spectrometer: HR+D1059
Trigger mode: 1
Integration Time (sec): 1.000000E-1
Scans to average: 1
Electric dark correction enabled: true
Nonlinearity correction enabled: false
Boxcar width: 0
XAxis mode: Wavelengths
Number of Pixels in Spectrum: 2048
>>>>>Begin Spectral Data<<<<<
223.165	7.06
223.4	7.06
223.635	7.06
223.869	-18.94
224.104	-21.94
224.338	-23.94
224.573	-11.94
224.808	-6.94
225.042	-6.94
225.277	-9.94
225.511	-19.94
225.746	-3.94
225.98	12.06
226.215	9.06
226.449	28.06
226.683	16.06
226.918	21.06
227.152	31.06
227.387	38.06
227.621	48.06
227.856	42.06
228.09	47.06
228.324	63.06
228.559	52.06
228.793	64.06
229.027	73.06
229.262	95.06
229.496	87.06
229.73	97.06
229.964	121.06
230.199	89.06
230.433	101.06
230.667	98.06
230.901	96.06
231.136	95.06
231.37	101.06
231.604	91.06
231.838	100.06
232.072	92.06
232.306	83.06
232.541	97.06
232.775	87.06
233.009	110.06
233.243	90.06
233.477	112.06
233.711	101.06
233.945	111.06
234.179	102.06
234.413	99.06
234.647	105.06
234.881	93.06
235.115	90.06
235.349	93.06
235.583	113.06
235.817	110.06
236.051	111.06
236.285	106.06
236.519	105.06
236.753	91.06
236.987	120.06
237.221	127.06
237.455	159.06
237.689	119.06
237.922	107.06
238.156	119.06
238.39	112.06
238.624	99.06
238.858	102.06
239.091	105.06
239.325	100.06
239.559	106.06
239.793	96.06
240.027	105.06
240.26	117.06
240.494	132.06
240.728	116.06
240.961	124.06
241.195	111.06
241.429	101.06
241.662	93.06
241.896	108.06
242.13	107.06
242.363	104.06
242.597	107.06
242.83	127.06
243.064	100.06
243.298	106.06
243.531	98.06
243.765	123.06
243.998	114.06
244.232	122.06
244.465	109.06
244.699	108.06
244.932	108.06
245.166	110.06
245.399	114.06
245.633	110.06
245.866	112.06
246.099	101.06
246.333	106.06
246.566	113.06
246.8	106.06
247.033	109.06
247.266	125.06
247.5	130.06
247.733	121.06
247.966	128.06
248.2	112.06
248.433	129.06
248.666	115.06
248.899	135.06
249.133	144.06
249.366	140.06
249.599	138.06
249.832	128.06
250.066	128.06
250.299	131.06
250.532	125.06
250.765	156.06
250.998	153.06
251.231	154.06
251.465	137.06
251.698	143.06
251.931	136.06
252.164	128.06
252.397	127.06
252.63	137.06
252.863	148.06
253.096	141.06
253.329	150.06
253.562	153.06
253.795	141.06
254.028	139.06
254.261	144.06
254.494	142.06
254.727	163.06
254.96	183.06
255.193	176.06
255.426	158.06
255.659	153.06
255.892	137.06
256.124	158.06
256.357	159.06
256.59	148.06
256.823	135.06
257.056	160.06
257.289	143.06
257.521	153.06
257.754	130.06
257.987	134.06
258.22	145.06
258.452	150.06
258.685	142.06
258.918	127.06
259.151	125.06
259.383	130.06
259.616	145.06
259.849	142.06
260.081	149.06
260.314	167.06
260.547	172.06
260.779	136.06
261.012	157.06
261.244	139.06
261.477	158.06
261.71	143.06
261.942	157.06
262.175	153.06
262.407	150.06
262.64	131.06
262.872	144.06
263.105	136.06
263.337	140.06
263.57	138.06
263.802	138.06
264.035	138.06
264.267	134.06
264.499	152.06
264.732	163.06
264.964	128.06
265.197	137.06
265.429	143.06
265.661	141.06
265.894	155.06
266.126	138.06
266.358	147.06
266.591	139.06
266.823	142.06
267.055	155.06
267.287	149.06
267.52	149.06
267.752	142.06
267.984	150.06
268.216	154.06
268.448	149.06
268.681	147.06
268.913	160.06
269.145	165.06
269.377	166.06
269.609	166.06
269.841	164.06
270.073	176.06
270.306	188.06
270.538	204.06
270.77	192.06
271.002	180.06
271.234	172.06
271.466	180.06
271.698	204.06
271.93	190.06
272.162	190.06
272.394	207.06
272.626	189.06
272.858	183.06
273.09	167.06
273.322	178.06
273.553	162.06
273.785	172.06
274.017	155.06
274.249	179.06
274.481	164.06
274.713	170.06
274.945	169.06
275.176	160.06
275.408	158.06
275.64	167.06
275.872	172.06
276.104	169.06
276.335	159.06
276.567	176.06
276.799	180.06
277.031	194.06
277.262	192.06
277.494	194.06
277.726	190.06
277.957	168.06
278.189	169.06
278.421	183.06
278.652	176.06
278.884	172.06
279.115	168.06
279.347	163.06
279.579	159.06
279.81	179.06
280.042	180.06
280.273	161.06
280.505	160.06
280.736	168.06
280.968	167.06
281.199	152.06
281.431	164.06
281.662	174.06
281.894	180.06
282.125	174.06
282.356	178.06
282.588	183.06
282.819	166.06
283.051	173.06
283.282	186.06
283.513	173.06
283.745	173.06
283.976	177.06
284.207	191.06
284.439	178.06
284.67	175.06
284.901	171.06
285.132	172.06
285.364	164.06
285.595	169.06
285.826	181.06
286.057	171.06
286.288	163.06
286.52	169.06
286.751	157.06
286.982	174.06
287.213	163.06
287.444	175.06
287.675	183.06
287.906	183.06
288.138	192.06
288.369	187.06
288.6	198.06
288.831	177.06
289.062	194.06
289.293	180.06
289.524	172.06
289.755	173.06
289.986	172.06
290.217	175.06
290.448	156.06
290.679	175.06
290.91	182.06
291.141	172.06
291.371	185.06
291.602	177.06
291.833	183.06
292.064	185.06
292.295	174.06
292.526	174.06
292.757	175.06
292.987	176.06
293.218	170.06
293.449	189.06
293.68	187.06
293.91	170.06
294.141	173.06
294.372	174.06
294.603	171.06
294.833	176.06
295.064	181.06
295.295	192.06
295.525	180.06
295.756	185.06
295.987	179.06
296.217	202.06
296.448	213.06
296.679	186.06
296.909	183.06
297.14	183.06
297.37	184.06
297.601	163.06
297.831	171.06
298.062	173.06
298.292	188.06
298.523	187.06
298.753	201.06
298.984	178.06
299.214	180.06
299.445	195.06
299.675	175.06
299.905	201.06
300.136	179.06
300.366	170.06
300.597	188.06
300.827	184.06
301.057	196.06
301.288	196.06
301.518	195.06
301.748	202.06
301.979	201.06
302.209	210.06
302.439	194.06
302.669	200.06
302.9	191.06
303.13	193.06
303.36	187.06
303.59	185.06
303.82	208.06
304.051	215.06
304.281	211.06
304.511	196.06
304.741	203.06
304.971	175.06
305.201	200.06
305.431	209.06
305.661	172.06
305.891	207.06
306.121	187.06
306.352	194.06
306.582	212.06
306.812	197.06
307.042	187.06
307.272	195.06
307.502	205.06
307.731	191.06
307.961	187.06
308.191	208.06
308.421	193.06
308.651	204.06
308.881	203.06
309.111	199.06
309.341	188.06
309.571	205.06
309.8	215.06
310.03	207.06
310.26	213.06
310.49	201.06
310.72	231.06
310.949	231.06
311.179	217.06
311.409	221.06
311.639	236.06
311.868	209.06
312.098	232.06
312.328	215.06
312.557	205.06
312.787	231.06
313.017	233.06
313.246	221.06
313.476	215.06
313.706	222.06
313.935	240.06
314.165	241.06
314.394	233.06
314.624	244.06
314.853	234.06
315.083	231.06
315.312	216.06
315.542	204.06
315.771	211.06
316.001	218.06
316.23	209.06
316.46	205.06
316.689	216.06
316.919	224.06
317.148	225.06
317.377	234.06
317.607	225.06
317.836	224.06
318.065	216.06
318.295	221.06
318.524	221.06
318.753	223.06
318.983	213.06
319.212	225.06
319.441	222.06
319.67	217.06
319.9	205.06
320.129	203.06
320.358	216.06
320.587	224.06
320.816	221.06
321.046	232.06
321.275	233.06
321.504	211.06
321.733	229.06
321.962	226.06
322.191	235.06
322.42	249.06
322.649	249.06
322.878	253.06
323.108	262.06
323.337	283.06
323.566	281.06
323.795	275.06
324.024	300.06
324.253	379.06
324.482	544.06
324.71	812.06
324.939	1074.06
325.168	884.06
325.397	452.06
325.626	315.06
325.855	306.06
326.084	261.06
326.313	253.06
326.542	283.06
326.77	297.06
326.999	360.06
327.228	480.06
327.457	715.06
327.686	788.06
327.914	533.06
328.143	377.06
328.372	327.06
328.6	315.06
328.829	334.06
329.058	337.06
329.287	321.06
329.515	289.06
329.744	280.06
329.972	288.06
330.201	311.06
330.43	339.06
330.658	342.06
330.887	347.06
331.115	339.06
331.344	283.06
331.572	272.06
331.801	283.06
332.03	276.06
332.258	267.06
332.486	250.06
332.715	258.06
332.943	244.06
333.172	253.06
333.4	237.06
333.629	279.06
333.857	263.06
334.085	279.06
334.314	295.06
334.542	334.06
334.771	318.06
334.999	299.06
335.227	268.06
335.455	244.06
335.684	251.06
335.912	258.06
336.14	256.06
336.369	239.06
336.597	261.06
336.825	257.06
337.053	253.06
337.281	241.06
337.51	235.06
337.738	251.06
337.966	237.06
338.194	253.06
338.422	259.06
338.65	243.06
338.878	233.06
339.106	228.06
339.334	248.06
339.562	227.06
339.79	223.06
340.018	219.06
340.246	245.06
340.474	238.06
340.702	239.06
340.93	238.06
341.158	242.06
341.386	242.06
341.614	230.06
341.842	225.06
342.07	226.06
342.298	242.06
342.526	222.06
342.754	235.06
342.981	244.06
343.209	233.06
343.437	243.06
343.665	237.06
343.893	231.06
344.12	234.06
344.348	245.06
344.576	247.06
344.804	243.06
345.031	254.06
345.259	259.06
345.487	254.06
345.714	232.06
345.942	226.06
346.17	228.06
346.397	219.06
346.625	229.06
346.853	210.06
347.08	227.06
347.308	224.06
347.535	235.06
347.763	227.06
347.99	243.06
348.218	230.06
348.445	250.06
348.673	226.06
348.9	231.06
349.128	217.06
349.355	215.06
349.583	236.06
349.81	222.06
350.037	222.06
350.265	231.06
350.492	214.06
350.72	235.06
350.947	230.06
351.174	232.06
351.402	228.06
351.629	249.06
351.856	229.06
352.083	222.06
352.311	255.06
352.538	246.06
352.765	260.06
352.992	242.06
353.22	236.06
353.447	241.06
353.674	217.06
353.901	219.06
354.128	212.06
354.355	229.06
354.583	222.06
354.81	223.06
355.037	220.06
355.264	210.06
355.491	189.06
355.718	197.06
355.945	212.06
356.172	214.06
356.399	213.06
356.626	222.06
356.853	226.06
357.08	224.06
357.307	213.06
357.534	204.06
357.761	199.06
357.988	205.06
358.215	205.06
358.441	200.06
358.668	189.06
358.895	222.06
359.122	199.06
359.349	228.06
359.576	230.06
359.802	237.06
360.029	244.06
360.256	254.06
360.483	237.06
360.709	241.06
360.936	227.06
361.163	224.06
361.39	234.06
361.616	223.06
361.843	225.06
362.07	214.06
362.296	224.06
362.523	224.06
362.749	207.06
362.976	232.06
363.203	223.06
363.429	219.06
363.656	232.06
363.882	221.06
364.109	209.06
364.335	220.06
364.562	224.06
364.788	224.06
365.015	208.06
365.241	225.06
365.468	224.06
365.694	220.06
365.92	225.06
366.147	216.06
366.373	229.06
366.599	219.06
366.826	201.06
367.052	234.06
367.278	218.06
367.505	212.06
367.731	223.06
367.957	218.06
368.184	221.06
368.41	214.06
368.636	230.06
368.862	246.06
369.089	220.06
369.315	219.06
369.541	213.06
369.767	220.06
369.993	218.06
370.219	218.06
370.445	233.06
370.672	212.06
370.898	207.06
371.124	216.06
371.35	206.06
371.576	229.06
371.802	213.06
372.028	213.06
372.254	225.06
372.48	219.06
372.706	220.06
372.932	227.06
373.158	220.06
373.384	200.06
373.61	189.06
373.835	215.06
374.061	217.06
374.287	231.06
374.513	231.06
374.739	217.06
374.965	226.06
375.191	220.06
375.416	216.06
375.642	233.06
375.868	232.06
376.094	216.06
376.319	208.06
376.545	198.06
376.771	191.06
376.997	212.06
377.222	220.06
377.448	205.06
377.674	202.06
377.899	192.06
378.125	207.06
378.35	205.06
378.576	214.06
378.802	223.06
379.027	215.06
379.253	223.06
379.478	218.06
379.704	212.06
379.929	216.06
380.155	218.06
380.38	216.06
380.606	221.06
380.831	227.06
381.057	225.06
381.282	233.06
381.507	220.06
381.733	214.06
381.958	219.06
382.184	208.06
382.409	215.06
382.634	240.06
382.86	210.06
383.085	218.06
383.31	212.06
383.535	220.06
383.761	212.06
383.986	216.06
384.211	239.06
384.436	237.06
384.662	219.06
384.887	223.06
385.112	228.06
385.337	221.06
385.562	211.06
385.787	209.06
386.013	267.06
386.238	247.06
386.463	243.06
386.688	247.06
386.913	222.06
387.138	221.06
387.363	221.06
387.588	208.06
387.813	228.06
388.038	241.06
388.263	239.06
388.488	222.06
388.713	228.06
388.938	235.06
389.163	247.06
389.387	226.06
389.612	223.06
389.837	217.06
390.062	219.06
390.287	229.06
390.512	231.06
390.736	220.06
390.961	238.06
391.186	240.06
391.411	236.06
391.636	233.06
391.86	242.06
392.085	223.06
392.31	256.06
392.534	207.06
392.759	236.06
392.984	234.06
393.208	213.06
393.433	215.06
393.658	233.06
393.882	233.06
394.107	232.06
394.331	240.06
394.556	208.06
394.78	231.06
395.005	242.06
395.229	219.06
395.454	232.06
395.678	242.06
395.903	261.06
396.127	259.06
396.352	242.06
396.576	240.06
396.801	235.06
397.025	229.06
397.249	250.06
397.474	243.06
397.698	245.06
397.922	245.06
398.147	256.06
398.371	249.06
398.595	258.06
398.82	247.06
399.044	271.06
399.268	276.06
399.492	279.06
399.717	289.06
399.941	301.06
400.165	322.06
400.389	322.06
400.613	297.06
400.837	274.06
401.062	260.06
401.286	256.06
401.51	272.06
401.734	273.06
401.958	253.06
402.182	257.06
402.406	258.06
402.63	270.06
402.854	259.06
403.078	291.06
403.302	272.06
403.526	244.06
403.75	270.06
403.974	275.06
404.198	254.06
404.422	281.06
404.645	291.06
404.869	271.06
405.093	288.06
405.317	304.06
405.541	314.06
405.765	294.06
405.988	296.06
406.212	293.06
406.436	318.06
406.66	311.06
406.883	297.06
407.107	304.06
407.331	306.06
407.555	327.06
407.778	328.06
408.002	305.06
408.226	282.06
408.449	279.06
408.673	285.06
408.896	297.06
409.12	317.06
409.344	303.06
409.567	265.06
409.791	268.06
410.014	266.06
410.238	255.06
410.461	269.06
410.685	273.06
410.908	273.06
411.132	309.06
411.355	305.06
411.578	293.06
411.802	261.06
412.025	271.06
412.249	282.06
412.472	291.06
412.695	298.06
412.919	298.06
413.142	274.06
413.365	265.06
413.589	267.06
413.812	236.06
414.035	259.06
414.258	259.06
414.482	234.06
414.705	263.06
414.928	258.06
415.151	266.06
415.374	252.06
415.597	260.06
415.821	265.06
416.044	275.06
416.267	255.06
416.49	270.06
416.713	271.06
416.936	267.06
417.159	260.06
417.382	264.06
417.605	242.06
417.828	271.06
418.051	266.06
418.274	268.06
418.497	253.06
418.72	267.06
418.943	277.06
419.166	280.06
419.389	286.06
419.611	269.06
419.834	272.06
420.057	272.06
420.28	261.06
420.503	267.06
420.726	265.06
420.948	251.06
421.171	291.06
421.394	299.06
421.617	283.06
421.839	260.06
422.062	264.06
422.285	275.06
422.507	292.06
422.73	327.06
422.953	320.06
423.175	298.06
423.398	271.06
423.621	285.06
423.843	286.06
424.066	289.06
424.288	288.06
424.511	303.06
424.733	321.06
424.956	343.06
425.178	322.06
425.401	320.06
425.623	348.06
425.846	308.06
426.068	288.06
426.291	297.06
426.513	288.06
426.735	297.06
426.958	319.06
427.18	338.06
427.402	400.06
427.625	456.06
427.847	381.06
428.069	348.06
428.292	305.06
428.514	271.06
428.736	273.06
428.958	267.06
429.181	257.06
429.403	277.06
429.625	285.06
429.847	295.06
430.069	322.06
430.292	315.06
430.514	284.06
430.736	269.06
430.958	267.06
431.18	261.06
431.402	271.06
431.624	248.06
431.846	249.06
432.068	245.06
432.29	275.06
432.512	273.06
432.734	258.06
432.956	259.06
433.178	266.06
433.4	281.06
433.622	242.06
433.844	255.06
434.066	263.06
434.287	257.06
434.509	272.06
434.731	269.06
434.953	265.06
435.175	290.06
435.397	288.06
435.618	291.06
435.84	322.06
436.062	357.06
436.284	359.06
436.505	323.06
436.727	274.06
436.949	259.06
437.17	258.06
437.392	245.06
437.614	269.06
437.835	300.06
438.057	362.06
438.278	370.06
438.5	362.06
438.721	389.06
438.943	379.06
439.165	295.06
439.386	289.06
439.608	290.06
439.829	307.06
440.05	300.06
440.272	329.06
440.493	311.06
440.715	267.06
440.936	277.06
441.158	264.06
441.379	285.06
441.6	280.06
441.822	285.06
442.043	299.06
442.264	347.06
442.486	342.06
442.707	303.06
442.928	290.06
443.149	294.06
443.371	328.06
443.592	347.06
443.813	371.06
444.034	381.06
444.255	325.06
444.476	303.06
444.698	299.06
444.919	292.06
445.14	393.06
445.361	337.06
445.582	300.06
445.803	358.06
446.024	391.06
446.245	387.06
446.466	348.06
446.687	297.06
446.908	287.06
447.129	260.06
447.35	283.06
447.571	256.06
447.792	271.06
448.013	277.06
448.234	288.06
448.455	306.06
448.675	337.06
448.896	385.06
449.117	343.06
449.338	329.06
449.559	376.06
449.779	391.06
450	311.06
450.221	268.06
450.442	255.06
450.662	247.06
450.883	277.06
451.104	282.06
451.324	280.06
451.545	252.06
451.766	256.06
451.986	247.06
452.207	233.06
452.428	241.06
452.648	244.06
452.869	239.06
453.089	258.06
453.31	273.06
453.53	250.06
453.751	241.06
453.971	244.06
454.192	263.06
454.412	258.06
454.633	270.06
454.853	238.06
455.073	250.06
455.294	243.06
455.514	270.06
455.734	247.06
455.955	241.06
456.175	215.06
456.395	229.06
456.616	228.06
456.836	221.06
457.056	218.06
457.276	221.06
457.497	216.06
457.717	229.06
457.937	229.06
458.157	226.06
458.377	225.06
458.598	247.06
458.818	292.06
459.038	334.06
459.258	319.06
459.478	284.06
459.698	267.06
459.918	251.06
460.138	272.06
460.358	264.06
460.578	245.06
460.798	259.06
461.018	272.06
461.238	259.06
461.458	252.06
461.678	252.06
461.898	264.06
462.118	247.06
462.338	266.06
462.558	275.06
462.777	265.06
462.997	263.06
463.217	284.06
463.437	294.06
463.657	268.06
463.876	261.06
464.096	284.06
464.316	276.06
464.536	281.06
464.755	276.06
464.975	279.06
465.195	333.06
465.414	360.06
465.634	305.06
465.854	279.06
466.073	261.06
466.293	268.06
466.512	240.06
466.732	272.06
466.951	234.06
467.171	258.06
467.391	248.06
467.61	266.06
467.829	259.06
468.049	251.06
468.268	277.06
468.488	242.06
468.707	238.06
468.927	249.06
469.146	235.06
469.365	239.06
469.585	232.06
469.804	233.06
470.023	275.06
470.243	247.06
470.462	272.06
470.681	287.06
470.901	262.06
471.12	256.06
471.339	244.06
471.558	242.06
471.777	252.06
471.997	256.06
472.216	251.06
472.435	293.06
472.654	264.06
472.873	259.06
473.092	242.06
473.311	236.06
473.53	243.06
473.749	251.06
473.968	282.06
474.187	349.06
474.406	338.06
474.625	279.06
474.844	249.06
475.063	265.06
475.282	256.06
475.501	255.06
475.72	272.06
475.939	271.06
476.158	264.06
476.377	276.06
476.596	255.06
476.814	255.06
477.033	243.06
477.252	265.06
477.471	265.06
477.69	267.06
477.908	271.06
478.127	266.06
478.346	264.06
478.564	282.06
478.783	274.06
479.002	283.06
479.22	267.06
479.439	296.06
479.658	273.06
479.876	302.06
480.095	287.06
480.313	309.06
480.532	315.06
480.751	313.06
480.969	303.06
481.188	370.06
481.406	405.06
481.624	322.06
481.843	324.06
482.061	274.06
482.28	282.06
482.498	276.06
482.717	294.06
482.935	287.06
483.153	293.06
483.372	291.06
483.59	295.06
483.808	311.06
484.027	283.06
484.245	303.06
484.463	293.06
484.681	306.06
484.9	302.06
485.118	315.06
485.336	297.06
485.554	284.06
485.772	296.06
485.99	287.06
486.209	304.06
486.427	301.06
486.645	312.06
486.863	322.06
487.081	304.06
487.299	298.06
487.517	317.06
487.735	301.06
487.953	312.06
488.171	327.06
488.389	292.06
488.607	295.06
488.825	321.06
489.043	319.06
489.261	310.06
489.479	297.06
489.696	311.06
489.914	331.06
490.132	318.06
490.35	314.06
490.568	324.06
490.786	333.06
491.003	334.06
491.221	365.06
491.439	356.06
491.657	351.06
491.874	383.06
492.092	364.06
492.31	375.06
492.527	370.06
492.745	359.06
492.963	360.06
493.18	353.06
493.398	363.06
493.615	366.06
493.833	373.06
494.05	372.06
494.268	378.06
494.485	365.06
494.703	353.06
494.92	384.06
495.138	375.06
495.355	368.06
495.573	361.06
495.79	367.06
496.008	364.06
496.225	372.06
496.442	356.06
496.66	377.06
496.877	354.06
497.094	333.06
497.312	337.06
497.529	353.06
497.746	351.06
497.963	373.06
498.181	387.06
498.398	379.06
498.615	395.06
498.832	394.06
499.049	395.06
499.267	393.06
499.484	416.06
499.701	429.06
499.918	434.06
500.135	449.06
500.352	472.06
500.569	473.06
500.786	470.06
501.003	459.06
501.22	443.06
501.437	455.06
501.654	445.06
501.871	428.06
502.088	427.06
502.305	399.06
