Data from 1966.PennyLincolnUp.Lamp.En5.5.200Scan.071719.P1._HRD10591_14-15-25-948.txt Node
Date: Thu Jul 18 14:15:25 EDT 2019
User: cochatt
Spectrometer: HR+D1059
Trigger mode: 1
Integration Time (sec): 1.000000E-1
Scans to average: 1
Electric dark correction enabled: true
Nonlinearity correction enabled: false
Boxcar width: 0
XAxis mode: Wavelengths
Number of Pixels in Spectrum: 2048
>>>>>Begin Spectral Data<<<<<
223.165	-0.94
223.4	-0.94
223.635	-0.94
223.869	-17.94
224.104	-14.94
224.338	-19.94
224.573	-17.94
224.808	-17.94
225.042	-6.94
225.277	-8.94
225.511	3.06
225.746	-4.94
225.98	-2.94
226.215	18.06
226.449	12.06
226.683	33.06
226.918	19.06
227.152	28.06
227.387	38.06
227.621	28.06
227.856	47.06
228.09	51.06
228.324	61.06
228.559	66.06
228.793	60.06
229.027	64.06
229.262	86.06
229.496	104.06
229.73	116.06
229.964	116.06
230.199	99.06
230.433	97.06
230.667	102.06
230.901	95.06
231.136	78.06
231.37	90.06
231.604	91.06
231.838	85.06
232.072	104.06
232.306	94.06
232.541	101.06
232.775	98.06
233.009	98.06
233.243	113.06
233.477	96.06
233.711	107.06
233.945	99.06
234.179	100.06
234.413	100.06
234.647	93.06
234.881	97.06
235.115	97.06
235.349	98.06
235.583	101.06
235.817	95.06
236.051	105.06
236.285	100.06
236.519	101.06
236.753	101.06
236.987	110.06
237.221	135.06
237.455	147.06
237.689	127.06
237.922	100.06
238.156	94.06
238.39	113.06
238.624	90.06
238.858	107.06
239.091	106.06
239.325	90.06
239.559	96.06
239.793	101.06
240.027	100.06
240.26	115.06
240.494	116.06
240.728	109.06
240.961	111.06
241.195	91.06
241.429	96.06
241.662	105.06
241.896	92.06
242.13	111.06
242.363	103.06
242.597	91.06
242.83	103.06
243.064	107.06
243.298	125.06
243.531	102.06
243.765	109.06
243.998	113.06
244.232	109.06
244.465	111.06
244.699	121.06
244.932	93.06
245.166	120.06
245.399	114.06
245.633	110.06
245.866	113.06
246.099	119.06
246.333	108.06
246.566	114.06
246.8	123.06
247.033	118.06
247.266	110.06
247.5	122.06
247.733	115.06
247.966	121.06
248.2	128.06
248.433	122.06
248.666	132.06
248.899	123.06
249.133	127.06
249.366	156.06
249.599	135.06
249.832	124.06
250.066	135.06
250.299	128.06
250.532	131.06
250.765	136.06
250.998	145.06
251.231	140.06
251.465	141.06
251.698	133.06
251.931	126.06
252.164	148.06
252.397	130.06
252.63	132.06
252.863	156.06
253.096	142.06
253.329	150.06
253.562	150.06
253.795	158.06
254.028	149.06
254.261	143.06
254.494	139.06
254.727	166.06
254.96	162.06
255.193	168.06
255.426	157.06
255.659	159.06
255.892	142.06
256.124	141.06
256.357	157.06
256.59	158.06
256.823	142.06
257.056	138.06
257.289	135.06
257.521	139.06
257.754	139.06
257.987	143.06
258.22	124.06
258.452	131.06
258.685	136.06
258.918	134.06
259.151	133.06
259.383	152.06
259.616	150.06
259.849	151.06
260.081	159.06
260.314	160.06
260.547	162.06
260.779	147.06
261.012	145.06
261.244	153.06
261.477	154.06
261.71	144.06
261.942	138.06
262.175	162.06
262.407	156.06
262.64	151.06
262.872	141.06
263.105	130.06
263.337	137.06
263.57	143.06
263.802	145.06
264.035	138.06
264.267	146.06
264.499	141.06
264.732	146.06
264.964	142.06
265.197	136.06
265.429	137.06
265.661	126.06
265.894	142.06
266.126	152.06
266.358	153.06
266.591	136.06
266.823	125.06
267.055	144.06
267.287	147.06
267.52	149.06
267.752	142.06
267.984	149.06
268.216	152.06
268.448	155.06
268.681	143.06
268.913	152.06
269.145	194.06
269.377	158.06
269.609	162.06
269.841	179.06
270.073	171.06
270.306	184.06
270.538	202.06
270.77	190.06
271.002	183.06
271.234	172.06
271.466	175.06
271.698	184.06
271.93	195.06
272.162	192.06
272.394	203.06
272.626	198.06
272.858	167.06
273.09	172.06
273.322	171.06
273.553	178.06
273.785	156.06
274.017	156.06
274.249	165.06
274.481	189.06
274.713	158.06
274.945	160.06
275.176	159.06
275.408	173.06
275.64	160.06
275.872	169.06
276.104	154.06
276.335	170.06
276.567	164.06
276.799	174.06
277.031	192.06
277.262	200.06
277.494	192.06
277.726	199.06
277.957	179.06
278.189	168.06
278.421	167.06
278.652	158.06
278.884	164.06
279.115	161.06
279.347	152.06
279.579	169.06
279.81	158.06
280.042	168.06
280.273	162.06
280.505	170.06
280.736	152.06
280.968	175.06
281.199	150.06
281.431	170.06
281.662	161.06
281.894	163.06
282.125	170.06
282.356	192.06
282.588	186.06
282.819	195.06
283.051	164.06
283.282	167.06
283.513	167.06
283.745	183.06
283.976	179.06
284.207	178.06
284.439	185.06
284.67	187.06
284.901	167.06
285.132	165.06
285.364	166.06
285.595	171.06
285.826	167.06
286.057	185.06
286.288	180.06
286.52	175.06
286.751	179.06
286.982	177.06
287.213	173.06
287.444	164.06
287.675	184.06
287.906	175.06
288.138	188.06
288.369	184.06
288.6	179.06
288.831	177.06
289.062	176.06
289.293	177.06
289.524	182.06
289.755	178.06
289.986	179.06
290.217	181.06
290.448	172.06
290.679	170.06
290.91	169.06
291.141	162.06
291.371	180.06
291.602	179.06
291.833	166.06
292.064	177.06
292.295	175.06
292.526	173.06
292.757	177.06
292.987	169.06
293.218	180.06
293.449	191.06
293.68	182.06
293.91	165.06
294.141	188.06
294.372	172.06
294.603	174.06
294.833	156.06
295.064	179.06
295.295	190.06
295.525	198.06
295.756	181.06
295.987	198.06
296.217	200.06
296.448	193.06
296.679	197.06
296.909	186.06
297.14	172.06
297.37	185.06
297.601	185.06
297.831	169.06
298.062	188.06
298.292	171.06
298.523	193.06
298.753	175.06
298.984	177.06
299.214	182.06
299.445	188.06
299.675	187.06
299.905	199.06
300.136	176.06
300.366	192.06
300.597	183.06
300.827	180.06
301.057	196.06
301.288	204.06
301.518	187.06
301.748	191.06
301.979	193.06
302.209	198.06
302.439	177.06
302.669	193.06
302.9	195.06
303.13	188.06
303.36	207.06
303.59	209.06
303.82	194.06
304.051	211.06
304.281	183.06
304.511	186.06
304.741	186.06
304.971	192.06
305.201	194.06
305.431	199.06
305.661	188.06
305.891	204.06
306.121	193.06
306.352	201.06
306.582	191.06
306.812	194.06
307.042	204.06
307.272	211.06
307.502	201.06
307.731	200.06
307.961	208.06
308.191	194.06
308.421	194.06
308.651	195.06
308.881	198.06
309.111	216.06
309.341	176.06
309.571	204.06
309.8	211.06
310.03	205.06
310.26	209.06
310.49	204.06
310.72	214.06
310.949	233.06
311.179	232.06
311.409	222.06
311.639	197.06
311.868	216.06
312.098	217.06
312.328	212.06
312.557	218.06
312.787	237.06
313.017	231.06
313.246	222.06
313.476	212.06
313.706	203.06
313.935	230.06
314.165	200.06
314.394	221.06
314.624	236.06
314.853	224.06
315.083	225.06
315.312	208.06
315.542	197.06
315.771	207.06
316.001	208.06
316.23	209.06
316.46	216.06
316.689	216.06
316.919	203.06
317.148	208.06
317.377	207.06
317.607	221.06
317.836	225.06
318.065	197.06
318.295	201.06
318.524	212.06
318.753	212.06
318.983	212.06
319.212	221.06
319.441	224.06
319.67	211.06
319.9	212.06
320.129	198.06
320.358	224.06
320.587	209.06
320.816	211.06
321.046	232.06
321.275	230.06
321.504	219.06
321.733	230.06
321.962	217.06
322.191	240.06
322.42	231.06
322.649	266.06
322.878	264.06
323.108	254.06
323.337	266.06
323.566	282.06
323.795	299.06
324.024	318.06
324.253	376.06
324.482	562.06
324.71	815.06
324.939	1066.06
325.168	895.06
325.397	450.06
325.626	335.06
325.855	276.06
326.084	252.06
326.313	264.06
326.542	266.06
326.77	300.06
326.999	342.06
327.228	483.06
327.457	716.06
327.686	802.06
327.914	538.06
328.143	379.06
328.372	350.06
328.6	323.06
328.829	284.06
329.058	322.06
329.287	328.06
329.515	314.06
329.744	290.06
329.972	280.06
330.201	297.06
330.43	324.06
330.658	351.06
330.887	346.06
331.115	330.06
331.344	293.06
331.572	275.06
331.801	278.06
332.03	300.06
332.258	280.06
332.486	248.06
332.715	227.06
332.943	251.06
333.172	229.06
333.4	270.06
333.629	250.06
333.857	275.06
334.085	278.06
334.314	299.06
334.542	319.06
334.771	349.06
334.999	283.06
335.227	253.06
335.455	260.06
335.684	241.06
335.912	234.06
336.14	236.06
336.369	267.06
336.597	243.06
336.825	244.06
337.053	253.06
337.281	236.06
337.51	249.06
337.738	241.06
337.966	226.06
338.194	235.06
338.422	240.06
338.65	240.06
338.878	225.06
339.106	238.06
339.334	244.06
339.562	229.06
339.79	220.06
340.018	219.06
340.246	230.06
340.474	244.06
340.702	218.06
340.93	215.06
341.158	219.06
341.386	233.06
341.614	217.06
341.842	232.06
342.07	211.06
342.298	217.06
342.526	247.06
342.754	224.06
342.981	234.06
343.209	231.06
343.437	239.06
343.665	234.06
343.893	224.06
344.12	239.06
344.348	219.06
344.576	218.06
344.804	224.06
345.031	235.06
345.259	230.06
345.487	233.06
345.714	228.06
345.942	214.06
346.17	224.06
346.397	239.06
346.625	234.06
346.853	224.06
347.08	238.06
347.308	226.06
347.535	239.06
347.763	234.06
347.99	232.06
348.218	235.06
348.445	240.06
348.673	243.06
348.9	217.06
349.128	202.06
349.355	219.06
349.583	227.06
349.81	218.06
350.037	226.06
350.265	224.06
350.492	215.06
350.72	231.06
350.947	208.06
351.174	225.06
351.402	239.06
351.629	209.06
351.856	211.06
352.083	217.06
352.311	250.06
352.538	237.06
352.765	248.06
352.992	232.06
353.22	231.06
353.447	229.06
353.674	205.06
353.901	215.06
354.128	222.06
354.355	210.06
354.583	231.06
354.81	216.06
355.037	222.06
355.264	230.06
355.491	223.06
355.718	198.06
355.945	214.06
356.172	217.06
356.399	223.06
356.626	209.06
356.853	208.06
357.08	209.06
357.307	214.06
357.534	205.06
357.761	209.06
357.988	210.06
358.215	210.06
358.441	215.06
358.668	215.06
358.895	223.06
359.122	223.06
359.349	235.06
359.576	223.06
359.802	242.06
360.029	257.06
360.256	248.06
360.483	254.06
360.709	236.06
360.936	225.06
361.163	224.06
361.39	248.06
361.616	226.06
361.843	248.06
362.07	237.06
362.296	226.06
362.523	229.06
362.749	232.06
362.976	222.06
363.203	215.06
363.429	210.06
363.656	216.06
363.882	215.06
364.109	220.06
364.335	200.06
364.562	219.06
364.788	211.06
365.015	222.06
365.241	210.06
365.468	209.06
365.694	224.06
365.92	216.06
366.147	206.06
366.373	226.06
366.599	214.06
366.826	226.06
367.052	201.06
367.278	210.06
367.505	231.06
367.731	208.06
367.957	224.06
368.184	209.06
368.41	221.06
368.636	234.06
368.862	235.06
369.089	218.06
369.315	223.06
369.541	212.06
369.767	213.06
369.993	225.06
370.219	207.06
370.445	190.06
370.672	220.06
370.898	205.06
371.124	218.06
371.35	214.06
371.576	215.06
371.802	208.06
372.028	206.06
372.254	209.06
372.48	223.06
372.706	216.06
372.932	212.06
373.158	205.06
373.384	218.06
373.61	208.06
373.835	211.06
374.061	210.06
374.287	228.06
374.513	220.06
374.739	237.06
374.965	211.06
375.191	205.06
375.416	222.06
375.642	202.06
375.868	203.06
376.094	212.06
376.319	197.06
376.545	214.06
376.771	211.06
376.997	199.06
377.222	218.06
377.448	212.06
377.674	192.06
377.899	207.06
378.125	201.06
378.35	197.06
378.576	201.06
378.802	197.06
379.027	214.06
379.253	223.06
379.478	212.06
379.704	203.06
379.929	202.06
380.155	209.06
380.38	224.06
380.606	223.06
380.831	211.06
381.057	200.06
381.282	200.06
381.507	187.06
381.733	222.06
381.958	214.06
382.184	214.06
382.409	196.06
382.634	216.06
382.86	219.06
383.085	215.06
383.31	203.06
383.535	212.06
383.761	221.06
383.986	212.06
384.211	218.06
384.436	220.06
384.662	225.06
384.887	218.06
385.112	224.06
385.337	214.06
385.562	206.06
385.787	217.06
386.013	235.06
386.238	238.06
386.463	246.06
386.688	214.06
386.913	232.06
387.138	212.06
387.363	210.06
387.588	224.06
387.813	219.06
388.038	222.06
388.263	234.06
388.488	227.06
388.713	218.06
388.938	223.06
389.163	215.06
389.387	231.06
389.612	224.06
389.837	223.06
390.062	221.06
390.287	223.06
390.512	225.06
390.736	213.06
390.961	224.06
391.186	224.06
391.411	216.06
391.636	236.06
391.86	234.06
392.085	223.06
392.31	227.06
392.534	228.06
392.759	216.06
392.984	219.06
393.208	239.06
393.433	233.06
393.658	240.06
393.882	219.06
394.107	226.06
394.331	226.06
394.556	215.06
394.78	228.06
395.005	231.06
395.229	214.06
395.454	230.06
395.678	238.06
395.903	237.06
396.127	238.06
396.352	258.06
396.576	241.06
396.801	237.06
397.025	244.06
397.249	236.06
397.474	237.06
397.698	233.06
397.922	245.06
398.147	254.06
398.371	251.06
398.595	253.06
398.82	236.06
399.044	235.06
399.268	266.06
399.492	260.06
399.717	295.06
399.941	297.06
400.165	299.06
400.389	293.06
400.613	282.06
400.837	261.06
401.062	255.06
401.286	246.06
401.51	261.06
401.734	248.06
401.958	256.06
402.182	274.06
402.406	264.06
402.63	266.06
402.854	248.06
403.078	263.06
403.302	251.06
403.526	269.06
403.75	241.06
403.974	249.06
404.198	271.06
404.422	272.06
404.645	275.06
404.869	269.06
405.093	279.06
405.317	303.06
405.541	323.06
405.765	299.06
405.988	294.06
406.212	280.06
406.436	303.06
406.66	299.06
406.883	296.06
407.107	283.06
407.331	291.06
407.555	343.06
407.778	324.06
408.002	306.06
408.226	292.06
408.449	274.06
408.673	283.06
408.896	302.06
409.12	314.06
409.344	287.06
409.567	278.06
409.791	265.06
410.014	255.06
410.238	247.06
410.461	277.06
410.685	286.06
410.908	288.06
411.132	291.06
411.355	293.06
411.578	280.06
411.802	254.06
412.025	256.06
412.249	263.06
412.472	284.06
412.695	291.06
412.919	273.06
413.142	279.06
413.365	270.06
413.589	257.06
413.812	253.06
414.035	242.06
414.258	255.06
414.482	241.06
414.705	247.06
414.928	250.06
415.151	256.06
415.374	257.06
415.597	243.06
415.821	246.06
416.044	246.06
416.267	252.06
416.49	250.06
416.713	265.06
416.936	247.06
417.159	240.06
417.382	236.06
417.605	250.06
417.828	272.06
418.051	267.06
418.274	257.06
418.497	260.06
418.72	247.06
418.943	239.06
419.166	248.06
419.389	266.06
419.611	259.06
419.834	272.06
420.057	261.06
420.28	254.06
420.503	279.06
420.726	275.06
420.948	272.06
421.171	278.06
421.394	297.06
421.617	267.06
421.839	274.06
422.062	272.06
422.285	279.06
422.507	290.06
422.73	316.06
422.953	307.06
423.175	266.06
423.398	249.06
423.621	275.06
423.843	298.06
424.066	290.06
424.288	281.06
424.511	288.06
424.733	317.06
424.956	330.06
425.178	340.06
425.401	325.06
425.623	339.06
425.846	295.06
426.068	272.06
426.291	275.06
426.513	289.06
426.735	280.06
426.958	309.06
427.18	328.06
427.402	378.06
427.625	420.06
427.847	372.06
428.069	341.06
428.292	307.06
428.514	274.06
428.736	256.06
428.958	267.06
429.181	254.06
429.403	258.06
429.625	266.06
429.847	286.06
430.069	312.06
430.292	302.06
430.514	280.06
430.736	258.06
430.958	252.06
431.18	254.06
431.402	255.06
431.624	249.06
431.846	252.06
432.068	246.06
432.29	253.06
432.512	249.06
432.734	262.06
432.956	250.06
433.178	260.06
433.4	238.06
433.622	251.06
433.844	239.06
434.066	257.06
434.287	239.06
434.509	264.06
434.731	266.06
434.953	265.06
435.175	270.06
435.397	264.06
435.618	273.06
435.84	285.06
436.062	328.06
436.284	346.06
436.505	313.06
436.727	284.06
436.949	270.06
437.17	268.06
437.392	274.06
437.614	272.06
437.835	280.06
438.057	328.06
438.278	381.06
438.5	362.06
438.721	380.06
438.943	364.06
439.165	282.06
439.386	286.06
439.608	305.06
439.829	269.06
440.05	310.06
440.272	319.06
440.493	290.06
440.715	262.06
440.936	283.06
441.158	258.06
441.379	241.06
441.6	276.06
441.822	275.06
442.043	294.06
442.264	336.06
442.486	354.06
442.707	299.06
442.928	301.06
443.149	313.06
443.371	311.06
443.592	330.06
443.813	365.06
444.034	384.06
444.255	310.06
444.476	282.06
444.698	286.06
444.919	269.06
445.14	374.06
445.361	345.06
445.582	313.06
445.803	326.06
446.024	375.06
446.245	367.06
446.466	326.06
446.687	288.06
446.908	276.06
447.129	272.06
447.35	268.06
447.571	257.06
447.792	264.06
448.013	266.06
448.234	263.06
448.455	285.06
448.675	334.06
448.896	403.06
449.117	331.06
449.338	323.06
449.559	368.06
449.779	398.06
450	319.06
450.221	283.06
450.442	287.06
450.662	251.06
450.883	259.06
451.104	279.06
451.324	263.06
451.545	244.06
451.766	244.06
451.986	237.06
452.207	240.06
452.428	240.06
452.648	255.06
452.869	227.06
453.089	252.06
453.31	246.06
453.53	253.06
453.751	244.06
453.971	246.06
454.192	260.06
454.412	253.06
454.633	232.06
454.853	241.06
455.073	234.06
455.294	239.06
455.514	303.06
455.734	257.06
455.955	252.06
456.175	241.06
456.395	229.06
456.616	211.06
456.836	222.06
457.056	226.06
457.276	230.06
457.497	236.06
457.717	215.06
457.937	228.06
458.157	236.06
458.377	232.06
458.598	241.06
458.818	292.06
459.038	327.06
459.258	336.06
459.478	267.06
459.698	266.06
459.918	255.06
460.138	246.06
460.358	248.06
460.578	249.06
460.798	246.06
461.018	256.06
461.238	253.06
461.458	250.06
461.678	249.06
461.898	244.06
462.118	236.06
462.338	251.06
462.558	248.06
462.777	260.06
462.997	253.06
463.217	267.06
463.437	285.06
463.657	273.06
463.876	281.06
464.096	243.06
464.316	265.06
464.536	278.06
464.755	267.06
464.975	274.06
465.195	318.06
465.414	354.06
465.634	313.06
465.854	255.06
466.073	261.06
466.293	259.06
466.512	237.06
466.732	236.06
466.951	247.06
467.171	237.06
467.391	250.06
467.61	247.06
467.829	261.06
468.049	247.06
468.268	259.06
468.488	235.06
468.707	237.06
468.927	251.06
469.146	236.06
469.365	242.06
469.585	242.06
469.804	230.06
470.023	255.06
470.243	240.06
470.462	253.06
470.681	264.06
470.901	258.06
471.12	241.06
471.339	248.06
471.558	266.06
471.777	251.06
471.997	238.06
472.216	248.06
472.435	294.06
472.654	281.06
472.873	229.06
473.092	239.06
473.311	239.06
473.53	251.06
473.749	268.06
473.968	290.06
474.187	332.06
474.406	330.06
474.625	262.06
474.844	241.06
475.063	243.06
475.282	237.06
475.501	263.06
475.72	264.06
475.939	260.06
476.158	254.06
476.377	250.06
476.596	236.06
476.814	267.06
477.033	242.06
477.252	250.06
477.471	261.06
477.69	261.06
477.908	264.06
478.127	258.06
478.346	246.06
478.564	279.06
478.783	256.06
479.002	274.06
479.22	274.06
479.439	267.06
479.658	290.06
479.876	291.06
480.095	310.06
480.313	322.06
480.532	303.06
480.751	278.06
480.969	328.06
481.188	366.06
481.406	425.06
481.624	323.06
481.843	310.06
482.061	287.06
482.28	294.06
482.498	271.06
482.717	263.06
482.935	285.06
483.153	291.06
483.372	290.06
483.59	270.06
483.808	292.06
484.027	274.06
484.245	297.06
484.463	283.06
484.681	300.06
484.9	297.06
485.118	318.06
485.336	279.06
485.554	298.06
485.772	291.06
485.99	273.06
486.209	287.06
486.427	274.06
486.645	292.06
486.863	312.06
487.081	306.06
487.299	306.06
487.517	296.06
487.735	311.06
487.953	316.06
488.171	330.06
488.389	302.06
488.607	307.06
488.825	326.06
489.043	311.06
489.261	306.06
489.479	318.06
489.696	326.06
489.914	301.06
490.132	312.06
490.35	324.06
490.568	304.06
490.786	326.06
491.003	327.06
491.221	345.06
491.439	337.06
491.657	315.06
491.874	352.06
492.092	364.06
492.31	363.06
492.527	371.06
492.745	364.06
492.963	365.06
493.18	360.06
493.398	365.06
493.615	362.06
493.833	347.06
494.05	364.06
494.268	361.06
494.485	337.06
494.703	342.06
494.92	368.06
495.138	362.06
495.355	359.06
495.573	363.06
495.79	340.06
496.008	355.06
496.225	366.06
496.442	337.06
496.66	355.06
496.877	357.06
497.094	361.06
497.312	344.06
497.529	359.06
497.746	353.06
497.963	370.06
498.181	371.06
498.398	370.06
498.615	376.06
498.832	366.06
499.049	382.06
499.267	394.06
499.484	407.06
499.701	400.06
499.918	430.06
500.135	435.06
500.352	449.06
500.569	440.06
500.786	474.06
501.003	467.06
501.22	432.06
501.437	446.06
501.654	419.06
501.871	420.06
502.088	408.06
502.305	400.06
