Data from 1966.PennyLincolnUp.Lamp.En5.5.200Scan.071719.P1.Scan2.head_HRD10591_14-18-42-209.txt Node
Date: Thu Jul 18 14:18:42 EDT 2019
User: cochatt
Spectrometer: HR+D1059
Trigger mode: 1
Integration Time (sec): 1.000000E-1
Scans to average: 1
Electric dark correction enabled: true
Nonlinearity correction enabled: false
Boxcar width: 0
XAxis mode: Wavelengths
Number of Pixels in Spectrum: 2048
>>>>>Begin Spectral Data<<<<<
223.165	-10.44
223.4	-10.44
223.635	-10.44
223.869	-9.44
224.104	-8.44
224.338	-15.44
224.573	-19.44
224.808	-25.44
225.042	0.56
225.277	-7.44
225.511	-17.44
225.746	6.56
225.98	-5.44
226.215	12.56
226.449	24.56
226.683	24.56
226.918	23.56
227.152	26.56
227.387	27.56
227.621	31.56
227.856	45.56
228.09	37.56
228.324	40.56
228.559	53.56
228.793	64.56
229.027	107.56
229.262	96.56
229.496	112.56
229.73	137.56
229.964	163.56
230.199	149.56
230.433	129.56
230.667	131.56
230.901	102.56
231.136	110.56
231.37	125.56
231.604	111.56
231.838	112.56
232.072	116.56
232.306	112.56
232.541	128.56
232.775	99.56
233.009	121.56
233.243	109.56
233.477	109.56
233.711	124.56
233.945	119.56
234.179	131.56
234.413	131.56
234.647	139.56
234.881	128.56
235.115	122.56
235.349	128.56
235.583	124.56
235.817	130.56
236.051	129.56
236.285	122.56
236.519	126.56
236.753	132.56
236.987	168.56
237.221	192.56
237.455	248.56
237.689	188.56
237.922	155.56
238.156	135.56
238.39	130.56
238.624	125.56
238.858	125.56
239.091	127.56
239.325	111.56
239.559	128.56
239.793	121.56
240.027	137.56
240.26	150.56
240.494	153.56
240.728	165.56
240.961	156.56
241.195	155.56
241.429	151.56
241.662	145.56
241.896	144.56
242.13	148.56
242.363	143.56
242.597	142.56
242.83	142.56
243.064	138.56
243.298	142.56
243.531	131.56
243.765	150.56
243.998	139.56
244.232	145.56
244.465	138.56
244.699	152.56
244.932	145.56
245.166	150.56
245.399	154.56
245.633	149.56
245.866	160.56
246.099	147.56
246.333	143.56
246.566	151.56
246.8	162.56
247.033	163.56
247.266	170.56
247.5	166.56
247.733	176.56
247.966	181.56
248.2	182.56
248.433	172.56
248.666	179.56
248.899	195.56
249.133	216.56
249.366	228.56
249.599	216.56
249.832	181.56
250.066	186.56
250.299	175.56
250.532	204.56
250.765	202.56
250.998	228.56
251.231	236.56
251.465	213.56
251.698	190.56
251.931	208.56
252.164	202.56
252.397	209.56
252.63	198.56
252.863	207.56
253.096	219.56
253.329	234.56
253.562	230.56
253.795	206.56
254.028	234.56
254.261	238.56
254.494	241.56
254.727	276.56
254.96	280.56
255.193	272.56
255.426	257.56
255.659	254.56
255.892	234.56
256.124	246.56
256.357	260.56
256.59	230.56
256.823	231.56
257.056	218.56
257.289	220.56
257.521	199.56
257.754	214.56
257.987	218.56
258.22	215.56
258.452	205.56
258.685	223.56
258.918	218.56
259.151	223.56
259.383	225.56
259.616	238.56
259.849	253.56
260.081	263.56
260.314	266.56
260.547	265.56
260.779	267.56
261.012	246.56
261.244	231.56
261.477	230.56
261.71	221.56
261.942	235.56
262.175	231.56
262.407	235.56
262.64	210.56
262.872	232.56
263.105	226.56
263.337	228.56
263.57	216.56
263.802	221.56
264.035	233.56
264.267	209.56
264.499	218.56
264.732	222.56
264.964	225.56
265.197	215.56
265.429	223.56
265.661	212.56
265.894	234.56
266.126	233.56
266.358	232.56
266.591	237.56
266.823	234.56
267.055	241.56
267.287	238.56
267.52	229.56
267.752	250.56
267.984	244.56
268.216	223.56
268.448	234.56
268.681	258.56
268.913	260.56
269.145	275.56
269.377	282.56
269.609	276.56
269.841	291.56
270.073	272.56
270.306	299.56
270.538	326.56
270.77	312.56
271.002	326.56
271.234	300.56
271.466	303.56
271.698	325.56
271.93	330.56
272.162	326.56
272.394	309.56
272.626	316.56
272.858	305.56
273.09	290.56
273.322	287.56
273.553	292.56
273.785	266.56
274.017	265.56
274.249	296.56
274.481	292.56
274.713	268.56
274.945	285.56
275.176	276.56
275.408	282.56
275.64	261.56
275.872	280.56
276.104	284.56
276.335	282.56
276.567	298.56
276.799	302.56
277.031	323.56
277.262	323.56
277.494	329.56
277.726	303.56
277.957	305.56
278.189	283.56
278.421	287.56
278.652	260.56
278.884	285.56
279.115	290.56
279.347	274.56
279.579	269.56
279.81	288.56
280.042	266.56
280.273	275.56
280.505	273.56
280.736	279.56
280.968	298.56
281.199	272.56
281.431	280.56
281.662	261.56
281.894	274.56
282.125	280.56
282.356	316.56
282.588	317.56
282.819	329.56
283.051	282.56
283.282	273.56
283.513	270.56
283.745	290.56
283.976	301.56
284.207	294.56
284.439	270.56
284.67	284.56
284.901	278.56
285.132	293.56
285.364	275.56
285.595	300.56
285.826	297.56
286.057	293.56
286.288	300.56
286.52	298.56
286.751	292.56
286.982	282.56
287.213	268.56
287.444	298.56
287.675	306.56
287.906	311.56
288.138	303.56
288.369	312.56
288.6	326.56
288.831	300.56
289.062	314.56
289.293	305.56
289.524	286.56
289.755	305.56
289.986	317.56
290.217	296.56
290.448	310.56
290.679	304.56
290.91	301.56
291.141	283.56
291.371	317.56
291.602	317.56
291.833	295.56
292.064	308.56
292.295	302.56
292.526	312.56
292.757	313.56
292.987	287.56
293.218	293.56
293.449	311.56
293.68	303.56
293.91	305.56
294.141	309.56
294.372	314.56
294.603	303.56
294.833	316.56
295.064	297.56
295.295	305.56
295.525	296.56
295.756	320.56
295.987	318.56
296.217	322.56
296.448	333.56
296.679	319.56
296.909	304.56
297.14	308.56
297.37	316.56
297.601	309.56
297.831	319.56
298.062	330.56
298.292	312.56
298.523	320.56
298.753	309.56
298.984	320.56
299.214	308.56
299.445	301.56
299.675	328.56
299.905	340.56
300.136	328.56
300.366	338.56
300.597	326.56
300.827	337.56
301.057	333.56
301.288	329.56
301.518	336.56
301.748	349.56
301.979	348.56
302.209	331.56
302.439	342.56
302.669	336.56
302.9	331.56
303.13	331.56
303.36	345.56
303.59	340.56
303.82	366.56
304.051	361.56
304.281	358.56
304.511	349.56
304.741	346.56
304.971	360.56
305.201	352.56
305.431	336.56
305.661	345.56
305.891	335.56
306.121	340.56
306.352	351.56
306.582	354.56
306.812	348.56
307.042	348.56
307.272	334.56
307.502	335.56
307.731	349.56
307.961	342.56
308.191	343.56
308.421	343.56
308.651	365.56
308.881	348.56
309.111	352.56
309.341	368.56
309.571	377.56
309.8	368.56
310.03	368.56
310.26	392.56
310.49	398.56
310.72	401.56
310.949	412.56
311.179	420.56
311.409	389.56
311.639	385.56
311.868	379.56
312.098	395.56
312.328	394.56
312.557	406.56
312.787	414.56
313.017	417.56
313.246	404.56
313.476	385.56
313.706	387.56
313.935	396.56
314.165	420.56
314.394	436.56
314.624	393.56
314.853	395.56
315.083	401.56
315.312	406.56
315.542	397.56
315.771	394.56
316.001	392.56
316.23	374.56
316.46	381.56
316.689	389.56
316.919	416.56
317.148	398.56
317.377	410.56
317.607	405.56
317.836	391.56
318.065	415.56
318.295	384.56
318.524	382.56
318.753	394.56
318.983	384.56
319.212	402.56
319.441	408.56
319.67	386.56
319.9	401.56
320.129	399.56
320.358	422.56
320.587	404.56
320.816	395.56
321.046	415.56
321.275	417.56
321.504	404.56
321.733	401.56
321.962	418.56
322.191	431.56
322.42	447.56
322.649	459.56
322.878	465.56
323.108	455.56
323.337	482.56
323.566	515.56
323.795	538.56
324.024	559.56
324.253	717.56
324.482	980.56
324.71	1557.56
324.939	2319.56
325.168	2023.56
325.397	999.56
325.626	668.56
325.855	543.56
326.084	503.56
326.313	504.56
326.542	507.56
326.77	580.56
326.999	665.56
327.228	906.56
327.457	1421.56
327.686	1733.56
327.914	1111.56
328.143	742.56
328.372	635.56
328.6	616.56
328.829	594.56
329.058	579.56
329.287	598.56
329.515	556.56
329.744	529.56
329.972	538.56
330.201	584.56
330.43	591.56
330.658	601.56
330.887	642.56
331.115	619.56
331.344	560.56
331.572	543.56
331.801	521.56
332.03	535.56
332.258	493.56
332.486	484.56
332.715	475.56
332.943	458.56
333.172	472.56
333.4	504.56
333.629	478.56
333.857	490.56
334.085	527.56
334.314	548.56
334.542	569.56
334.771	588.56
334.999	520.56
335.227	521.56
335.455	519.56
335.684	490.56
335.912	479.56
336.14	494.56
336.369	453.56
336.597	484.56
336.825	483.56
337.053	469.56
337.281	469.56
337.51	456.56
337.738	460.56
337.966	469.56
338.194	476.56
338.422	476.56
338.65	470.56
338.878	433.56
339.106	452.56
339.334	453.56
339.562	454.56
339.79	466.56
340.018	458.56
340.246	445.56
340.474	445.56
340.702	443.56
340.93	449.56
341.158	449.56
341.386	440.56
341.614	460.56
341.842	465.56
342.07	455.56
342.298	440.56
342.526	425.56
342.754	430.56
342.981	442.56
343.209	447.56
343.437	448.56
343.665	463.56
343.893	469.56
344.12	488.56
344.348	467.56
344.576	486.56
344.804	477.56
345.031	467.56
345.259	500.56
345.487	469.56
345.714	459.56
345.942	454.56
346.17	444.56
346.397	461.56
346.625	446.56
346.853	443.56
347.08	441.56
347.308	463.56
347.535	461.56
347.763	449.56
347.99	464.56
348.218	439.56
348.445	461.56
348.673	463.56
348.9	449.56
349.128	451.56
349.355	446.56
349.583	421.56
349.81	441.56
350.037	425.56
350.265	423.56
350.492	428.56
350.72	430.56
350.947	425.56
351.174	459.56
351.402	453.56
351.629	451.56
351.856	452.56
352.083	459.56
352.311	477.56
352.538	474.56
352.765	452.56
352.992	451.56
353.22	450.56
353.447	472.56
353.674	455.56
353.901	438.56
354.128	432.56
354.355	433.56
354.583	412.56
354.81	416.56
355.037	440.56
355.264	420.56
355.491	407.56
355.718	428.56
355.945	413.56
356.172	406.56
356.399	431.56
356.626	428.56
356.853	420.56
357.08	428.56
357.307	410.56
357.534	423.56
357.761	417.56
357.988	427.56
358.215	411.56
358.441	437.56
358.668	423.56
358.895	420.56
359.122	431.56
359.349	448.56
359.576	436.56
359.802	457.56
360.029	473.56
360.256	519.56
360.483	489.56
360.709	450.56
360.936	459.56
361.163	461.56
361.39	462.56
361.616	465.56
361.843	471.56
362.07	465.56
362.296	438.56
362.523	438.56
362.749	433.56
362.976	445.56
363.203	440.56
363.429	415.56
363.656	434.56
363.882	432.56
364.109	430.56
364.335	448.56
364.562	426.56
364.788	432.56
365.015	451.56
365.241	433.56
365.468	425.56
365.694	449.56
365.92	452.56
366.147	429.56
366.373	422.56
366.599	448.56
366.826	421.56
367.052	416.56
367.278	425.56
367.505	447.56
367.731	420.56
367.957	440.56
368.184	441.56
368.41	426.56
368.636	455.56
368.862	447.56
369.089	458.56
369.315	432.56
369.541	452.56
369.767	440.56
369.993	434.56
370.219	429.56
370.445	450.56
370.672	456.56
370.898	440.56
371.124	424.56
371.35	434.56
371.576	437.56
371.802	420.56
372.028	464.56
372.254	428.56
372.48	457.56
372.706	448.56
372.932	451.56
373.158	425.56
373.384	452.56
373.61	465.56
373.835	432.56
374.061	456.56
374.287	457.56
374.513	449.56
374.739	463.56
374.965	462.56
375.191	436.56
375.416	468.56
375.642	451.56
375.868	447.56
376.094	432.56
376.319	449.56
376.545	442.56
376.771	445.56
376.997	433.56
377.222	434.56
377.448	430.56
377.674	445.56
377.899	447.56
378.125	424.56
378.35	421.56
378.576	435.56
378.802	444.56
379.027	437.56
379.253	424.56
379.478	446.56
379.704	429.56
379.929	445.56
380.155	430.56
380.38	449.56
380.606	446.56
380.831	455.56
381.057	466.56
381.282	450.56
381.507	446.56
381.733	447.56
381.958	434.56
382.184	445.56
382.409	444.56
382.634	458.56
382.86	438.56
383.085	456.56
383.31	468.56
383.535	469.56
383.761	457.56
383.986	474.56
384.211	462.56
384.436	472.56
384.662	480.56
384.887	505.56
385.112	485.56
385.337	500.56
385.562	472.56
385.787	473.56
386.013	494.56
386.238	482.56
386.463	482.56
386.688	487.56
386.913	485.56
387.138	469.56
387.363	476.56
387.588	477.56
387.813	473.56
388.038	475.56
388.263	484.56
388.488	492.56
388.713	466.56
388.938	471.56
389.163	503.56
389.387	487.56
389.612	495.56
389.837	493.56
390.062	490.56
390.287	489.56
390.512	497.56
390.736	480.56
390.961	482.56
391.186	503.56
391.411	508.56
391.636	493.56
391.86	515.56
392.085	516.56
392.31	513.56
392.534	506.56
392.759	512.56
392.984	507.56
393.208	492.56
393.433	505.56
393.658	511.56
393.882	508.56
394.107	504.56
394.331	524.56
394.556	523.56
394.78	517.56
395.005	506.56
395.229	500.56
395.454	507.56
395.678	534.56
395.903	544.56
396.127	544.56
396.352	537.56
396.576	513.56
396.801	518.56
397.025	546.56
397.249	528.56
397.474	546.56
397.698	540.56
397.922	542.56
398.147	566.56
398.371	572.56
398.595	545.56
398.82	580.56
399.044	578.56
399.268	584.56
399.492	656.56
399.717	667.56
399.941	671.56
400.165	729.56
400.389	726.56
400.613	669.56
400.837	615.56
401.062	579.56
401.286	592.56
401.51	572.56
401.734	559.56
401.958	570.56
402.182	586.56
402.406	582.56
402.63	583.56
402.854	598.56
403.078	596.56
403.302	613.56
403.526	577.56
403.75	615.56
403.974	591.56
404.198	592.56
404.422	609.56
404.645	586.56
404.869	609.56
405.093	642.56
405.317	683.56
405.541	712.56
405.765	676.56
405.988	650.56
406.212	646.56
406.436	656.56
406.66	678.56
406.883	652.56
407.107	656.56
407.331	704.56
407.555	804.56
407.778	800.56
408.002	730.56
408.226	670.56
408.449	660.56
408.673	680.56
408.896	676.56
409.12	737.56
409.344	717.56
409.567	633.56
409.791	622.56
410.014	630.56
410.238	604.56
410.461	612.56
410.685	617.56
410.908	629.56
411.132	666.56
411.355	704.56
411.578	686.56
411.802	641.56
412.025	620.56
412.249	606.56
412.472	649.56
412.695	684.56
412.919	684.56
413.142	615.56
413.365	581.56
413.589	620.56
413.812	614.56
414.035	583.56
414.258	570.56
414.482	574.56
414.705	574.56
414.928	564.56
415.151	564.56
415.374	554.56
415.597	561.56
415.821	573.56
416.044	570.56
416.267	577.56
416.49	554.56
416.713	545.56
416.936	565.56
417.159	569.56
417.382	594.56
417.605	573.56
417.828	567.56
418.051	620.56
418.274	589.56
418.497	570.56
418.72	584.56
418.943	557.56
419.166	588.56
419.389	607.56
419.611	629.56
419.834	640.56
420.057	596.56
420.28	613.56
420.503	619.56
420.726	593.56
420.948	602.56
421.171	660.56
421.394	682.56
421.617	636.56
421.839	607.56
422.062	584.56
422.285	614.56
422.507	672.56
422.73	767.56
422.953	738.56
423.175	655.56
423.398	617.56
423.621	613.56
423.843	664.56
424.066	638.56
424.288	618.56
424.511	652.56
424.733	726.56
424.956	806.56
425.178	760.56
425.401	790.56
425.623	824.56
425.846	730.56
426.068	653.56
426.291	620.56
426.513	635.56
426.735	646.56
426.958	712.56
427.18	778.56
427.402	949.56
427.625	1015.56
427.847	892.56
428.069	780.56
428.292	676.56
428.514	622.56
428.736	583.56
428.958	603.56
429.181	606.56
429.403	571.56
429.625	630.56
429.847	635.56
430.069	732.56
430.292	726.56
430.514	624.56
430.736	592.56
430.958	589.56
431.18	585.56
431.402	576.56
431.624	574.56
431.846	565.56
432.068	561.56
432.29	570.56
432.512	574.56
432.734	561.56
432.956	558.56
433.178	583.56
433.4	580.56
433.622	572.56
433.844	572.56
434.066	567.56
434.287	573.56
434.509	567.56
434.731	592.56
434.953	594.56
435.175	600.56
435.397	633.56
435.618	638.56
435.84	703.56
436.062	804.56
436.284	838.56
436.505	727.56
436.727	623.56
436.949	590.56
437.17	605.56
437.392	577.56
437.614	604.56
437.835	645.56
438.057	768.56
438.278	853.56
438.5	851.56
438.721	983.56
438.943	877.56
439.165	702.56
439.386	660.56
439.608	664.56
439.829	651.56
440.05	648.56
440.272	724.56
440.493	680.56
440.715	620.56
440.936	595.56
441.158	600.56
441.379	575.56
441.6	579.56
441.822	642.56
442.043	694.56
442.264	794.56
442.486	826.56
442.707	715.56
442.928	656.56
443.149	644.56
443.371	679.56
443.592	758.56
443.813	860.56
444.034	908.56
444.255	767.56
444.476	692.56
444.698	658.56
444.919	664.56
445.14	749.56
445.361	694.56
445.582	700.56
445.803	756.56
446.024	862.56
446.245	878.56
446.466	796.56
446.687	684.56
446.908	610.56
447.129	604.56
447.35	586.56
447.571	589.56
447.792	558.56
448.013	565.56
448.234	618.56
448.455	692.56
448.675	786.56
448.896	950.56
449.117	790.56
449.338	760.56
449.559	868.56
449.779	998.56
450	793.56
450.221	633.56
450.442	594.56
450.662	567.56
450.883	578.56
451.104	586.56
451.324	588.56
451.545	533.56
451.766	548.56
451.986	517.56
452.207	510.56
452.428	527.56
452.648	544.56
452.869	513.56
453.089	529.56
453.31	526.56
453.53	545.56
453.751	529.56
453.971	524.56
454.192	525.56
454.412	549.56
454.633	528.56
454.853	520.56
455.073	520.56
455.294	566.56
455.514	641.56
455.734	625.56
455.955	548.56
456.175	501.56
456.395	506.56
456.616	487.56
456.836	502.56
457.056	496.56
457.276	482.56
457.497	494.56
457.717	521.56
457.937	506.56
458.157	497.56
458.377	532.56
458.598	548.56
458.818	601.56
459.038	672.56
459.258	702.56
459.478	602.56
459.698	558.56
459.918	549.56
460.138	590.56
460.358	575.56
460.578	548.56
460.798	576.56
461.018	577.56
461.238	575.56
461.458	571.56
461.678	570.56
461.898	582.56
462.118	572.56
462.338	592.56
462.558	607.56
462.777	608.56
462.997	632.56
463.217	619.56
463.437	644.56
463.657	631.56
463.876	621.56
464.096	600.56
464.316	616.56
464.536	619.56
464.755	624.56
464.975	624.56
465.195	667.56
465.414	730.56
465.634	664.56
465.854	598.56
466.073	592.56
466.293	554.56
466.512	568.56
466.732	553.56
466.951	560.56
467.171	546.56
467.391	528.56
467.61	539.56
467.829	564.56
468.049	556.56
468.268	550.56
468.488	544.56
468.707	542.56
468.927	554.56
469.146	532.56
469.365	548.56
469.585	543.56
469.804	543.56
470.023	567.56
470.243	555.56
470.462	588.56
470.681	605.56
470.901	570.56
471.12	554.56
471.339	547.56
471.558	554.56
471.777	545.56
471.997	564.56
472.216	560.56
472.435	604.56
472.654	568.56
472.873	551.56
473.092	540.56
473.311	559.56
473.53	561.56
473.749	572.56
473.968	590.56
474.187	733.56
474.406	752.56
474.625	612.56
474.844	586.56
475.063	552.56
475.282	545.56
475.501	521.56
475.72	564.56
475.939	548.56
476.158	596.56
476.377	568.56
476.596	570.56
476.814	593.56
477.033	587.56
477.252	573.56
477.471	587.56
477.69	588.56
477.908	604.56
478.127	631.56
478.346	597.56
478.564	612.56
478.783	591.56
479.002	626.56
479.22	664.56
479.439	637.56
479.658	664.56
479.876	656.56
480.095	667.56
480.313	706.56
480.532	676.56
480.751	690.56
480.969	682.56
481.188	757.56
481.406	785.56
481.624	745.56
481.843	685.56
482.061	669.56
482.28	647.56
482.498	668.56
482.717	652.56
482.935	662.56
483.153	638.56
483.372	634.56
483.59	673.56
483.808	677.56
484.027	655.56
484.245	649.56
484.463	656.56
484.681	650.56
484.9	672.56
485.118	660.56
485.336	673.56
485.554	675.56
485.772	680.56
485.99	676.56
486.209	684.56
486.427	700.56
486.645	690.56
486.863	695.56
487.081	680.56
487.299	711.56
487.517	694.56
487.735	701.56
487.953	693.56
488.171	700.56
488.389	701.56
488.607	706.56
488.825	697.56
489.043	692.56
489.261	694.56
489.479	692.56
489.696	728.56
489.914	688.56
490.132	714.56
490.35	723.56
490.568	736.56
490.786	718.56
491.003	752.56
491.221	782.56
491.439	784.56
491.657	806.56
491.874	778.56
492.092	793.56
492.31	815.56
492.527	813.56
492.745	832.56
492.963	836.56
493.18	804.56
493.398	825.56
493.615	830.56
493.833	820.56
494.05	823.56
494.268	824.56
494.485	809.56
494.703	853.56
494.92	832.56
495.138	820.56
495.355	822.56
495.573	831.56
495.79	830.56
496.008	829.56
496.225	821.56
496.442	844.56
496.66	825.56
496.877	844.56
497.094	824.56
497.312	845.56
497.529	829.56
497.746	872.56
497.963	904.56
498.181	894.56
498.398	895.56
498.615	913.56
498.832	943.56
499.049	959.56
499.267	1001.56
499.484	1012.56
499.701	1056.56
499.918	1081.56
500.135	1151.56
500.352	1188.56
500.569	1241.56
500.786	1215.56
501.003	1219.56
501.22	1164.56
501.437	1141.56
501.654	1106.56
