Data from 1966.PennyLincolnUp.Lamp.En5.5.200Scan.071719.P1.Scan2.head_HRD10591_14-18-02-156.txt Node
Date: Thu Jul 18 14:18:02 EDT 2019
User: cochatt
Spectrometer: HR+D1059
Trigger mode: 1
Integration Time (sec): 1.000000E-1
Scans to average: 1
Electric dark correction enabled: true
Nonlinearity correction enabled: false
Boxcar width: 0
XAxis mode: Wavelengths
Number of Pixels in Spectrum: 2048
>>>>>Begin Spectral Data<<<<<
223.165	-11.94
223.4	-11.94
223.635	-11.94
223.869	-5.94
224.104	-21.94
224.338	-14.94
224.573	-2.94
224.808	-19.94
225.042	-9.94
225.277	-13.94
225.511	-15.94
225.746	-3.94
225.98	12.06
226.215	6.06
226.449	19.06
226.683	24.06
226.918	20.06
227.152	40.06
227.387	16.06
227.621	34.06
227.856	42.06
228.09	45.06
228.324	37.06
228.559	55.06
228.793	68.06
229.027	100.06
229.262	114.06
229.496	123.06
229.73	128.06
229.964	169.06
230.199	116.06
230.433	95.06
230.667	111.06
230.901	113.06
231.136	120.06
231.37	110.06
231.604	113.06
231.838	125.06
232.072	119.06
232.306	109.06
232.541	116.06
232.775	118.06
233.009	109.06
233.243	105.06
233.477	99.06
233.711	109.06
233.945	98.06
234.179	108.06
234.413	114.06
234.647	124.06
234.881	129.06
235.115	104.06
235.349	125.06
235.583	116.06
235.817	120.06
236.051	135.06
236.285	126.06
236.519	141.06
236.753	130.06
236.987	141.06
237.221	172.06
237.455	244.06
237.689	181.06
237.922	145.06
238.156	142.06
238.39	130.06
238.624	130.06
238.858	131.06
239.091	130.06
239.325	120.06
239.559	124.06
239.793	125.06
240.027	142.06
240.26	138.06
240.494	166.06
240.728	152.06
240.961	166.06
241.195	149.06
241.429	136.06
241.662	135.06
241.896	129.06
242.13	146.06
242.363	138.06
242.597	122.06
242.83	138.06
243.064	141.06
243.298	160.06
243.531	148.06
243.765	149.06
243.998	140.06
244.232	152.06
244.465	134.06
244.699	142.06
244.932	150.06
245.166	134.06
245.399	153.06
245.633	154.06
245.866	156.06
246.099	147.06
246.333	155.06
246.566	142.06
246.8	146.06
247.033	136.06
247.266	144.06
247.5	158.06
247.733	174.06
247.966	183.06
248.2	176.06
248.433	171.06
248.666	198.06
248.899	178.06
249.133	174.06
249.366	211.06
249.599	199.06
249.832	182.06
250.066	189.06
250.299	200.06
250.532	204.06
250.765	212.06
250.998	217.06
251.231	220.06
251.465	214.06
251.698	198.06
251.931	206.06
252.164	192.06
252.397	194.06
252.63	205.06
252.863	204.06
253.096	201.06
253.329	225.06
253.562	229.06
253.795	211.06
254.028	234.06
254.261	230.06
254.494	224.06
254.727	245.06
254.96	278.06
255.193	271.06
255.426	244.06
255.659	234.06
255.892	218.06
256.124	233.06
256.357	232.06
256.59	231.06
256.823	252.06
257.056	215.06
257.289	215.06
257.521	214.06
257.754	215.06
257.987	191.06
258.22	209.06
258.452	196.06
258.685	216.06
258.918	206.06
259.151	210.06
259.383	220.06
259.616	233.06
259.849	228.06
260.081	233.06
260.314	231.06
260.547	266.06
260.779	229.06
261.012	236.06
261.244	224.06
261.477	231.06
261.71	213.06
261.942	229.06
262.175	234.06
262.407	204.06
262.64	203.06
262.872	225.06
263.105	226.06
263.337	230.06
263.57	219.06
263.802	210.06
264.035	215.06
264.267	194.06
264.499	206.06
264.732	205.06
264.964	214.06
265.197	220.06
265.429	211.06
265.661	203.06
265.894	206.06
266.126	211.06
266.358	194.06
266.591	213.06
266.823	228.06
267.055	216.06
267.287	222.06
267.52	228.06
267.752	235.06
267.984	223.06
268.216	233.06
268.448	232.06
268.681	236.06
268.913	234.06
269.145	247.06
269.377	260.06
269.609	253.06
269.841	249.06
270.073	255.06
270.306	300.06
270.538	297.06
270.77	329.06
271.002	284.06
271.234	276.06
271.466	286.06
271.698	301.06
271.93	308.06
272.162	320.06
272.394	333.06
272.626	299.06
272.858	302.06
273.09	287.06
273.322	279.06
273.553	264.06
273.785	280.06
274.017	270.06
274.249	276.06
274.481	251.06
274.713	263.06
274.945	264.06
275.176	270.06
275.408	269.06
275.64	259.06
275.872	266.06
276.104	255.06
276.335	266.06
276.567	264.06
276.799	294.06
277.031	304.06
277.262	321.06
277.494	300.06
277.726	301.06
277.957	284.06
278.189	279.06
278.421	280.06
278.652	269.06
278.884	282.06
279.115	262.06
279.347	286.06
279.579	281.06
279.81	255.06
280.042	271.06
280.273	279.06
280.505	274.06
280.736	261.06
280.968	259.06
281.199	270.06
281.431	280.06
281.662	254.06
281.894	283.06
282.125	280.06
282.356	264.06
282.588	311.06
282.819	319.06
283.051	302.06
283.282	258.06
283.513	282.06
283.745	262.06
283.976	282.06
284.207	292.06
284.439	288.06
284.67	293.06
284.901	285.06
285.132	270.06
285.364	284.06
285.595	274.06
285.826	269.06
286.057	276.06
286.288	291.06
286.52	290.06
286.751	297.06
286.982	286.06
287.213	287.06
287.444	277.06
287.675	296.06
287.906	298.06
288.138	306.06
288.369	316.06
288.6	306.06
288.831	289.06
289.062	288.06
289.293	288.06
289.524	306.06
289.755	286.06
289.986	299.06
290.217	274.06
290.448	284.06
290.679	301.06
290.91	320.06
291.141	302.06
291.371	286.06
291.602	291.06
291.833	286.06
292.064	298.06
292.295	290.06
292.526	304.06
292.757	277.06
292.987	290.06
293.218	279.06
293.449	295.06
293.68	296.06
293.91	297.06
294.141	283.06
294.372	263.06
294.603	290.06
294.833	290.06
295.064	298.06
295.295	276.06
295.525	284.06
295.756	309.06
295.987	330.06
296.217	340.06
296.448	353.06
296.679	308.06
296.909	319.06
297.14	310.06
297.37	302.06
297.601	302.06
297.831	303.06
298.062	302.06
298.292	324.06
298.523	314.06
298.753	310.06
298.984	322.06
299.214	310.06
299.445	316.06
299.675	287.06
299.905	311.06
300.136	306.06
300.366	319.06
300.597	309.06
300.827	317.06
301.057	324.06
301.288	310.06
301.518	335.06
301.748	340.06
301.979	343.06
302.209	343.06
302.439	339.06
302.669	329.06
302.9	333.06
303.13	332.06
303.36	330.06
303.59	325.06
303.82	336.06
304.051	314.06
304.281	329.06
304.511	321.06
304.741	336.06
304.971	327.06
305.201	331.06
305.431	330.06
305.661	351.06
305.891	307.06
306.121	323.06
306.352	342.06
306.582	348.06
306.812	337.06
307.042	332.06
307.272	316.06
307.502	323.06
307.731	328.06
307.961	346.06
308.191	331.06
308.421	355.06
308.651	347.06
308.881	358.06
309.111	338.06
309.341	366.06
309.571	342.06
309.8	373.06
310.03	360.06
310.26	356.06
310.49	364.06
310.72	383.06
310.949	385.06
311.179	394.06
311.409	382.06
311.639	384.06
311.868	385.06
312.098	380.06
312.328	377.06
312.557	384.06
312.787	415.06
313.017	419.06
313.246	399.06
313.476	378.06
313.706	386.06
313.935	382.06
314.165	395.06
314.394	401.06
314.624	399.06
314.853	392.06
315.083	388.06
315.312	378.06
315.542	400.06
315.771	364.06
316.001	394.06
316.23	380.06
316.46	385.06
316.689	366.06
316.919	370.06
317.148	376.06
317.377	401.06
317.607	377.06
317.836	384.06
318.065	386.06
318.295	372.06
318.524	377.06
318.753	363.06
318.983	382.06
319.212	420.06
319.441	389.06
319.67	380.06
319.9	395.06
320.129	380.06
320.358	379.06
320.587	401.06
320.816	381.06
321.046	407.06
321.275	383.06
321.504	388.06
321.733	416.06
321.962	393.06
322.191	419.06
322.42	438.06
322.649	447.06
322.878	442.06
323.108	463.06
323.337	456.06
323.566	487.06
323.795	516.06
324.024	538.06
324.253	641.06
324.482	920.06
324.71	1418.06
324.939	2167.06
325.168	1875.06
325.397	947.06
325.626	620.06
325.855	552.06
326.084	519.06
326.313	490.06
326.542	492.06
326.77	550.06
326.999	628.06
327.228	840.06
327.457	1310.06
327.686	1652.06
327.914	1062.06
328.143	701.06
328.372	632.06
328.6	572.06
328.829	535.06
329.058	579.06
329.287	580.06
329.515	546.06
329.744	546.06
329.972	498.06
330.201	535.06
330.43	558.06
330.658	602.06
330.887	604.06
331.115	590.06
331.344	532.06
331.572	502.06
331.801	484.06
332.03	486.06
332.258	477.06
332.486	430.06
332.715	452.06
332.943	454.06
333.172	479.06
333.4	468.06
333.629	468.06
333.857	485.06
334.085	519.06
334.314	509.06
334.542	548.06
334.771	557.06
334.999	505.06
335.227	481.06
335.455	459.06
335.684	452.06
335.912	448.06
336.14	467.06
336.369	443.06
336.597	442.06
336.825	476.06
337.053	469.06
337.281	440.06
337.51	458.06
337.738	462.06
337.966	446.06
338.194	445.06
338.422	454.06
338.65	444.06
338.878	460.06
339.106	438.06
339.334	449.06
339.562	438.06
339.79	460.06
340.018	456.06
340.246	442.06
340.474	443.06
340.702	437.06
340.93	432.06
341.158	456.06
341.386	448.06
341.614	445.06
341.842	435.06
342.07	424.06
342.298	426.06
342.526	439.06
342.754	425.06
342.981	424.06
343.209	426.06
343.437	430.06
343.665	439.06
343.893	455.06
344.12	447.06
344.348	439.06
344.576	461.06
344.804	451.06
345.031	458.06
345.259	467.06
345.487	440.06
345.714	433.06
345.942	436.06
346.17	438.06
346.397	416.06
346.625	439.06
346.853	430.06
347.08	440.06
347.308	440.06
347.535	423.06
347.763	434.06
347.99	430.06
348.218	439.06
348.445	446.06
348.673	447.06
348.9	433.06
349.128	421.06
349.355	416.06
349.583	391.06
349.81	427.06
350.037	433.06
350.265	412.06
350.492	436.06
350.72	429.06
350.947	401.06
351.174	443.06
351.402	433.06
351.629	446.06
351.856	429.06
352.083	411.06
352.311	428.06
352.538	444.06
352.765	447.06
352.992	428.06
353.22	438.06
353.447	448.06
353.674	433.06
353.901	419.06
354.128	408.06
354.355	416.06
354.583	399.06
354.81	412.06
355.037	380.06
355.264	409.06
355.491	405.06
355.718	414.06
355.945	391.06
356.172	397.06
356.399	393.06
356.626	378.06
356.853	429.06
357.08	412.06
357.307	398.06
357.534	408.06
357.761	405.06
357.988	404.06
358.215	389.06
358.441	400.06
358.668	399.06
358.895	416.06
359.122	395.06
359.349	428.06
359.576	435.06
359.802	455.06
360.029	497.06
360.256	486.06
360.483	457.06
360.709	450.06
360.936	448.06
361.163	443.06
361.39	444.06
361.616	444.06
361.843	448.06
362.07	438.06
362.296	431.06
362.523	430.06
362.749	432.06
362.976	410.06
363.203	443.06
363.429	435.06
363.656	448.06
363.882	421.06
364.109	408.06
364.335	414.06
364.562	431.06
364.788	401.06
365.015	412.06
365.241	434.06
365.468	414.06
365.694	421.06
365.92	429.06
366.147	400.06
366.373	402.06
366.599	441.06
366.826	419.06
367.052	398.06
367.278	410.06
367.505	412.06
367.731	437.06
367.957	421.06
368.184	422.06
368.41	433.06
368.636	435.06
368.862	446.06
369.089	436.06
369.315	410.06
369.541	428.06
369.767	416.06
369.993	433.06
370.219	430.06
370.445	437.06
370.672	420.06
370.898	426.06
371.124	406.06
371.35	419.06
371.576	420.06
371.802	427.06
372.028	416.06
372.254	422.06
372.48	428.06
372.706	406.06
372.932	425.06
373.158	425.06
373.384	448.06
373.61	430.06
373.835	442.06
374.061	422.06
374.287	429.06
374.513	414.06
374.739	428.06
374.965	425.06
375.191	459.06
375.416	426.06
375.642	436.06
375.868	448.06
376.094	445.06
376.319	434.06
376.545	435.06
376.771	446.06
376.997	418.06
377.222	410.06
377.448	438.06
377.674	445.06
377.899	419.06
378.125	423.06
378.35	424.06
378.576	414.06
378.802	431.06
379.027	407.06
379.253	434.06
379.478	428.06
379.704	417.06
379.929	414.06
380.155	438.06
380.38	434.06
380.606	428.06
380.831	432.06
381.057	443.06
381.282	430.06
381.507	432.06
381.733	433.06
381.958	442.06
382.184	452.06
382.409	457.06
382.634	447.06
382.86	431.06
383.085	436.06
383.31	442.06
383.535	450.06
383.761	442.06
383.986	450.06
384.211	472.06
384.436	440.06
384.662	452.06
384.887	465.06
385.112	473.06
385.337	462.06
385.562	450.06
385.787	481.06
386.013	466.06
386.238	492.06
386.463	469.06
386.688	470.06
386.913	471.06
387.138	479.06
387.363	477.06
387.588	474.06
387.813	491.06
388.038	468.06
388.263	467.06
388.488	470.06
388.713	464.06
388.938	487.06
389.163	483.06
389.387	474.06
389.612	471.06
389.837	475.06
390.062	485.06
390.287	478.06
390.512	442.06
390.736	472.06
390.961	492.06
391.186	474.06
391.411	487.06
391.636	476.06
391.86	496.06
392.085	504.06
392.31	506.06
392.534	505.06
392.759	482.06
392.984	483.06
393.208	491.06
393.433	477.06
393.658	497.06
393.882	462.06
394.107	479.06
394.331	500.06
394.556	478.06
394.78	490.06
395.005	471.06
395.229	478.06
395.454	484.06
395.678	489.06
395.903	510.06
396.127	537.06
396.352	543.06
396.576	498.06
396.801	486.06
397.025	495.06
397.249	504.06
397.474	494.06
397.698	519.06
397.922	544.06
398.147	520.06
398.371	532.06
398.595	532.06
398.82	546.06
399.044	557.06
399.268	580.06
399.492	600.06
399.717	650.06
399.941	662.06
400.165	685.06
400.389	695.06
400.613	645.06
400.837	590.06
401.062	564.06
401.286	545.06
401.51	566.06
401.734	549.06
401.958	554.06
402.182	568.06
402.406	556.06
402.63	581.06
402.854	576.06
403.078	563.06
403.302	578.06
403.526	601.06
403.75	592.06
403.974	570.06
404.198	586.06
404.422	576.06
404.645	584.06
404.869	599.06
405.093	624.06
405.317	680.06
405.541	687.06
405.765	639.06
405.988	613.06
406.212	613.06
406.436	639.06
406.66	650.06
406.883	615.06
407.107	631.06
407.331	707.06
407.555	783.06
407.778	750.06
408.002	713.06
408.226	658.06
408.449	644.06
408.673	632.06
408.896	659.06
409.12	698.06
409.344	681.06
409.567	614.06
409.791	589.06
410.014	577.06
410.238	580.06
410.461	589.06
410.685	599.06
410.908	607.06
411.132	645.06
411.355	668.06
411.578	641.06
411.802	606.06
412.025	580.06
412.249	592.06
412.472	605.06
412.695	659.06
412.919	654.06
413.142	598.06
413.365	589.06
413.589	546.06
413.812	552.06
414.035	547.06
414.258	542.06
414.482	554.06
414.705	566.06
414.928	568.06
415.151	557.06
415.374	530.06
415.597	537.06
415.821	519.06
416.044	562.06
416.267	542.06
416.49	549.06
416.713	556.06
416.936	558.06
417.159	527.06
417.382	567.06
417.605	541.06
417.828	565.06
418.051	573.06
418.274	579.06
418.497	561.06
418.72	549.06
418.943	534.06
419.166	578.06
419.389	589.06
419.611	584.06
419.834	584.06
420.057	602.06
420.28	568.06
420.503	570.06
420.726	582.06
420.948	567.06
421.171	620.06
421.394	665.06
421.617	587.06
421.839	580.06
422.062	596.06
422.285	592.06
422.507	660.06
422.73	703.06
422.953	702.06
423.175	610.06
423.398	619.06
423.621	607.06
423.843	627.06
424.066	613.06
424.288	632.06
424.511	651.06
424.733	681.06
424.956	803.06
425.178	744.06
425.401	755.06
425.623	759.06
425.846	669.06
426.068	636.06
426.291	607.06
426.513	589.06
426.735	624.06
426.958	647.06
427.18	738.06
427.402	884.06
427.625	970.06
427.847	859.06
428.069	758.06
428.292	676.06
428.514	589.06
428.736	587.06
428.958	584.06
429.181	569.06
429.403	557.06
429.625	564.06
429.847	607.06
430.069	692.06
430.292	686.06
430.514	614.06
430.736	555.06
430.958	545.06
431.18	554.06
431.402	527.06
431.624	525.06
431.846	527.06
432.068	528.06
432.29	529.06
432.512	524.06
432.734	553.06
432.956	548.06
433.178	548.06
433.4	549.06
433.622	536.06
433.844	537.06
434.066	544.06
434.287	570.06
434.509	536.06
434.731	542.06
434.953	578.06
435.175	565.06
435.397	600.06
435.618	610.06
435.84	682.06
436.062	758.06
436.284	844.06
436.505	686.06
436.727	627.06
436.949	598.06
437.17	586.06
437.392	562.06
437.614	584.06
437.835	618.06
438.057	719.06
438.278	852.06
438.5	831.06
438.721	898.06
438.943	842.06
439.165	674.06
439.386	630.06
439.608	638.06
439.829	627.06
440.05	658.06
440.272	689.06
440.493	670.06
440.715	604.06
440.936	556.06
441.158	591.06
441.379	569.06
441.6	607.06
441.822	592.06
442.043	648.06
442.264	742.06
442.486	788.06
442.707	687.06
442.928	632.06
443.149	641.06
443.371	669.06
443.592	715.06
443.813	814.06
444.034	888.06
444.255	711.06
444.476	657.06
444.698	626.06
444.919	606.06
445.14	747.06
445.361	696.06
445.582	682.06
445.803	734.06
446.024	831.06
446.245	852.06
446.466	783.06
446.687	641.06
446.908	603.06
447.129	587.06
447.35	567.06
447.571	558.06
447.792	548.06
448.013	574.06
448.234	598.06
448.455	643.06
448.675	760.06
448.896	905.06
449.117	764.06
449.338	704.06
449.559	853.06
449.779	924.06
450	734.06
450.221	637.06
450.442	595.06
450.662	565.06
450.883	570.06
451.104	584.06
451.324	586.06
451.545	545.06
451.766	536.06
451.986	519.06
452.207	520.06
452.428	482.06
452.648	525.06
452.869	500.06
453.089	526.06
453.31	533.06
453.53	532.06
453.751	501.06
453.971	514.06
454.192	510.06
454.412	527.06
454.633	510.06
454.853	490.06
455.073	490.06
455.294	534.06
455.514	612.06
455.734	568.06
455.955	516.06
456.175	497.06
456.395	485.06
456.616	480.06
456.836	508.06
457.056	475.06
457.276	476.06
457.497	474.06
457.717	509.06
457.937	495.06
458.157	491.06
458.377	507.06
458.598	528.06
458.818	570.06
459.038	652.06
459.258	703.06
459.478	591.06
459.698	563.06
459.918	541.06
460.138	536.06
460.358	542.06
460.578	559.06
460.798	571.06
461.018	555.06
461.238	567.06
461.458	556.06
461.678	542.06
461.898	579.06
462.118	559.06
462.338	560.06
462.558	587.06
462.777	591.06
462.997	600.06
463.217	608.06
463.437	627.06
463.657	598.06
463.876	596.06
464.096	598.06
464.316	577.06
464.536	591.06
464.755	578.06
464.975	594.06
465.195	625.06
465.414	716.06
465.634	646.06
465.854	605.06
466.073	562.06
466.293	546.06
466.512	535.06
466.732	535.06
466.951	522.06
467.171	532.06
467.391	516.06
467.61	536.06
467.829	529.06
468.049	530.06
468.268	550.06
468.488	516.06
468.707	529.06
468.927	511.06
469.146	491.06
469.365	525.06
469.585	512.06
469.804	538.06
470.023	551.06
470.243	526.06
470.462	500.06
470.681	555.06
470.901	538.06
471.12	542.06
471.339	532.06
471.558	540.06
471.777	551.06
471.997	518.06
472.216	534.06
472.435	574.06
472.654	570.06
472.873	550.06
473.092	520.06
473.311	546.06
473.53	528.06
473.749	531.06
473.968	591.06
474.187	682.06
474.406	717.06
474.625	578.06
474.844	554.06
475.063	534.06
475.282	533.06
475.501	539.06
475.72	550.06
475.939	538.06
476.158	566.06
476.377	553.06
476.596	548.06
476.814	552.06
477.033	577.06
477.252	567.06
477.471	575.06
477.69	569.06
477.908	589.06
478.127	584.06
478.346	598.06
478.564	570.06
478.783	595.06
479.002	612.06
479.22	614.06
479.439	625.06
479.658	640.06
479.876	636.06
480.095	633.06
480.313	677.06
480.532	676.06
480.751	639.06
480.969	680.06
481.188	704.06
481.406	752.06
481.624	688.06
481.843	667.06
482.061	636.06
482.28	632.06
482.498	632.06
482.717	641.06
482.935	631.06
483.153	638.06
483.372	624.06
483.59	636.06
483.808	639.06
484.027	649.06
484.245	638.06
484.463	630.06
484.681	635.06
484.9	623.06
485.118	671.06
485.336	639.06
485.554	652.06
485.772	635.06
485.99	649.06
486.209	645.06
486.427	638.06
486.645	669.06
486.863	653.06
487.081	691.06
487.299	678.06
487.517	693.06
487.735	664.06
487.953	676.06
488.171	677.06
488.389	664.06
488.607	664.06
488.825	676.06
489.043	691.06
489.261	671.06
489.479	692.06
489.696	714.06
489.914	716.06
490.132	692.06
490.35	732.06
490.568	700.06
490.786	719.06
491.003	722.06
491.221	770.06
491.439	741.06
491.657	746.06
491.874	771.06
492.092	763.06
492.31	783.06
492.527	773.06
492.745	773.06
492.963	782.06
493.18	802.06
493.398	790.06
493.615	796.06
493.833	798.06
494.05	793.06
494.268	814.06
494.485	779.06
494.703	781.06
494.92	811.06
495.138	800.06
495.355	811.06
495.573	833.06
495.79	824.06
496.008	788.06
496.225	840.06
496.442	805.06
496.66	800.06
496.877	799.06
497.094	818.06
497.312	808.06
497.529	831.06
497.746	824.06
497.963	852.06
498.181	880.06
498.398	888.06
498.615	934.06
498.832	939.06
499.049	927.06
499.267	958.06
499.484	996.06
499.701	1027.06
499.918	1050.06
500.135	1089.06
500.352	1132.06
500.569	1175.06
500.786	1220.06
501.003	1157.06
501.22	1109.06
501.437	1057.06
501.654	1055.06
