Data from 1966.PennyLincolnUp.Lamp.En5.5.200Scan.071719.P1.Scan2.head_HRD10591_14-19-12-248.txt Node
Date: Thu Jul 18 14:19:12 EDT 2019
User: cochatt
Spectrometer: HR+D1059
Trigger mode: 1
Integration Time (sec): 1.000000E-1
Scans to average: 1
Electric dark correction enabled: true
Nonlinearity correction enabled: false
Boxcar width: 0
XAxis mode: Wavelengths
Number of Pixels in Spectrum: 2048
>>>>>Begin Spectral Data<<<<<
223.165	-11.75
223.4	-11.75
223.635	-11.75
223.869	-10.75
224.104	-19.75
224.338	-16.75
224.573	-21.75
224.808	-5.75
225.042	-16.75
225.277	-6.75
225.511	-3.75
225.746	-7.75
225.98	10.25
226.215	14.25
226.449	15.25
226.683	26.25
226.918	23.25
227.152	32.25
227.387	30.25
227.621	34.25
227.856	29.25
228.09	44.25
228.324	66.25
228.559	53.25
228.793	70.25
229.027	106.25
229.262	114.25
229.496	116.25
229.73	139.25
229.964	171.25
230.199	140.25
230.433	118.25
230.667	94.25
230.901	112.25
231.136	121.25
231.37	117.25
231.604	132.25
231.838	109.25
232.072	119.25
232.306	114.25
232.541	121.25
232.775	110.25
233.009	123.25
233.243	129.25
233.477	112.25
233.711	111.25
233.945	119.25
234.179	123.25
234.413	119.25
234.647	116.25
234.881	109.25
235.115	126.25
235.349	128.25
235.583	136.25
235.817	138.25
236.051	125.25
236.285	136.25
236.519	121.25
236.753	126.25
236.987	152.25
237.221	175.25
237.455	236.25
237.689	196.25
237.922	142.25
238.156	143.25
238.39	130.25
238.624	125.25
238.858	120.25
239.091	130.25
239.325	124.25
239.559	131.25
239.793	146.25
240.027	135.25
240.26	142.25
240.494	160.25
240.728	147.25
240.961	164.25
241.195	152.25
241.429	154.25
241.662	144.25
241.896	144.25
242.13	134.25
242.363	139.25
242.597	130.25
242.83	138.25
243.064	141.25
243.298	148.25
243.531	155.25
243.765	134.25
243.998	150.25
244.232	129.25
244.465	150.25
244.699	166.25
244.932	158.25
245.166	147.25
245.399	149.25
245.633	153.25
245.866	150.25
246.099	151.25
246.333	162.25
246.566	166.25
246.8	152.25
247.033	151.25
247.266	157.25
247.5	164.25
247.733	175.25
247.966	174.25
248.2	182.25
248.433	171.25
248.666	174.25
248.899	186.25
249.133	220.25
249.366	212.25
249.599	187.25
249.832	190.25
250.066	180.25
250.299	189.25
250.532	205.25
250.765	204.25
250.998	233.25
251.231	246.25
251.465	230.25
251.698	216.25
251.931	198.25
252.164	192.25
252.397	198.25
252.63	214.25
252.863	207.25
253.096	230.25
253.329	236.25
253.562	227.25
253.795	232.25
254.028	224.25
254.261	203.25
254.494	227.25
254.727	266.25
254.96	288.25
255.193	279.25
255.426	247.25
255.659	242.25
255.892	252.25
256.124	237.25
256.357	243.25
256.59	246.25
256.823	226.25
257.056	221.25
257.289	221.25
257.521	201.25
257.754	211.25
257.987	212.25
258.22	207.25
258.452	210.25
258.685	201.25
258.918	214.25
259.151	213.25
259.383	226.25
259.616	242.25
259.849	233.25
260.081	256.25
260.314	246.25
260.547	275.25
260.779	272.25
261.012	233.25
261.244	214.25
261.477	218.25
261.71	226.25
261.942	242.25
262.175	245.25
262.407	239.25
262.64	220.25
262.872	206.25
263.105	207.25
263.337	233.25
263.57	207.25
263.802	218.25
264.035	230.25
264.267	219.25
264.499	208.25
264.732	235.25
264.964	211.25
265.197	213.25
265.429	199.25
265.661	212.25
265.894	234.25
266.126	223.25
266.358	216.25
266.591	236.25
266.823	225.25
267.055	242.25
267.287	250.25
267.52	233.25
267.752	251.25
267.984	236.25
268.216	230.25
268.448	231.25
268.681	263.25
268.913	263.25
269.145	282.25
269.377	287.25
269.609	287.25
269.841	284.25
270.073	282.25
270.306	296.25
270.538	316.25
270.77	318.25
271.002	304.25
271.234	299.25
271.466	297.25
271.698	330.25
271.93	332.25
272.162	311.25
272.394	327.25
272.626	318.25
272.858	303.25
273.09	270.25
273.322	285.25
273.553	262.25
273.785	283.25
274.017	263.25
274.249	272.25
274.481	272.25
274.713	292.25
274.945	267.25
275.176	268.25
275.408	270.25
275.64	272.25
275.872	243.25
276.104	260.25
276.335	270.25
276.567	278.25
276.799	268.25
277.031	303.25
277.262	313.25
277.494	348.25
277.726	318.25
277.957	297.25
278.189	278.25
278.421	293.25
278.652	288.25
278.884	262.25
279.115	276.25
279.347	287.25
279.579	285.25
279.81	269.25
280.042	281.25
280.273	292.25
280.505	280.25
280.736	254.25
280.968	262.25
281.199	279.25
281.431	272.25
281.662	277.25
281.894	287.25
282.125	271.25
282.356	303.25
282.588	308.25
282.819	314.25
283.051	293.25
283.282	274.25
283.513	284.25
283.745	278.25
283.976	284.25
284.207	278.25
284.439	292.25
284.67	294.25
284.901	294.25
285.132	307.25
285.364	297.25
285.595	276.25
285.826	281.25
286.057	298.25
286.288	288.25
286.52	290.25
286.751	289.25
286.982	295.25
287.213	284.25
287.444	292.25
287.675	290.25
287.906	320.25
288.138	294.25
288.369	308.25
288.6	313.25
288.831	314.25
289.062	319.25
289.293	308.25
289.524	320.25
289.755	297.25
289.986	301.25
290.217	299.25
290.448	302.25
290.679	309.25
290.91	294.25
291.141	296.25
291.371	300.25
291.602	303.25
291.833	281.25
292.064	302.25
292.295	307.25
292.526	301.25
292.757	293.25
292.987	288.25
293.218	311.25
293.449	317.25
293.68	314.25
293.91	306.25
294.141	295.25
294.372	297.25
294.603	304.25
294.833	299.25
295.064	305.25
295.295	292.25
295.525	314.25
295.756	302.25
295.987	298.25
296.217	334.25
296.448	336.25
296.679	318.25
296.909	306.25
297.14	310.25
297.37	316.25
297.601	317.25
297.831	310.25
298.062	304.25
298.292	324.25
298.523	332.25
298.753	324.25
298.984	326.25
299.214	315.25
299.445	312.25
299.675	328.25
299.905	335.25
300.136	326.25
300.366	336.25
300.597	321.25
300.827	335.25
301.057	327.25
301.288	342.25
301.518	328.25
301.748	328.25
301.979	342.25
302.209	339.25
302.439	343.25
302.669	343.25
302.9	344.25
303.13	341.25
303.36	339.25
303.59	349.25
303.82	356.25
304.051	346.25
304.281	343.25
304.511	338.25
304.741	331.25
304.971	342.25
305.201	331.25
305.431	310.25
305.661	327.25
305.891	332.25
306.121	340.25
306.352	349.25
306.582	353.25
306.812	339.25
307.042	342.25
307.272	340.25
307.502	341.25
307.731	338.25
307.961	343.25
308.191	345.25
308.421	355.25
308.651	352.25
308.881	350.25
309.111	360.25
309.341	350.25
309.571	371.25
309.8	382.25
310.03	367.25
310.26	394.25
310.49	377.25
310.72	389.25
310.949	418.25
311.179	441.25
311.409	394.25
311.639	390.25
311.868	382.25
312.098	395.25
312.328	402.25
312.557	418.25
312.787	418.25
313.017	428.25
313.246	400.25
313.476	379.25
313.706	401.25
313.935	404.25
314.165	410.25
314.394	416.25
314.624	401.25
314.853	397.25
315.083	392.25
315.312	399.25
315.542	390.25
315.771	391.25
316.001	380.25
316.23	388.25
316.46	401.25
316.689	388.25
316.919	401.25
317.148	388.25
317.377	405.25
317.607	397.25
317.836	400.25
318.065	391.25
318.295	404.25
318.524	387.25
318.753	392.25
318.983	372.25
319.212	387.25
319.441	404.25
319.67	406.25
319.9	386.25
320.129	389.25
320.358	394.25
320.587	390.25
320.816	404.25
321.046	411.25
321.275	419.25
321.504	411.25
321.733	427.25
321.962	453.25
322.191	426.25
322.42	447.25
322.649	437.25
322.878	450.25
323.108	467.25
323.337	479.25
323.566	501.25
323.795	539.25
324.024	601.25
324.253	694.25
324.482	969.25
324.71	1572.25
324.939	2336.25
325.168	2022.25
325.397	992.25
325.626	664.25
325.855	559.25
326.084	538.25
326.313	508.25
326.542	528.25
326.77	550.25
326.999	668.25
327.228	893.25
327.457	1412.25
327.686	1748.25
327.914	1163.25
328.143	749.25
328.372	628.25
328.6	590.25
328.829	587.25
329.058	598.25
329.287	615.25
329.515	568.25
329.744	538.25
329.972	536.25
330.201	569.25
330.43	590.25
330.658	626.25
330.887	623.25
331.115	623.25
331.344	552.25
331.572	506.25
331.801	526.25
332.03	522.25
332.258	499.25
332.486	474.25
332.715	473.25
332.943	473.25
333.172	483.25
333.4	495.25
333.629	502.25
333.857	510.25
334.085	520.25
334.314	532.25
334.542	592.25
334.771	600.25
334.999	536.25
335.227	500.25
335.455	495.25
335.684	476.25
335.912	482.25
336.14	477.25
336.369	455.25
336.597	470.25
336.825	480.25
337.053	468.25
337.281	457.25
337.51	469.25
337.738	478.25
337.966	452.25
338.194	463.25
338.422	472.25
338.65	466.25
338.878	463.25
339.106	457.25
339.334	444.25
339.562	440.25
339.79	458.25
340.018	469.25
340.246	462.25
340.474	436.25
340.702	454.25
340.93	456.25
341.158	459.25
341.386	466.25
341.614	464.25
341.842	476.25
342.07	440.25
342.298	445.25
342.526	471.25
342.754	446.25
342.981	438.25
343.209	441.25
343.437	445.25
343.665	447.25
343.893	444.25
344.12	481.25
344.348	478.25
344.576	476.25
344.804	472.25
345.031	464.25
345.259	481.25
345.487	482.25
345.714	472.25
345.942	469.25
346.17	458.25
346.397	462.25
346.625	466.25
346.853	452.25
347.08	448.25
347.308	448.25
347.535	464.25
347.763	471.25
347.99	448.25
348.218	462.25
348.445	462.25
348.673	453.25
348.9	437.25
349.128	462.25
349.355	437.25
349.583	424.25
349.81	430.25
350.037	423.25
350.265	426.25
350.492	414.25
350.72	427.25
350.947	443.25
351.174	442.25
351.402	457.25
351.629	450.25
351.856	435.25
352.083	459.25
352.311	459.25
352.538	456.25
352.765	443.25
352.992	439.25
353.22	442.25
353.447	448.25
353.674	444.25
353.901	425.25
354.128	454.25
354.355	420.25
354.583	428.25
354.81	414.25
355.037	413.25
355.264	417.25
355.491	423.25
355.718	423.25
355.945	421.25
356.172	424.25
356.399	448.25
356.626	422.25
356.853	402.25
357.08	418.25
357.307	429.25
357.534	395.25
357.761	426.25
357.988	414.25
358.215	414.25
358.441	424.25
358.668	428.25
358.895	409.25
359.122	428.25
359.349	450.25
359.576	451.25
359.802	477.25
360.029	503.25
360.256	501.25
360.483	499.25
360.709	462.25
360.936	467.25
361.163	451.25
361.39	447.25
361.616	441.25
361.843	439.25
362.07	440.25
362.296	456.25
362.523	443.25
362.749	435.25
362.976	441.25
363.203	439.25
363.429	420.25
363.656	458.25
363.882	439.25
364.109	439.25
364.335	427.25
364.562	434.25
364.788	410.25
365.015	444.25
365.241	438.25
365.468	456.25
365.694	441.25
365.92	442.25
366.147	440.25
366.373	448.25
366.599	434.25
366.826	436.25
367.052	421.25
367.278	423.25
367.505	437.25
367.731	447.25
367.957	439.25
368.184	449.25
368.41	442.25
368.636	446.25
368.862	471.25
369.089	460.25
369.315	437.25
369.541	428.25
369.767	442.25
369.993	447.25
370.219	439.25
370.445	448.25
370.672	454.25
370.898	426.25
371.124	432.25
371.35	445.25
371.576	431.25
371.802	442.25
372.028	440.25
372.254	439.25
372.48	428.25
372.706	444.25
372.932	453.25
373.158	452.25
373.384	446.25
373.61	435.25
373.835	449.25
374.061	444.25
374.287	437.25
374.513	430.25
374.739	429.25
374.965	447.25
375.191	453.25
375.416	454.25
375.642	451.25
375.868	441.25
376.094	435.25
376.319	437.25
376.545	430.25
376.771	434.25
376.997	438.25
377.222	433.25
377.448	435.25
377.674	433.25
377.899	434.25
378.125	419.25
378.35	445.25
378.576	427.25
378.802	452.25
379.027	460.25
379.253	442.25
379.478	449.25
379.704	440.25
379.929	456.25
380.155	440.25
380.38	435.25
380.606	422.25
380.831	438.25
381.057	443.25
381.282	470.25
381.507	465.25
381.733	440.25
381.958	452.25
382.184	439.25
382.409	439.25
382.634	470.25
382.86	472.25
383.085	454.25
383.31	478.25
383.535	469.25
383.761	446.25
383.986	462.25
384.211	461.25
384.436	476.25
384.662	469.25
384.887	483.25
385.112	478.25
385.337	483.25
385.562	473.25
385.787	502.25
386.013	514.25
386.238	519.25
386.463	519.25
386.688	504.25
386.913	490.25
387.138	494.25
387.363	500.25
387.588	464.25
387.813	462.25
388.038	503.25
388.263	486.25
388.488	490.25
388.713	479.25
388.938	503.25
389.163	491.25
389.387	481.25
389.612	501.25
389.837	471.25
390.062	485.25
390.287	498.25
390.512	507.25
390.736	519.25
390.961	500.25
391.186	491.25
391.411	481.25
391.636	502.25
391.86	518.25
392.085	515.25
392.31	517.25
392.534	514.25
392.759	521.25
392.984	520.25
393.208	509.25
393.433	502.25
393.658	515.25
393.882	498.25
394.107	498.25
394.331	475.25
394.556	504.25
394.78	516.25
395.005	522.25
395.229	509.25
395.454	502.25
395.678	527.25
395.903	541.25
396.127	570.25
396.352	552.25
396.576	537.25
396.801	525.25
397.025	505.25
397.249	531.25
397.474	524.25
397.698	523.25
397.922	526.25
398.147	566.25
398.371	567.25
398.595	571.25
398.82	562.25
399.044	574.25
399.268	603.25
399.492	623.25
399.717	693.25
399.941	703.25
400.165	691.25
400.389	715.25
400.613	648.25
400.837	614.25
401.062	591.25
401.286	579.25
401.51	595.25
401.734	558.25
401.958	570.25
402.182	578.25
402.406	567.25
402.63	604.25
402.854	583.25
403.078	576.25
403.302	621.25
403.526	613.25
403.75	603.25
403.974	600.25
404.198	598.25
404.422	618.25
404.645	608.25
404.869	604.25
405.093	638.25
405.317	670.25
405.541	727.25
405.765	658.25
405.988	642.25
406.212	647.25
406.436	664.25
406.66	670.25
406.883	631.25
407.107	656.25
407.331	719.25
407.555	807.25
407.778	782.25
408.002	721.25
408.226	666.25
408.449	680.25
408.673	653.25
408.896	678.25
409.12	732.25
409.344	698.25
409.567	615.25
409.791	612.25
410.014	621.25
410.238	626.25
410.461	616.25
410.685	601.25
410.908	611.25
411.132	678.25
411.355	696.25
411.578	670.25
411.802	619.25
412.025	620.25
412.249	613.25
412.472	651.25
412.695	654.25
412.919	682.25
413.142	629.25
413.365	602.25
413.589	584.25
413.812	578.25
414.035	548.25
414.258	553.25
414.482	557.25
414.705	597.25
414.928	565.25
415.151	587.25
415.374	571.25
415.597	570.25
415.821	555.25
416.044	574.25
416.267	580.25
416.49	576.25
416.713	576.25
416.936	558.25
417.159	560.25
417.382	587.25
417.605	583.25
417.828	572.25
418.051	583.25
418.274	575.25
418.497	559.25
418.72	587.25
418.943	579.25
419.166	578.25
419.389	618.25
419.611	600.25
419.834	602.25
420.057	611.25
420.28	608.25
420.503	594.25
420.726	601.25
420.948	610.25
421.171	662.25
421.394	678.25
421.617	599.25
421.839	589.25
422.062	584.25
422.285	636.25
422.507	681.25
422.73	744.25
422.953	717.25
423.175	662.25
423.398	658.25
423.621	620.25
423.843	615.25
424.066	644.25
424.288	635.25
424.511	646.25
424.733	731.25
424.956	829.25
425.178	790.25
425.401	749.25
425.623	804.25
425.846	682.25
426.068	621.25
426.291	637.25
426.513	631.25
426.735	650.25
426.958	700.25
427.18	764.25
427.402	928.25
427.625	1003.25
427.847	886.25
428.069	789.25
428.292	694.25
428.514	656.25
428.736	602.25
428.958	603.25
429.181	598.25
429.403	590.25
429.625	606.25
429.847	656.25
430.069	708.25
430.292	701.25
430.514	605.25
430.736	595.25
430.958	570.25
431.18	581.25
431.402	562.25
431.624	555.25
431.846	545.25
432.068	550.25
432.29	551.25
432.512	558.25
432.734	582.25
432.956	569.25
433.178	569.25
433.4	571.25
433.622	573.25
433.844	565.25
434.066	587.25
434.287	553.25
434.509	549.25
434.731	578.25
434.953	591.25
435.175	608.25
435.397	604.25
435.618	647.25
435.84	666.25
436.062	788.25
436.284	884.25
436.505	704.25
436.727	642.25
436.949	592.25
437.17	579.25
437.392	571.25
437.614	571.25
437.835	623.25
438.057	711.25
438.278	876.25
438.5	870.25
438.721	944.25
438.943	904.25
439.165	714.25
439.386	637.25
439.608	646.25
439.829	654.25
440.05	681.25
440.272	735.25
440.493	698.25
440.715	622.25
440.936	595.25
441.158	590.25
441.379	603.25
441.6	607.25
441.822	624.25
442.043	686.25
442.264	750.25
442.486	826.25
442.707	680.25
442.928	650.25
443.149	685.25
443.371	680.25
443.592	744.25
443.813	851.25
444.034	911.25
444.255	740.25
444.476	685.25
444.698	659.25
444.919	650.25
445.14	747.25
445.361	694.25
445.582	681.25
445.803	761.25
446.024	874.25
446.245	895.25
446.466	809.25
446.687	692.25
446.908	634.25
447.129	612.25
447.35	568.25
447.571	572.25
447.792	552.25
448.013	582.25
448.234	640.25
448.455	658.25
448.675	782.25
448.896	935.25
449.117	794.25
449.338	743.25
449.559	870.25
449.779	1005.25
450	755.25
450.221	668.25
450.442	608.25
450.662	581.25
450.883	578.25
451.104	614.25
451.324	592.25
451.545	555.25
451.766	552.25
451.986	518.25
452.207	506.25
452.428	534.25
452.648	536.25
452.869	521.25
453.089	528.25
453.31	548.25
453.53	541.25
453.751	535.25
453.971	523.25
454.192	557.25
454.412	519.25
454.633	532.25
454.853	505.25
455.073	508.25
455.294	551.25
455.514	644.25
455.734	611.25
455.955	532.25
456.175	516.25
456.395	518.25
456.616	476.25
456.836	508.25
457.056	481.25
457.276	487.25
457.497	499.25
457.717	501.25
457.937	529.25
458.157	530.25
458.377	528.25
458.598	523.25
458.818	611.25
459.038	699.25
459.258	695.25
459.478	612.25
459.698	573.25
459.918	556.25
460.138	570.25
460.358	568.25
460.578	571.25
460.798	566.25
461.018	582.25
461.238	568.25
461.458	590.25
461.678	567.25
461.898	572.25
462.118	559.25
462.338	576.25
462.558	616.25
462.777	595.25
462.997	621.25
463.217	640.25
463.437	618.25
463.657	630.25
463.876	628.25
464.096	604.25
464.316	598.25
464.536	623.25
464.755	632.25
464.975	613.25
465.195	663.25
465.414	712.25
465.634	645.25
465.854	582.25
466.073	578.25
466.293	547.25
466.512	541.25
466.732	550.25
466.951	552.25
467.171	518.25
467.391	552.25
467.61	567.25
467.829	572.25
468.049	564.25
468.268	552.25
468.488	556.25
468.707	523.25
468.927	533.25
469.146	508.25
469.365	511.25
469.585	505.25
469.804	549.25
470.023	563.25
470.243	541.25
470.462	553.25
470.681	559.25
470.901	579.25
471.12	552.25
471.339	571.25
471.558	563.25
471.777	566.25
471.997	523.25
472.216	544.25
472.435	614.25
472.654	567.25
472.873	546.25
473.092	558.25
473.311	567.25
473.53	550.25
473.749	562.25
473.968	623.25
474.187	734.25
474.406	719.25
474.625	629.25
474.844	563.25
475.063	568.25
475.282	549.25
475.501	553.25
475.72	560.25
475.939	564.25
476.158	567.25
476.377	559.25
476.596	570.25
476.814	558.25
477.033	589.25
477.252	570.25
477.471	576.25
477.69	579.25
477.908	613.25
478.127	603.25
478.346	580.25
478.564	624.25
478.783	612.25
479.002	631.25
479.22	628.25
479.439	622.25
479.658	658.25
479.876	649.25
480.095	686.25
480.313	709.25
480.532	683.25
480.751	656.25
480.969	675.25
481.188	773.25
481.406	805.25
481.624	734.25
481.843	691.25
482.061	682.25
482.28	669.25
482.498	631.25
482.717	647.25
482.935	661.25
483.153	644.25
483.372	647.25
483.59	649.25
483.808	665.25
484.027	657.25
484.245	650.25
484.463	664.25
484.681	672.25
484.9	666.25
485.118	694.25
485.336	671.25
485.554	682.25
485.772	666.25
485.99	699.25
486.209	690.25
486.427	670.25
486.645	663.25
486.863	714.25
487.081	712.25
487.299	706.25
487.517	702.25
487.735	696.25
487.953	703.25
488.171	681.25
488.389	700.25
488.607	714.25
488.825	718.25
489.043	695.25
489.261	700.25
489.479	710.25
489.696	726.25
489.914	739.25
490.132	728.25
490.35	705.25
490.568	740.25
490.786	743.25
491.003	749.25
491.221	766.25
491.439	796.25
491.657	780.25
491.874	772.25
492.092	788.25
492.31	822.25
492.527	820.25
492.745	807.25
492.963	809.25
493.18	820.25
493.398	849.25
493.615	826.25
493.833	843.25
494.05	860.25
494.268	841.25
494.485	823.25
494.703	799.25
494.92	811.25
495.138	812.25
495.355	819.25
495.573	846.25
495.79	810.25
496.008	846.25
496.225	827.25
496.442	859.25
496.66	858.25
496.877	818.25
497.094	858.25
497.312	855.25
497.529	848.25
497.746	876.25
497.963	879.25
498.181	874.25
498.398	903.25
498.615	920.25
498.832	963.25
499.049	985.25
499.267	965.25
499.484	1001.25
499.701	1095.25
499.918	1075.25
500.135	1178.25
500.352	1178.25
500.569	1236.25
500.786	1217.25
501.003	1186.25
501.22	1156.25
501.437	1118.25
501.654	1076.25
