Data from 1966.PennyLincolnUp.Lamp.En5.5.200Scan.071719.P1.Scan2.head_HRD10591_14-19-20-260.txt Node
Date: Thu Jul 18 14:19:20 EDT 2019
User: cochatt
Spectrometer: HR+D1059
Trigger mode: 1
Integration Time (sec): 1.000000E-1
Scans to average: 1
Electric dark correction enabled: true
Nonlinearity correction enabled: false
Boxcar width: 0
XAxis mode: Wavelengths
Number of Pixels in Spectrum: 2048
>>>>>Begin Spectral Data<<<<<
223.165	-10.69
223.4	-10.69
223.635	-10.69
223.869	-17.69
224.104	-13.69
224.338	-16.69
224.573	-11.69
224.808	-19.69
225.042	-10.69
225.277	-14.69
225.511	-2.69
225.746	0.31
225.98	1.31
226.215	14.31
226.449	22.31
226.683	23.31
226.918	21.31
227.152	35.31
227.387	47.31
227.621	44.31
227.856	34.31
228.09	54.31
228.324	51.31
228.559	54.31
228.793	58.31
229.027	101.31
229.262	107.31
229.496	125.31
229.73	130.31
229.964	159.31
230.199	143.31
230.433	119.31
230.667	126.31
230.901	123.31
231.136	106.31
231.37	107.31
231.604	102.31
231.838	115.31
232.072	117.31
232.306	107.31
232.541	117.31
232.775	109.31
233.009	131.31
233.243	127.31
233.477	120.31
233.711	121.31
233.945	117.31
234.179	119.31
234.413	129.31
234.647	115.31
234.881	105.31
235.115	110.31
235.349	117.31
235.583	131.31
235.817	131.31
236.051	137.31
236.285	138.31
236.519	137.31
236.753	118.31
236.987	153.31
237.221	177.31
237.455	216.31
237.689	206.31
237.922	162.31
238.156	130.31
238.39	124.31
238.624	119.31
238.858	125.31
239.091	134.31
239.325	127.31
239.559	119.31
239.793	127.31
240.027	144.31
240.26	150.31
240.494	163.31
240.728	169.31
240.961	168.31
241.195	153.31
241.429	149.31
241.662	138.31
241.896	129.31
242.13	127.31
242.363	139.31
242.597	146.31
242.83	133.31
243.064	139.31
243.298	125.31
243.531	133.31
243.765	146.31
243.998	138.31
244.232	157.31
244.465	148.31
244.699	172.31
244.932	146.31
245.166	149.31
245.399	159.31
245.633	141.31
245.866	147.31
246.099	131.31
246.333	143.31
246.566	143.31
246.8	153.31
247.033	170.31
247.266	161.31
247.5	167.31
247.733	164.31
247.966	179.31
248.2	193.31
248.433	178.31
248.666	187.31
248.899	198.31
249.133	187.31
249.366	212.31
249.599	208.31
249.832	191.31
250.066	177.31
250.299	189.31
250.532	188.31
250.765	210.31
250.998	211.31
251.231	226.31
251.465	213.31
251.698	195.31
251.931	204.31
252.164	202.31
252.397	211.31
252.63	211.31
252.863	200.31
253.096	219.31
253.329	232.31
253.562	214.31
253.795	234.31
254.028	234.31
254.261	206.31
254.494	242.31
254.727	270.31
254.96	297.31
255.193	279.31
255.426	257.31
255.659	244.31
255.892	234.31
256.124	249.31
256.357	247.31
256.59	233.31
256.823	228.31
257.056	226.31
257.289	223.31
257.521	231.31
257.754	214.31
257.987	203.31
258.22	215.31
258.452	206.31
258.685	207.31
258.918	222.31
259.151	213.31
259.383	223.31
259.616	210.31
259.849	231.31
260.081	223.31
260.314	257.31
260.547	271.31
260.779	261.31
261.012	245.31
261.244	237.31
261.477	247.31
261.71	237.31
261.942	228.31
262.175	231.31
262.407	229.31
262.64	227.31
262.872	215.31
263.105	221.31
263.337	219.31
263.57	221.31
263.802	218.31
264.035	216.31
264.267	241.31
264.499	229.31
264.732	218.31
264.964	216.31
265.197	224.31
265.429	204.31
265.661	229.31
265.894	229.31
266.126	230.31
266.358	241.31
266.591	227.31
266.823	230.31
267.055	236.31
267.287	240.31
267.52	238.31
267.752	221.31
267.984	234.31
268.216	236.31
268.448	234.31
268.681	250.31
268.913	247.31
269.145	275.31
269.377	298.31
269.609	285.31
269.841	306.31
270.073	286.31
270.306	312.31
270.538	314.31
270.77	319.31
271.002	309.31
271.234	303.31
271.466	298.31
271.698	313.31
271.93	337.31
272.162	325.31
272.394	329.31
272.626	314.31
272.858	305.31
273.09	286.31
273.322	300.31
273.553	268.31
273.785	276.31
274.017	290.31
274.249	288.31
274.481	281.31
274.713	283.31
274.945	279.31
275.176	283.31
275.408	283.31
275.64	275.31
275.872	286.31
276.104	269.31
276.335	286.31
276.567	273.31
276.799	286.31
277.031	323.31
277.262	338.31
277.494	322.31
277.726	324.31
277.957	300.31
278.189	295.31
278.421	286.31
278.652	278.31
278.884	273.31
279.115	287.31
279.347	277.31
279.579	275.31
279.81	262.31
280.042	285.31
280.273	269.31
280.505	261.31
280.736	288.31
280.968	276.31
281.199	282.31
281.431	275.31
281.662	284.31
281.894	284.31
282.125	281.31
282.356	307.31
282.588	313.31
282.819	325.31
283.051	293.31
283.282	290.31
283.513	290.31
283.745	301.31
283.976	293.31
284.207	283.31
284.439	284.31
284.67	288.31
284.901	291.31
285.132	293.31
285.364	281.31
285.595	284.31
285.826	291.31
286.057	303.31
286.288	271.31
286.52	288.31
286.751	309.31
286.982	298.31
287.213	277.31
287.444	289.31
287.675	307.31
287.906	315.31
288.138	317.31
288.369	320.31
288.6	319.31
288.831	292.31
289.062	300.31
289.293	309.31
289.524	307.31
289.755	322.31
289.986	286.31
290.217	282.31
290.448	293.31
290.679	289.31
290.91	312.31
291.141	292.31
291.371	306.31
291.602	287.31
291.833	296.31
292.064	330.31
292.295	305.31
292.526	302.31
292.757	295.31
292.987	307.31
293.218	293.31
293.449	290.31
293.68	294.31
293.91	310.31
294.141	317.31
294.372	302.31
294.603	324.31
294.833	316.31
295.064	303.31
295.295	299.31
295.525	309.31
295.756	314.31
295.987	307.31
296.217	341.31
296.448	336.31
296.679	321.31
296.909	316.31
297.14	320.31
297.37	326.31
297.601	342.31
297.831	323.31
298.062	301.31
298.292	292.31
298.523	313.31
298.753	308.31
298.984	331.31
299.214	323.31
299.445	321.31
299.675	330.31
299.905	322.31
300.136	327.31
300.366	317.31
300.597	315.31
300.827	321.31
301.057	330.31
301.288	341.31
301.518	339.31
301.748	346.31
301.979	325.31
302.209	335.31
302.439	353.31
302.669	336.31
302.9	335.31
303.13	343.31
303.36	354.31
303.59	341.31
303.82	353.31
304.051	342.31
304.281	351.31
304.511	342.31
304.741	325.31
304.971	355.31
305.201	353.31
305.431	327.31
305.661	321.31
305.891	340.31
306.121	330.31
306.352	353.31
306.582	347.31
306.812	360.31
307.042	346.31
307.272	342.31
307.502	350.31
307.731	369.31
307.961	346.31
308.191	343.31
308.421	357.31
308.651	359.31
308.881	365.31
309.111	366.31
309.341	359.31
309.571	367.31
309.8	359.31
310.03	362.31
310.26	379.31
310.49	385.31
310.72	387.31
310.949	396.31
311.179	395.31
311.409	393.31
311.639	395.31
311.868	371.31
312.098	393.31
312.328	406.31
312.557	426.31
312.787	420.31
313.017	434.31
313.246	404.31
313.476	396.31
313.706	399.31
313.935	415.31
314.165	413.31
314.394	418.31
314.624	421.31
314.853	399.31
315.083	379.31
315.312	383.31
315.542	371.31
315.771	389.31
316.001	386.31
316.23	394.31
316.46	395.31
316.689	408.31
316.919	406.31
317.148	412.31
317.377	418.31
317.607	411.31
317.836	414.31
318.065	389.31
318.295	417.31
318.524	395.31
318.753	399.31
318.983	390.31
319.212	399.31
319.441	414.31
319.67	411.31
319.9	393.31
320.129	410.31
320.358	412.31
320.587	417.31
320.816	415.31
321.046	411.31
321.275	422.31
321.504	404.31
321.733	395.31
321.962	397.31
322.191	439.31
322.42	445.31
322.649	473.31
322.878	441.31
323.108	470.31
323.337	482.31
323.566	511.31
323.795	541.31
324.024	588.31
324.253	688.31
324.482	1013.31
324.71	1601.31
324.939	2361.31
325.168	2074.31
325.397	1029.31
325.626	673.31
325.855	551.31
326.084	528.31
326.313	516.31
326.542	515.31
326.77	566.31
326.999	681.31
327.228	923.31
327.457	1423.31
327.686	1821.31
327.914	1148.31
328.143	744.31
328.372	667.31
328.6	612.31
328.829	563.31
329.058	594.31
329.287	630.31
329.515	577.31
329.744	549.31
329.972	538.31
330.201	561.31
330.43	595.31
330.658	617.31
330.887	653.31
331.115	621.31
331.344	549.31
331.572	518.31
331.801	525.31
332.03	524.31
332.258	492.31
332.486	484.31
332.715	476.31
332.943	497.31
333.172	500.31
333.4	494.31
333.629	511.31
333.857	513.31
334.085	538.31
334.314	541.31
334.542	587.31
334.771	618.31
334.999	559.31
335.227	502.31
335.455	493.31
335.684	484.31
335.912	470.31
336.14	474.31
336.369	488.31
336.597	485.31
336.825	482.31
337.053	491.31
337.281	480.31
337.51	453.31
337.738	457.31
337.966	453.31
338.194	465.31
338.422	469.31
338.65	457.31
338.878	457.31
339.106	456.31
339.334	459.31
339.562	452.31
339.79	465.31
340.018	462.31
340.246	463.31
340.474	449.31
340.702	468.31
340.93	456.31
341.158	467.31
341.386	458.31
341.614	456.31
341.842	462.31
342.07	445.31
342.298	449.31
342.526	436.31
342.754	443.31
342.981	435.31
343.209	440.31
343.437	452.31
343.665	462.31
343.893	455.31
344.12	466.31
344.348	480.31
344.576	469.31
344.804	499.31
345.031	487.31
345.259	492.31
345.487	457.31
345.714	468.31
345.942	448.31
346.17	465.31
346.397	436.31
346.625	451.31
346.853	439.31
347.08	434.31
347.308	462.31
347.535	463.31
347.763	462.31
347.99	459.31
348.218	472.31
348.445	457.31
348.673	459.31
348.9	464.31
349.128	460.31
349.355	418.31
349.583	427.31
349.81	424.31
350.037	413.31
350.265	440.31
350.492	434.31
350.72	425.31
350.947	457.31
351.174	429.31
351.402	465.31
351.629	455.31
351.856	438.31
352.083	444.31
352.311	463.31
352.538	457.31
352.765	470.31
352.992	445.31
353.22	462.31
353.447	438.31
353.674	435.31
353.901	411.31
354.128	439.31
354.355	423.31
354.583	429.31
354.81	411.31
355.037	420.31
355.264	421.31
355.491	403.31
355.718	413.31
355.945	427.31
356.172	420.31
356.399	407.31
356.626	421.31
356.853	430.31
357.08	423.31
357.307	418.31
357.534	435.31
357.761	415.31
357.988	430.31
358.215	420.31
358.441	439.31
358.668	422.31
358.895	454.31
359.122	438.31
359.349	425.31
359.576	442.31
359.802	473.31
360.029	485.31
360.256	524.31
360.483	489.31
360.709	461.31
360.936	467.31
361.163	459.31
361.39	443.31
361.616	467.31
361.843	456.31
362.07	439.31
362.296	454.31
362.523	449.31
362.749	451.31
362.976	457.31
363.203	447.31
363.429	448.31
363.656	422.31
363.882	431.31
364.109	423.31
364.335	446.31
364.562	449.31
364.788	457.31
365.015	457.31
365.241	429.31
365.468	452.31
365.694	461.31
365.92	454.31
366.147	427.31
366.373	413.31
366.599	430.31
366.826	440.31
367.052	430.31
367.278	429.31
367.505	434.31
367.731	443.31
367.957	445.31
368.184	462.31
368.41	447.31
368.636	455.31
368.862	465.31
369.089	452.31
369.315	447.31
369.541	447.31
369.767	454.31
369.993	445.31
370.219	460.31
370.445	444.31
370.672	455.31
370.898	454.31
371.124	445.31
371.35	467.31
371.576	434.31
371.802	421.31
372.028	449.31
372.254	440.31
372.48	447.31
372.706	426.31
372.932	457.31
373.158	422.31
373.384	445.31
373.61	456.31
373.835	445.31
374.061	442.31
374.287	432.31
374.513	447.31
374.739	449.31
374.965	442.31
375.191	458.31
375.416	462.31
375.642	450.31
375.868	442.31
376.094	425.31
376.319	439.31
376.545	433.31
376.771	428.31
376.997	440.31
377.222	452.31
377.448	439.31
377.674	461.31
377.899	436.31
378.125	439.31
378.35	426.31
378.576	435.31
378.802	428.31
379.027	426.31
379.253	452.31
379.478	461.31
379.704	449.31
379.929	446.31
380.155	424.31
380.38	438.31
380.606	426.31
380.831	453.31
381.057	455.31
381.282	446.31
381.507	438.31
381.733	447.31
381.958	449.31
382.184	462.31
382.409	464.31
382.634	459.31
382.86	463.31
383.085	454.31
383.31	461.31
383.535	471.31
383.761	483.31
383.986	457.31
384.211	469.31
384.436	467.31
384.662	458.31
384.887	461.31
385.112	470.31
385.337	483.31
385.562	483.31
385.787	486.31
386.013	491.31
386.238	499.31
386.463	510.31
386.688	490.31
386.913	480.31
387.138	468.31
387.363	493.31
387.588	511.31
387.813	517.31
388.038	485.31
388.263	493.31
388.488	482.31
388.713	486.31
388.938	490.31
389.163	523.31
389.387	500.31
389.612	486.31
389.837	490.31
390.062	503.31
390.287	488.31
390.512	497.31
390.736	469.31
390.961	481.31
391.186	494.31
391.411	493.31
391.636	497.31
391.86	482.31
392.085	500.31
392.31	499.31
392.534	531.31
392.759	525.31
392.984	513.31
393.208	509.31
393.433	499.31
393.658	525.31
393.882	500.31
394.107	510.31
394.331	526.31
394.556	489.31
394.78	487.31
395.005	483.31
395.229	519.31
395.454	518.31
395.678	518.31
395.903	541.31
396.127	556.31
396.352	560.31
396.576	539.31
396.801	526.31
397.025	547.31
397.249	507.31
397.474	506.31
397.698	538.31
397.922	557.31
398.147	564.31
398.371	564.31
398.595	545.31
398.82	591.31
399.044	587.31
399.268	602.31
399.492	643.31
399.717	653.31
399.941	682.31
400.165	719.31
400.389	694.31
400.613	660.31
400.837	602.31
401.062	611.31
401.286	585.31
401.51	575.31
401.734	557.31
401.958	593.31
402.182	566.31
402.406	591.31
402.63	586.31
402.854	574.31
403.078	587.31
403.302	582.31
403.526	619.31
403.75	611.31
403.974	616.31
404.198	605.31
404.422	586.31
404.645	614.31
404.869	598.31
405.093	647.31
405.317	693.31
405.541	701.31
405.765	671.31
405.988	636.31
406.212	641.31
406.436	641.31
406.66	664.31
406.883	645.31
407.107	674.31
407.331	717.31
407.555	788.31
407.778	804.31
408.002	743.31
408.226	693.31
408.449	660.31
408.673	652.31
408.896	676.31
409.12	725.31
409.344	678.31
409.567	618.31
409.791	610.31
410.014	598.31
410.238	616.31
410.461	614.31
410.685	605.31
410.908	624.31
411.132	661.31
411.355	710.31
411.578	655.31
411.802	604.31
412.025	602.31
412.249	610.31
412.472	648.31
412.695	683.31
412.919	674.31
413.142	618.31
413.365	583.31
413.589	595.31
413.812	593.31
414.035	572.31
414.258	586.31
414.482	554.31
414.705	569.31
414.928	573.31
415.151	554.31
415.374	567.31
415.597	565.31
415.821	571.31
416.044	569.31
416.267	583.31
416.49	577.31
416.713	551.31
416.936	553.31
417.159	555.31
417.382	563.31
417.605	596.31
417.828	587.31
418.051	585.31
418.274	592.31
418.497	591.31
418.72	557.31
418.943	563.31
419.166	594.31
419.389	626.31
419.611	625.31
419.834	627.31
420.057	614.31
420.28	620.31
420.503	601.31
420.726	602.31
420.948	610.31
421.171	657.31
421.394	698.31
421.617	609.31
421.839	611.31
422.062	587.31
422.285	627.31
422.507	667.31
422.73	744.31
422.953	748.31
423.175	635.31
423.398	625.31
423.621	622.31
423.843	635.31
424.066	633.31
424.288	637.31
424.511	671.31
424.733	733.31
424.956	821.31
425.178	803.31
425.401	769.31
425.623	790.31
425.846	672.31
426.068	639.31
426.291	646.31
426.513	616.31
426.735	614.31
426.958	671.31
427.18	795.31
427.402	948.31
427.625	1025.31
427.847	890.31
428.069	784.31
428.292	671.31
428.514	628.31
428.736	619.31
428.958	597.31
429.181	590.31
429.403	596.31
429.625	619.31
429.847	637.31
430.069	709.31
430.292	720.31
430.514	614.31
430.736	603.31
430.958	565.31
431.18	571.31
431.402	553.31
431.624	547.31
431.846	563.31
432.068	562.31
432.29	562.31
432.512	544.31
432.734	567.31
432.956	565.31
433.178	577.31
433.4	582.31
433.622	575.31
433.844	547.31
434.066	569.31
434.287	579.31
434.509	557.31
434.731	554.31
434.953	567.31
435.175	609.31
435.397	643.31
435.618	651.31
435.84	699.31
436.062	801.31
436.284	878.31
436.505	719.31
436.727	649.31
436.949	614.31
437.17	600.31
437.392	595.31
437.614	627.31
437.835	633.31
438.057	753.31
438.278	886.31
438.5	876.31
438.721	942.31
438.943	909.31
439.165	741.31
439.386	686.31
439.608	662.31
439.829	681.31
440.05	686.31
440.272	738.31
440.493	675.31
440.715	609.31
440.936	605.31
441.158	610.31
441.379	604.31
441.6	620.31
441.822	623.31
442.043	677.31
442.264	784.31
442.486	859.31
442.707	721.31
442.928	672.31
443.149	678.31
443.371	692.31
443.592	730.31
443.813	872.31
444.034	902.31
444.255	745.31
444.476	671.31
444.698	659.31
444.919	656.31
445.14	763.31
445.361	699.31
445.582	703.31
445.803	769.31
446.024	879.31
446.245	904.31
446.466	817.31
446.687	673.31
446.908	645.31
447.129	604.31
447.35	593.31
447.571	585.31
447.792	572.31
448.013	586.31
448.234	594.31
448.455	656.31
448.675	791.31
448.896	923.31
449.117	787.31
449.338	761.31
449.559	882.31
449.779	988.31
450	771.31
450.221	653.31
450.442	605.31
450.662	598.31
450.883	565.31
451.104	581.31
451.324	579.31
451.545	581.31
451.766	520.31
451.986	543.31
452.207	523.31
452.428	536.31
452.648	537.31
452.869	540.31
453.089	539.31
453.31	582.31
453.53	545.31
453.751	543.31
453.971	517.31
454.192	571.31
454.412	531.31
454.633	510.31
454.853	533.31
455.073	529.31
455.294	558.31
455.514	635.31
455.734	618.31
455.955	513.31
456.175	497.31
456.395	484.31
456.616	492.31
456.836	478.31
457.056	492.31
457.276	479.31
457.497	493.31
457.717	497.31
457.937	509.31
458.157	523.31
458.377	535.31
458.598	526.31
458.818	625.31
459.038	684.31
459.258	739.31
459.478	635.31
459.698	602.31
459.918	569.31
460.138	581.31
460.358	547.31
460.578	571.31
460.798	578.31
461.018	601.31
461.238	575.31
461.458	556.31
461.678	556.31
461.898	570.31
462.118	583.31
462.338	592.31
462.558	587.31
462.777	607.31
462.997	620.31
463.217	643.31
463.437	618.31
463.657	614.31
463.876	620.31
464.096	603.31
464.316	603.31
464.536	618.31
464.755	622.31
464.975	616.31
465.195	647.31
465.414	727.31
465.634	659.31
465.854	591.31
466.073	557.31
466.293	563.31
466.512	541.31
466.732	527.31
466.951	536.31
467.171	545.31
467.391	523.31
467.61	561.31
467.829	553.31
468.049	548.31
468.268	566.31
468.488	549.31
468.707	534.31
468.927	533.31
469.146	531.31
469.365	543.31
469.585	531.31
469.804	558.31
470.023	551.31
470.243	553.31
470.462	523.31
470.681	554.31
470.901	558.31
471.12	556.31
471.339	568.31
471.558	581.31
471.777	550.31
471.997	558.31
472.216	567.31
472.435	611.31
472.654	583.31
472.873	553.31
473.092	539.31
473.311	548.31
473.53	539.31
473.749	563.31
473.968	619.31
474.187	702.31
474.406	730.31
474.625	595.31
474.844	582.31
475.063	558.31
475.282	539.31
475.501	571.31
475.72	574.31
475.939	552.31
476.158	575.31
476.377	561.31
476.596	579.31
476.814	594.31
477.033	592.31
477.252	588.31
477.471	581.31
477.69	604.31
477.908	599.31
478.127	614.31
478.346	592.31
478.564	614.31
478.783	617.31
479.002	647.31
479.22	618.31
479.439	649.31
479.658	646.31
479.876	686.31
480.095	644.31
480.313	677.31
480.532	699.31
480.751	693.31
480.969	698.31
481.188	777.31
481.406	808.31
481.624	725.31
481.843	677.31
482.061	663.31
482.28	672.31
482.498	655.31
482.717	649.31
482.935	641.31
483.153	635.31
483.372	657.31
483.59	641.31
483.808	639.31
484.027	629.31
484.245	651.31
484.463	676.31
484.681	682.31
484.9	665.31
485.118	655.31
485.336	672.31
485.554	650.31
485.772	663.31
485.99	695.31
486.209	661.31
486.427	663.31
486.645	721.31
486.863	716.31
487.081	704.31
487.299	675.31
487.517	702.31
487.735	684.31
487.953	675.31
488.171	702.31
488.389	709.31
488.607	705.31
488.825	690.31
489.043	706.31
489.261	686.31
489.479	693.31
489.696	708.31
489.914	719.31
490.132	690.31
490.35	737.31
490.568	748.31
490.786	740.31
491.003	747.31
491.221	780.31
491.439	775.31
491.657	793.31
491.874	798.31
492.092	803.31
492.31	827.31
492.527	807.31
492.745	835.31
492.963	814.31
493.18	822.31
493.398	829.31
493.615	844.31
493.833	841.31
494.05	835.31
494.268	833.31
494.485	823.31
494.703	837.31
494.92	826.31
495.138	842.31
495.355	834.31
495.573	857.31
495.79	867.31
496.008	836.31
496.225	828.31
496.442	839.31
496.66	832.31
496.877	826.31
497.094	837.31
497.312	829.31
497.529	854.31
497.746	873.31
497.963	879.31
498.181	920.31
498.398	910.31
498.615	908.31
498.832	953.31
499.049	953.31
499.267	970.31
499.484	1029.31
499.701	1047.31
499.918	1086.31
500.135	1131.31
500.352	1187.31
500.569	1220.31
500.786	1212.31
501.003	1174.31
501.22	1167.31
501.437	1115.31
501.654	1111.31
