Data from 1966.PennyLincolnUp.Lamp.En5.5.200Scan.071719.P1._HRD10591_14-15-12-931.txt Node
Date: Thu Jul 18 14:15:12 EDT 2019
User: cochatt
Spectrometer: HR+D1059
Trigger mode: 1
Integration Time (sec): 1.000000E-1
Scans to average: 1
Electric dark correction enabled: true
Nonlinearity correction enabled: false
Boxcar width: 0
XAxis mode: Wavelengths
Number of Pixels in Spectrum: 2048
>>>>>Begin Spectral Data<<<<<
223.165	-11.75
223.4	-11.75
223.635	-11.75
223.869	-20.75
224.104	-27.75
224.338	-22.75
224.573	-6.75
224.808	-14.75
225.042	-8.75
225.277	-10.75
225.511	2.25
225.746	2.25
225.98	7.25
226.215	4.25
226.449	26.25
226.683	26.25
226.918	20.25
227.152	35.25
227.387	30.25
227.621	27.25
227.856	36.25
228.09	41.25
228.324	48.25
228.559	55.25
228.793	73.25
229.027	74.25
229.262	82.25
229.496	79.25
229.73	105.25
229.964	102.25
230.199	93.25
230.433	81.25
230.667	83.25
230.901	90.25
231.136	86.25
231.37	89.25
231.604	87.25
231.838	97.25
232.072	78.25
232.306	96.25
232.541	82.25
232.775	74.25
233.009	97.25
233.243	75.25
233.477	98.25
233.711	104.25
233.945	96.25
234.179	87.25
234.413	111.25
234.647	104.25
234.881	93.25
235.115	85.25
235.349	85.25
235.583	100.25
235.817	87.25
236.051	97.25
236.285	102.25
236.519	99.25
236.753	112.25
236.987	106.25
237.221	106.25
237.455	146.25
237.689	124.25
237.922	94.25
238.156	99.25
238.39	107.25
238.624	104.25
238.858	92.25
239.091	96.25
239.325	84.25
239.559	95.25
239.793	106.25
240.027	102.25
240.26	101.25
240.494	109.25
240.728	107.25
240.961	122.25
241.195	94.25
241.429	94.25
241.662	105.25
241.896	91.25
242.13	101.25
242.363	109.25
242.597	102.25
242.83	106.25
243.064	118.25
243.298	106.25
243.531	109.25
243.765	102.25
243.998	102.25
244.232	110.25
244.465	107.25
244.699	106.25
244.932	104.25
245.166	111.25
245.399	102.25
245.633	100.25
245.866	114.25
246.099	91.25
246.333	100.25
246.566	108.25
246.8	106.25
247.033	110.25
247.266	106.25
247.5	118.25
247.733	108.25
247.966	106.25
248.2	109.25
248.433	119.25
248.666	113.25
248.899	123.25
249.133	121.25
249.366	137.25
249.599	116.25
249.832	117.25
250.066	111.25
250.299	113.25
250.532	133.25
250.765	145.25
250.998	143.25
251.231	151.25
251.465	140.25
251.698	141.25
251.931	126.25
252.164	140.25
252.397	118.25
252.63	125.25
252.863	129.25
253.096	131.25
253.329	156.25
253.562	155.25
253.795	130.25
254.028	157.25
254.261	139.25
254.494	153.25
254.727	158.25
254.96	162.25
255.193	172.25
255.426	145.25
255.659	140.25
255.892	129.25
256.124	149.25
256.357	166.25
256.59	137.25
256.823	146.25
257.056	126.25
257.289	141.25
257.521	133.25
257.754	138.25
257.987	136.25
258.22	118.25
258.452	127.25
258.685	121.25
258.918	128.25
259.151	135.25
259.383	150.25
259.616	137.25
259.849	145.25
260.081	156.25
260.314	146.25
260.547	148.25
260.779	153.25
261.012	143.25
261.244	162.25
261.477	140.25
261.71	130.25
261.942	127.25
262.175	144.25
262.407	149.25
262.64	134.25
262.872	134.25
263.105	133.25
263.337	129.25
263.57	131.25
263.802	126.25
264.035	133.25
264.267	125.25
264.499	140.25
264.732	133.25
264.964	128.25
265.197	139.25
265.429	135.25
265.661	143.25
265.894	138.25
266.126	128.25
266.358	141.25
266.591	120.25
266.823	127.25
267.055	147.25
267.287	138.25
267.52	142.25
267.752	135.25
267.984	130.25
268.216	137.25
268.448	136.25
268.681	156.25
268.913	154.25
269.145	160.25
269.377	160.25
269.609	178.25
269.841	167.25
270.073	165.25
270.306	174.25
270.538	189.25
270.77	189.25
271.002	169.25
271.234	191.25
271.466	179.25
271.698	185.25
271.93	181.25
272.162	174.25
272.394	201.25
272.626	186.25
272.858	185.25
273.09	164.25
273.322	173.25
273.553	167.25
273.785	155.25
274.017	159.25
274.249	154.25
274.481	149.25
274.713	154.25
274.945	169.25
275.176	164.25
275.408	153.25
275.64	160.25
275.872	154.25
276.104	150.25
276.335	150.25
276.567	158.25
276.799	168.25
277.031	187.25
277.262	204.25
277.494	184.25
277.726	187.25
277.957	160.25
278.189	165.25
278.421	165.25
278.652	160.25
278.884	156.25
279.115	141.25
279.347	160.25
279.579	145.25
279.81	175.25
280.042	162.25
280.273	159.25
280.505	159.25
280.736	142.25
280.968	143.25
281.199	149.25
281.431	163.25
281.662	154.25
281.894	170.25
282.125	149.25
282.356	161.25
282.588	177.25
282.819	189.25
283.051	154.25
283.282	164.25
283.513	168.25
283.745	183.25
283.976	172.25
284.207	177.25
284.439	179.25
284.67	171.25
284.901	164.25
285.132	166.25
285.364	159.25
285.595	162.25
285.826	158.25
286.057	149.25
286.288	165.25
286.52	169.25
286.751	183.25
286.982	175.25
287.213	180.25
287.444	161.25
287.675	164.25
287.906	180.25
288.138	165.25
288.369	163.25
288.6	194.25
288.831	174.25
289.062	166.25
289.293	169.25
289.524	177.25
289.755	165.25
289.986	165.25
290.217	177.25
290.448	165.25
290.679	176.25
290.91	166.25
291.141	157.25
291.371	169.25
291.602	160.25
291.833	166.25
292.064	182.25
292.295	182.25
292.526	172.25
292.757	164.25
292.987	173.25
293.218	161.25
293.449	164.25
293.68	171.25
293.91	173.25
294.141	169.25
294.372	168.25
294.603	189.25
294.833	181.25
295.064	188.25
295.295	174.25
295.525	155.25
295.756	179.25
295.987	164.25
296.217	191.25
296.448	194.25
296.679	194.25
296.909	179.25
297.14	191.25
297.37	167.25
297.601	161.25
297.831	188.25
298.062	177.25
298.292	185.25
298.523	176.25
298.753	189.25
298.984	173.25
299.214	179.25
299.445	177.25
299.675	174.25
299.905	181.25
300.136	174.25
300.366	171.25
300.597	166.25
300.827	185.25
301.057	193.25
301.288	181.25
301.518	181.25
301.748	191.25
301.979	181.25
302.209	189.25
302.439	201.25
302.669	195.25
302.9	179.25
303.13	173.25
303.36	189.25
303.59	190.25
303.82	194.25
304.051	200.25
304.281	196.25
304.511	178.25
304.741	175.25
304.971	184.25
305.201	202.25
305.431	182.25
305.661	179.25
305.891	199.25
306.121	181.25
306.352	184.25
306.582	165.25
306.812	189.25
307.042	181.25
307.272	188.25
307.502	173.25
307.731	187.25
307.961	186.25
308.191	195.25
308.421	190.25
308.651	184.25
308.881	196.25
309.111	188.25
309.341	182.25
309.571	216.25
309.8	213.25
310.03	201.25
310.26	212.25
310.49	201.25
310.72	213.25
310.949	210.25
311.179	214.25
311.409	213.25
311.639	204.25
311.868	205.25
312.098	215.25
312.328	216.25
312.557	213.25
312.787	222.25
313.017	206.25
313.246	204.25
313.476	203.25
313.706	210.25
313.935	214.25
314.165	223.25
314.394	238.25
314.624	241.25
314.853	214.25
315.083	207.25
315.312	218.25
315.542	203.25
315.771	211.25
316.001	209.25
316.23	213.25
316.46	206.25
316.689	191.25
316.919	210.25
317.148	229.25
317.377	243.25
317.607	219.25
317.836	196.25
318.065	205.25
318.295	202.25
318.524	192.25
318.753	218.25
318.983	206.25
319.212	207.25
319.441	212.25
319.67	209.25
319.9	204.25
320.129	214.25
320.358	217.25
320.587	208.25
320.816	228.25
321.046	220.25
321.275	219.25
321.504	204.25
321.733	228.25
321.962	215.25
322.191	228.25
322.42	233.25
322.649	238.25
322.878	225.25
323.108	243.25
323.337	264.25
323.566	259.25
323.795	297.25
324.024	309.25
324.253	382.25
324.482	520.25
324.71	803.25
324.939	1099.25
325.168	877.25
325.397	447.25
325.626	317.25
325.855	267.25
326.084	265.25
326.313	249.25
326.542	258.25
326.77	277.25
326.999	343.25
327.228	476.25
327.457	695.25
327.686	781.25
327.914	526.25
328.143	362.25
328.372	334.25
328.6	309.25
328.829	315.25
329.058	302.25
329.287	332.25
329.515	290.25
329.744	271.25
329.972	292.25
330.201	298.25
330.43	338.25
330.658	332.25
330.887	348.25
331.115	316.25
331.344	285.25
331.572	257.25
331.801	274.25
332.03	271.25
332.258	256.25
332.486	245.25
332.715	256.25
332.943	242.25
333.172	236.25
333.4	261.25
333.629	245.25
333.857	252.25
334.085	265.25
334.314	278.25
334.542	301.25
334.771	334.25
334.999	263.25
335.227	262.25
335.455	250.25
335.684	229.25
335.912	236.25
336.14	228.25
336.369	222.25
336.597	229.25
336.825	249.25
337.053	247.25
337.281	233.25
337.51	228.25
337.738	230.25
337.966	236.25
338.194	238.25
338.422	240.25
338.65	242.25
338.878	229.25
339.106	243.25
339.334	250.25
339.562	226.25
339.79	224.25
340.018	212.25
340.246	235.25
340.474	228.25
340.702	233.25
340.93	219.25
341.158	229.25
341.386	246.25
341.614	221.25
341.842	244.25
342.07	217.25
342.298	219.25
342.526	204.25
342.754	217.25
342.981	206.25
343.209	209.25
343.437	228.25
343.665	230.25
343.893	222.25
344.12	230.25
344.348	227.25
344.576	233.25
344.804	231.25
345.031	231.25
345.259	254.25
345.487	230.25
345.714	230.25
345.942	209.25
346.17	213.25
346.397	240.25
346.625	219.25
346.853	227.25
347.08	219.25
347.308	229.25
347.535	218.25
347.763	249.25
347.99	224.25
348.218	243.25
348.445	265.25
348.673	254.25
348.9	217.25
349.128	216.25
349.355	205.25
349.583	230.25
349.81	222.25
350.037	207.25
350.265	210.25
350.492	222.25
350.72	197.25
350.947	226.25
351.174	238.25
351.402	225.25
351.629	235.25
351.856	216.25
352.083	243.25
352.311	233.25
352.538	230.25
352.765	234.25
352.992	229.25
353.22	228.25
353.447	221.25
353.674	217.25
353.901	197.25
354.128	203.25
354.355	213.25
354.583	221.25
354.81	216.25
355.037	203.25
355.264	203.25
355.491	214.25
355.718	218.25
355.945	200.25
356.172	206.25
356.399	206.25
356.626	199.25
356.853	205.25
357.08	172.25
357.307	216.25
357.534	203.25
357.761	214.25
357.988	199.25
358.215	198.25
358.441	216.25
358.668	205.25
358.895	219.25
359.122	223.25
359.349	215.25
359.576	230.25
359.802	227.25
360.029	265.25
360.256	255.25
360.483	250.25
360.709	218.25
360.936	234.25
361.163	208.25
361.39	218.25
361.616	236.25
361.843	221.25
362.07	225.25
362.296	218.25
362.523	222.25
362.749	236.25
362.976	207.25
363.203	224.25
363.429	208.25
363.656	210.25
363.882	210.25
364.109	226.25
364.335	220.25
364.562	221.25
364.788	229.25
365.015	193.25
365.241	210.25
365.468	217.25
365.694	215.25
365.92	216.25
366.147	222.25
366.373	200.25
366.599	216.25
366.826	202.25
367.052	217.25
367.278	211.25
367.505	204.25
367.731	201.25
367.957	195.25
368.184	203.25
368.41	222.25
368.636	224.25
368.862	248.25
369.089	230.25
369.315	241.25
369.541	203.25
369.767	207.25
369.993	242.25
370.219	218.25
370.445	212.25
370.672	215.25
370.898	205.25
371.124	212.25
371.35	190.25
371.576	197.25
371.802	213.25
372.028	196.25
372.254	215.25
372.48	205.25
372.706	193.25
372.932	217.25
373.158	203.25
373.384	200.25
373.61	215.25
373.835	204.25
374.061	203.25
374.287	206.25
374.513	210.25
374.739	212.25
374.965	222.25
375.191	195.25
375.416	201.25
375.642	217.25
375.868	217.25
376.094	210.25
376.319	186.25
376.545	211.25
376.771	203.25
376.997	216.25
377.222	191.25
377.448	208.25
377.674	215.25
377.899	190.25
378.125	188.25
378.35	204.25
378.576	205.25
378.802	182.25
379.027	205.25
379.253	215.25
379.478	205.25
379.704	194.25
379.929	219.25
380.155	207.25
380.38	210.25
380.606	212.25
380.831	203.25
381.057	230.25
381.282	224.25
381.507	206.25
381.733	215.25
381.958	206.25
382.184	221.25
382.409	206.25
382.634	193.25
382.86	205.25
383.085	205.25
383.31	223.25
383.535	207.25
383.761	217.25
383.986	204.25
384.211	202.25
384.436	205.25
384.662	214.25
384.887	220.25
385.112	218.25
385.337	238.25
385.562	207.25
385.787	219.25
386.013	226.25
386.238	245.25
386.463	228.25
386.688	219.25
386.913	214.25
387.138	209.25
387.363	213.25
387.588	216.25
387.813	234.25
388.038	227.25
388.263	227.25
388.488	223.25
388.713	232.25
388.938	221.25
389.163	236.25
389.387	216.25
389.612	210.25
389.837	217.25
390.062	207.25
390.287	201.25
390.512	212.25
390.736	219.25
390.961	220.25
391.186	230.25
391.411	231.25
391.636	225.25
391.86	237.25
392.085	230.25
392.31	201.25
392.534	221.25
392.759	234.25
392.984	223.25
393.208	224.25
393.433	238.25
393.658	234.25
393.882	212.25
394.107	210.25
394.331	224.25
394.556	250.25
394.78	212.25
395.005	213.25
395.229	205.25
395.454	220.25
395.678	232.25
395.903	240.25
396.127	246.25
396.352	264.25
396.576	233.25
396.801	219.25
397.025	228.25
397.249	235.25
397.474	221.25
397.698	228.25
397.922	247.25
398.147	236.25
398.371	237.25
398.595	242.25
398.82	249.25
399.044	245.25
399.268	254.25
399.492	277.25
399.717	264.25
399.941	291.25
400.165	292.25
400.389	292.25
400.613	278.25
400.837	264.25
401.062	256.25
401.286	253.25
401.51	271.25
401.734	262.25
401.958	266.25
402.182	247.25
402.406	270.25
402.63	259.25
402.854	258.25
403.078	274.25
403.302	254.25
403.526	265.25
403.75	261.25
403.974	249.25
404.198	252.25
404.422	267.25
404.645	270.25
404.869	267.25
405.093	275.25
405.317	295.25
405.541	323.25
405.765	282.25
405.988	286.25
406.212	280.25
406.436	284.25
406.66	303.25
406.883	290.25
407.107	296.25
407.331	296.25
407.555	351.25
407.778	323.25
408.002	302.25
408.226	282.25
408.449	287.25
408.673	308.25
408.896	289.25
409.12	305.25
409.344	300.25
409.567	261.25
409.791	266.25
410.014	269.25
410.238	269.25
410.461	259.25
410.685	268.25
410.908	266.25
411.132	298.25
411.355	293.25
411.578	273.25
411.802	258.25
412.025	263.25
412.249	269.25
412.472	262.25
412.695	285.25
412.919	281.25
413.142	249.25
413.365	245.25
413.589	254.25
413.812	263.25
414.035	248.25
414.258	247.25
414.482	270.25
414.705	247.25
414.928	264.25
415.151	258.25
415.374	235.25
415.597	217.25
415.821	236.25
416.044	254.25
416.267	252.25
416.49	237.25
416.713	248.25
416.936	257.25
417.159	264.25
417.382	255.25
417.605	250.25
417.828	250.25
418.051	271.25
418.274	261.25
418.497	245.25
418.72	262.25
418.943	230.25
419.166	281.25
419.389	254.25
419.611	254.25
419.834	264.25
420.057	262.25
420.28	266.25
420.503	266.25
420.726	270.25
420.948	265.25
421.171	283.25
421.394	276.25
421.617	262.25
421.839	250.25
422.062	266.25
422.285	265.25
422.507	275.25
422.73	319.25
422.953	298.25
423.175	281.25
423.398	274.25
423.621	271.25
423.843	280.25
424.066	279.25
424.288	288.25
424.511	281.25
424.733	307.25
424.956	339.25
425.178	323.25
425.401	322.25
425.623	322.25
425.846	291.25
426.068	282.25
426.291	269.25
426.513	275.25
426.735	286.25
426.958	273.25
427.18	329.25
427.402	372.25
427.625	428.25
427.847	385.25
428.069	314.25
428.292	292.25
428.514	259.25
428.736	269.25
428.958	262.25
429.181	257.25
429.403	268.25
429.625	273.25
429.847	275.25
430.069	307.25
430.292	298.25
430.514	265.25
430.736	243.25
430.958	254.25
431.18	263.25
431.402	239.25
431.624	235.25
431.846	244.25
432.068	230.25
432.29	254.25
432.512	247.25
432.734	248.25
432.956	265.25
433.178	262.25
433.4	269.25
433.622	247.25
433.844	225.25
434.066	241.25
434.287	243.25
434.509	259.25
434.731	249.25
434.953	262.25
435.175	248.25
435.397	287.25
435.618	273.25
435.84	285.25
436.062	338.25
436.284	348.25
436.505	297.25
436.727	265.25
436.949	250.25
437.17	271.25
437.392	265.25
437.614	279.25
437.835	275.25
438.057	331.25
438.278	377.25
438.5	345.25
438.721	386.25
438.943	358.25
439.165	297.25
439.386	289.25
439.608	276.25
439.829	290.25
440.05	300.25
440.272	325.25
440.493	300.25
440.715	259.25
440.936	273.25
441.158	256.25
441.379	271.25
441.6	270.25
441.822	275.25
442.043	294.25
442.264	322.25
442.486	344.25
442.707	298.25
442.928	298.25
443.149	286.25
443.371	302.25
443.592	327.25
443.813	361.25
444.034	366.25
444.255	328.25
444.476	267.25
444.698	282.25
444.919	274.25
445.14	360.25
445.361	329.25
445.582	306.25
445.803	333.25
446.024	359.25
446.245	361.25
446.466	295.25
446.687	291.25
446.908	283.25
447.129	245.25
447.35	261.25
447.571	242.25
447.792	244.25
448.013	261.25
448.234	259.25
448.455	282.25
448.675	331.25
448.896	399.25
449.117	331.25
449.338	312.25
449.559	361.25
449.779	391.25
450	313.25
450.221	282.25
450.442	268.25
450.662	257.25
450.883	256.25
451.104	266.25
451.324	269.25
451.545	239.25
451.766	242.25
451.986	236.25
452.207	225.25
452.428	232.25
452.648	249.25
452.869	238.25
453.089	242.25
453.31	243.25
453.53	225.25
453.751	234.25
453.971	230.25
454.192	256.25
454.412	242.25
454.633	211.25
454.853	235.25
455.073	219.25
455.294	251.25
455.514	283.25
455.734	264.25
455.955	228.25
456.175	216.25
456.395	207.25
456.616	212.25
456.836	203.25
457.056	215.25
457.276	229.25
457.497	238.25
457.717	207.25
457.937	232.25
458.157	222.25
458.377	224.25
458.598	221.25
458.818	281.25
459.038	311.25
459.258	315.25
459.478	267.25
459.698	236.25
459.918	261.25
460.138	215.25
460.358	247.25
460.578	262.25
460.798	260.25
461.018	257.25
461.238	234.25
461.458	247.25
461.678	237.25
461.898	248.25
462.118	239.25
462.338	238.25
462.558	249.25
462.777	258.25
462.997	281.25
463.217	262.25
463.437	280.25
463.657	255.25
463.876	268.25
464.096	256.25
464.316	276.25
464.536	274.25
464.755	261.25
464.975	280.25
465.195	307.25
465.414	381.25
465.634	301.25
465.854	275.25
466.073	241.25
466.293	238.25
466.512	221.25
466.732	237.25
466.951	234.25
467.171	243.25
467.391	246.25
467.61	248.25
467.829	252.25
468.049	237.25
468.268	273.25
468.488	239.25
468.707	241.25
468.927	233.25
469.146	230.25
469.365	245.25
469.585	234.25
469.804	233.25
470.023	246.25
470.243	252.25
470.462	249.25
470.681	252.25
470.901	267.25
471.12	251.25
471.339	238.25
471.558	245.25
471.777	258.25
471.997	243.25
472.216	245.25
472.435	291.25
472.654	274.25
472.873	248.25
473.092	237.25
473.311	235.25
473.53	234.25
473.749	241.25
473.968	272.25
474.187	317.25
474.406	314.25
474.625	257.25
474.844	236.25
475.063	247.25
475.282	238.25
475.501	238.25
475.72	230.25
475.939	225.25
476.158	233.25
476.377	238.25
476.596	245.25
476.814	251.25
477.033	259.25
477.252	259.25
477.471	232.25
477.69	250.25
477.908	275.25
478.127	247.25
478.346	258.25
478.564	265.25
478.783	270.25
479.002	286.25
479.22	270.25
479.439	273.25
479.658	286.25
479.876	275.25
480.095	282.25
480.313	309.25
480.532	280.25
480.751	297.25
480.969	316.25
481.188	365.25
481.406	403.25
481.624	322.25
481.843	302.25
482.061	303.25
482.28	277.25
482.498	268.25
482.717	272.25
482.935	275.25
483.153	274.25
483.372	272.25
483.59	278.25
483.808	285.25
484.027	277.25
484.245	263.25
484.463	264.25
484.681	286.25
484.9	287.25
485.118	286.25
485.336	272.25
485.554	297.25
485.772	285.25
485.99	286.25
486.209	278.25
486.427	302.25
486.645	290.25
486.863	319.25
487.081	327.25
487.299	312.25
487.517	290.25
487.735	302.25
487.953	278.25
488.171	312.25
488.389	300.25
488.607	311.25
488.825	325.25
489.043	291.25
489.261	300.25
489.479	305.25
489.696	318.25
489.914	306.25
490.132	305.25
490.35	324.25
490.568	297.25
490.786	321.25
491.003	322.25
491.221	339.25
491.439	346.25
491.657	331.25
491.874	366.25
492.092	348.25
492.31	363.25
492.527	353.25
492.745	359.25
492.963	364.25
493.18	360.25
493.398	364.25
493.615	358.25
493.833	364.25
494.05	365.25
494.268	362.25
494.485	326.25
494.703	359.25
494.92	349.25
495.138	349.25
495.355	366.25
495.573	353.25
495.79	346.25
496.008	352.25
496.225	345.25
496.442	340.25
496.66	354.25
496.877	338.25
497.094	339.25
497.312	350.25
497.529	355.25
497.746	360.25
497.963	344.25
498.181	357.25
498.398	377.25
498.615	364.25
498.832	374.25
499.049	360.25
499.267	385.25
499.484	407.25
499.701	401.25
499.918	419.25
500.135	424.25
500.352	467.25
500.569	470.25
500.786	478.25
501.003	462.25
501.22	421.25
501.437	422.25
501.654	436.25
501.871	429.25
502.088	364.25
502.305	405.25
502.522	359.25
