Data from 1966.PennyLincolnUp.Lamp.En5.5.200Scan.071719.P1.Scan2.head_HRD10591_14-18-51-222.txt Node
Date: Thu Jul 18 14:18:51 EDT 2019
User: cochatt
Spectrometer: HR+D1059
Trigger mode: 1
Integration Time (sec): 1.000000E-1
Scans to average: 1
Electric dark correction enabled: true
Nonlinearity correction enabled: false
Boxcar width: 0
XAxis mode: Wavelengths
Number of Pixels in Spectrum: 2048
>>>>>Begin Spectral Data<<<<<
223.165	-18.5
223.4	-18.5
223.635	-18.5
223.869	-14.5
224.104	-10.5
224.338	-8.5
224.573	-19.5
224.808	-8.5
225.042	-21.5
225.277	-14.5
225.511	-18.5
225.746	7.5
225.98	22.5
226.215	27.5
226.449	3.5
226.683	13.5
226.918	35.5
227.152	24.5
227.387	35.5
227.621	31.5
227.856	58.5
228.09	43.5
228.324	48.5
228.559	44.5
228.793	58.5
229.027	88.5
229.262	96.5
229.496	119.5
229.73	139.5
229.964	162.5
230.199	131.5
230.433	102.5
230.667	104.5
230.901	111.5
231.136	109.5
231.37	115.5
231.604	127.5
231.838	101.5
232.072	100.5
232.306	106.5
232.541	128.5
232.775	119.5
233.009	113.5
233.243	115.5
233.477	115.5
233.711	101.5
233.945	120.5
234.179	121.5
234.413	113.5
234.647	126.5
234.881	131.5
235.115	123.5
235.349	131.5
235.583	129.5
235.817	123.5
236.051	127.5
236.285	130.5
236.519	133.5
236.753	131.5
236.987	147.5
237.221	189.5
237.455	242.5
237.689	203.5
237.922	156.5
238.156	143.5
238.39	135.5
238.624	133.5
238.858	128.5
239.091	134.5
239.325	116.5
239.559	118.5
239.793	127.5
240.027	151.5
240.26	149.5
240.494	155.5
240.728	162.5
240.961	169.5
241.195	169.5
241.429	160.5
241.662	129.5
241.896	136.5
242.13	133.5
242.363	143.5
242.597	155.5
242.83	136.5
243.064	136.5
243.298	158.5
243.531	150.5
243.765	148.5
243.998	139.5
244.232	135.5
244.465	140.5
244.699	152.5
244.932	140.5
245.166	138.5
245.399	156.5
245.633	146.5
245.866	136.5
246.099	142.5
246.333	152.5
246.566	158.5
246.8	165.5
247.033	157.5
247.266	164.5
247.5	161.5
247.733	188.5
247.966	167.5
248.2	174.5
248.433	176.5
248.666	189.5
248.899	193.5
249.133	198.5
249.366	205.5
249.599	200.5
249.832	184.5
250.066	187.5
250.299	184.5
250.532	194.5
250.765	211.5
250.998	236.5
251.231	227.5
251.465	218.5
251.698	199.5
251.931	191.5
252.164	199.5
252.397	207.5
252.63	190.5
252.863	201.5
253.096	216.5
253.329	248.5
253.562	221.5
253.795	212.5
254.028	207.5
254.261	229.5
254.494	235.5
254.727	269.5
254.96	306.5
255.193	273.5
255.426	253.5
255.659	244.5
255.892	234.5
256.124	237.5
256.357	250.5
256.59	258.5
256.823	218.5
257.056	206.5
257.289	214.5
257.521	214.5
257.754	218.5
257.987	212.5
258.22	228.5
258.452	222.5
258.685	229.5
258.918	217.5
259.151	218.5
259.383	220.5
259.616	244.5
259.849	243.5
260.081	239.5
260.314	240.5
260.547	263.5
260.779	263.5
261.012	259.5
261.244	232.5
261.477	231.5
261.71	231.5
261.942	246.5
262.175	250.5
262.407	239.5
262.64	221.5
262.872	216.5
263.105	209.5
263.337	227.5
263.57	227.5
263.802	215.5
264.035	218.5
264.267	214.5
264.499	206.5
264.732	207.5
264.964	222.5
265.197	211.5
265.429	232.5
265.661	209.5
265.894	227.5
266.126	230.5
266.358	219.5
266.591	225.5
266.823	227.5
267.055	230.5
267.287	223.5
267.52	237.5
267.752	234.5
267.984	219.5
268.216	252.5
268.448	249.5
268.681	255.5
268.913	253.5
269.145	286.5
269.377	287.5
269.609	261.5
269.841	275.5
270.073	280.5
270.306	294.5
270.538	322.5
270.77	330.5
271.002	309.5
271.234	315.5
271.466	317.5
271.698	320.5
271.93	323.5
272.162	322.5
272.394	315.5
272.626	320.5
272.858	313.5
273.09	283.5
273.322	280.5
273.553	284.5
273.785	290.5
274.017	262.5
274.249	276.5
274.481	275.5
274.713	290.5
274.945	278.5
275.176	269.5
275.408	265.5
275.64	283.5
275.872	264.5
276.104	283.5
276.335	285.5
276.567	280.5
276.799	292.5
277.031	322.5
277.262	350.5
277.494	326.5
277.726	314.5
277.957	306.5
278.189	300.5
278.421	275.5
278.652	259.5
278.884	268.5
279.115	257.5
279.347	259.5
279.579	264.5
279.81	285.5
280.042	275.5
280.273	270.5
280.505	276.5
280.736	290.5
280.968	297.5
281.199	291.5
281.431	267.5
281.662	282.5
281.894	278.5
282.125	275.5
282.356	306.5
282.588	304.5
282.819	309.5
283.051	291.5
283.282	281.5
283.513	290.5
283.745	284.5
283.976	281.5
284.207	313.5
284.439	278.5
284.67	299.5
284.901	301.5
285.132	293.5
285.364	299.5
285.595	284.5
285.826	265.5
286.057	287.5
286.288	300.5
286.52	291.5
286.751	287.5
286.982	306.5
287.213	292.5
287.444	299.5
287.675	296.5
287.906	301.5
288.138	310.5
288.369	315.5
288.6	320.5
288.831	303.5
289.062	324.5
289.293	305.5
289.524	294.5
289.755	308.5
289.986	317.5
290.217	295.5
290.448	317.5
290.679	295.5
290.91	313.5
291.141	310.5
291.371	316.5
291.602	304.5
291.833	313.5
292.064	294.5
292.295	288.5
292.526	289.5
292.757	306.5
292.987	301.5
293.218	294.5
293.449	310.5
293.68	302.5
293.91	307.5
294.141	296.5
294.372	307.5
294.603	291.5
294.833	287.5
295.064	294.5
295.295	302.5
295.525	313.5
295.756	304.5
295.987	326.5
296.217	353.5
296.448	352.5
296.679	327.5
296.909	306.5
297.14	307.5
297.37	312.5
297.601	316.5
297.831	335.5
298.062	311.5
298.292	313.5
298.523	323.5
298.753	315.5
298.984	326.5
299.214	319.5
299.445	312.5
299.675	329.5
299.905	336.5
300.136	305.5
300.366	316.5
300.597	329.5
300.827	328.5
301.057	331.5
301.288	341.5
301.518	347.5
301.748	341.5
301.979	363.5
302.209	359.5
302.439	345.5
302.669	327.5
302.9	349.5
303.13	333.5
303.36	352.5
303.59	355.5
303.82	331.5
304.051	361.5
304.281	349.5
304.511	340.5
304.741	335.5
304.971	332.5
305.201	344.5
305.431	327.5
305.661	330.5
305.891	339.5
306.121	332.5
306.352	347.5
306.582	348.5
306.812	332.5
307.042	320.5
307.272	347.5
307.502	365.5
307.731	339.5
307.961	331.5
308.191	342.5
308.421	353.5
308.651	352.5
308.881	326.5
309.111	344.5
309.341	359.5
309.571	371.5
309.8	364.5
310.03	383.5
310.26	381.5
310.49	389.5
310.72	377.5
310.949	402.5
311.179	406.5
311.409	399.5
311.639	389.5
311.868	389.5
312.098	359.5
312.328	403.5
312.557	416.5
312.787	418.5
313.017	422.5
313.246	393.5
313.476	395.5
313.706	400.5
313.935	405.5
314.165	404.5
314.394	392.5
314.624	411.5
314.853	410.5
315.083	397.5
315.312	405.5
315.542	390.5
315.771	383.5
316.001	391.5
316.23	387.5
316.46	384.5
316.689	407.5
316.919	382.5
317.148	405.5
317.377	399.5
317.607	403.5
317.836	398.5
318.065	396.5
318.295	374.5
318.524	391.5
318.753	381.5
318.983	389.5
319.212	398.5
319.441	389.5
319.67	396.5
319.9	407.5
320.129	400.5
320.358	393.5
320.587	398.5
320.816	421.5
321.046	404.5
321.275	420.5
321.504	428.5
321.733	434.5
321.962	415.5
322.191	415.5
322.42	438.5
322.649	447.5
322.878	455.5
323.108	466.5
323.337	502.5
323.566	503.5
323.795	534.5
324.024	587.5
324.253	691.5
324.482	985.5
324.71	1548.5
324.939	2329.5
325.168	1998.5
325.397	1015.5
325.626	666.5
325.855	561.5
326.084	509.5
326.313	517.5
326.542	532.5
326.77	560.5
326.999	654.5
327.228	937.5
327.457	1399.5
327.686	1756.5
327.914	1138.5
328.143	732.5
328.372	645.5
328.6	615.5
328.829	574.5
329.058	561.5
329.287	603.5
329.515	583.5
329.744	523.5
329.972	547.5
330.201	552.5
330.43	581.5
330.658	602.5
330.887	637.5
331.115	617.5
331.344	565.5
331.572	517.5
331.801	527.5
332.03	509.5
332.258	503.5
332.486	484.5
332.715	487.5
332.943	483.5
333.172	476.5
333.4	470.5
333.629	490.5
333.857	516.5
334.085	540.5
334.314	545.5
334.542	583.5
334.771	605.5
334.999	535.5
335.227	492.5
335.455	486.5
335.684	485.5
335.912	495.5
336.14	472.5
336.369	461.5
336.597	482.5
336.825	495.5
337.053	476.5
337.281	479.5
337.51	471.5
337.738	460.5
337.966	460.5
338.194	473.5
338.422	473.5
338.65	466.5
338.878	468.5
339.106	445.5
339.334	443.5
339.562	468.5
339.79	461.5
340.018	466.5
340.246	457.5
340.474	459.5
340.702	474.5
340.93	444.5
341.158	467.5
341.386	460.5
341.614	465.5
341.842	475.5
342.07	455.5
342.298	438.5
342.526	451.5
342.754	469.5
342.981	427.5
343.209	458.5
343.437	439.5
343.665	465.5
343.893	457.5
344.12	479.5
344.348	481.5
344.576	474.5
344.804	452.5
345.031	478.5
345.259	470.5
345.487	459.5
345.714	455.5
345.942	441.5
346.17	445.5
346.397	458.5
346.625	444.5
346.853	439.5
347.08	436.5
347.308	435.5
347.535	466.5
347.763	460.5
347.99	458.5
348.218	452.5
348.445	457.5
348.673	458.5
348.9	451.5
349.128	439.5
349.355	451.5
349.583	438.5
349.81	444.5
350.037	426.5
350.265	431.5
350.492	429.5
350.72	450.5
350.947	449.5
351.174	470.5
351.402	438.5
351.629	463.5
351.856	462.5
352.083	472.5
352.311	464.5
352.538	459.5
352.765	457.5
352.992	442.5
353.22	445.5
353.447	450.5
353.674	427.5
353.901	434.5
354.128	420.5
354.355	417.5
354.583	416.5
354.81	428.5
355.037	424.5
355.264	425.5
355.491	413.5
355.718	411.5
355.945	426.5
356.172	409.5
356.399	424.5
356.626	421.5
356.853	409.5
357.08	421.5
357.307	443.5
357.534	412.5
357.761	402.5
357.988	424.5
358.215	419.5
358.441	420.5
358.668	432.5
358.895	423.5
359.122	426.5
359.349	447.5
359.576	475.5
359.802	485.5
360.029	508.5
360.256	513.5
360.483	494.5
360.709	465.5
360.936	443.5
361.163	448.5
361.39	445.5
361.616	464.5
361.843	459.5
362.07	461.5
362.296	465.5
362.523	445.5
362.749	449.5
362.976	439.5
363.203	439.5
363.429	427.5
363.656	425.5
363.882	435.5
364.109	416.5
364.335	423.5
364.562	432.5
364.788	451.5
365.015	437.5
365.241	439.5
365.468	438.5
365.694	459.5
365.92	456.5
366.147	440.5
366.373	427.5
366.599	433.5
366.826	419.5
367.052	433.5
367.278	431.5
367.505	424.5
367.731	426.5
367.957	425.5
368.184	447.5
368.41	461.5
368.636	444.5
368.862	451.5
369.089	436.5
369.315	416.5
369.541	453.5
369.767	428.5
369.993	437.5
370.219	435.5
370.445	429.5
370.672	456.5
370.898	443.5
371.124	434.5
371.35	437.5
371.576	442.5
371.802	442.5
372.028	436.5
372.254	444.5
372.48	448.5
372.706	443.5
372.932	448.5
373.158	446.5
373.384	435.5
373.61	440.5
373.835	427.5
374.061	447.5
374.287	446.5
374.513	438.5
374.739	447.5
374.965	456.5
375.191	466.5
375.416	457.5
375.642	431.5
375.868	452.5
376.094	417.5
376.319	439.5
376.545	439.5
376.771	444.5
376.997	436.5
377.222	440.5
377.448	440.5
377.674	419.5
377.899	429.5
378.125	451.5
378.35	426.5
378.576	434.5
378.802	435.5
379.027	428.5
379.253	436.5
379.478	419.5
379.704	445.5
379.929	440.5
380.155	442.5
380.38	459.5
380.606	452.5
380.831	433.5
381.057	455.5
381.282	439.5
381.507	431.5
381.733	448.5
381.958	437.5
382.184	453.5
382.409	470.5
382.634	483.5
382.86	466.5
383.085	453.5
383.31	472.5
383.535	454.5
383.761	467.5
383.986	463.5
384.211	471.5
384.436	472.5
384.662	475.5
384.887	477.5
385.112	470.5
385.337	491.5
385.562	498.5
385.787	493.5
386.013	511.5
386.238	509.5
386.463	521.5
386.688	500.5
386.913	469.5
387.138	471.5
387.363	472.5
387.588	493.5
387.813	473.5
388.038	464.5
388.263	477.5
388.488	495.5
388.713	481.5
388.938	499.5
389.163	484.5
389.387	482.5
389.612	498.5
389.837	479.5
390.062	490.5
390.287	489.5
390.512	504.5
390.736	493.5
390.961	472.5
391.186	503.5
391.411	493.5
391.636	513.5
391.86	501.5
392.085	524.5
392.31	515.5
392.534	496.5
392.759	507.5
392.984	495.5
393.208	499.5
393.433	515.5
393.658	499.5
393.882	513.5
394.107	493.5
394.331	510.5
394.556	480.5
394.78	513.5
395.005	498.5
395.229	503.5
395.454	516.5
395.678	522.5
395.903	531.5
396.127	565.5
396.352	549.5
396.576	538.5
396.801	514.5
397.025	519.5
397.249	537.5
397.474	521.5
397.698	518.5
397.922	553.5
398.147	544.5
398.371	584.5
398.595	571.5
398.82	584.5
399.044	593.5
399.268	601.5
399.492	630.5
399.717	648.5
399.941	709.5
400.165	713.5
400.389	720.5
400.613	653.5
400.837	597.5
401.062	596.5
401.286	577.5
401.51	586.5
401.734	574.5
401.958	579.5
402.182	587.5
402.406	600.5
402.63	600.5
402.854	553.5
403.078	568.5
403.302	600.5
403.526	616.5
403.75	603.5
403.974	596.5
404.198	595.5
404.422	612.5
404.645	631.5
404.869	591.5
405.093	643.5
405.317	693.5
405.541	738.5
405.765	663.5
405.988	626.5
406.212	639.5
406.436	660.5
406.66	685.5
406.883	663.5
407.107	678.5
407.331	732.5
407.555	808.5
407.778	821.5
408.002	698.5
408.226	670.5
408.449	662.5
408.673	668.5
408.896	697.5
409.12	721.5
409.344	707.5
409.567	604.5
409.791	617.5
410.014	581.5
410.238	589.5
410.461	588.5
410.685	600.5
410.908	636.5
411.132	665.5
411.355	703.5
411.578	663.5
411.802	612.5
412.025	599.5
412.249	608.5
412.472	627.5
412.695	683.5
412.919	691.5
413.142	633.5
413.365	592.5
413.589	569.5
413.812	568.5
414.035	559.5
414.258	588.5
414.482	570.5
414.705	594.5
414.928	580.5
415.151	581.5
415.374	568.5
415.597	559.5
415.821	562.5
416.044	595.5
416.267	552.5
416.49	548.5
416.713	540.5
416.936	567.5
417.159	556.5
417.382	588.5
417.605	550.5
417.828	554.5
418.051	593.5
418.274	583.5
418.497	569.5
418.72	572.5
418.943	552.5
419.166	576.5
419.389	629.5
419.611	623.5
419.834	602.5
420.057	608.5
420.28	601.5
420.503	580.5
420.726	585.5
420.948	607.5
421.171	651.5
421.394	689.5
421.617	625.5
421.839	579.5
422.062	593.5
422.285	600.5
422.507	670.5
422.73	754.5
422.953	735.5
423.175	645.5
423.398	626.5
423.621	639.5
423.843	633.5
424.066	647.5
424.288	643.5
424.511	653.5
424.733	714.5
424.956	811.5
425.178	777.5
425.401	776.5
425.623	804.5
425.846	686.5
426.068	653.5
426.291	628.5
426.513	624.5
426.735	643.5
426.958	680.5
427.18	770.5
427.402	923.5
427.625	1028.5
427.847	893.5
428.069	790.5
428.292	666.5
428.514	627.5
428.736	616.5
428.958	599.5
429.181	619.5
429.403	582.5
429.625	597.5
429.847	643.5
430.069	730.5
430.292	714.5
430.514	603.5
430.736	598.5
430.958	565.5
431.18	576.5
431.402	579.5
431.624	537.5
431.846	519.5
432.068	549.5
432.29	541.5
432.512	570.5
432.734	581.5
432.956	592.5
433.178	563.5
433.4	593.5
433.622	562.5
433.844	566.5
434.066	549.5
434.287	571.5
434.509	570.5
434.731	575.5
434.953	598.5
435.175	587.5
435.397	635.5
435.618	639.5
435.84	668.5
436.062	794.5
436.284	879.5
436.505	727.5
436.727	647.5
436.949	629.5
437.17	596.5
437.392	559.5
437.614	597.5
437.835	640.5
438.057	751.5
438.278	896.5
438.5	861.5
438.721	943.5
438.943	936.5
439.165	755.5
439.386	665.5
439.608	649.5
439.829	644.5
440.05	688.5
440.272	725.5
440.493	688.5
440.715	617.5
440.936	602.5
441.158	611.5
441.379	597.5
441.6	627.5
441.822	637.5
442.043	682.5
442.264	759.5
442.486	834.5
442.707	687.5
442.928	691.5
443.149	674.5
443.371	679.5
443.592	718.5
443.813	858.5
444.034	917.5
444.255	766.5
444.476	683.5
444.698	672.5
444.919	647.5
445.14	723.5
445.361	721.5
445.582	696.5
445.803	788.5
446.024	872.5
446.245	877.5
446.466	802.5
446.687	683.5
446.908	627.5
447.129	614.5
447.35	591.5
447.571	591.5
447.792	584.5
448.013	589.5
448.234	594.5
448.455	666.5
448.675	777.5
448.896	916.5
449.117	786.5
449.338	738.5
449.559	851.5
449.779	975.5
450	763.5
450.221	632.5
450.442	594.5
450.662	588.5
450.883	594.5
451.104	587.5
451.324	596.5
451.545	545.5
451.766	545.5
451.986	545.5
452.207	554.5
452.428	515.5
452.648	522.5
452.869	533.5
453.089	568.5
453.31	556.5
453.53	521.5
453.751	520.5
453.971	541.5
454.192	532.5
454.412	524.5
454.633	543.5
454.853	525.5
455.073	486.5
455.294	561.5
455.514	627.5
455.734	603.5
455.955	515.5
456.175	502.5
456.395	480.5
456.616	492.5
456.836	497.5
457.056	533.5
457.276	507.5
457.497	480.5
457.717	529.5
457.937	502.5
458.157	499.5
458.377	535.5
458.598	541.5
458.818	600.5
459.038	681.5
459.258	706.5
459.478	627.5
459.698	579.5
459.918	543.5
460.138	553.5
460.358	580.5
460.578	576.5
460.798	567.5
461.018	591.5
461.238	587.5
461.458	555.5
461.678	540.5
461.898	569.5
462.118	580.5
462.338	566.5
462.558	606.5
462.777	618.5
462.997	627.5
463.217	645.5
463.437	632.5
463.657	631.5
463.876	611.5
464.096	631.5
464.316	618.5
464.536	617.5
464.755	628.5
464.975	615.5
465.195	640.5
465.414	725.5
465.634	647.5
465.854	605.5
466.073	596.5
466.293	559.5
466.512	533.5
466.732	546.5
466.951	535.5
467.171	539.5
467.391	538.5
467.61	568.5
467.829	548.5
468.049	545.5
468.268	576.5
468.488	533.5
468.707	531.5
468.927	518.5
469.146	513.5
469.365	511.5
469.585	520.5
469.804	546.5
470.023	554.5
470.243	551.5
470.462	529.5
470.681	571.5
470.901	575.5
471.12	570.5
471.339	540.5
471.558	543.5
471.777	559.5
471.997	531.5
472.216	571.5
472.435	591.5
472.654	600.5
472.873	544.5
473.092	530.5
473.311	549.5
473.53	562.5
473.749	574.5
473.968	595.5
474.187	714.5
474.406	751.5
474.625	628.5
474.844	579.5
475.063	547.5
475.282	557.5
475.501	576.5
475.72	572.5
475.939	560.5
476.158	560.5
476.377	587.5
476.596	561.5
476.814	577.5
477.033	585.5
477.252	592.5
477.471	591.5
477.69	596.5
477.908	588.5
478.127	625.5
478.346	589.5
478.564	616.5
478.783	604.5
479.002	618.5
479.22	630.5
479.439	638.5
479.658	653.5
479.876	665.5
480.095	657.5
480.313	687.5
480.532	706.5
480.751	685.5
480.969	682.5
481.188	767.5
481.406	820.5
481.624	705.5
481.843	674.5
482.061	659.5
482.28	657.5
482.498	635.5
482.717	617.5
482.935	651.5
483.153	637.5
483.372	644.5
483.59	662.5
483.808	647.5
484.027	640.5
484.245	628.5
484.463	648.5
484.681	686.5
484.9	664.5
485.118	653.5
485.336	681.5
485.554	668.5
485.772	674.5
485.99	681.5
486.209	677.5
486.427	672.5
486.645	697.5
486.863	705.5
487.081	720.5
487.299	683.5
487.517	727.5
487.735	673.5
487.953	680.5
488.171	715.5
488.389	695.5
488.607	711.5
488.825	702.5
489.043	678.5
489.261	712.5
489.479	713.5
489.696	694.5
489.914	711.5
490.132	730.5
490.35	707.5
490.568	749.5
490.786	730.5
491.003	756.5
491.221	769.5
491.439	785.5
491.657	793.5
491.874	809.5
492.092	779.5
492.31	802.5
492.527	810.5
492.745	817.5
492.963	833.5
493.18	818.5
493.398	828.5
493.615	829.5
493.833	832.5
494.05	821.5
494.268	821.5
494.485	858.5
494.703	810.5
494.92	869.5
495.138	829.5
495.355	831.5
495.573	855.5
495.79	848.5
496.008	828.5
496.225	832.5
496.442	849.5
496.66	852.5
496.877	860.5
497.094	836.5
497.312	840.5
497.529	867.5
497.746	867.5
497.963	883.5
498.181	917.5
498.398	905.5
498.615	943.5
498.832	928.5
499.049	953.5
499.267	984.5
499.484	1019.5
499.701	1038.5
499.918	1109.5
500.135	1120.5
500.352	1172.5
500.569	1225.5
500.786	1261.5
501.003	1203.5
501.22	1151.5
501.437	1122.5
501.654	1073.5
501.871	1083.5
502.088	1038.5
502.305	991.5
502.522	953.5
502.739	957.5
502.956	904.5
503.172	901.5
503.389	881.5
503.606	876.5
503.823	860.5
504.04	880.5
504.256	861.5
504.473	854.5
504.69	845.5
504.907	844.5
505.123	809.5
505.34	805.5
505.557	811.5
505.773	796.5
505.99	802.5
506.207	796.5
506.423	812.5
506.64	794.5
506.856	783.5
507.073	763.5
507.289	775.5
507.506	785.5
507.722	765.5
507.939	777.5
508.155	754.5
508.372	750.5
508.588	730.5
508.805	752.5
509.021	715.5
509.238	761.5
509.454	767.5
509.67	753.5
509.887	751.5
510.103	732.5
510.319	771.5
510.536	855.5
510.752	1327.5
510.968	1079.5
511.184	779.5
511.401	731.5
511.617	711.5
511.833	717.5
512.049	689.5
512.265	713.5
512.481	703.5
512.698	688.5
512.914	705.5
513.13	726.5
513.346	679.5
513.562	709.5
513.778	717.5
513.994	691.5
514.21	722.5
514.426	734.5
514.642	769.5
514.858	807.5
515.074	846.5
515.29	946.5
515.506	1359.5
515.721	1128.5
515.937	841.5
516.153	781.5
516.369	758.5
516.585	726.5
516.801	728.5
517.016	757.5
517.232	739.5
517.448	744.5
517.664	734.5
517.879	742.5
518.095	733.5
518.311	747.5
518.527	736.5
518.742	726.5
518.958	715.5
519.173	705.5
519.389	714.5
