Data from 1966.PennyLincolnUp.Lamp.En5.5.200Scan.071719.P1._HRD10591_14-14-18-914.txt Node
Date: Thu Jul 18 14:14:18 EDT 2019
User: cochatt
Spectrometer: HR+D1059
Trigger mode: 1
Integration Time (sec): 1.000000E-1
Scans to average: 1
Electric dark correction enabled: true
Nonlinearity correction enabled: false
Boxcar width: 0
XAxis mode: Wavelengths
Number of Pixels in Spectrum: 2048
>>>>>Begin Spectral Data<<<<<
223.165	-16.75
223.4	-16.75
223.635	-16.75
223.869	-7.75
224.104	2.25
224.338	-14.75
224.573	-23.75
224.808	-5.75
225.042	-3.75
225.277	12.25
225.511	-22.75
225.746	-17.75
225.98	-0.75
226.215	16.25
226.449	8.25
226.683	20.25
226.918	27.25
227.152	27.25
227.387	42.25
227.621	48.25
227.856	53.25
228.09	59.25
228.324	57.25
228.559	66.25
228.793	64.25
229.027	67.25
229.262	97.25
229.496	85.25
229.73	100.25
229.964	108.25
230.199	101.25
230.433	119.25
230.667	92.25
230.901	97.25
231.136	89.25
231.37	102.25
231.604	92.25
231.838	90.25
232.072	93.25
232.306	102.25
232.541	99.25
232.775	100.25
233.009	93.25
233.243	97.25
233.477	98.25
233.711	103.25
233.945	105.25
234.179	107.25
234.413	96.25
234.647	104.25
234.881	99.25
235.115	107.25
235.349	101.25
235.583	95.25
235.817	99.25
236.051	104.25
236.285	98.25
236.519	96.25
236.753	105.25
236.987	125.25
237.221	140.25
237.455	147.25
237.689	135.25
237.922	93.25
238.156	94.25
238.39	86.25
238.624	102.25
238.858	82.25
239.091	113.25
239.325	99.25
239.559	105.25
239.793	86.25
240.027	111.25
240.26	98.25
240.494	116.25
240.728	124.25
240.961	116.25
241.195	126.25
241.429	104.25
241.662	105.25
241.896	96.25
242.13	100.25
242.363	103.25
242.597	104.25
242.83	108.25
243.064	110.25
243.298	100.25
243.531	121.25
243.765	108.25
243.998	108.25
244.232	112.25
244.465	106.25
244.699	101.25
244.932	102.25
245.166	104.25
245.399	123.25
245.633	122.25
245.866	113.25
246.099	121.25
246.333	108.25
246.566	118.25
246.8	124.25
247.033	125.25
247.266	102.25
247.5	118.25
247.733	110.25
247.966	129.25
248.2	120.25
248.433	119.25
248.666	132.25
248.899	140.25
249.133	128.25
249.366	145.25
249.599	128.25
249.832	136.25
250.066	133.25
250.299	128.25
250.532	138.25
250.765	144.25
250.998	144.25
251.231	158.25
251.465	158.25
251.698	144.25
251.931	111.25
252.164	140.25
252.397	129.25
252.63	144.25
252.863	128.25
253.096	156.25
253.329	138.25
253.562	150.25
253.795	138.25
254.028	135.25
254.261	131.25
254.494	142.25
254.727	177.25
254.96	181.25
255.193	171.25
255.426	162.25
255.659	158.25
255.892	162.25
256.124	152.25
256.357	162.25
256.59	157.25
256.823	135.25
257.056	140.25
257.289	157.25
257.521	146.25
257.754	144.25
257.987	150.25
258.22	141.25
258.452	131.25
258.685	139.25
258.918	136.25
259.151	131.25
259.383	144.25
259.616	148.25
259.849	135.25
260.081	157.25
260.314	154.25
260.547	162.25
260.779	150.25
261.012	150.25
261.244	140.25
261.477	148.25
261.71	143.25
261.942	151.25
262.175	160.25
262.407	154.25
262.64	145.25
262.872	144.25
263.105	130.25
263.337	128.25
263.57	140.25
263.802	148.25
264.035	136.25
264.267	146.25
264.499	145.25
264.732	141.25
264.964	153.25
265.197	138.25
265.429	142.25
265.661	134.25
265.894	138.25
266.126	141.25
266.358	140.25
266.591	136.25
266.823	133.25
267.055	148.25
267.287	154.25
267.52	136.25
267.752	160.25
267.984	141.25
268.216	146.25
268.448	156.25
268.681	163.25
268.913	161.25
269.145	152.25
269.377	176.25
269.609	175.25
269.841	164.25
270.073	169.25
270.306	195.25
270.538	189.25
270.77	200.25
271.002	172.25
271.234	169.25
271.466	187.25
271.698	199.25
271.93	172.25
272.162	202.25
272.394	198.25
272.626	185.25
272.858	165.25
273.09	169.25
273.322	148.25
273.553	160.25
273.785	154.25
274.017	155.25
274.249	155.25
274.481	143.25
274.713	177.25
274.945	165.25
275.176	156.25
275.408	167.25
275.64	164.25
275.872	157.25
276.104	184.25
276.335	184.25
276.567	174.25
276.799	169.25
277.031	193.25
277.262	186.25
277.494	188.25
277.726	190.25
277.957	168.25
278.189	155.25
278.421	169.25
278.652	151.25
278.884	169.25
279.115	176.25
279.347	170.25
279.579	181.25
279.81	182.25
280.042	153.25
280.273	168.25
280.505	160.25
280.736	171.25
280.968	155.25
281.199	161.25
281.431	169.25
281.662	176.25
281.894	164.25
282.125	180.25
282.356	180.25
282.588	192.25
282.819	182.25
283.051	167.25
283.282	156.25
283.513	160.25
283.745	185.25
283.976	168.25
284.207	186.25
284.439	191.25
284.67	181.25
284.901	189.25
285.132	169.25
285.364	181.25
285.595	190.25
285.826	181.25
286.057	168.25
286.288	176.25
286.52	187.25
286.751	176.25
286.982	175.25
287.213	169.25
287.444	177.25
287.675	165.25
287.906	180.25
288.138	192.25
288.369	184.25
288.6	187.25
288.831	187.25
289.062	188.25
289.293	176.25
289.524	175.25
289.755	177.25
289.986	169.25
290.217	160.25
290.448	173.25
290.679	177.25
290.91	197.25
291.141	181.25
291.371	176.25
291.602	180.25
291.833	159.25
292.064	178.25
292.295	184.25
292.526	164.25
292.757	179.25
292.987	171.25
293.218	181.25
293.449	174.25
293.68	187.25
293.91	172.25
294.141	170.25
294.372	184.25
294.603	177.25
294.833	192.25
295.064	174.25
295.295	173.25
295.525	192.25
295.756	195.25
295.987	182.25
296.217	200.25
296.448	192.25
296.679	188.25
296.909	192.25
297.14	185.25
297.37	180.25
297.601	201.25
297.831	174.25
298.062	186.25
298.292	184.25
298.523	188.25
298.753	208.25
298.984	202.25
299.214	189.25
299.445	178.25
299.675	191.25
299.905	186.25
300.136	176.25
300.366	181.25
300.597	188.25
300.827	186.25
301.057	197.25
301.288	194.25
301.518	208.25
301.748	191.25
301.979	210.25
302.209	191.25
302.439	212.25
302.669	184.25
302.9	202.25
303.13	202.25
303.36	202.25
303.59	213.25
303.82	196.25
304.051	197.25
304.281	201.25
304.511	197.25
304.741	200.25
304.971	204.25
305.201	184.25
305.431	191.25
305.661	182.25
305.891	194.25
306.121	192.25
306.352	207.25
306.582	207.25
306.812	196.25
307.042	217.25
307.272	185.25
307.502	181.25
307.731	186.25
307.961	195.25
308.191	181.25
308.421	191.25
308.651	198.25
308.881	205.25
309.111	189.25
309.341	200.25
309.571	198.25
309.8	208.25
310.03	210.25
310.26	234.25
310.49	223.25
310.72	232.25
310.949	232.25
311.179	222.25
311.409	216.25
311.639	205.25
311.868	207.25
312.098	219.25
312.328	221.25
312.557	225.25
312.787	242.25
313.017	234.25
313.246	238.25
313.476	221.25
313.706	217.25
313.935	218.25
314.165	216.25
314.394	241.25
314.624	222.25
314.853	227.25
315.083	227.25
315.312	216.25
315.542	224.25
315.771	233.25
316.001	212.25
316.23	229.25
316.46	214.25
316.689	235.25
316.919	212.25
317.148	210.25
317.377	240.25
317.607	219.25
317.836	228.25
318.065	223.25
318.295	236.25
318.524	207.25
318.753	211.25
318.983	208.25
319.212	219.25
319.441	231.25
319.67	220.25
319.9	227.25
320.129	226.25
320.358	201.25
320.587	206.25
320.816	210.25
321.046	237.25
321.275	231.25
321.504	227.25
321.733	221.25
321.962	231.25
322.191	238.25
322.42	234.25
322.649	264.25
322.878	238.25
323.108	254.25
323.337	271.25
323.566	275.25
323.795	290.25
324.024	314.25
324.253	376.25
324.482	534.25
324.71	776.25
324.939	1039.25
325.168	862.25
325.397	450.25
325.626	328.25
325.855	272.25
326.084	274.25
326.313	270.25
326.542	270.25
326.77	300.25
326.999	364.25
327.228	486.25
327.457	681.25
327.686	772.25
327.914	520.25
328.143	361.25
328.372	335.25
328.6	309.25
328.829	312.25
329.058	295.25
329.287	337.25
329.515	300.25
329.744	264.25
329.972	257.25
330.201	299.25
330.43	329.25
330.658	355.25
330.887	345.25
331.115	339.25
331.344	303.25
331.572	258.25
331.801	288.25
332.03	256.25
332.258	268.25
332.486	255.25
332.715	259.25
332.943	236.25
333.172	245.25
333.4	252.25
333.629	245.25
333.857	298.25
334.085	299.25
334.314	297.25
334.542	334.25
334.771	337.25
334.999	290.25
335.227	262.25
335.455	266.25
335.684	265.25
335.912	257.25
336.14	225.25
336.369	238.25
336.597	240.25
336.825	270.25
337.053	269.25
337.281	255.25
337.51	226.25
337.738	262.25
337.966	253.25
338.194	244.25
338.422	251.25
338.65	242.25
338.878	238.25
339.106	242.25
339.334	234.25
339.562	245.25
339.79	248.25
340.018	236.25
340.246	230.25
340.474	239.25
340.702	236.25
340.93	227.25
341.158	238.25
341.386	243.25
341.614	255.25
341.842	233.25
342.07	233.25
342.298	233.25
342.526	250.25
342.754	231.25
342.981	232.25
343.209	236.25
343.437	234.25
343.665	244.25
343.893	245.25
344.12	248.25
344.348	226.25
344.576	236.25
344.804	239.25
345.031	233.25
345.259	236.25
345.487	256.25
345.714	219.25
345.942	233.25
346.17	214.25
346.397	226.25
346.625	225.25
346.853	251.25
347.08	213.25
347.308	233.25
347.535	250.25
347.763	241.25
347.99	229.25
348.218	244.25
348.445	232.25
348.673	238.25
348.9	237.25
349.128	223.25
349.355	230.25
349.583	217.25
349.81	213.25
350.037	224.25
350.265	224.25
350.492	209.25
350.72	237.25
350.947	221.25
351.174	235.25
351.402	252.25
351.629	235.25
351.856	236.25
352.083	229.25
352.311	244.25
352.538	248.25
352.765	245.25
352.992	244.25
353.22	225.25
353.447	228.25
353.674	222.25
353.901	219.25
354.128	205.25
354.355	224.25
354.583	232.25
354.81	229.25
355.037	228.25
355.264	208.25
355.491	205.25
355.718	204.25
355.945	215.25
356.172	212.25
356.399	216.25
356.626	202.25
356.853	217.25
357.08	226.25
357.307	214.25
357.534	205.25
357.761	210.25
357.988	200.25
358.215	216.25
358.441	196.25
358.668	195.25
358.895	211.25
359.122	226.25
359.349	229.25
359.576	218.25
359.802	229.25
360.029	263.25
360.256	257.25
360.483	251.25
360.709	227.25
360.936	226.25
361.163	229.25
361.39	238.25
361.616	245.25
361.843	245.25
362.07	250.25
362.296	236.25
362.523	231.25
362.749	212.25
362.976	248.25
363.203	229.25
363.429	216.25
363.656	226.25
363.882	229.25
364.109	232.25
364.335	234.25
364.562	207.25
364.788	218.25
365.015	216.25
365.241	225.25
365.468	224.25
365.694	220.25
365.92	229.25
366.147	228.25
366.373	219.25
366.599	201.25
366.826	221.25
367.052	218.25
367.278	224.25
367.505	208.25
367.731	202.25
367.957	208.25
368.184	206.25
368.41	235.25
368.636	237.25
368.862	226.25
369.089	236.25
369.315	225.25
369.541	211.25
369.767	225.25
369.993	215.25
370.219	232.25
370.445	220.25
370.672	218.25
370.898	226.25
371.124	225.25
371.35	231.25
371.576	212.25
371.802	224.25
372.028	210.25
372.254	223.25
372.48	213.25
372.706	211.25
372.932	212.25
373.158	220.25
373.384	218.25
373.61	236.25
373.835	209.25
374.061	214.25
374.287	209.25
374.513	219.25
374.739	219.25
374.965	213.25
375.191	215.25
375.416	216.25
375.642	236.25
375.868	227.25
376.094	223.25
376.319	204.25
376.545	205.25
376.771	217.25
376.997	213.25
377.222	224.25
377.448	226.25
377.674	237.25
377.899	201.25
378.125	201.25
378.35	215.25
378.576	233.25
378.802	216.25
379.027	203.25
379.253	208.25
379.478	205.25
379.704	228.25
379.929	206.25
380.155	219.25
380.38	225.25
380.606	217.25
380.831	214.25
381.057	212.25
381.282	216.25
381.507	221.25
381.733	232.25
381.958	187.25
382.184	215.25
382.409	225.25
382.634	221.25
382.86	227.25
383.085	213.25
383.31	236.25
383.535	223.25
383.761	225.25
383.986	225.25
384.211	224.25
384.436	216.25
384.662	229.25
384.887	225.25
385.112	225.25
385.337	197.25
385.562	222.25
385.787	220.25
386.013	244.25
386.238	233.25
386.463	219.25
386.688	238.25
386.913	220.25
387.138	226.25
387.363	229.25
387.588	234.25
387.813	245.25
388.038	241.25
388.263	226.25
388.488	243.25
388.713	237.25
388.938	239.25
389.163	243.25
389.387	206.25
389.612	226.25
389.837	232.25
390.062	228.25
390.287	214.25
390.512	224.25
390.736	248.25
390.961	235.25
391.186	217.25
391.411	227.25
391.636	232.25
391.86	231.25
392.085	223.25
392.31	245.25
392.534	236.25
392.759	231.25
392.984	225.25
393.208	226.25
393.433	240.25
393.658	257.25
393.882	244.25
394.107	224.25
394.331	226.25
394.556	226.25
394.78	253.25
395.005	235.25
395.229	242.25
395.454	254.25
395.678	238.25
395.903	232.25
396.127	243.25
396.352	258.25
396.576	242.25
396.801	249.25
397.025	253.25
397.249	232.25
397.474	246.25
397.698	245.25
397.922	246.25
398.147	261.25
398.371	255.25
398.595	255.25
398.82	270.25
399.044	261.25
399.268	266.25
399.492	289.25
399.717	301.25
399.941	308.25
400.165	316.25
400.389	310.25
400.613	300.25
400.837	267.25
401.062	262.25
401.286	272.25
401.51	276.25
401.734	276.25
401.958	256.25
402.182	268.25
402.406	272.25
402.63	296.25
402.854	281.25
403.078	259.25
403.302	275.25
403.526	278.25
403.75	274.25
403.974	270.25
404.198	278.25
404.422	278.25
404.645	274.25
404.869	277.25
405.093	309.25
405.317	314.25
405.541	324.25
405.765	303.25
405.988	280.25
406.212	310.25
406.436	319.25
406.66	329.25
406.883	311.25
407.107	301.25
407.331	337.25
407.555	348.25
407.778	337.25
408.002	312.25
408.226	306.25
408.449	300.25
408.673	292.25
408.896	302.25
409.12	305.25
409.344	309.25
409.567	279.25
409.791	259.25
410.014	278.25
410.238	251.25
410.461	278.25
410.685	279.25
410.908	277.25
411.132	292.25
411.355	322.25
411.578	296.25
411.802	282.25
412.025	287.25
412.249	276.25
412.472	278.25
412.695	304.25
412.919	295.25
413.142	273.25
413.365	287.25
413.589	295.25
413.812	254.25
414.035	255.25
414.258	256.25
414.482	255.25
414.705	269.25
414.928	268.25
415.151	265.25
415.374	254.25
415.597	251.25
415.821	248.25
416.044	266.25
416.267	252.25
416.49	253.25
416.713	265.25
416.936	266.25
417.159	243.25
417.382	240.25
417.605	282.25
417.828	269.25
418.051	284.25
418.274	268.25
418.497	266.25
418.72	260.25
418.943	255.25
419.166	264.25
419.389	269.25
419.611	275.25
419.834	263.25
420.057	282.25
420.28	283.25
420.503	286.25
420.726	279.25
420.948	271.25
421.171	284.25
421.394	312.25
421.617	279.25
421.839	282.25
422.062	271.25
422.285	277.25
422.507	308.25
422.73	309.25
422.953	332.25
423.175	276.25
423.398	289.25
423.621	280.25
423.843	276.25
424.066	278.25
424.288	288.25
424.511	285.25
424.733	324.25
424.956	348.25
425.178	338.25
425.401	323.25
425.623	363.25
425.846	310.25
426.068	286.25
426.291	279.25
426.513	270.25
426.735	300.25
426.958	325.25
427.18	360.25
427.402	378.25
427.625	417.25
427.847	400.25
428.069	341.25
428.292	314.25
428.514	277.25
428.736	270.25
428.958	285.25
429.181	264.25
429.403	284.25
429.625	298.25
429.847	287.25
430.069	337.25
430.292	314.25
430.514	273.25
430.736	259.25
430.958	274.25
431.18	248.25
431.402	268.25
431.624	228.25
431.846	253.25
432.068	275.25
432.29	266.25
432.512	261.25
432.734	276.25
432.956	250.25
433.178	266.25
433.4	275.25
433.622	263.25
433.844	261.25
434.066	241.25
434.287	243.25
434.509	240.25
434.731	274.25
434.953	268.25
435.175	277.25
435.397	267.25
435.618	273.25
435.84	300.25
436.062	349.25
436.284	350.25
436.505	318.25
436.727	280.25
436.949	266.25
437.17	282.25
437.392	262.25
437.614	287.25
437.835	282.25
438.057	341.25
438.278	383.25
438.5	356.25
438.721	392.25
438.943	360.25
439.165	306.25
439.386	312.25
439.608	300.25
439.829	299.25
440.05	324.25
440.272	306.25
440.493	300.25
440.715	289.25
440.936	272.25
441.158	258.25
441.379	276.25
441.6	265.25
441.822	298.25
442.043	298.25
442.264	341.25
442.486	354.25
442.707	312.25
442.928	297.25
443.149	294.25
443.371	313.25
443.592	330.25
443.813	372.25
444.034	384.25
444.255	333.25
444.476	312.25
444.698	297.25
444.919	288.25
445.14	388.25
445.361	353.25
445.582	308.25
445.803	340.25
446.024	397.25
446.245	388.25
446.466	357.25
446.687	332.25
446.908	286.25
447.129	276.25
447.35	265.25
447.571	270.25
447.792	276.25
448.013	270.25
448.234	276.25
448.455	306.25
448.675	347.25
448.896	392.25
449.117	338.25
449.338	322.25
449.559	358.25
449.779	409.25
450	334.25
450.221	289.25
450.442	276.25
450.662	268.25
450.883	264.25
451.104	284.25
451.324	268.25
451.545	270.25
451.766	244.25
451.986	243.25
452.207	238.25
452.428	248.25
452.648	245.25
452.869	238.25
453.089	245.25
453.31	267.25
453.53	228.25
453.751	239.25
453.971	252.25
454.192	259.25
454.412	268.25
454.633	243.25
454.853	254.25
455.073	244.25
455.294	256.25
455.514	290.25
455.734	273.25
455.955	222.25
456.175	230.25
456.395	222.25
456.616	219.25
456.836	223.25
457.056	226.25
457.276	228.25
457.497	225.25
457.717	222.25
457.937	236.25
458.157	242.25
458.377	229.25
458.598	244.25
458.818	264.25
459.038	340.25
459.258	326.25
459.478	290.25
459.698	263.25
459.918	259.25
460.138	251.25
460.358	256.25
460.578	266.25
460.798	269.25
461.018	264.25
461.238	257.25
461.458	260.25
461.678	258.25
461.898	278.25
462.118	271.25
462.338	245.25
462.558	271.25
462.777	274.25
462.997	275.25
463.217	296.25
463.437	278.25
463.657	286.25
463.876	288.25
464.096	276.25
464.316	254.25
464.536	282.25
464.755	274.25
464.975	276.25
465.195	311.25
465.414	351.25
465.634	307.25
465.854	267.25
466.073	242.25
466.293	267.25
466.512	257.25
466.732	242.25
466.951	236.25
467.171	243.25
467.391	258.25
467.61	258.25
467.829	268.25
468.049	249.25
468.268	277.25
468.488	253.25
468.707	243.25
468.927	243.25
469.146	238.25
469.365	252.25
469.585	229.25
469.804	255.25
470.023	266.25
470.243	251.25
470.462	245.25
470.681	270.25
470.901	272.25
471.12	251.25
471.339	240.25
471.558	257.25
471.777	274.25
471.997	261.25
472.216	264.25
472.435	292.25
472.654	273.25
472.873	253.25
473.092	266.25
473.311	251.25
473.53	228.25
473.749	266.25
473.968	276.25
474.187	331.25
474.406	322.25
474.625	277.25
474.844	262.25
475.063	242.25
475.282	264.25
475.501	257.25
475.72	252.25
475.939	255.25
476.158	275.25
476.377	258.25
476.596	249.25
476.814	248.25
477.033	266.25
477.252	277.25
477.471	276.25
477.69	277.25
477.908	267.25
478.127	268.25
478.346	267.25
478.564	277.25
478.783	291.25
479.002	286.25
479.22	278.25
479.439	298.25
479.658	313.25
479.876	287.25
480.095	296.25
480.313	318.25
480.532	314.25
480.751	307.25
480.969	316.25
481.188	374.25
481.406	382.25
481.624	320.25
481.843	306.25
482.061	298.25
482.28	299.25
482.498	290.25
482.717	302.25
482.935	292.25
483.153	282.25
483.372	282.25
483.59	288.25
483.808	286.25
484.027	273.25
484.245	292.25
484.463	293.25
484.681	298.25
484.9	294.25
485.118	289.25
485.336	299.25
485.554	324.25
485.772	314.25
485.99	294.25
486.209	305.25
486.427	300.25
486.645	293.25
486.863	323.25
487.081	332.25
487.299	328.25
487.517	312.25
487.735	314.25
487.953	308.25
488.171	308.25
488.389	317.25
488.607	306.25
488.825	292.25
489.043	324.25
489.261	304.25
489.479	314.25
489.696	328.25
489.914	303.25
490.132	296.25
490.35	336.25
490.568	321.25
490.786	329.25
491.003	357.25
491.221	352.25
491.439	359.25
491.657	366.25
491.874	366.25
492.092	343.25
492.31	361.25
492.527	363.25
492.745	382.25
492.963	356.25
493.18	378.25
493.398	372.25
493.615	361.25
493.833	376.25
494.05	370.25
494.268	374.25
494.485	348.25
494.703	372.25
494.92	357.25
495.138	370.25
495.355	367.25
495.573	351.25
495.79	371.25
496.008	381.25
496.225	363.25
496.442	346.25
496.66	382.25
496.877	358.25
497.094	377.25
497.312	368.25
497.529	383.25
497.746	386.25
497.963	385.25
498.181	386.25
498.398	369.25
498.615	369.25
498.832	394.25
499.049	406.25
499.267	395.25
499.484	423.25
499.701	416.25
499.918	435.25
500.135	445.25
500.352	476.25
500.569	465.25
500.786	494.25
501.003	475.25
501.22	454.25
501.437	458.25
501.654	440.25
501.871	446.25
502.088	412.25
502.305	421.25
