Data from 1966.PennyLincolnUp.Lamp.En5.5.200Scan.071719.P1.Scan2.head_HRD10591_14-16-42-050.txt Node
Date: Thu Jul 18 14:16:42 EDT 2019
User: cochatt
Spectrometer: HR+D1059
Trigger mode: 1
Integration Time (sec): 1.000000E-1
Scans to average: 1
Electric dark correction enabled: true
Nonlinearity correction enabled: false
Boxcar width: 0
XAxis mode: Wavelengths
Number of Pixels in Spectrum: 2048
>>>>>Begin Spectral Data<<<<<
223.165	-15.38
223.4	-15.38
223.635	-15.38
223.869	-12.38
224.104	-8.38
224.338	-29.38
224.573	-14.38
224.808	-17.38
225.042	3.62
225.277	-9.38
225.511	-10.38
225.746	-12.38
225.98	8.62
226.215	15.62
226.449	21.62
226.683	37.62
226.918	24.62
227.152	17.62
227.387	25.62
227.621	32.62
227.856	46.62
228.09	38.62
228.324	44.62
228.559	63.62
228.793	72.62
229.027	80.62
229.262	88.62
229.496	106.62
229.73	120.62
229.964	149.62
230.199	131.62
230.433	100.62
230.667	109.62
230.901	103.62
231.136	103.62
231.37	112.62
231.604	93.62
231.838	116.62
232.072	115.62
232.306	109.62
232.541	118.62
232.775	91.62
233.009	117.62
233.243	117.62
233.477	111.62
233.711	119.62
233.945	112.62
234.179	105.62
234.413	108.62
234.647	121.62
234.881	105.62
235.115	115.62
235.349	112.62
235.583	125.62
235.817	123.62
236.051	107.62
236.285	120.62
236.519	129.62
236.753	127.62
236.987	121.62
237.221	175.62
237.455	212.62
237.689	180.62
237.922	126.62
238.156	132.62
238.39	127.62
238.624	124.62
238.858	122.62
239.091	108.62
239.325	136.62
239.559	119.62
239.793	125.62
240.027	131.62
240.26	122.62
240.494	140.62
240.728	137.62
240.961	143.62
241.195	148.62
241.429	140.62
241.662	145.62
241.896	129.62
242.13	123.62
242.363	119.62
242.597	123.62
242.83	130.62
243.064	138.62
243.298	120.62
243.531	142.62
243.765	125.62
243.998	137.62
244.232	131.62
244.465	142.62
244.699	143.62
244.932	149.62
245.166	145.62
245.399	145.62
245.633	124.62
245.866	149.62
246.099	149.62
246.333	148.62
246.566	153.62
246.8	134.62
247.033	157.62
247.266	144.62
247.5	153.62
247.733	160.62
247.966	157.62
248.2	163.62
248.433	161.62
248.666	161.62
248.899	176.62
249.133	183.62
249.366	179.62
249.599	195.62
249.832	185.62
250.066	176.62
250.299	168.62
250.532	177.62
250.765	198.62
250.998	201.62
251.231	199.62
251.465	180.62
251.698	186.62
251.931	169.62
252.164	190.62
252.397	183.62
252.63	196.62
252.863	166.62
253.096	192.62
253.329	215.62
253.562	212.62
253.795	204.62
254.028	195.62
254.261	191.62
254.494	195.62
254.727	225.62
254.96	250.62
255.193	233.62
255.426	219.62
255.659	212.62
255.892	207.62
256.124	208.62
256.357	188.62
256.59	204.62
256.823	199.62
257.056	179.62
257.289	214.62
257.521	185.62
257.754	191.62
257.987	191.62
258.22	191.62
258.452	186.62
258.685	180.62
258.918	186.62
259.151	201.62
259.383	201.62
259.616	215.62
259.849	200.62
260.081	222.62
260.314	215.62
260.547	224.62
260.779	203.62
261.012	207.62
261.244	206.62
261.477	224.62
261.71	207.62
261.942	205.62
262.175	209.62
262.407	206.62
262.64	218.62
262.872	216.62
263.105	195.62
263.337	211.62
263.57	206.62
263.802	208.62
264.035	195.62
264.267	199.62
264.499	198.62
264.732	213.62
264.964	180.62
265.197	203.62
265.429	208.62
265.661	198.62
265.894	200.62
266.126	207.62
266.358	196.62
266.591	209.62
266.823	222.62
267.055	194.62
267.287	228.62
267.52	216.62
267.752	211.62
267.984	216.62
268.216	213.62
268.448	220.62
268.681	218.62
268.913	226.62
269.145	246.62
269.377	251.62
269.609	268.62
269.841	235.62
270.073	230.62
270.306	269.62
270.538	278.62
270.77	275.62
271.002	257.62
271.234	250.62
271.466	264.62
271.698	266.62
271.93	274.62
272.162	275.62
272.394	264.62
272.626	272.62
272.858	270.62
273.09	234.62
273.322	233.62
273.553	234.62
273.785	253.62
274.017	239.62
274.249	244.62
274.481	246.62
274.713	231.62
274.945	243.62
275.176	226.62
275.408	249.62
275.64	243.62
275.872	251.62
276.104	235.62
276.335	264.62
276.567	250.62
276.799	259.62
277.031	268.62
277.262	272.62
277.494	278.62
277.726	273.62
277.957	269.62
278.189	273.62
278.421	261.62
278.652	238.62
278.884	254.62
279.115	255.62
279.347	258.62
279.579	244.62
279.81	243.62
280.042	242.62
280.273	268.62
280.505	259.62
280.736	259.62
280.968	253.62
281.199	258.62
281.431	238.62
281.662	261.62
281.894	263.62
282.125	243.62
282.356	257.62
282.588	269.62
282.819	271.62
283.051	256.62
283.282	247.62
283.513	263.62
283.745	256.62
283.976	255.62
284.207	281.62
284.439	264.62
284.67	268.62
284.901	264.62
285.132	272.62
285.364	260.62
285.595	254.62
285.826	255.62
286.057	277.62
286.288	263.62
286.52	264.62
286.751	268.62
286.982	272.62
287.213	282.62
287.444	274.62
287.675	272.62
287.906	294.62
288.138	272.62
288.369	272.62
288.6	284.62
288.831	263.62
289.062	272.62
289.293	265.62
289.524	264.62
289.755	265.62
289.986	249.62
290.217	270.62
290.448	252.62
290.679	291.62
290.91	269.62
291.141	264.62
291.371	275.62
291.602	298.62
291.833	268.62
292.064	280.62
292.295	252.62
292.526	271.62
292.757	248.62
292.987	266.62
293.218	264.62
293.449	293.62
293.68	263.62
293.91	287.62
294.141	272.62
294.372	299.62
294.603	292.62
294.833	289.62
295.064	281.62
295.295	278.62
295.525	265.62
295.756	272.62
295.987	277.62
296.217	297.62
296.448	298.62
296.679	277.62
296.909	277.62
297.14	286.62
297.37	295.62
297.601	271.62
297.831	282.62
298.062	303.62
298.292	289.62
298.523	285.62
298.753	279.62
298.984	312.62
299.214	293.62
299.445	284.62
299.675	311.62
299.905	302.62
300.136	288.62
300.366	300.62
300.597	303.62
300.827	307.62
301.057	314.62
301.288	293.62
301.518	313.62
301.748	296.62
301.979	295.62
302.209	308.62
302.439	303.62
302.669	316.62
302.9	304.62
303.13	288.62
303.36	301.62
303.59	327.62
303.82	328.62
304.051	327.62
304.281	321.62
304.511	311.62
304.741	324.62
304.971	293.62
305.201	321.62
305.431	330.62
305.661	307.62
305.891	300.62
306.121	315.62
306.352	309.62
306.582	292.62
306.812	307.62
307.042	309.62
307.272	289.62
307.502	305.62
307.731	319.62
307.961	312.62
308.191	311.62
308.421	316.62
308.651	303.62
308.881	324.62
309.111	328.62
309.341	324.62
309.571	323.62
309.8	319.62
310.03	328.62
310.26	323.62
310.49	339.62
310.72	341.62
310.949	344.62
311.179	337.62
311.409	339.62
311.639	342.62
311.868	342.62
312.098	337.62
312.328	358.62
312.557	349.62
312.787	366.62
313.017	358.62
313.246	379.62
313.476	353.62
313.706	359.62
313.935	352.62
314.165	365.62
314.394	348.62
314.624	345.62
314.853	350.62
315.083	335.62
315.312	344.62
315.542	355.62
315.771	351.62
316.001	342.62
316.23	343.62
316.46	339.62
316.689	353.62
316.919	344.62
317.148	363.62
317.377	364.62
317.607	357.62
317.836	336.62
318.065	340.62
318.295	355.62
318.524	336.62
318.753	331.62
318.983	356.62
319.212	349.62
319.441	358.62
319.67	368.62
319.9	348.62
320.129	357.62
320.358	333.62
320.587	342.62
320.816	348.62
321.046	372.62
321.275	367.62
321.504	352.62
321.733	366.62
321.962	366.62
322.191	373.62
322.42	385.62
322.649	391.62
322.878	391.62
323.108	408.62
323.337	400.62
323.566	429.62
323.795	449.62
324.024	489.62
324.253	552.62
324.482	750.62
324.71	1163.62
324.939	1750.62
325.168	1479.62
325.397	729.62
325.626	525.62
325.855	456.62
326.084	419.62
326.313	430.62
326.542	430.62
326.77	474.62
326.999	534.62
327.228	696.62
327.457	1041.62
327.686	1326.62
327.914	860.62
328.143	573.62
328.372	518.62
328.6	496.62
328.829	464.62
329.058	490.62
329.287	492.62
329.515	449.62
329.744	457.62
329.972	452.62
330.201	437.62
330.43	489.62
330.658	494.62
330.887	502.62
331.115	523.62
331.344	449.62
331.572	439.62
331.801	432.62
332.03	428.62
332.258	423.62
332.486	437.62
332.715	400.62
332.943	405.62
333.172	426.62
333.4	419.62
333.629	426.62
333.857	438.62
334.085	449.62
334.314	469.62
334.542	481.62
334.771	481.62
334.999	467.62
335.227	440.62
335.455	429.62
335.684	424.62
335.912	428.62
336.14	437.62
336.369	419.62
336.597	407.62
336.825	419.62
337.053	431.62
337.281	408.62
337.51	408.62
337.738	432.62
337.966	415.62
338.194	427.62
338.422	427.62
338.65	418.62
338.878	421.62
339.106	405.62
339.334	419.62
339.562	396.62
339.79	401.62
340.018	376.62
340.246	403.62
340.474	395.62
340.702	411.62
340.93	407.62
341.158	399.62
341.386	396.62
341.614	408.62
341.842	404.62
342.07	401.62
342.298	386.62
342.526	392.62
342.754	391.62
342.981	399.62
343.209	393.62
343.437	402.62
343.665	414.62
343.893	441.62
344.12	408.62
344.348	421.62
344.576	429.62
344.804	437.62
345.031	421.62
345.259	430.62
345.487	411.62
345.714	404.62
345.942	397.62
346.17	396.62
346.397	405.62
346.625	407.62
346.853	389.62
347.08	385.62
347.308	403.62
347.535	401.62
347.763	409.62
347.99	405.62
348.218	415.62
348.445	409.62
348.673	412.62
348.9	405.62
349.128	378.62
349.355	371.62
349.583	387.62
349.81	377.62
350.037	387.62
350.265	366.62
350.492	399.62
350.72	394.62
350.947	391.62
351.174	392.62
351.402	413.62
351.629	409.62
351.856	407.62
352.083	384.62
352.311	408.62
352.538	408.62
352.765	413.62
352.992	399.62
353.22	403.62
353.447	399.62
353.674	373.62
353.901	395.62
354.128	371.62
354.355	381.62
354.583	380.62
354.81	388.62
355.037	377.62
355.264	377.62
355.491	391.62
355.718	373.62
355.945	381.62
356.172	382.62
356.399	366.62
356.626	382.62
356.853	390.62
357.08	373.62
357.307	399.62
357.534	384.62
357.761	381.62
357.988	379.62
358.215	396.62
358.441	381.62
358.668	405.62
358.895	386.62
359.122	411.62
359.349	398.62
359.576	410.62
359.802	388.62
360.029	427.62
360.256	435.62
360.483	398.62
360.709	408.62
360.936	399.62
361.163	420.62
361.39	399.62
361.616	385.62
361.843	387.62
362.07	410.62
362.296	405.62
362.523	396.62
362.749	409.62
362.976	392.62
363.203	407.62
363.429	394.62
363.656	410.62
363.882	406.62
364.109	381.62
364.335	373.62
364.562	398.62
364.788	401.62
365.015	409.62
365.241	393.62
365.468	407.62
365.694	405.62
365.92	391.62
366.147	381.62
366.373	389.62
366.599	410.62
366.826	391.62
367.052	364.62
367.278	379.62
367.505	387.62
367.731	406.62
367.957	407.62
368.184	397.62
368.41	391.62
368.636	389.62
368.862	409.62
369.089	427.62
369.315	389.62
369.541	395.62
369.767	409.62
369.993	386.62
370.219	383.62
370.445	410.62
370.672	414.62
370.898	404.62
371.124	413.62
371.35	390.62
371.576	386.62
371.802	407.62
372.028	400.62
372.254	405.62
372.48	411.62
372.706	404.62
372.932	410.62
373.158	391.62
373.384	408.62
373.61	403.62
373.835	417.62
374.061	384.62
374.287	419.62
374.513	400.62
374.739	391.62
374.965	425.62
375.191	428.62
375.416	415.62
375.642	427.62
375.868	397.62
376.094	413.62
376.319	424.62
376.545	399.62
376.771	393.62
376.997	422.62
377.222	415.62
377.448	401.62
377.674	415.62
377.899	385.62
378.125	395.62
378.35	392.62
378.576	402.62
378.802	398.62
379.027	413.62
379.253	405.62
379.478	401.62
379.704	397.62
379.929	401.62
380.155	408.62
380.38	384.62
380.606	412.62
380.831	422.62
381.057	428.62
381.282	415.62
381.507	416.62
381.733	418.62
381.958	437.62
382.184	419.62
382.409	421.62
382.634	429.62
382.86	431.62
383.085	409.62
383.31	411.62
383.535	427.62
383.761	426.62
383.986	431.62
384.211	431.62
384.436	430.62
384.662	429.62
384.887	437.62
385.112	455.62
385.337	441.62
385.562	455.62
385.787	444.62
386.013	458.62
386.238	464.62
386.463	455.62
386.688	462.62
386.913	460.62
387.138	448.62
387.363	462.62
387.588	448.62
387.813	440.62
388.038	465.62
388.263	441.62
388.488	456.62
388.713	456.62
388.938	465.62
389.163	442.62
389.387	464.62
389.612	448.62
389.837	443.62
390.062	452.62
390.287	447.62
390.512	446.62
390.736	468.62
390.961	457.62
391.186	457.62
391.411	481.62
391.636	472.62
391.86	460.62
392.085	452.62
392.31	474.62
392.534	468.62
392.759	467.62
392.984	465.62
393.208	479.62
393.433	482.62
393.658	494.62
393.882	468.62
394.107	478.62
394.331	486.62
394.556	453.62
394.78	476.62
395.005	463.62
395.229	469.62
395.454	478.62
395.678	492.62
395.903	492.62
396.127	487.62
396.352	491.62
396.576	462.62
396.801	483.62
397.025	514.62
397.249	482.62
397.474	503.62
397.698	496.62
397.922	501.62
398.147	508.62
398.371	521.62
398.595	494.62
398.82	519.62
399.044	527.62
399.268	525.62
399.492	586.62
399.717	611.62
399.941	641.62
400.165	661.62
400.389	680.62
400.613	605.62
400.837	571.62
401.062	569.62
401.286	568.62
401.51	550.62
401.734	560.62
401.958	527.62
402.182	547.62
402.406	532.62
402.63	552.62
402.854	537.62
403.078	540.62
403.302	534.62
403.526	555.62
403.75	544.62
403.974	544.62
404.198	538.62
404.422	548.62
404.645	569.62
404.869	542.62
405.093	563.62
405.317	609.62
405.541	650.62
405.765	593.62
405.988	586.62
406.212	555.62
406.436	580.62
406.66	577.62
406.883	597.62
407.107	613.62
407.331	653.62
407.555	719.62
407.778	709.62
408.002	659.62
408.226	614.62
408.449	622.62
408.673	599.62
408.896	631.62
409.12	647.62
409.344	619.62
409.567	576.62
409.791	564.62
410.014	567.62
410.238	556.62
410.461	557.62
410.685	552.62
410.908	579.62
411.132	601.62
411.355	631.62
411.578	594.62
411.802	562.62
412.025	564.62
412.249	553.62
412.472	581.62
412.695	635.62
412.919	603.62
413.142	565.62
413.365	550.62
413.589	519.62
413.812	547.62
414.035	544.62
414.258	506.62
414.482	505.62
414.705	528.62
414.928	525.62
415.151	523.62
415.374	540.62
415.597	530.62
415.821	503.62
416.044	536.62
416.267	538.62
416.49	513.62
416.713	512.62
416.936	525.62
417.159	522.62
417.382	540.62
417.605	522.62
417.828	524.62
418.051	545.62
418.274	527.62
418.497	527.62
418.72	520.62
418.943	522.62
419.166	541.62
419.389	579.62
419.611	564.62
419.834	571.62
420.057	545.62
420.28	558.62
420.503	552.62
420.726	525.62
420.948	554.62
421.171	608.62
421.394	635.62
421.617	560.62
421.839	523.62
422.062	523.62
422.285	540.62
422.507	597.62
422.73	687.62
422.953	660.62
423.175	570.62
423.398	547.62
423.621	540.62
423.843	566.62
424.066	585.62
424.288	545.62
424.511	577.62
424.733	647.62
424.956	732.62
425.178	698.62
425.401	669.62
425.623	739.62
425.846	598.62
426.068	572.62
426.291	556.62
426.513	549.62
426.735	565.62
426.958	620.62
427.18	690.62
427.402	819.62
427.625	891.62
427.847	760.62
428.069	677.62
428.292	615.62
428.514	573.62
428.736	538.62
428.958	532.62
429.181	508.62
429.403	534.62
429.625	532.62
429.847	556.62
430.069	630.62
430.292	637.62
430.514	544.62
430.736	540.62
430.958	522.62
431.18	511.62
431.402	517.62
431.624	495.62
431.846	491.62
432.068	498.62
432.29	501.62
432.512	532.62
432.734	517.62
432.956	525.62
433.178	512.62
433.4	520.62
433.622	508.62
433.844	508.62
434.066	515.62
434.287	487.62
434.509	506.62
434.731	530.62
434.953	533.62
435.175	559.62
435.397	565.62
435.618	563.62
435.84	616.62
436.062	717.62
436.284	733.62
436.505	633.62
436.727	588.62
436.949	575.62
437.17	541.62
437.392	519.62
437.614	529.62
437.835	577.62
438.057	670.62
438.278	759.62
438.5	760.62
438.721	841.62
438.943	785.62
439.165	657.62
439.386	573.62
439.608	575.62
439.829	584.62
440.05	588.62
440.272	633.62
440.493	589.62
440.715	573.62
440.936	559.62
441.158	540.62
441.379	539.62
441.6	556.62
441.822	574.62
442.043	581.62
442.264	679.62
442.486	742.62
442.707	620.62
442.928	599.62
443.149	585.62
443.371	612.62
443.592	649.62
443.813	766.62
444.034	797.62
444.255	664.62
444.476	615.62
444.698	569.62
444.919	583.62
445.14	684.62
445.361	653.62
445.582	620.62
445.803	663.62
446.024	757.62
446.245	771.62
446.466	704.62
446.687	594.62
446.908	587.62
447.129	540.62
447.35	533.62
447.571	524.62
447.792	513.62
448.013	537.62
448.234	539.62
448.455	579.62
448.675	671.62
448.896	811.62
449.117	719.62
449.338	650.62
449.559	741.62
449.779	863.62
450	681.62
450.221	567.62
450.442	507.62
450.662	517.62
450.883	524.62
451.104	518.62
451.324	532.62
451.545	505.62
451.766	490.62
451.986	478.62
452.207	458.62
452.428	460.62
452.648	483.62
452.869	481.62
453.089	475.62
453.31	489.62
453.53	459.62
453.751	468.62
453.971	465.62
454.192	486.62
454.412	456.62
454.633	475.62
454.853	462.62
455.073	468.62
455.294	489.62
455.514	539.62
455.734	543.62
455.955	484.62
456.175	458.62
456.395	472.62
456.616	455.62
456.836	449.62
457.056	434.62
457.276	433.62
457.497	439.62
457.717	445.62
457.937	435.62
458.157	459.62
458.377	465.62
458.598	474.62
458.818	526.62
459.038	585.62
459.258	622.62
459.478	553.62
459.698	517.62
459.918	515.62
460.138	521.62
460.358	516.62
460.578	523.62
460.798	531.62
461.018	531.62
461.238	525.62
461.458	534.62
461.678	523.62
461.898	537.62
462.118	535.62
462.338	563.62
462.558	560.62
462.777	579.62
462.997	574.62
463.217	586.62
463.437	596.62
463.657	583.62
463.876	572.62
464.096	567.62
464.316	556.62
464.536	581.62
464.755	571.62
464.975	574.62
465.195	597.62
465.414	638.62
465.634	598.62
465.854	575.62
466.073	519.62
466.293	499.62
466.512	484.62
466.732	483.62
466.951	499.62
467.171	492.62
467.391	501.62
467.61	505.62
467.829	485.62
468.049	497.62
468.268	507.62
468.488	490.62
468.707	484.62
468.927	475.62
469.146	487.62
469.365	507.62
469.585	483.62
469.804	490.62
470.023	502.62
470.243	509.62
470.462	484.62
470.681	525.62
470.901	532.62
471.12	491.62
471.339	490.62
471.558	499.62
471.777	499.62
471.997	493.62
472.216	488.62
472.435	535.62
472.654	521.62
472.873	515.62
473.092	498.62
473.311	505.62
473.53	503.62
473.749	521.62
473.968	533.62
474.187	639.62
474.406	655.62
474.625	557.62
474.844	524.62
475.063	494.62
475.282	507.62
475.501	496.62
475.72	503.62
475.939	494.62
476.158	519.62
476.377	520.62
476.596	497.62
476.814	522.62
477.033	524.62
477.252	542.62
477.471	531.62
477.69	540.62
477.908	554.62
478.127	548.62
478.346	555.62
478.564	544.62
478.783	539.62
479.002	578.62
479.22	593.62
479.439	578.62
479.658	602.62
479.876	587.62
480.095	631.62
480.313	648.62
480.532	606.62
480.751	635.62
480.969	613.62
481.188	653.62
481.406	700.62
481.624	631.62
481.843	618.62
482.061	594.62
482.28	590.62
482.498	573.62
482.717	597.62
482.935	577.62
483.153	576.62
483.372	583.62
483.59	613.62
483.808	559.62
484.027	599.62
484.245	594.62
484.463	589.62
484.681	594.62
484.9	569.62
485.118	596.62
485.336	619.62
485.554	602.62
485.772	617.62
485.99	604.62
486.209	597.62
486.427	621.62
486.645	629.62
486.863	629.62
487.081	644.62
487.299	643.62
487.517	643.62
487.735	630.62
487.953	611.62
488.171	632.62
488.389	635.62
488.607	632.62
488.825	623.62
489.043	639.62
489.261	642.62
489.479	617.62
489.696	641.62
489.914	636.62
490.132	632.62
490.35	632.62
490.568	632.62
490.786	656.62
491.003	665.62
491.221	691.62
491.439	688.62
491.657	711.62
491.874	691.62
492.092	709.62
492.31	708.62
492.527	710.62
492.745	724.62
492.963	720.62
493.18	722.62
493.398	735.62
493.615	734.62
493.833	724.62
494.05	737.62
494.268	714.62
494.485	718.62
494.703	731.62
494.92	736.62
495.138	731.62
495.355	743.62
495.573	737.62
495.79	747.62
496.008	757.62
496.225	750.62
496.442	737.62
496.66	740.62
496.877	762.62
497.094	740.62
497.312	765.62
497.529	764.62
497.746	800.62
497.963	772.62
498.181	795.62
498.398	823.62
498.615	857.62
498.832	826.62
499.049	857.62
499.267	883.62
499.484	912.62
499.701	959.62
499.918	1008.62
500.135	1059.62
500.352	1094.62
500.569	1120.62
500.786	1112.62
501.003	1093.62
501.22	1051.62
501.437	1021.62
501.654	964.62
