Data from 1966.PennyLincolnUp.Lamp.En5.5.200Scan.071719.P1.Scan2.head_HRD10591_14-17-14-092.txt Node
Date: Thu Jul 18 14:17:14 EDT 2019
User: cochatt
Spectrometer: HR+D1059
Trigger mode: 1
Integration Time (sec): 1.000000E-1
Scans to average: 1
Electric dark correction enabled: true
Nonlinearity correction enabled: false
Boxcar width: 0
XAxis mode: Wavelengths
Number of Pixels in Spectrum: 2048
>>>>>Begin Spectral Data<<<<<
223.165	-8.69
223.4	-8.69
223.635	-8.69
223.869	-11.69
224.104	-12.69
224.338	-13.69
224.573	-4.69
224.808	-13.69
225.042	-7.69
225.277	-0.69
225.511	-13.69
225.746	-5.69
225.98	13.31
226.215	1.31
226.449	12.31
226.683	15.31
226.918	27.31
227.152	23.31
227.387	34.31
227.621	39.31
227.856	41.31
228.09	39.31
228.324	41.31
228.559	47.31
228.793	49.31
229.027	91.31
229.262	98.31
229.496	115.31
229.73	125.31
229.964	132.31
230.199	142.31
230.433	115.31
230.667	108.31
230.901	119.31
231.136	101.31
231.37	112.31
231.604	95.31
231.838	104.31
232.072	115.31
232.306	106.31
232.541	105.31
232.775	104.31
233.009	116.31
233.243	105.31
233.477	105.31
233.711	102.31
233.945	122.31
234.179	117.31
234.413	115.31
234.647	100.31
234.881	101.31
235.115	115.31
235.349	117.31
235.583	134.31
235.817	128.31
236.051	129.31
236.285	125.31
236.519	114.31
236.753	118.31
236.987	136.31
237.221	159.31
237.455	218.31
237.689	162.31
237.922	141.31
238.156	127.31
238.39	134.31
238.624	123.31
238.858	112.31
239.091	107.31
239.325	119.31
239.559	131.31
239.793	127.31
240.027	128.31
240.26	126.31
240.494	136.31
240.728	148.31
240.961	153.31
241.195	138.31
241.429	149.31
241.662	129.31
241.896	139.31
242.13	124.31
242.363	136.31
242.597	128.31
242.83	129.31
243.064	139.31
243.298	126.31
243.531	130.31
243.765	154.31
243.998	139.31
244.232	127.31
244.465	147.31
244.699	151.31
244.932	144.31
245.166	158.31
245.399	137.31
245.633	133.31
245.866	150.31
246.099	146.31
246.333	155.31
246.566	133.31
246.8	147.31
247.033	142.31
247.266	139.31
247.5	165.31
247.733	167.31
247.966	159.31
248.2	160.31
248.433	169.31
248.666	157.31
248.899	162.31
249.133	180.31
249.366	176.31
249.599	186.31
249.832	159.31
250.066	159.31
250.299	170.31
250.532	202.31
250.765	201.31
250.998	195.31
251.231	201.31
251.465	209.31
251.698	198.31
251.931	193.31
252.164	189.31
252.397	179.31
252.63	199.31
252.863	184.31
253.096	203.31
253.329	212.31
253.562	219.31
253.795	209.31
254.028	189.31
254.261	209.31
254.494	201.31
254.727	237.31
254.96	255.31
255.193	247.31
255.426	228.31
255.659	215.31
255.892	208.31
256.124	196.31
256.357	216.31
256.59	209.31
256.823	204.31
257.056	193.31
257.289	185.31
257.521	196.31
257.754	184.31
257.987	209.31
258.22	206.31
258.452	214.31
258.685	197.31
258.918	197.31
259.151	217.31
259.383	203.31
259.616	203.31
259.849	213.31
260.081	220.31
260.314	213.31
260.547	224.31
260.779	235.31
261.012	223.31
261.244	231.31
261.477	226.31
261.71	221.31
261.942	209.31
262.175	221.31
262.407	200.31
262.64	209.31
262.872	208.31
263.105	206.31
263.337	210.31
263.57	202.31
263.802	199.31
264.035	198.31
264.267	189.31
264.499	196.31
264.732	205.31
264.964	197.31
265.197	201.31
265.429	211.31
265.661	208.31
265.894	208.31
266.126	215.31
266.358	219.31
266.591	219.31
266.823	217.31
267.055	233.31
267.287	217.31
267.52	232.31
267.752	234.31
267.984	225.31
268.216	233.31
268.448	220.31
268.681	214.31
268.913	229.31
269.145	241.31
269.377	251.31
269.609	269.31
269.841	266.31
270.073	232.31
270.306	279.31
270.538	288.31
270.77	308.31
271.002	294.31
271.234	240.31
271.466	259.31
271.698	309.31
271.93	278.31
272.162	275.31
272.394	298.31
272.626	284.31
272.858	294.31
273.09	254.31
273.322	274.31
273.553	244.31
273.785	244.31
274.017	265.31
274.249	237.31
274.481	244.31
274.713	259.31
274.945	245.31
275.176	240.31
275.408	253.31
275.64	260.31
275.872	269.31
276.104	265.31
276.335	245.31
276.567	275.31
276.799	280.31
277.031	287.31
277.262	300.31
277.494	316.31
277.726	279.31
277.957	269.31
278.189	265.31
278.421	253.31
278.652	258.31
278.884	259.31
279.115	251.31
279.347	254.31
279.579	271.31
279.81	249.31
280.042	263.31
280.273	258.31
280.505	262.31
280.736	259.31
280.968	270.31
281.199	271.31
281.431	266.31
281.662	285.31
281.894	260.31
282.125	261.31
282.356	282.31
282.588	305.31
282.819	295.31
283.051	261.31
283.282	256.31
283.513	265.31
283.745	264.31
283.976	281.31
284.207	277.31
284.439	276.31
284.67	270.31
284.901	261.31
285.132	265.31
285.364	273.31
285.595	272.31
285.826	271.31
286.057	271.31
286.288	276.31
286.52	271.31
286.751	281.31
286.982	273.31
287.213	266.31
287.444	286.31
287.675	290.31
287.906	288.31
288.138	311.31
288.369	293.31
288.6	286.31
288.831	286.31
289.062	289.31
289.293	293.31
289.524	273.31
289.755	278.31
289.986	294.31
290.217	284.31
290.448	282.31
290.679	288.31
290.91	298.31
291.141	270.31
291.371	266.31
291.602	286.31
291.833	299.31
292.064	287.31
292.295	289.31
292.526	273.31
292.757	285.31
292.987	305.31
293.218	267.31
293.449	291.31
293.68	288.31
293.91	288.31
294.141	284.31
294.372	282.31
294.603	273.31
294.833	274.31
295.064	282.31
295.295	301.31
295.525	289.31
295.756	292.31
295.987	296.31
296.217	326.31
296.448	325.31
296.679	294.31
296.909	275.31
297.14	288.31
297.37	304.31
297.601	301.31
297.831	298.31
298.062	297.31
298.292	307.31
298.523	297.31
298.753	312.31
298.984	315.31
299.214	310.31
299.445	294.31
299.675	295.31
299.905	311.31
300.136	304.31
300.366	307.31
300.597	337.31
300.827	315.31
301.057	315.31
301.288	321.31
301.518	318.31
301.748	314.31
301.979	323.31
302.209	333.31
302.439	301.31
302.669	329.31
302.9	333.31
303.13	311.31
303.36	328.31
303.59	335.31
303.82	319.31
304.051	333.31
304.281	334.31
304.511	316.31
304.741	330.31
304.971	322.31
305.201	315.31
305.431	313.31
305.661	306.31
305.891	311.31
306.121	331.31
306.352	326.31
306.582	326.31
306.812	317.31
307.042	316.31
307.272	324.31
307.502	324.31
307.731	328.31
307.961	327.31
308.191	329.31
308.421	326.31
308.651	331.31
308.881	336.31
309.111	338.31
309.341	358.31
309.571	346.31
309.8	357.31
310.03	338.31
310.26	356.31
310.49	351.31
310.72	358.31
310.949	373.31
311.179	355.31
311.409	351.31
311.639	378.31
311.868	358.31
312.098	357.31
312.328	356.31
312.557	377.31
312.787	399.31
313.017	391.31
313.246	375.31
313.476	351.31
313.706	379.31
313.935	388.31
314.165	383.31
314.394	386.31
314.624	365.31
314.853	362.31
315.083	362.31
315.312	367.31
315.542	358.31
315.771	371.31
316.001	357.31
316.23	365.31
316.46	357.31
316.689	372.31
316.919	379.31
317.148	381.31
317.377	392.31
317.607	381.31
317.836	369.31
318.065	377.31
318.295	361.31
318.524	373.31
318.753	381.31
318.983	379.31
319.212	385.31
319.441	369.31
319.67	368.31
319.9	379.31
320.129	372.31
320.358	369.31
320.587	372.31
320.816	378.31
321.046	357.31
321.275	405.31
321.504	410.31
321.733	384.31
321.962	417.31
322.191	414.31
322.42	408.31
322.649	422.31
322.878	421.31
323.108	445.31
323.337	436.31
323.566	443.31
323.795	477.31
324.024	515.31
324.253	609.31
324.482	851.31
324.71	1349.31
324.939	1985.31
325.168	1716.31
325.397	877.31
325.626	582.31
325.855	498.31
326.084	462.31
326.313	457.31
326.542	478.31
326.77	521.31
326.999	591.31
327.228	790.31
327.457	1220.31
327.686	1517.31
327.914	954.31
328.143	633.31
328.372	561.31
328.6	532.31
328.829	530.31
329.058	514.31
329.287	550.31
329.515	508.31
329.744	510.31
329.972	493.31
330.201	505.31
330.43	524.31
330.658	543.31
330.887	546.31
331.115	560.31
331.344	473.31
331.572	446.31
331.801	464.31
332.03	474.31
332.258	468.31
332.486	419.31
332.715	437.31
332.943	441.31
333.172	435.31
333.4	459.31
333.629	453.31
333.857	472.31
334.085	483.31
334.314	496.31
334.542	513.31
334.771	518.31
334.999	483.31
335.227	454.31
335.455	448.31
335.684	448.31
335.912	446.31
336.14	437.31
336.369	457.31
336.597	463.31
336.825	463.31
337.053	454.31
337.281	440.31
337.51	437.31
337.738	424.31
337.966	423.31
338.194	454.31
338.422	433.31
338.65	441.31
338.878	421.31
339.106	421.31
339.334	435.31
339.562	423.31
339.79	432.31
340.018	425.31
340.246	435.31
340.474	443.31
340.702	438.31
340.93	415.31
341.158	438.31
341.386	425.31
341.614	423.31
341.842	427.31
342.07	428.31
342.298	425.31
342.526	401.31
342.754	408.31
342.981	413.31
343.209	407.31
343.437	431.31
343.665	433.31
343.893	451.31
344.12	442.31
344.348	435.31
344.576	457.31
344.804	447.31
345.031	433.31
345.259	445.31
345.487	451.31
345.714	436.31
345.942	426.31
346.17	412.31
346.397	429.31
346.625	427.31
346.853	418.31
347.08	422.31
347.308	423.31
347.535	420.31
347.763	411.31
347.99	415.31
348.218	440.31
348.445	433.31
348.673	444.31
348.9	418.31
349.128	415.31
349.355	399.31
349.583	424.31
349.81	397.31
350.037	414.31
350.265	399.31
350.492	386.31
350.72	405.31
350.947	400.31
351.174	411.31
351.402	431.31
351.629	435.31
351.856	422.31
352.083	424.31
352.311	414.31
352.538	422.31
352.765	423.31
352.992	422.31
353.22	415.31
353.447	413.31
353.674	427.31
353.901	391.31
354.128	404.31
354.355	397.31
354.583	385.31
354.81	394.31
355.037	392.31
355.264	415.31
355.491	394.31
355.718	393.31
355.945	394.31
356.172	394.31
356.399	398.31
356.626	399.31
356.853	374.31
357.08	391.31
357.307	417.31
357.534	407.31
357.761	429.31
357.988	408.31
358.215	404.31
358.441	391.31
358.668	377.31
358.895	395.31
359.122	402.31
359.349	391.31
359.576	398.31
359.802	413.31
360.029	457.31
360.256	473.31
360.483	455.31
360.709	424.31
360.936	415.31
361.163	417.31
361.39	433.31
361.616	419.31
361.843	407.31
362.07	406.31
362.296	434.31
362.523	429.31
362.749	421.31
362.976	414.31
363.203	412.31
363.429	403.31
363.656	395.31
363.882	417.31
364.109	401.31
364.335	406.31
364.562	413.31
364.788	399.31
365.015	404.31
365.241	397.31
365.468	422.31
365.694	410.31
365.92	416.31
366.147	425.31
366.373	394.31
366.599	415.31
366.826	409.31
367.052	414.31
367.278	409.31
367.505	414.31
367.731	411.31
367.957	424.31
368.184	417.31
368.41	437.31
368.636	422.31
368.862	436.31
369.089	441.31
369.315	415.31
369.541	401.31
369.767	421.31
369.993	411.31
370.219	418.31
370.445	418.31
370.672	430.31
370.898	407.31
371.124	407.31
371.35	430.31
371.576	404.31
371.802	420.31
372.028	419.31
372.254	431.31
372.48	412.31
372.706	417.31
372.932	421.31
373.158	429.31
373.384	426.31
373.61	437.31
373.835	416.31
374.061	409.31
374.287	423.31
374.513	430.31
374.739	439.31
374.965	410.31
375.191	430.31
375.416	411.31
375.642	411.31
375.868	420.31
376.094	422.31
376.319	420.31
376.545	420.31
376.771	431.31
376.997	420.31
377.222	424.31
377.448	419.31
377.674	419.31
377.899	418.31
378.125	416.31
378.35	405.31
378.576	427.31
378.802	405.31
379.027	416.31
379.253	409.31
379.478	409.31
379.704	410.31
379.929	427.31
380.155	410.31
380.38	424.31
380.606	420.31
380.831	417.31
381.057	437.31
381.282	405.31
381.507	417.31
381.733	435.31
381.958	415.31
382.184	445.31
382.409	421.31
382.634	427.31
382.86	433.31
383.085	456.31
383.31	431.31
383.535	441.31
383.761	443.31
383.986	461.31
384.211	451.31
384.436	431.31
384.662	466.31
384.887	465.31
385.112	491.31
385.337	461.31
385.562	480.31
385.787	469.31
386.013	482.31
386.238	478.31
386.463	464.31
386.688	463.31
386.913	473.31
387.138	469.31
387.363	466.31
387.588	478.31
387.813	486.31
388.038	449.31
388.263	465.31
388.488	466.31
388.713	483.31
388.938	486.31
389.163	465.31
389.387	473.31
389.612	453.31
389.837	480.31
390.062	486.31
390.287	467.31
390.512	481.31
390.736	470.31
390.961	456.31
391.186	494.31
391.411	509.31
391.636	494.31
391.86	482.31
392.085	497.31
392.31	494.31
392.534	509.31
392.759	487.31
392.984	484.31
393.208	465.31
393.433	499.31
393.658	488.31
393.882	470.31
394.107	503.31
394.331	475.31
394.556	489.31
394.78	495.31
395.005	492.31
395.229	493.31
395.454	497.31
395.678	513.31
395.903	504.31
396.127	530.31
396.352	541.31
396.576	505.31
396.801	491.31
397.025	512.31
397.249	520.31
397.474	523.31
397.698	498.31
397.922	545.31
398.147	545.31
398.371	527.31
398.595	549.31
398.82	529.31
399.044	561.31
399.268	581.31
399.492	625.31
399.717	643.31
399.941	652.31
400.165	705.31
400.389	675.31
400.613	645.31
400.837	599.31
401.062	577.31
401.286	552.31
401.51	573.31
401.734	553.31
401.958	549.31
402.182	566.31
402.406	555.31
402.63	567.31
402.854	573.31
403.078	557.31
403.302	563.31
403.526	568.31
403.75	578.31
403.974	583.31
404.198	574.31
404.422	581.31
404.645	580.31
404.869	606.31
405.093	638.31
405.317	667.31
405.541	691.31
405.765	618.31
405.988	600.31
406.212	608.31
406.436	621.31
406.66	647.31
406.883	631.31
407.107	619.31
407.331	682.31
407.555	768.31
407.778	751.31
408.002	707.31
408.226	633.31
408.449	649.31
408.673	630.31
408.896	650.31
409.12	703.31
409.344	677.31
409.567	603.31
409.791	585.31
410.014	581.31
410.238	579.31
410.461	577.31
410.685	580.31
410.908	581.31
411.132	602.31
411.355	659.31
411.578	639.31
411.802	582.31
412.025	572.31
412.249	580.31
412.472	606.31
412.695	628.31
412.919	639.31
413.142	602.31
413.365	586.31
413.589	572.31
413.812	534.31
414.035	559.31
414.258	574.31
414.482	552.31
414.705	554.31
414.928	521.31
415.151	518.31
415.374	545.31
415.597	562.31
415.821	550.31
416.044	549.31
416.267	547.31
416.49	547.31
416.713	549.31
416.936	561.31
417.159	536.31
417.382	543.31
417.605	545.31
417.828	564.31
418.051	592.31
418.274	559.31
418.497	538.31
418.72	548.31
418.943	545.31
419.166	565.31
419.389	607.31
419.611	591.31
419.834	590.31
420.057	571.31
420.28	573.31
420.503	561.31
420.726	586.31
420.948	584.31
421.171	611.31
421.394	647.31
421.617	591.31
421.839	565.31
422.062	554.31
422.285	578.31
422.507	647.31
422.73	727.31
422.953	691.31
423.175	613.31
423.398	611.31
423.621	623.31
423.843	602.31
424.066	626.31
424.288	605.31
424.511	601.31
424.733	641.31
424.956	758.31
425.178	728.31
425.401	730.31
425.623	757.31
425.846	649.31
426.068	596.31
426.291	585.31
426.513	578.31
426.735	590.31
426.958	657.31
427.18	733.31
427.402	861.31
427.625	957.31
427.847	831.31
428.069	718.31
428.292	655.31
428.514	608.31
428.736	570.31
428.958	583.31
429.181	557.31
429.403	542.31
429.625	565.31
429.847	603.31
430.069	661.31
430.292	681.31
430.514	564.31
430.736	554.31
430.958	546.31
431.18	561.31
431.402	510.31
431.624	527.31
431.846	538.31
432.068	541.31
432.29	547.31
432.512	530.31
432.734	551.31
432.956	551.31
433.178	550.31
433.4	538.31
433.622	555.31
433.844	546.31
434.066	527.31
434.287	527.31
434.509	548.31
434.731	541.31
434.953	557.31
435.175	578.31
435.397	569.31
435.618	605.31
435.84	662.31
436.062	751.31
436.284	834.31
436.505	692.31
436.727	619.31
436.949	591.31
437.17	550.31
437.392	569.31
437.614	573.31
437.835	594.31
438.057	687.31
438.278	793.31
438.5	819.31
438.721	877.31
438.943	866.31
439.165	669.31
439.386	635.31
439.608	616.31
439.829	600.31
440.05	650.31
440.272	717.31
440.493	650.31
440.715	591.31
440.936	567.31
441.158	574.31
441.379	593.31
441.6	577.31
441.822	604.31
442.043	655.31
442.264	729.31
442.486	782.31
442.707	661.31
442.928	617.31
443.149	611.31
443.371	634.31
443.592	707.31
443.813	779.31
444.034	886.31
444.255	689.31
444.476	635.31
444.698	633.31
444.919	600.31
445.14	696.31
445.361	648.31
445.582	630.31
445.803	725.31
446.024	831.31
446.245	830.31
446.466	755.31
446.687	636.31
446.908	591.31
447.129	580.31
447.35	550.31
447.571	565.31
447.792	541.31
448.013	552.31
448.234	565.31
448.455	612.31
448.675	731.31
448.896	876.31
449.117	736.31
449.338	677.31
449.559	801.31
449.779	918.31
450	733.31
450.221	593.31
450.442	577.31
450.662	536.31
450.883	527.31
451.104	538.31
451.324	541.31
451.545	521.31
451.766	536.31
451.986	482.31
452.207	487.31
452.428	478.31
452.648	493.31
452.869	485.31
453.089	487.31
453.31	507.31
453.53	509.31
453.751	485.31
453.971	509.31
454.192	533.31
454.412	499.31
454.633	495.31
454.853	510.31
455.073	488.31
455.294	537.31
455.514	594.31
455.734	593.31
455.955	506.31
456.175	493.31
456.395	471.31
456.616	466.31
456.836	480.31
457.056	462.31
457.276	470.31
457.497	456.31
457.717	470.31
457.937	486.31
458.157	491.31
458.377	503.31
458.598	506.31
458.818	538.31
459.038	645.31
459.258	673.31
459.478	577.31
459.698	547.31
459.918	515.31
460.138	546.31
460.358	551.31
460.578	537.31
460.798	569.31
461.018	563.31
461.238	540.31
461.458	520.31
461.678	549.31
461.898	522.31
462.118	554.31
462.338	577.31
462.558	591.31
462.777	570.31
462.997	587.31
463.217	621.31
463.437	625.31
463.657	637.31
463.876	613.31
464.096	601.31
464.316	590.31
464.536	613.31
464.755	609.31
464.975	587.31
465.195	622.31
465.414	661.31
465.634	602.31
465.854	598.31
466.073	566.31
466.293	531.31
466.512	521.31
466.732	518.31
466.951	523.31
467.171	498.31
467.391	509.31
467.61	563.31
467.829	518.31
468.049	527.31
468.268	514.31
468.488	516.31
468.707	488.31
468.927	501.31
469.146	487.31
469.365	485.31
469.585	518.31
469.804	519.31
470.023	518.31
470.243	524.31
470.462	527.31
470.681	531.31
470.901	532.31
471.12	521.31
471.339	529.31
471.558	526.31
471.777	524.31
471.997	526.31
472.216	538.31
472.435	547.31
472.654	521.31
472.873	533.31
473.092	534.31
473.311	514.31
473.53	519.31
473.749	537.31
473.968	561.31
474.187	648.31
474.406	699.31
474.625	598.31
474.844	543.31
475.063	522.31
475.282	512.31
475.501	531.31
475.72	545.31
475.939	555.31
476.158	559.31
476.377	561.31
476.596	527.31
476.814	552.31
477.033	527.31
477.252	564.31
477.471	560.31
477.69	560.31
477.908	581.31
478.127	570.31
478.346	587.31
478.564	580.31
478.783	618.31
479.002	597.31
479.22	609.31
479.439	586.31
479.658	621.31
479.876	614.31
480.095	645.31
480.313	657.31
480.532	647.31
480.751	648.31
480.969	668.31
481.188	669.31
481.406	727.31
481.624	651.31
481.843	625.31
482.061	629.31
482.28	624.31
482.498	598.31
482.717	610.31
482.935	608.31
483.153	608.31
483.372	612.31
483.59	623.31
483.808	603.31
484.027	607.31
484.245	619.31
484.463	628.31
484.681	649.31
484.9	622.31
485.118	648.31
485.336	637.31
485.554	645.31
485.772	620.31
485.99	656.31
486.209	649.31
486.427	670.31
486.645	641.31
486.863	674.31
487.081	643.31
487.299	673.31
487.517	643.31
487.735	648.31
487.953	654.31
488.171	653.31
488.389	645.31
488.607	658.31
488.825	657.31
489.043	669.31
489.261	679.31
489.479	669.31
489.696	677.31
489.914	657.31
490.132	670.31
490.35	674.31
490.568	699.31
490.786	711.31
491.003	697.31
491.221	722.31
491.439	746.31
491.657	720.31
491.874	751.31
492.092	755.31
492.31	743.31
492.527	770.31
492.745	751.31
492.963	789.31
493.18	778.31
493.398	773.31
493.615	784.31
493.833	776.31
494.05	782.31
494.268	765.31
494.485	762.31
494.703	775.31
494.92	810.31
495.138	777.31
495.355	781.31
495.573	785.31
495.79	782.31
496.008	770.31
496.225	765.31
496.442	782.31
496.66	799.31
496.877	810.31
497.094	798.31
497.312	802.31
497.529	821.31
497.746	829.31
497.963	804.31
498.181	863.31
498.398	861.31
498.615	894.31
498.832	883.31
499.049	901.31
499.267	960.31
499.484	971.31
499.701	1026.31
499.918	1066.31
500.135	1091.31
500.352	1124.31
500.569	1175.31
500.786	1183.31
501.003	1161.31
501.22	1121.31
501.437	1081.31
501.654	1045.31
