Data from 1966.PennyLincolnUp.Lamp.En5.5.200Scan.071719.P1.Scan2.head_HRD10591_14-19-29-271.txt Node
Date: Thu Jul 18 14:19:29 EDT 2019
User: cochatt
Spectrometer: HR+D1059
Trigger mode: 1
Integration Time (sec): 1.000000E-1
Scans to average: 1
Electric dark correction enabled: true
Nonlinearity correction enabled: false
Boxcar width: 0
XAxis mode: Wavelengths
Number of Pixels in Spectrum: 2048
>>>>>Begin Spectral Data<<<<<
223.165	-7
223.4	-7
223.635	-7
223.869	-18
224.104	-19
224.338	-11
224.573	-19
224.808	-1
225.042	-4
225.277	-3
225.511	-4
225.746	6
225.98	-3
226.215	8
226.449	24
226.683	17
226.918	14
227.152	20
227.387	37
227.621	31
227.856	29
228.09	46
228.324	50
228.559	42
228.793	77
229.027	105
229.262	103
229.496	114
229.73	123
229.964	148
230.199	134
230.433	112
230.667	113
230.901	123
231.136	114
231.37	112
231.604	117
231.838	94
232.072	106
232.306	124
232.541	129
232.775	108
233.009	121
233.243	121
233.477	125
233.711	128
233.945	120
234.179	124
234.413	129
234.647	117
234.881	128
235.115	118
235.349	119
235.583	130
235.817	128
236.051	113
236.285	137
236.519	107
236.753	144
236.987	149
237.221	186
237.455	244
237.689	202
237.922	144
238.156	137
238.39	132
238.624	136
238.858	148
239.091	134
239.325	128
239.559	136
239.793	141
240.027	132
240.26	161
240.494	152
240.728	156
240.961	150
241.195	141
241.429	150
241.662	142
241.896	136
242.13	140
242.363	146
242.597	149
242.83	134
243.064	138
243.298	155
243.531	140
243.765	136
243.998	142
244.232	151
244.465	137
244.699	156
244.932	148
245.166	164
245.399	144
245.633	153
245.866	143
246.099	158
246.333	164
246.566	152
246.8	157
247.033	163
247.266	167
247.5	172
247.733	170
247.966	188
248.2	177
248.433	170
248.666	178
248.899	200
249.133	198
249.366	211
249.599	220
249.832	190
250.066	194
250.299	192
250.532	186
250.765	216
250.998	224
251.231	233
251.465	216
251.698	211
251.931	207
252.164	187
252.397	197
252.63	207
252.863	209
253.096	232
253.329	240
253.562	230
253.795	241
254.028	220
254.261	232
254.494	244
254.727	260
254.96	304
255.193	274
255.426	256
255.659	226
255.892	236
256.124	232
256.357	250
256.59	238
256.823	219
257.056	225
257.289	226
257.521	213
257.754	233
257.987	216
258.22	221
258.452	231
258.685	237
258.918	226
259.151	234
259.383	233
259.616	227
259.849	226
260.081	254
260.314	269
260.547	257
260.779	252
261.012	246
261.244	241
261.477	236
261.71	217
261.942	240
262.175	230
262.407	236
262.64	215
262.872	216
263.105	213
263.337	227
263.57	232
263.802	238
264.035	233
264.267	227
264.499	229
264.732	238
264.964	218
265.197	246
265.429	225
265.661	227
265.894	225
266.126	233
266.358	220
266.591	231
266.823	243
267.055	239
267.287	228
267.52	233
267.752	239
267.984	240
268.216	233
268.448	255
268.681	249
268.913	258
269.145	259
269.377	287
269.609	303
269.841	263
270.073	282
270.306	301
270.538	328
270.77	319
271.002	322
271.234	304
271.466	306
271.698	327
271.93	329
272.162	341
272.394	314
272.626	316
272.858	310
273.09	316
273.322	301
273.553	280
273.785	277
274.017	271
274.249	278
274.481	268
274.713	270
274.945	276
275.176	277
275.408	263
275.64	286
275.872	270
276.104	289
276.335	271
276.567	286
276.799	312
277.031	328
277.262	332
277.494	330
277.726	329
277.957	288
278.189	292
278.421	282
278.652	288
278.884	295
279.115	268
279.347	289
279.579	274
279.81	266
280.042	286
280.273	275
280.505	272
280.736	278
280.968	282
281.199	282
281.431	288
281.662	286
281.894	269
282.125	293
282.356	276
282.588	326
282.819	319
283.051	291
283.282	300
283.513	295
283.745	297
283.976	290
284.207	316
284.439	295
284.67	288
284.901	299
285.132	297
285.364	286
285.595	299
285.826	303
286.057	290
286.288	290
286.52	309
286.751	291
286.982	294
287.213	314
287.444	294
287.675	301
287.906	304
288.138	296
288.369	304
288.6	309
288.831	312
289.062	316
289.293	299
289.524	303
289.755	305
289.986	303
290.217	313
290.448	299
290.679	304
290.91	318
291.141	295
291.371	325
291.602	305
291.833	304
292.064	308
292.295	306
292.526	308
292.757	312
292.987	320
293.218	304
293.449	312
293.68	322
293.91	282
294.141	287
294.372	312
294.603	312
294.833	322
295.064	332
295.295	305
295.525	316
295.756	314
295.987	320
296.217	352
296.448	341
296.679	324
296.909	302
297.14	317
297.37	324
297.601	316
297.831	333
298.062	318
298.292	310
298.523	305
298.753	330
298.984	338
299.214	311
299.445	334
299.675	343
299.905	340
300.136	337
300.366	332
300.597	332
300.827	321
301.057	352
301.288	338
301.518	352
301.748	338
301.979	327
302.209	343
302.439	338
302.669	345
302.9	344
303.13	350
303.36	352
303.59	338
303.82	358
304.051	349
304.281	342
304.511	321
304.741	344
304.971	324
305.201	344
305.431	337
305.661	350
305.891	353
306.121	332
306.352	364
306.582	356
306.812	337
307.042	356
307.272	367
307.502	357
307.731	345
307.961	350
308.191	351
308.421	360
308.651	356
308.881	368
309.111	362
309.341	361
309.571	368
309.8	379
310.03	390
310.26	379
310.49	400
310.72	411
310.949	411
311.179	401
311.409	412
311.639	422
311.868	401
312.098	428
312.328	396
312.557	381
312.787	449
313.017	421
313.246	406
313.476	405
313.706	397
313.935	408
314.165	430
314.394	407
314.624	414
314.853	404
315.083	400
315.312	388
315.542	400
315.771	402
316.001	384
316.23	368
316.46	388
316.689	398
316.919	387
317.148	426
317.377	405
317.607	401
317.836	402
318.065	405
318.295	417
318.524	400
318.753	393
318.983	375
319.212	397
319.441	398
319.67	407
319.9	390
320.129	405
320.358	416
320.587	404
320.816	414
321.046	420
321.275	416
321.504	417
321.733	427
321.962	416
322.191	453
322.42	444
322.649	455
322.878	475
323.108	479
323.337	497
323.566	520
323.795	537
324.024	600
324.253	705
324.482	977
324.71	1514
324.939	2265
325.168	2016
325.397	992
325.626	676
325.855	552
326.084	538
326.313	522
326.542	534
326.77	578
326.999	660
327.228	900
327.457	1382
327.686	1747
327.914	1148
328.143	744
328.372	644
328.6	598
328.829	568
329.058	597
329.287	599
329.515	558
329.744	522
329.972	548
330.201	574
330.43	605
330.658	609
330.887	650
331.115	621
331.344	537
331.572	509
331.801	529
332.03	525
332.258	487
332.486	468
332.715	477
332.943	494
333.172	480
333.4	510
333.629	505
333.857	537
334.085	533
334.314	545
334.542	588
334.771	580
334.999	559
335.227	529
335.455	495
335.684	506
335.912	487
336.14	488
336.369	477
336.597	471
336.825	465
337.053	504
337.281	485
337.51	470
337.738	456
337.966	481
338.194	482
338.422	485
338.65	476
338.878	456
339.106	454
339.334	476
339.562	475
339.79	445
340.018	464
340.246	459
340.474	454
340.702	479
340.93	452
341.158	458
341.386	469
341.614	461
341.842	455
342.07	453
342.298	467
342.526	458
342.754	447
342.981	452
343.209	451
343.437	455
343.665	437
343.893	469
344.12	497
344.348	488
344.576	481
344.804	497
345.031	455
345.259	493
345.487	496
345.714	466
345.942	442
346.17	444
346.397	468
346.625	452
346.853	448
347.08	449
347.308	446
347.535	456
347.763	472
347.99	460
348.218	470
348.445	470
348.673	464
348.9	458
349.128	448
349.355	433
349.583	455
349.81	439
350.037	446
350.265	433
350.492	433
350.72	439
350.947	433
351.174	477
351.402	458
351.629	452
351.856	462
352.083	461
352.311	470
352.538	487
352.765	480
352.992	464
353.22	442
353.447	461
353.674	456
353.901	440
354.128	426
354.355	423
354.583	444
354.81	444
355.037	426
355.264	441
355.491	440
355.718	409
355.945	433
356.172	432
356.399	426
356.626	420
356.853	441
357.08	408
357.307	394
357.534	425
357.761	432
357.988	446
358.215	448
358.441	428
358.668	434
358.895	431
359.122	414
359.349	441
359.576	465
359.802	468
360.029	516
360.256	494
360.483	522
360.709	453
360.936	438
361.163	465
361.39	430
361.616	472
361.843	458
362.07	452
362.296	464
362.523	466
362.749	442
362.976	447
363.203	468
363.429	448
363.656	445
363.882	430
364.109	431
364.335	434
364.562	430
364.788	437
365.015	444
365.241	434
365.468	461
365.694	458
365.92	436
366.147	440
366.373	445
366.599	446
366.826	428
367.052	452
367.278	449
367.505	441
367.731	446
367.957	438
368.184	440
368.41	444
368.636	477
368.862	449
369.089	448
369.315	444
369.541	441
369.767	460
369.993	432
370.219	465
370.445	430
370.672	435
370.898	429
371.124	442
371.35	462
371.576	459
371.802	448
372.028	432
372.254	439
372.48	426
372.706	456
372.932	444
373.158	466
373.384	469
373.61	443
373.835	447
374.061	459
374.287	459
374.513	471
374.739	467
374.965	447
375.191	447
375.416	459
375.642	462
375.868	444
376.094	450
376.319	441
376.545	436
376.771	436
376.997	438
377.222	440
377.448	442
377.674	427
377.899	450
378.125	445
378.35	444
378.576	451
378.802	434
379.027	440
379.253	440
379.478	470
379.704	450
379.929	457
380.155	439
380.38	452
380.606	452
380.831	456
381.057	458
381.282	453
381.507	449
381.733	465
381.958	444
382.184	444
382.409	464
382.634	468
382.86	462
383.085	473
383.31	449
383.535	473
383.761	480
383.986	481
384.211	477
384.436	465
384.662	487
384.887	472
385.112	492
385.337	497
385.562	494
385.787	484
386.013	514
386.238	518
386.463	508
386.688	490
386.913	497
387.138	481
387.363	492
387.588	494
387.813	508
388.038	499
388.263	480
388.488	526
388.713	487
388.938	519
389.163	509
389.387	519
389.612	498
389.837	494
390.062	500
390.287	508
390.512	491
390.736	496
390.961	504
391.186	513
391.411	508
391.636	506
391.86	529
392.085	519
392.31	505
392.534	518
392.759	500
392.984	518
393.208	523
393.433	520
393.658	534
393.882	505
394.107	505
394.331	505
394.556	514
394.78	504
395.005	530
395.229	518
395.454	533
395.678	546
395.903	535
396.127	563
396.352	574
396.576	542
396.801	519
397.025	538
397.249	543
397.474	529
397.698	530
397.922	572
398.147	577
398.371	568
398.595	577
398.82	576
399.044	595
399.268	616
399.492	649
399.717	654
399.941	692
400.165	726
400.389	727
400.613	694
400.837	601
401.062	605
401.286	580
401.51	598
401.734	593
401.958	585
402.182	598
402.406	600
402.63	592
402.854	598
403.078	613
403.302	610
403.526	606
403.75	603
403.974	590
404.198	603
404.422	619
404.645	621
404.869	597
405.093	641
405.317	705
405.541	753
405.765	684
405.988	661
406.212	680
406.436	657
406.66	659
406.883	655
407.107	700
407.331	735
407.555	826
407.778	816
408.002	753
408.226	701
408.449	678
408.673	674
408.896	695
409.12	735
409.344	713
409.567	621
409.791	625
410.014	630
410.238	610
410.461	617
410.685	621
410.908	611
411.132	662
411.355	698
411.578	656
411.802	613
412.025	602
412.249	638
412.472	633
412.695	687
412.919	688
413.142	618
413.365	623
413.589	601
413.812	593
414.035	588
414.258	573
414.482	573
414.705	578
414.928	583
415.151	589
415.374	571
415.597	568
415.821	548
416.044	561
416.267	561
416.49	565
416.713	571
416.936	579
417.159	585
417.382	577
417.605	586
417.828	584
418.051	592
418.274	572
418.497	549
418.72	596
418.943	591
419.166	593
419.389	630
419.611	605
419.834	624
420.057	634
420.28	612
420.503	618
420.726	596
420.948	626
421.171	657
421.394	696
421.617	638
421.839	593
422.062	588
422.285	593
422.507	673
422.73	763
422.953	746
423.175	646
423.398	638
423.621	617
423.843	646
424.066	664
424.288	637
424.511	670
424.733	686
424.956	797
425.178	803
425.401	770
425.623	812
425.846	697
426.068	650
426.291	658
426.513	635
426.735	662
426.958	696
427.18	789
427.402	956
427.625	1032
427.847	899
428.069	796
428.292	708
428.514	636
428.736	622
428.958	615
429.181	605
429.403	602
429.625	591
429.847	636
430.069	732
430.292	716
430.514	649
430.736	600
430.958	609
431.18	591
431.402	565
431.624	542
431.846	574
432.068	567
432.29	584
432.512	565
432.734	580
432.956	562
433.178	584
433.4	600
433.622	595
433.844	569
434.066	573
434.287	564
434.509	567
434.731	581
434.953	580
435.175	629
435.397	636
435.618	640
435.84	684
436.062	820
436.284	877
436.505	742
436.727	668
436.949	621
437.17	610
437.392	618
437.614	633
437.835	655
438.057	737
438.278	866
438.5	865
438.721	937
438.943	904
439.165	706
439.386	673
439.608	672
439.829	661
440.05	686
440.272	746
440.493	696
440.715	611
440.936	602
441.158	601
441.379	594
441.6	601
441.822	620
442.043	668
442.264	778
442.486	812
442.707	717
442.928	644
443.149	675
443.371	661
443.592	728
443.813	862
444.034	949
444.255	763
444.476	682
444.698	662
444.919	644
445.14	749
445.361	720
445.582	697
445.803	796
446.024	884
446.245	918
446.466	862
446.687	720
446.908	658
447.129	628
447.35	608
447.571	580
447.792	580
448.013	587
448.234	622
448.455	691
448.675	790
448.896	933
449.117	791
449.338	727
449.559	855
449.779	1000
450	784
450.221	640
450.442	609
450.662	557
450.883	586
451.104	614
451.324	582
451.545	560
451.766	548
451.986	539
452.207	558
452.428	534
452.648	517
452.869	526
453.089	530
453.31	569
453.53	574
453.751	529
453.971	534
454.192	557
454.412	522
454.633	535
454.853	534
455.073	541
455.294	576
455.514	625
455.734	628
455.955	552
456.175	527
456.395	510
456.616	495
456.836	484
457.056	478
457.276	485
457.497	506
457.717	504
457.937	517
458.157	520
458.377	533
458.598	546
458.818	592
459.038	705
459.258	717
459.478	617
459.698	575
459.918	573
460.138	551
460.358	574
460.578	574
460.798	568
461.018	589
461.238	564
461.458	602
461.678	572
461.898	574
462.118	567
462.338	605
462.558	593
462.777	620
462.997	638
463.217	654
463.437	654
463.657	635
463.876	620
464.096	631
464.316	622
464.536	615
464.755	633
464.975	612
465.195	680
465.414	714
465.634	665
465.854	598
466.073	572
466.293	560
466.512	555
466.732	540
466.951	571
467.171	569
467.391	552
467.61	561
467.829	587
468.049	570
468.268	555
468.488	536
468.707	541
468.927	537
469.146	520
469.365	529
469.585	510
469.804	550
470.023	569
470.243	569
470.462	563
470.681	578
470.901	548
471.12	570
471.339	540
471.558	557
471.777	557
471.997	549
472.216	558
472.435	624
472.654	595
472.873	552
473.092	559
473.311	542
473.53	558
473.749	557
473.968	581
474.187	711
474.406	756
474.625	633
474.844	563
475.063	581
475.282	561
475.501	587
475.72	559
475.939	571
476.158	582
476.377	552
476.596	590
476.814	587
477.033	587
477.252	605
477.471	596
477.69	604
477.908	616
478.127	625
478.346	590
478.564	606
478.783	650
479.002	624
479.22	640
479.439	646
479.658	659
479.876	659
480.095	692
480.313	688
480.532	688
480.751	706
480.969	706
481.188	767
481.406	813
481.624	714
481.843	688
482.061	663
482.28	688
482.498	673
482.717	659
482.935	677
483.153	652
483.372	628
483.59	654
483.808	650
484.027	668
484.245	682
484.463	657
484.681	682
484.9	679
485.118	680
485.336	673
485.554	667
485.772	672
485.99	660
486.209	689
486.427	687
486.645	697
486.863	714
487.081	730
487.299	689
487.517	728
487.735	714
487.953	712
488.171	700
488.389	722
488.607	690
488.825	719
489.043	710
489.261	723
489.479	710
489.696	712
489.914	720
490.132	730
490.35	734
490.568	728
490.786	770
491.003	741
491.221	777
491.439	786
491.657	776
491.874	818
492.092	806
492.31	780
492.527	808
492.745	837
492.963	850
493.18	810
493.398	809
493.615	825
493.833	848
494.05	822
494.268	848
494.485	822
494.703	844
494.92	858
495.138	801
495.355	820
495.573	842
495.79	845
496.008	872
496.225	854
496.442	840
496.66	829
496.877	840
497.094	877
497.312	839
497.529	878
497.746	881
497.963	861
498.181	909
498.398	909
498.615	934
498.832	962
499.049	998
499.267	1011
499.484	1066
499.701	1046
499.918	1108
500.135	1165
500.352	1198
500.569	1244
500.786	1259
501.003	1217
501.22	1169
501.437	1138
501.654	1121
501.871	1086
502.088	1065
502.305	977
502.522	953
502.739	957
502.956	939
503.172	898
503.389	882
503.606	886
503.823	876
504.04	860
504.256	859
504.473	850
504.69	832
504.907	861
505.123	810
505.34	808
505.557	830
505.773	806
505.99	808
506.207	804
506.423	813
506.64	772
506.856	804
507.073	786
507.289	795
507.506	759
507.722	764
507.939	792
508.155	775
508.372	757
508.588	745
508.805	742
509.021	762
509.238	769
509.454	775
509.67	760
509.887	749
510.103	756
510.319	768
510.536	855
510.752	1296
510.968	1096
511.184	775
511.401	719
511.617	716
511.833	729
512.049	730
512.265	703
512.481	733
512.698	706
512.914	716
513.13	712
513.346	714
513.562	710
513.778	706
513.994	719
514.21	722
514.426	741
514.642	774
514.858	805
515.074	862
515.29	944
515.506	1356
515.721	1150
515.937	827
516.153	775
516.369	772
516.585	750
516.801	720
517.016	728
517.232	757
517.448	750
517.664	753
517.879	733
518.095	742
518.311	752
518.527	765
518.742	745
518.958	704
519.173	713
519.389	722
519.605	714
519.82	705
520.036	706
520.251	753
520.467	767
520.682	743
520.898	751
521.113	796
521.329	826
521.544	926
521.76	1112
521.975	1726
522.19	1710
522.406	993
522.621	800
522.836	726
523.052	713
523.267	653
523.482	672
523.698	645
523.913	658
524.128	656
524.343	628
524.559	608
524.774	611
524.989	605
525.204	621
525.419	638
525.634	611
525.849	611
526.064	607
526.28	598
526.495	592
526.71	609
526.925	583
527.14	584
527.355	578
527.57	579
527.785	571
527.999	583
528.214	585
528.429	586
528.644	598
528.859	601
529.074	584
529.289	600
529.503	695
529.718	645
529.933	628
530.148	594
530.363	598
530.577	587
530.792	569
531.007	566
531.221	582
531.436	570
531.651	560
531.865	579
532.08	569
532.295	553
532.509	570
532.724	560
532.938	545
533.153	550
533.367	564
533.582	572
533.796	575
534.011	542
534.225	570
534.44	584
534.654	538
534.868	559
535.083	572
535.297	545
535.511	531
535.726	565
535.94	557
536.154	553
536.369	551
536.583	541
536.797	552
537.011	536
537.225	528
537.44	559
537.654	542
537.868	520
538.082	525
538.296	558
538.51	528
538.724	554
538.938	521
539.153	544
539.367	540
539.581	533
539.795	526
540.009	538
540.222	559
540.436	533
540.65	556
540.864	531
541.078	534
541.292	554
541.506	545
541.72	522
541.934	522
542.147	530
542.361	528
542.575	512
542.789	521
543.002	512
543.216	551
543.43	543
543.644	526
543.857	561
544.071	532
544.285	542
544.498	495
544.712	527
544.925	514
545.139	515
545.352	530
545.566	520
545.779	522
545.993	554
546.206	517
546.42	523
546.633	531
546.847	531
547.06	533
547.274	520
547.487	509
547.7	502
547.914	496
548.127	524
548.34	518
548.554	517
548.767	528
548.98	531
549.193	502
549.407	514
549.62	511
549.833	495
550.046	498
550.259	521
550.473	517
550.686	514
550.899	502
551.112	505
551.325	500
551.538	497
551.751	502
551.964	506
552.177	505
552.39	501
552.603	493
552.816	520
553.029	511
553.242	512
553.455	526
553.667	540
553.88	519
554.093	520
554.306	533
554.519	524
554.732	500
554.944	509
555.157	489
555.37	500
555.583	511
555.795	484
556.008	509
556.221	464
556.433	457
556.646	484
556.859	459
557.071	479
557.284	500
557.496	455
557.709	472
557.921	445
558.134	463
558.346	460
558.559	452
558.771	445
558.984	466
559.196	456
559.409	447
559.621	443
559.833	462
560.046	458
560.258	462
560.47	450
560.683	446
560.895	469
561.107	470
561.32	433
561.532	441
561.744	459
561.956	424
562.168	470
562.381	462
562.593	444
562.805	472
563.017	446
