Data from 1966.PennyLincolnUp.Lamp.En5.5.200Scan.071719.P1._HRD10591_14-12-58-914.txt Node
Date: Thu Jul 18 14:12:58 EDT 2019
User: cochatt
Spectrometer: HR+D1059
Trigger mode: 1
Integration Time (sec): 1.000000E-1
Scans to average: 1
Electric dark correction enabled: true
Nonlinearity correction enabled: false
Boxcar width: 0
XAxis mode: Wavelengths
Number of Pixels in Spectrum: 2048
>>>>>Begin Spectral Data<<<<<
223.165	-2.12
223.4	-2.12
223.635	-2.12
223.869	-24.12
224.104	-25.12
224.338	-3.12
224.573	-13.12
224.808	-14.12
225.042	11.88
225.277	-7.12
225.511	-7.12
225.746	-6.12
225.98	-5.12
226.215	3.88
226.449	22.88
226.683	26.88
226.918	20.88
227.152	20.88
227.387	36.88
227.621	32.88
227.856	37.88
228.09	51.88
228.324	49.88
228.559	59.88
228.793	66.88
229.027	82.88
229.262	79.88
229.496	89.88
229.73	101.88
229.964	96.88
230.199	98.88
230.433	85.88
230.667	84.88
230.901	90.88
231.136	81.88
231.37	84.88
231.604	102.88
231.838	96.88
232.072	84.88
232.306	94.88
232.541	88.88
232.775	88.88
233.009	91.88
233.243	105.88
233.477	106.88
233.711	88.88
233.945	102.88
234.179	77.88
234.413	93.88
234.647	84.88
234.881	86.88
235.115	109.88
235.349	80.88
235.583	89.88
235.817	101.88
236.051	85.88
236.285	89.88
236.519	97.88
236.753	92.88
236.987	97.88
237.221	131.88
237.455	137.88
237.689	127.88
237.922	109.88
238.156	90.88
238.39	94.88
238.624	92.88
238.858	87.88
239.091	103.88
239.325	96.88
239.559	88.88
239.793	101.88
240.027	95.88
240.26	105.88
240.494	115.88
240.728	99.88
240.961	93.88
241.195	115.88
241.429	100.88
241.662	93.88
241.896	112.88
242.13	80.88
242.363	84.88
242.597	91.88
242.83	97.88
243.064	99.88
243.298	104.88
243.531	95.88
243.765	114.88
243.998	112.88
244.232	94.88
244.465	100.88
244.699	112.88
244.932	84.88
245.166	125.88
245.399	109.88
245.633	105.88
245.866	101.88
246.099	94.88
246.333	95.88
246.566	85.88
246.8	95.88
247.033	105.88
247.266	101.88
247.5	109.88
247.733	124.88
247.966	116.88
248.2	108.88
248.433	107.88
248.666	114.88
248.899	126.88
249.133	123.88
249.366	136.88
249.599	117.88
249.832	111.88
250.066	118.88
250.299	112.88
250.532	122.88
250.765	130.88
250.998	141.88
251.231	142.88
251.465	141.88
251.698	116.88
251.931	104.88
252.164	132.88
252.397	126.88
252.63	131.88
252.863	120.88
253.096	124.88
253.329	137.88
253.562	140.88
253.795	140.88
254.028	132.88
254.261	124.88
254.494	145.88
254.727	154.88
254.96	166.88
255.193	160.88
255.426	135.88
255.659	134.88
255.892	130.88
256.124	141.88
256.357	132.88
256.59	133.88
256.823	142.88
257.056	124.88
257.289	131.88
257.521	134.88
257.754	125.88
257.987	128.88
258.22	124.88
258.452	109.88
258.685	124.88
258.918	130.88
259.151	134.88
259.383	137.88
259.616	140.88
259.849	137.88
260.081	144.88
260.314	137.88
260.547	144.88
260.779	149.88
261.012	134.88
261.244	128.88
261.477	125.88
261.71	128.88
261.942	136.88
262.175	138.88
262.407	142.88
262.64	128.88
262.872	139.88
263.105	132.88
263.337	129.88
263.57	139.88
263.802	123.88
264.035	126.88
264.267	110.88
264.499	122.88
264.732	140.88
264.964	119.88
265.197	120.88
265.429	130.88
265.661	129.88
265.894	122.88
266.126	128.88
266.358	140.88
266.591	127.88
266.823	123.88
267.055	118.88
267.287	134.88
267.52	145.88
267.752	124.88
267.984	128.88
268.216	134.88
268.448	130.88
268.681	148.88
268.913	146.88
269.145	155.88
269.377	153.88
269.609	153.88
269.841	144.88
270.073	157.88
270.306	166.88
270.538	177.88
270.77	188.88
271.002	157.88
271.234	164.88
271.466	175.88
271.698	146.88
271.93	178.88
272.162	168.88
272.394	177.88
272.626	180.88
272.858	155.88
273.09	138.88
273.322	155.88
273.553	146.88
273.785	148.88
274.017	149.88
274.249	146.88
274.481	150.88
274.713	152.88
274.945	134.88
275.176	150.88
275.408	154.88
275.64	156.88
275.872	153.88
276.104	150.88
276.335	168.88
276.567	155.88
276.799	156.88
277.031	189.88
277.262	184.88
277.494	186.88
277.726	177.88
277.957	173.88
278.189	166.88
278.421	147.88
278.652	152.88
278.884	160.88
279.115	145.88
279.347	151.88
279.579	167.88
279.81	161.88
280.042	148.88
280.273	150.88
280.505	143.88
280.736	160.88
280.968	144.88
281.199	137.88
281.431	156.88
281.662	145.88
281.894	154.88
282.125	153.88
282.356	146.88
282.588	176.88
282.819	150.88
283.051	146.88
283.282	159.88
283.513	146.88
283.745	153.88
283.976	178.88
284.207	138.88
284.439	147.88
284.67	155.88
284.901	156.88
285.132	154.88
285.364	144.88
285.595	156.88
285.826	151.88
286.057	161.88
286.288	142.88
286.52	160.88
286.751	154.88
286.982	171.88
287.213	165.88
287.444	156.88
287.675	168.88
287.906	157.88
288.138	176.88
288.369	164.88
288.6	166.88
288.831	169.88
289.062	159.88
289.293	156.88
289.524	167.88
289.755	153.88
289.986	153.88
290.217	153.88
290.448	159.88
290.679	157.88
290.91	168.88
291.141	162.88
291.371	148.88
291.602	170.88
291.833	161.88
292.064	149.88
292.295	162.88
292.526	170.88
292.757	165.88
292.987	152.88
293.218	146.88
293.449	168.88
293.68	155.88
293.91	183.88
294.141	154.88
294.372	160.88
294.603	177.88
294.833	175.88
295.064	161.88
295.295	173.88
295.525	166.88
295.756	166.88
295.987	176.88
296.217	179.88
296.448	176.88
296.679	173.88
296.909	152.88
297.14	148.88
297.37	154.88
297.601	151.88
297.831	153.88
298.062	153.88
298.292	167.88
298.523	180.88
298.753	158.88
298.984	165.88
299.214	182.88
299.445	160.88
299.675	169.88
299.905	166.88
300.136	156.88
300.366	179.88
300.597	169.88
300.827	172.88
301.057	177.88
301.288	176.88
301.518	171.88
301.748	161.88
301.979	161.88
302.209	173.88
302.439	174.88
302.669	170.88
302.9	167.88
303.13	180.88
303.36	188.88
303.59	176.88
303.82	180.88
304.051	190.88
304.281	187.88
304.511	180.88
304.741	184.88
304.971	169.88
305.201	176.88
305.431	186.88
305.661	192.88
305.891	184.88
306.121	172.88
306.352	185.88
306.582	192.88
306.812	178.88
307.042	172.88
307.272	176.88
307.502	204.88
307.731	189.88
307.961	174.88
308.191	165.88
308.421	174.88
308.651	187.88
308.881	190.88
309.111	188.88
309.341	185.88
309.571	199.88
309.8	193.88
310.03	178.88
310.26	194.88
310.49	192.88
310.72	190.88
310.949	209.88
311.179	214.88
311.409	187.88
311.639	192.88
311.868	199.88
312.098	194.88
312.328	204.88
312.557	197.88
312.787	221.88
313.017	205.88
313.246	199.88
313.476	196.88
313.706	201.88
313.935	192.88
314.165	205.88
314.394	200.88
314.624	215.88
314.853	208.88
315.083	197.88
315.312	202.88
315.542	203.88
315.771	190.88
316.001	189.88
316.23	180.88
316.46	183.88
316.689	192.88
316.919	182.88
317.148	200.88
317.377	197.88
317.607	198.88
317.836	198.88
318.065	182.88
318.295	194.88
318.524	196.88
318.753	182.88
318.983	188.88
319.212	201.88
319.441	207.88
319.67	198.88
319.9	196.88
320.129	200.88
320.358	197.88
320.587	181.88
320.816	219.88
321.046	191.88
321.275	205.88
321.504	196.88
321.733	205.88
321.962	189.88
322.191	205.88
322.42	230.88
322.649	212.88
322.878	241.88
323.108	248.88
323.337	228.88
323.566	246.88
323.795	261.88
324.024	281.88
324.253	347.88
324.482	492.88
324.71	732.88
324.939	935.88
325.168	765.88
325.397	391.88
325.626	291.88
325.855	240.88
326.084	245.88
326.313	240.88
326.542	253.88
326.77	265.88
326.999	334.88
327.228	429.88
327.457	631.88
327.686	686.88
327.914	472.88
328.143	330.88
328.372	310.88
328.6	278.88
328.829	282.88
329.058	297.88
329.287	283.88
329.515	275.88
329.744	245.88
329.972	249.88
330.201	274.88
330.43	308.88
330.658	299.88
330.887	318.88
331.115	285.88
331.344	255.88
331.572	228.88
331.801	230.88
332.03	244.88
332.258	242.88
332.486	221.88
332.715	229.88
332.943	218.88
333.172	221.88
333.4	239.88
333.629	229.88
333.857	250.88
334.085	235.88
334.314	268.88
334.542	294.88
334.771	285.88
334.999	260.88
335.227	257.88
335.455	212.88
335.684	234.88
335.912	222.88
336.14	229.88
336.369	213.88
336.597	246.88
336.825	222.88
337.053	213.88
337.281	226.88
337.51	221.88
337.738	220.88
337.966	220.88
338.194	220.88
338.422	215.88
338.65	217.88
338.878	210.88
339.106	229.88
339.334	222.88
339.562	211.88
339.79	209.88
340.018	214.88
340.246	213.88
340.474	215.88
340.702	216.88
340.93	206.88
341.158	217.88
341.386	211.88
341.614	196.88
341.842	212.88
342.07	234.88
342.298	215.88
342.526	212.88
342.754	208.88
342.981	198.88
343.209	202.88
343.437	210.88
343.665	220.88
343.893	214.88
344.12	227.88
344.348	225.88
344.576	221.88
344.804	232.88
345.031	225.88
345.259	233.88
345.487	218.88
345.714	213.88
345.942	194.88
346.17	227.88
346.397	205.88
346.625	218.88
346.853	206.88
347.08	213.88
347.308	216.88
347.535	216.88
347.763	215.88
347.99	203.88
348.218	214.88
348.445	213.88
348.673	220.88
348.9	211.88
349.128	217.88
349.355	200.88
349.583	194.88
349.81	200.88
350.037	202.88
350.265	206.88
350.492	194.88
350.72	197.88
350.947	214.88
351.174	204.88
351.402	214.88
351.629	195.88
351.856	224.88
352.083	212.88
352.311	213.88
352.538	217.88
352.765	233.88
352.992	203.88
353.22	216.88
353.447	190.88
353.674	212.88
353.901	220.88
354.128	187.88
354.355	194.88
354.583	214.88
354.81	194.88
355.037	197.88
355.264	193.88
355.491	189.88
355.718	192.88
355.945	186.88
356.172	197.88
356.399	191.88
356.626	195.88
356.853	197.88
357.08	204.88
357.307	212.88
357.534	189.88
357.761	202.88
357.988	212.88
358.215	194.88
358.441	190.88
358.668	188.88
358.895	203.88
359.122	180.88
359.349	203.88
359.576	197.88
359.802	240.88
360.029	226.88
360.256	244.88
360.483	240.88
360.709	214.88
360.936	196.88
361.163	203.88
361.39	202.88
361.616	205.88
361.843	210.88
362.07	211.88
362.296	203.88
362.523	196.88
362.749	213.88
362.976	197.88
363.203	206.88
363.429	209.88
363.656	190.88
363.882	216.88
364.109	204.88
364.335	199.88
364.562	183.88
364.788	198.88
365.015	205.88
365.241	205.88
365.468	215.88
365.694	201.88
365.92	209.88
366.147	218.88
366.373	209.88
366.599	201.88
366.826	186.88
367.052	198.88
367.278	197.88
367.505	198.88
367.731	178.88
367.957	194.88
368.184	179.88
368.41	197.88
368.636	201.88
368.862	214.88
369.089	219.88
369.315	206.88
369.541	202.88
369.767	195.88
369.993	189.88
370.219	202.88
370.445	203.88
370.672	198.88
370.898	202.88
371.124	202.88
371.35	182.88
371.576	199.88
371.802	190.88
372.028	194.88
372.254	213.88
372.48	209.88
372.706	198.88
372.932	178.88
373.158	194.88
373.384	222.88
373.61	204.88
373.835	184.88
374.061	188.88
374.287	195.88
374.513	210.88
374.739	198.88
374.965	204.88
375.191	217.88
375.416	200.88
375.642	210.88
375.868	212.88
376.094	195.88
376.319	188.88
376.545	194.88
376.771	211.88
376.997	188.88
377.222	189.88
377.448	198.88
377.674	204.88
377.899	194.88
378.125	197.88
378.35	198.88
378.576	203.88
378.802	200.88
379.027	202.88
379.253	206.88
379.478	206.88
379.704	206.88
379.929	196.88
380.155	185.88
380.38	197.88
380.606	198.88
380.831	193.88
381.057	210.88
381.282	204.88
381.507	196.88
381.733	204.88
381.958	206.88
382.184	201.88
382.409	218.88
382.634	182.88
382.86	204.88
383.085	201.88
383.31	192.88
383.535	219.88
383.761	211.88
383.986	212.88
384.211	214.88
384.436	210.88
384.662	208.88
384.887	227.88
385.112	204.88
385.337	199.88
385.562	196.88
385.787	208.88
386.013	205.88
386.238	204.88
386.463	217.88
386.688	214.88
386.913	211.88
387.138	199.88
387.363	202.88
387.588	210.88
387.813	206.88
388.038	213.88
388.263	200.88
388.488	216.88
388.713	209.88
388.938	215.88
389.163	210.88
389.387	212.88
389.612	211.88
389.837	216.88
390.062	218.88
390.287	210.88
390.512	206.88
390.736	201.88
390.961	201.88
391.186	214.88
391.411	224.88
391.636	222.88
391.86	218.88
392.085	225.88
392.31	221.88
392.534	218.88
392.759	216.88
392.984	206.88
393.208	210.88
393.433	226.88
393.658	213.88
393.882	216.88
394.107	199.88
394.331	205.88
394.556	211.88
394.78	215.88
395.005	223.88
395.229	228.88
395.454	210.88
395.678	213.88
395.903	240.88
396.127	238.88
396.352	230.88
396.576	231.88
396.801	236.88
397.025	228.88
397.249	236.88
397.474	213.88
397.698	240.88
397.922	235.88
398.147	224.88
398.371	245.88
398.595	235.88
398.82	227.88
399.044	225.88
399.268	233.88
399.492	260.88
399.717	278.88
399.941	280.88
400.165	294.88
400.389	291.88
400.613	267.88
400.837	255.88
401.062	244.88
401.286	241.88
401.51	230.88
401.734	256.88
401.958	235.88
402.182	257.88
402.406	268.88
402.63	256.88
402.854	266.88
403.078	257.88
403.302	244.88
403.526	244.88
403.75	250.88
403.974	246.88
404.198	261.88
404.422	238.88
404.645	258.88
404.869	266.88
405.093	261.88
405.317	275.88
405.541	285.88
405.765	255.88
405.988	294.88
406.212	283.88
406.436	287.88
406.66	281.88
406.883	276.88
407.107	276.88
407.331	299.88
407.555	324.88
407.778	314.88
408.002	282.88
408.226	269.88
408.449	277.88
408.673	273.88
408.896	281.88
409.12	294.88
409.344	281.88
409.567	265.88
409.791	247.88
410.014	261.88
410.238	257.88
410.461	251.88
410.685	252.88
410.908	253.88
411.132	278.88
411.355	301.88
411.578	258.88
411.802	244.88
412.025	268.88
412.249	247.88
412.472	250.88
412.695	286.88
412.919	262.88
413.142	263.88
413.365	260.88
413.589	262.88
413.812	250.88
414.035	229.88
414.258	243.88
414.482	247.88
414.705	234.88
414.928	236.88
415.151	253.88
415.374	244.88
415.597	237.88
415.821	237.88
416.044	244.88
416.267	240.88
416.49	228.88
416.713	235.88
416.936	245.88
417.159	238.88
417.382	243.88
417.605	245.88
417.828	261.88
418.051	238.88
418.274	252.88
418.497	232.88
418.72	246.88
418.943	244.88
419.166	227.88
419.389	249.88
419.611	258.88
419.834	270.88
420.057	252.88
420.28	267.88
420.503	249.88
420.726	235.88
420.948	275.88
421.171	274.88
421.394	296.88
421.617	247.88
421.839	247.88
422.062	252.88
422.285	254.88
422.507	283.88
422.73	306.88
422.953	287.88
423.175	246.88
423.398	262.88
423.621	265.88
423.843	257.88
424.066	261.88
424.288	255.88
424.511	272.88
424.733	308.88
424.956	328.88
425.178	327.88
425.401	322.88
425.623	322.88
425.846	286.88
426.068	265.88
426.291	268.88
426.513	257.88
426.735	274.88
426.958	292.88
427.18	321.88
427.402	372.88
427.625	383.88
427.847	365.88
428.069	310.88
428.292	267.88
428.514	250.88
428.736	262.88
428.958	257.88
429.181	252.88
429.403	241.88
429.625	245.88
429.847	280.88
430.069	284.88
430.292	307.88
430.514	259.88
430.736	251.88
430.958	235.88
431.18	235.88
431.402	224.88
431.624	219.88
431.846	242.88
432.068	230.88
432.29	233.88
432.512	235.88
432.734	241.88
432.956	226.88
433.178	238.88
433.4	225.88
433.622	228.88
433.844	232.88
434.066	223.88
434.287	228.88
434.509	230.88
434.731	244.88
434.953	258.88
435.175	252.88
435.397	269.88
435.618	276.88
435.84	266.88
436.062	326.88
436.284	341.88
436.505	298.88
436.727	277.88
436.949	262.88
437.17	260.88
437.392	256.88
437.614	246.88
437.835	291.88
438.057	316.88
438.278	367.88
438.5	328.88
438.721	366.88
438.943	343.88
439.165	280.88
439.386	281.88
439.608	276.88
439.829	262.88
440.05	298.88
440.272	306.88
440.493	276.88
440.715	263.88
440.936	259.88
441.158	248.88
441.379	244.88
441.6	256.88
441.822	269.88
442.043	298.88
442.264	313.88
442.486	322.88
442.707	289.88
442.928	270.88
443.149	288.88
443.371	278.88
443.592	306.88
443.813	343.88
444.034	373.88
444.255	285.88
444.476	268.88
444.698	264.88
444.919	267.88
445.14	346.88
445.361	320.88
445.582	282.88
445.803	314.88
446.024	368.88
446.245	360.88
446.466	324.88
446.687	276.88
446.908	275.88
447.129	241.88
447.35	246.88
447.571	232.88
447.792	264.88
448.013	245.88
448.234	268.88
448.455	280.88
448.675	330.88
448.896	372.88
449.117	309.88
449.338	308.88
449.559	346.88
449.779	387.88
450	308.88
450.221	261.88
450.442	231.88
450.662	240.88
450.883	244.88
451.104	254.88
451.324	249.88
451.545	234.88
451.766	225.88
451.986	230.88
452.207	219.88
452.428	240.88
452.648	235.88
452.869	230.88
453.089	215.88
453.31	228.88
453.53	221.88
453.751	230.88
453.971	229.88
454.192	252.88
454.412	250.88
454.633	229.88
454.853	221.88
455.073	220.88
455.294	228.88
455.514	264.88
455.734	255.88
455.955	219.88
456.175	214.88
456.395	201.88
456.616	201.88
456.836	218.88
457.056	201.88
457.276	196.88
457.497	210.88
457.717	213.88
457.937	217.88
458.157	216.88
458.377	220.88
458.598	221.88
458.818	280.88
459.038	300.88
459.258	308.88
459.478	254.88
459.698	257.88
459.918	237.88
460.138	250.88
460.358	229.88
460.578	239.88
460.798	235.88
461.018	244.88
461.238	226.88
461.458	227.88
461.678	244.88
461.898	246.88
462.118	240.88
462.338	244.88
462.558	240.88
462.777	258.88
462.997	274.88
463.217	256.88
463.437	274.88
463.657	265.88
463.876	250.88
464.096	248.88
464.316	260.88
464.536	240.88
464.755	260.88
464.975	256.88
465.195	287.88
465.414	339.88
465.634	288.88
465.854	264.88
466.073	238.88
466.293	225.88
466.512	227.88
466.732	236.88
466.951	229.88
467.171	222.88
467.391	230.88
467.61	226.88
467.829	246.88
468.049	251.88
468.268	248.88
468.488	244.88
468.707	228.88
468.927	199.88
469.146	218.88
469.365	218.88
469.585	228.88
469.804	225.88
470.023	250.88
470.243	232.88
470.462	235.88
470.681	258.88
470.901	237.88
471.12	245.88
471.339	225.88
471.558	244.88
471.777	232.88
471.997	233.88
472.216	242.88
472.435	268.88
472.654	245.88
472.873	229.88
473.092	224.88
473.311	223.88
473.53	228.88
473.749	241.88
473.968	258.88
474.187	318.88
474.406	292.88
474.625	254.88
474.844	245.88
475.063	229.88
475.282	228.88
475.501	227.88
475.72	230.88
475.939	248.88
476.158	248.88
476.377	215.88
476.596	240.88
476.814	235.88
477.033	230.88
477.252	236.88
477.471	254.88
477.69	244.88
477.908	246.88
478.127	258.88
478.346	249.88
478.564	244.88
478.783	237.88
479.002	256.88
479.22	259.88
479.439	269.88
479.658	287.88
479.876	261.88
480.095	283.88
480.313	292.88
480.532	283.88
480.751	283.88
480.969	281.88
481.188	355.88
481.406	372.88
481.624	319.88
481.843	266.88
482.061	267.88
482.28	268.88
482.498	272.88
482.717	256.88
482.935	246.88
483.153	283.88
483.372	278.88
483.59	269.88
483.808	283.88
484.027	265.88
484.245	268.88
484.463	272.88
484.681	276.88
484.9	267.88
485.118	279.88
485.336	266.88
485.554	264.88
485.772	285.88
485.99	270.88
486.209	276.88
486.427	254.88
486.645	299.88
486.863	297.88
487.081	288.88
487.299	286.88
487.517	288.88
487.735	282.88
487.953	286.88
488.171	273.88
488.389	276.88
488.607	286.88
488.825	301.88
489.043	273.88
489.261	277.88
489.479	278.88
489.696	286.88
489.914	286.88
490.132	285.88
490.35	292.88
490.568	297.88
490.786	319.88
491.003	308.88
491.221	292.88
491.439	311.88
491.657	310.88
491.874	343.88
492.092	328.88
492.31	342.88
492.527	326.88
492.745	337.88
492.963	315.88
493.18	332.88
493.398	353.88
493.615	330.88
493.833	339.88
494.05	318.88
494.268	324.88
494.485	332.88
494.703	329.88
494.92	337.88
495.138	342.88
495.355	332.88
495.573	341.88
495.79	345.88
496.008	326.88
496.225	340.88
496.442	335.88
496.66	338.88
496.877	328.88
497.094	330.88
497.312	323.88
497.529	332.88
497.746	352.88
497.963	343.88
498.181	343.88
498.398	371.88
498.615	356.88
498.832	373.88
499.049	365.88
499.267	386.88
499.484	376.88
499.701	398.88
499.918	404.88
500.135	432.88
500.352	424.88
500.569	453.88
500.786	434.88
501.003	446.88
501.22	444.88
501.437	396.88
501.654	402.88
501.871	397.88
502.088	382.88
502.305	363.88
502.522	351.88
502.739	342.88
