Data from 1966.PennyLincolnUp.Lamp.En5.5.200Scan.071719.P1._HRD10591_14-15-08-926.txt Node
Date: Thu Jul 18 14:15:08 EDT 2019
User: cochatt
Spectrometer: HR+D1059
Trigger mode: 1
Integration Time (sec): 1.000000E-1
Scans to average: 1
Electric dark correction enabled: true
Nonlinearity correction enabled: false
Boxcar width: 0
XAxis mode: Wavelengths
Number of Pixels in Spectrum: 2048
>>>>>Begin Spectral Data<<<<<
223.165	-15.75
223.4	-15.75
223.635	-15.75
223.869	-10.75
224.104	-11.75
224.338	-4.75
224.573	-19.75
224.808	-7.75
225.042	-18.75
225.277	-13.75
225.511	0.25
225.746	0.25
225.98	3.25
226.215	11.25
226.449	17.25
226.683	12.25
226.918	17.25
227.152	41.25
227.387	25.25
227.621	35.25
227.856	52.25
228.09	49.25
228.324	66.25
228.559	42.25
228.793	53.25
229.027	83.25
229.262	74.25
229.496	70.25
229.73	109.25
229.964	108.25
230.199	80.25
230.433	89.25
230.667	81.25
230.901	100.25
231.136	79.25
231.37	83.25
231.604	78.25
231.838	94.25
232.072	90.25
232.306	87.25
232.541	90.25
232.775	90.25
233.009	83.25
233.243	97.25
233.477	93.25
233.711	91.25
233.945	101.25
234.179	81.25
234.413	91.25
234.647	97.25
234.881	93.25
235.115	93.25
235.349	99.25
235.583	94.25
235.817	105.25
236.051	97.25
236.285	85.25
236.519	95.25
236.753	92.25
236.987	123.25
237.221	119.25
237.455	133.25
237.689	122.25
237.922	95.25
238.156	90.25
238.39	100.25
238.624	93.25
238.858	92.25
239.091	98.25
239.325	94.25
239.559	113.25
239.793	103.25
240.027	107.25
240.26	110.25
240.494	113.25
240.728	110.25
240.961	127.25
241.195	104.25
241.429	98.25
241.662	86.25
241.896	91.25
242.13	88.25
242.363	98.25
242.597	93.25
242.83	100.25
243.064	98.25
243.298	105.25
243.531	98.25
243.765	93.25
243.998	110.25
244.232	96.25
244.465	90.25
244.699	104.25
244.932	102.25
245.166	110.25
245.399	120.25
245.633	112.25
245.866	95.25
246.099	107.25
246.333	99.25
246.566	106.25
246.8	115.25
247.033	107.25
247.266	102.25
247.5	105.25
247.733	126.25
247.966	123.25
248.2	126.25
248.433	110.25
248.666	118.25
248.899	126.25
249.133	136.25
249.366	128.25
249.599	124.25
249.832	102.25
250.066	116.25
250.299	117.25
250.532	132.25
250.765	142.25
250.998	151.25
251.231	134.25
251.465	132.25
251.698	131.25
251.931	126.25
252.164	134.25
252.397	120.25
252.63	109.25
252.863	136.25
253.096	144.25
253.329	167.25
253.562	137.25
253.795	133.25
254.028	128.25
254.261	130.25
254.494	136.25
254.727	163.25
254.96	162.25
255.193	163.25
255.426	144.25
255.659	133.25
255.892	138.25
256.124	155.25
256.357	159.25
256.59	142.25
256.823	146.25
257.056	121.25
257.289	142.25
257.521	156.25
257.754	141.25
257.987	132.25
258.22	138.25
258.452	138.25
258.685	146.25
258.918	134.25
259.151	141.25
259.383	142.25
259.616	152.25
259.849	130.25
260.081	145.25
260.314	146.25
260.547	165.25
260.779	138.25
261.012	133.25
261.244	141.25
261.477	125.25
261.71	151.25
261.942	127.25
262.175	149.25
262.407	158.25
262.64	149.25
262.872	126.25
263.105	141.25
263.337	141.25
263.57	142.25
263.802	145.25
264.035	130.25
264.267	124.25
264.499	131.25
264.732	134.25
264.964	135.25
265.197	136.25
265.429	134.25
265.661	136.25
265.894	139.25
266.126	124.25
266.358	130.25
266.591	145.25
266.823	148.25
267.055	145.25
267.287	139.25
267.52	136.25
267.752	144.25
267.984	141.25
268.216	138.25
268.448	156.25
268.681	146.25
268.913	165.25
269.145	160.25
269.377	178.25
269.609	170.25
269.841	174.25
270.073	156.25
270.306	184.25
270.538	182.25
270.77	184.25
271.002	180.25
271.234	178.25
271.466	183.25
271.698	185.25
271.93	184.25
272.162	202.25
272.394	198.25
272.626	174.25
272.858	168.25
273.09	159.25
273.322	147.25
273.553	159.25
273.785	160.25
274.017	161.25
274.249	152.25
274.481	164.25
274.713	168.25
274.945	184.25
275.176	165.25
275.408	148.25
275.64	160.25
275.872	163.25
276.104	159.25
276.335	157.25
276.567	155.25
276.799	181.25
277.031	198.25
277.262	195.25
277.494	189.25
277.726	203.25
277.957	166.25
278.189	164.25
278.421	165.25
278.652	172.25
278.884	150.25
279.115	156.25
279.347	171.25
279.579	147.25
279.81	164.25
280.042	162.25
280.273	150.25
280.505	163.25
280.736	162.25
280.968	163.25
281.199	151.25
281.431	167.25
281.662	171.25
281.894	156.25
282.125	171.25
282.356	180.25
282.588	177.25
282.819	173.25
283.051	170.25
283.282	165.25
283.513	174.25
283.745	191.25
283.976	161.25
284.207	182.25
284.439	179.25
284.67	165.25
284.901	169.25
285.132	163.25
285.364	183.25
285.595	143.25
285.826	157.25
286.057	160.25
286.288	160.25
286.52	167.25
286.751	174.25
286.982	169.25
287.213	176.25
287.444	155.25
287.675	140.25
287.906	185.25
288.138	196.25
288.369	194.25
288.6	167.25
288.831	171.25
289.062	179.25
289.293	184.25
289.524	170.25
289.755	169.25
289.986	164.25
290.217	187.25
290.448	158.25
290.679	170.25
290.91	173.25
291.141	161.25
291.371	181.25
291.602	170.25
291.833	152.25
292.064	165.25
292.295	171.25
292.526	166.25
292.757	174.25
292.987	182.25
293.218	170.25
293.449	166.25
293.68	166.25
293.91	156.25
294.141	174.25
294.372	165.25
294.603	170.25
294.833	173.25
295.064	161.25
295.295	164.25
295.525	169.25
295.756	177.25
295.987	178.25
296.217	205.25
296.448	182.25
296.679	178.25
296.909	182.25
297.14	176.25
297.37	174.25
297.601	181.25
297.831	183.25
298.062	177.25
298.292	174.25
298.523	176.25
298.753	160.25
298.984	178.25
299.214	186.25
299.445	166.25
299.675	176.25
299.905	191.25
300.136	192.25
300.366	165.25
300.597	168.25
300.827	162.25
301.057	175.25
301.288	212.25
301.518	194.25
301.748	190.25
301.979	196.25
302.209	184.25
302.439	194.25
302.669	193.25
302.9	180.25
303.13	185.25
303.36	185.25
303.59	171.25
303.82	187.25
304.051	200.25
304.281	194.25
304.511	201.25
304.741	183.25
304.971	182.25
305.201	173.25
305.431	186.25
305.661	178.25
305.891	180.25
306.121	191.25
306.352	185.25
306.582	197.25
306.812	204.25
307.042	197.25
307.272	183.25
307.502	196.25
307.731	177.25
307.961	189.25
308.191	198.25
308.421	183.25
308.651	168.25
308.881	203.25
309.111	202.25
309.341	185.25
309.571	203.25
309.8	193.25
310.03	197.25
310.26	224.25
310.49	194.25
310.72	225.25
310.949	215.25
311.179	209.25
311.409	226.25
311.639	211.25
311.868	227.25
312.098	212.25
312.328	224.25
312.557	236.25
312.787	233.25
313.017	221.25
313.246	212.25
313.476	213.25
313.706	192.25
313.935	214.25
314.165	221.25
314.394	235.25
314.624	226.25
314.853	217.25
315.083	220.25
315.312	201.25
315.542	206.25
315.771	202.25
316.001	211.25
316.23	199.25
316.46	219.25
316.689	217.25
316.919	218.25
317.148	210.25
317.377	224.25
317.607	214.25
317.836	218.25
318.065	204.25
318.295	215.25
318.524	212.25
318.753	204.25
318.983	204.25
319.212	199.25
319.441	205.25
319.67	227.25
319.9	199.25
320.129	198.25
320.358	199.25
320.587	202.25
320.816	223.25
321.046	198.25
321.275	213.25
321.504	221.25
321.733	215.25
321.962	225.25
322.191	226.25
322.42	243.25
322.649	235.25
322.878	247.25
323.108	229.25
323.337	263.25
323.566	268.25
323.795	292.25
324.024	312.25
324.253	378.25
324.482	546.25
324.71	830.25
324.939	1106.25
325.168	878.25
325.397	463.25
325.626	326.25
325.855	254.25
326.084	263.25
326.313	258.25
326.542	257.25
326.77	296.25
326.999	330.25
327.228	460.25
327.457	698.25
327.686	849.25
327.914	538.25
328.143	371.25
328.372	341.25
328.6	330.25
328.829	326.25
329.058	325.25
329.287	328.25
329.515	309.25
329.744	292.25
329.972	273.25
330.201	306.25
330.43	331.25
330.658	345.25
330.887	345.25
331.115	321.25
331.344	301.25
331.572	257.25
331.801	279.25
332.03	276.25
332.258	260.25
332.486	231.25
332.715	235.25
332.943	244.25
333.172	251.25
333.4	248.25
333.629	251.25
333.857	273.25
334.085	265.25
334.314	293.25
334.542	312.25
334.771	312.25
334.999	265.25
335.227	256.25
335.455	238.25
335.684	227.25
335.912	258.25
336.14	253.25
336.369	256.25
336.597	257.25
336.825	238.25
337.053	238.25
337.281	245.25
337.51	219.25
337.738	244.25
337.966	234.25
338.194	247.25
338.422	227.25
338.65	229.25
338.878	244.25
339.106	222.25
339.334	224.25
339.562	216.25
339.79	242.25
340.018	220.25
340.246	213.25
340.474	242.25
340.702	246.25
340.93	238.25
341.158	227.25
341.386	220.25
341.614	242.25
341.842	236.25
342.07	230.25
342.298	228.25
342.526	206.25
342.754	221.25
342.981	225.25
343.209	215.25
343.437	230.25
343.665	234.25
343.893	210.25
344.12	242.25
344.348	238.25
344.576	226.25
344.804	236.25
345.031	234.25
345.259	265.25
345.487	238.25
345.714	229.25
345.942	227.25
346.17	222.25
346.397	230.25
346.625	221.25
346.853	214.25
347.08	232.25
347.308	229.25
347.535	237.25
347.763	210.25
347.99	219.25
348.218	262.25
348.445	222.25
348.673	230.25
348.9	228.25
349.128	216.25
349.355	216.25
349.583	206.25
349.81	211.25
350.037	212.25
350.265	212.25
350.492	221.25
350.72	213.25
350.947	221.25
351.174	216.25
351.402	223.25
351.629	212.25
351.856	213.25
352.083	213.25
352.311	247.25
352.538	222.25
352.765	226.25
352.992	223.25
353.22	227.25
353.447	221.25
353.674	212.25
353.901	200.25
354.128	211.25
354.355	207.25
354.583	218.25
354.81	219.25
355.037	201.25
355.264	209.25
355.491	200.25
355.718	198.25
355.945	215.25
356.172	210.25
356.399	210.25
356.626	213.25
356.853	199.25
357.08	231.25
357.307	222.25
357.534	216.25
357.761	217.25
357.988	209.25
358.215	225.25
358.441	218.25
358.668	201.25
358.895	200.25
359.122	209.25
359.349	231.25
359.576	201.25
359.802	244.25
360.029	263.25
360.256	264.25
360.483	244.25
360.709	215.25
360.936	219.25
361.163	232.25
361.39	202.25
361.616	223.25
361.843	229.25
362.07	222.25
362.296	236.25
362.523	228.25
362.749	227.25
362.976	222.25
363.203	224.25
363.429	212.25
363.656	223.25
363.882	209.25
364.109	194.25
364.335	217.25
364.562	211.25
364.788	229.25
365.015	221.25
365.241	219.25
365.468	224.25
365.694	222.25
365.92	215.25
366.147	198.25
366.373	231.25
366.599	208.25
366.826	226.25
367.052	198.25
367.278	196.25
367.505	201.25
367.731	206.25
367.957	207.25
368.184	203.25
368.41	201.25
368.636	203.25
368.862	227.25
369.089	213.25
369.315	201.25
369.541	208.25
369.767	231.25
369.993	220.25
370.219	227.25
370.445	219.25
370.672	210.25
370.898	219.25
371.124	219.25
371.35	205.25
371.576	210.25
371.802	194.25
372.028	198.25
372.254	208.25
372.48	210.25
372.706	203.25
372.932	209.25
373.158	205.25
373.384	216.25
373.61	214.25
373.835	226.25
374.061	195.25
374.287	207.25
374.513	228.25
374.739	226.25
374.965	209.25
375.191	206.25
375.416	212.25
375.642	204.25
375.868	216.25
376.094	227.25
376.319	208.25
376.545	200.25
376.771	216.25
376.997	216.25
377.222	212.25
377.448	194.25
377.674	204.25
377.899	205.25
378.125	209.25
378.35	203.25
378.576	199.25
378.802	214.25
379.027	201.25
379.253	213.25
379.478	197.25
379.704	200.25
379.929	200.25
380.155	214.25
380.38	220.25
380.606	211.25
380.831	202.25
381.057	227.25
381.282	215.25
381.507	221.25
381.733	216.25
381.958	213.25
382.184	216.25
382.409	222.25
382.634	206.25
382.86	226.25
383.085	206.25
383.31	213.25
383.535	216.25
383.761	203.25
383.986	205.25
384.211	191.25
384.436	205.25
384.662	210.25
384.887	213.25
385.112	219.25
385.337	200.25
385.562	216.25
385.787	224.25
386.013	244.25
386.238	231.25
386.463	216.25
386.688	244.25
386.913	208.25
387.138	229.25
387.363	220.25
387.588	224.25
387.813	224.25
388.038	204.25
388.263	214.25
388.488	229.25
388.713	217.25
388.938	233.25
389.163	229.25
389.387	212.25
389.612	208.25
389.837	217.25
390.062	199.25
390.287	226.25
390.512	228.25
390.736	221.25
390.961	221.25
391.186	229.25
391.411	219.25
391.636	240.25
391.86	226.25
392.085	218.25
392.31	217.25
392.534	222.25
392.759	218.25
392.984	225.25
393.208	204.25
393.433	230.25
393.658	219.25
393.882	214.25
394.107	221.25
394.331	221.25
394.556	227.25
394.78	226.25
395.005	249.25
395.229	224.25
395.454	243.25
395.678	247.25
395.903	229.25
396.127	235.25
396.352	234.25
396.576	233.25
396.801	245.25
397.025	219.25
397.249	222.25
397.474	235.25
397.698	230.25
397.922	237.25
398.147	237.25
398.371	253.25
398.595	256.25
398.82	236.25
399.044	258.25
399.268	271.25
399.492	292.25
399.717	303.25
399.941	300.25
400.165	286.25
400.389	306.25
400.613	278.25
400.837	252.25
401.062	245.25
401.286	274.25
401.51	264.25
401.734	254.25
401.958	256.25
402.182	255.25
402.406	260.25
402.63	268.25
402.854	266.25
403.078	261.25
403.302	261.25
403.526	274.25
403.75	269.25
403.974	242.25
404.198	264.25
404.422	267.25
404.645	277.25
404.869	266.25
405.093	293.25
405.317	283.25
405.541	325.25
405.765	288.25
405.988	289.25
406.212	271.25
406.436	313.25
406.66	301.25
406.883	284.25
407.107	292.25
407.331	318.25
407.555	345.25
407.778	334.25
408.002	306.25
408.226	290.25
408.449	290.25
408.673	282.25
408.896	286.25
409.12	321.25
409.344	290.25
409.567	265.25
409.791	276.25
410.014	270.25
410.238	268.25
410.461	255.25
410.685	278.25
410.908	272.25
411.132	293.25
411.355	306.25
411.578	288.25
411.802	265.25
412.025	264.25
412.249	280.25
412.472	268.25
412.695	319.25
412.919	287.25
413.142	265.25
413.365	257.25
413.589	270.25
413.812	259.25
414.035	257.25
414.258	263.25
414.482	258.25
414.705	247.25
414.928	239.25
415.151	231.25
415.374	250.25
415.597	235.25
415.821	242.25
416.044	258.25
416.267	244.25
416.49	247.25
416.713	247.25
416.936	234.25
417.159	232.25
417.382	261.25
417.605	239.25
417.828	264.25
418.051	260.25
418.274	263.25
418.497	249.25
418.72	257.25
418.943	232.25
419.166	261.25
419.389	268.25
419.611	260.25
419.834	273.25
420.057	274.25
420.28	267.25
420.503	254.25
420.726	264.25
420.948	284.25
421.171	290.25
421.394	306.25
421.617	276.25
421.839	273.25
422.062	260.25
422.285	278.25
422.507	298.25
422.73	332.25
422.953	306.25
423.175	271.25
423.398	272.25
423.621	285.25
423.843	276.25
424.066	276.25
424.288	279.25
424.511	288.25
424.733	310.25
424.956	338.25
425.178	327.25
425.401	320.25
425.623	334.25
425.846	284.25
426.068	278.25
426.291	275.25
426.513	276.25
426.735	298.25
426.958	295.25
427.18	330.25
427.402	388.25
427.625	420.25
427.847	361.25
428.069	355.25
428.292	297.25
428.514	266.25
428.736	263.25
428.958	256.25
429.181	253.25
429.403	238.25
429.625	274.25
429.847	281.25
430.069	312.25
430.292	312.25
430.514	258.25
430.736	258.25
430.958	248.25
431.18	240.25
431.402	241.25
431.624	242.25
431.846	242.25
432.068	232.25
432.29	238.25
432.512	263.25
432.734	245.25
432.956	257.25
433.178	263.25
433.4	268.25
433.622	246.25
433.844	255.25
434.066	256.25
434.287	253.25
434.509	241.25
434.731	266.25
434.953	256.25
435.175	268.25
435.397	278.25
435.618	283.25
435.84	300.25
436.062	320.25
436.284	371.25
436.505	310.25
436.727	271.25
436.949	276.25
437.17	263.25
437.392	242.25
437.614	260.25
437.835	286.25
438.057	317.25
438.278	375.25
438.5	347.25
438.721	388.25
438.943	377.25
439.165	301.25
439.386	270.25
439.608	287.25
439.829	283.25
440.05	293.25
440.272	313.25
440.493	292.25
440.715	274.25
440.936	268.25
441.158	258.25
441.379	242.25
441.6	258.25
441.822	276.25
442.043	306.25
442.264	334.25
442.486	338.25
442.707	292.25
442.928	285.25
443.149	293.25
443.371	316.25
443.592	334.25
443.813	359.25
444.034	366.25
444.255	300.25
444.476	274.25
444.698	275.25
444.919	271.25
445.14	393.25
445.361	334.25
445.582	296.25
445.803	329.25
446.024	384.25
446.245	398.25
446.466	341.25
446.687	292.25
446.908	264.25
447.129	267.25
447.35	251.25
447.571	264.25
447.792	229.25
448.013	260.25
448.234	261.25
448.455	278.25
448.675	357.25
448.896	400.25
449.117	316.25
449.338	313.25
449.559	340.25
449.779	404.25
450	329.25
450.221	250.25
450.442	266.25
450.662	252.25
450.883	266.25
451.104	276.25
451.324	258.25
451.545	266.25
451.766	253.25
451.986	243.25
452.207	237.25
452.428	225.25
452.648	253.25
452.869	254.25
453.089	241.25
453.31	242.25
453.53	229.25
453.751	235.25
453.971	244.25
454.192	266.25
454.412	250.25
454.633	253.25
454.853	230.25
455.073	211.25
455.294	250.25
455.514	306.25
455.734	254.25
455.955	242.25
456.175	253.25
456.395	228.25
456.616	212.25
456.836	215.25
457.056	217.25
457.276	228.25
457.497	228.25
457.717	232.25
457.937	230.25
458.157	233.25
458.377	246.25
458.598	249.25
458.818	278.25
459.038	345.25
459.258	338.25
459.478	276.25
459.698	267.25
459.918	249.25
460.138	256.25
460.358	241.25
460.578	233.25
460.798	237.25
461.018	248.25
461.238	233.25
461.458	256.25
461.678	253.25
461.898	241.25
462.118	240.25
462.338	249.25
462.558	258.25
462.777	258.25
462.997	248.25
463.217	260.25
463.437	260.25
463.657	273.25
463.876	283.25
464.096	273.25
464.316	264.25
464.536	278.25
464.755	275.25
464.975	267.25
465.195	320.25
465.414	365.25
465.634	305.25
465.854	270.25
466.073	254.25
466.293	243.25
466.512	246.25
466.732	239.25
466.951	232.25
467.171	230.25
467.391	233.25
467.61	254.25
467.829	260.25
468.049	260.25
468.268	263.25
468.488	236.25
468.707	235.25
468.927	229.25
469.146	240.25
469.365	239.25
469.585	220.25
469.804	240.25
470.023	259.25
470.243	248.25
470.462	229.25
470.681	272.25
470.901	255.25
471.12	252.25
471.339	220.25
471.558	236.25
471.777	249.25
471.997	221.25
472.216	248.25
472.435	277.25
472.654	276.25
472.873	237.25
473.092	234.25
473.311	246.25
473.53	230.25
473.749	241.25
473.968	260.25
474.187	315.25
474.406	324.25
474.625	267.25
474.844	234.25
475.063	258.25
475.282	231.25
475.501	253.25
475.72	240.25
475.939	236.25
476.158	241.25
476.377	243.25
476.596	237.25
476.814	242.25
477.033	283.25
477.252	261.25
477.471	266.25
477.69	269.25
477.908	257.25
478.127	274.25
478.346	272.25
478.564	250.25
478.783	264.25
479.002	259.25
479.22	283.25
479.439	287.25
479.658	277.25
479.876	307.25
480.095	296.25
480.313	318.25
480.532	287.25
480.751	277.25
480.969	306.25
481.188	368.25
481.406	401.25
481.624	327.25
481.843	304.25
482.061	299.25
482.28	288.25
482.498	278.25
482.717	289.25
482.935	276.25
483.153	278.25
483.372	274.25
483.59	271.25
483.808	296.25
484.027	285.25
484.245	290.25
484.463	281.25
484.681	288.25
484.9	301.25
485.118	280.25
485.336	282.25
485.554	292.25
485.772	299.25
485.99	290.25
486.209	283.25
486.427	297.25
486.645	316.25
486.863	321.25
487.081	298.25
487.299	292.25
487.517	304.25
487.735	293.25
487.953	296.25
488.171	308.25
488.389	288.25
488.607	319.25
488.825	308.25
489.043	290.25
489.261	295.25
489.479	292.25
489.696	297.25
489.914	302.25
490.132	308.25
490.35	312.25
490.568	313.25
490.786	320.25
491.003	326.25
491.221	342.25
491.439	333.25
491.657	358.25
491.874	356.25
492.092	354.25
492.31	356.25
492.527	357.25
492.745	353.25
492.963	379.25
493.18	357.25
493.398	372.25
493.615	363.25
493.833	356.25
494.05	360.25
494.268	345.25
494.485	364.25
494.703	346.25
494.92	350.25
495.138	363.25
495.355	340.25
495.573	354.25
495.79	372.25
496.008	346.25
496.225	336.25
496.442	334.25
496.66	338.25
496.877	349.25
497.094	358.25
497.312	344.25
497.529	365.25
497.746	342.25
497.963	352.25
498.181	377.25
498.398	374.25
498.615	384.25
498.832	372.25
499.049	374.25
499.267	409.25
499.484	393.25
499.701	404.25
499.918	436.25
500.135	450.25
500.352	440.25
500.569	474.25
500.786	473.25
501.003	471.25
501.22	442.25
501.437	429.25
501.654	440.25
501.871	435.25
502.088	397.25
502.305	377.25
502.522	356.25
502.739	378.25
