Data from 1966.PennyLincolnUp.Lamp.En5.5.200Scan.071719.P1.Scan2.head_HRD10591_14-17-21-101.txt Node
Date: Thu Jul 18 14:17:21 EDT 2019
User: cochatt
Spectrometer: HR+D1059
Trigger mode: 1
Integration Time (sec): 1.000000E-1
Scans to average: 1
Electric dark correction enabled: true
Nonlinearity correction enabled: false
Boxcar width: 0
XAxis mode: Wavelengths
Number of Pixels in Spectrum: 2048
>>>>>Begin Spectral Data<<<<<
223.165	-2.38
223.4	-2.38
223.635	-2.38
223.869	-10.38
224.104	-25.38
224.338	-8.38
224.573	-18.38
224.808	-5.38
225.042	-10.38
225.277	-5.38
225.511	-5.38
225.746	-0.38
225.98	15.62
226.215	7.62
226.449	15.62
226.683	17.62
226.918	3.62
227.152	31.62
227.387	35.62
227.621	42.62
227.856	56.62
228.09	43.62
228.324	50.62
228.559	57.62
228.793	68.62
229.027	88.62
229.262	106.62
229.496	119.62
229.73	127.62
229.964	145.62
230.199	126.62
230.433	108.62
230.667	118.62
230.901	118.62
231.136	104.62
231.37	105.62
231.604	116.62
231.838	111.62
232.072	99.62
232.306	116.62
232.541	115.62
232.775	108.62
233.009	103.62
233.243	116.62
233.477	108.62
233.711	109.62
233.945	123.62
234.179	124.62
234.413	136.62
234.647	106.62
234.881	124.62
235.115	110.62
235.349	123.62
235.583	124.62
235.817	127.62
236.051	118.62
236.285	126.62
236.519	110.62
236.753	125.62
236.987	139.62
237.221	166.62
237.455	219.62
237.689	192.62
237.922	142.62
238.156	116.62
238.39	131.62
238.624	132.62
238.858	119.62
239.091	126.62
239.325	119.62
239.559	121.62
239.793	126.62
240.027	127.62
240.26	140.62
240.494	149.62
240.728	144.62
240.961	146.62
241.195	140.62
241.429	132.62
241.662	139.62
241.896	140.62
242.13	120.62
242.363	134.62
242.597	146.62
242.83	140.62
243.064	145.62
243.298	148.62
243.531	156.62
243.765	143.62
243.998	133.62
244.232	149.62
244.465	157.62
244.699	143.62
244.932	170.62
245.166	154.62
245.399	134.62
245.633	137.62
245.866	145.62
246.099	138.62
246.333	141.62
246.566	155.62
246.8	147.62
247.033	158.62
247.266	159.62
247.5	156.62
247.733	172.62
247.966	174.62
248.2	180.62
248.433	170.62
248.666	160.62
248.899	187.62
249.133	221.62
249.366	204.62
249.599	178.62
249.832	183.62
250.066	190.62
250.299	179.62
250.532	186.62
250.765	193.62
250.998	216.62
251.231	207.62
251.465	215.62
251.698	206.62
251.931	202.62
252.164	186.62
252.397	202.62
252.63	190.62
252.863	215.62
253.096	221.62
253.329	204.62
253.562	219.62
253.795	213.62
254.028	221.62
254.261	204.62
254.494	214.62
254.727	242.62
254.96	278.62
255.193	245.62
255.426	227.62
255.659	208.62
255.892	230.62
256.124	230.62
256.357	216.62
256.59	232.62
256.823	226.62
257.056	203.62
257.289	199.62
257.521	203.62
257.754	204.62
257.987	190.62
258.22	190.62
258.452	198.62
258.685	204.62
258.918	219.62
259.151	215.62
259.383	222.62
259.616	222.62
259.849	225.62
260.081	234.62
260.314	239.62
260.547	254.62
260.779	239.62
261.012	227.62
261.244	221.62
261.477	204.62
261.71	224.62
261.942	217.62
262.175	250.62
262.407	227.62
262.64	218.62
262.872	205.62
263.105	215.62
263.337	218.62
263.57	220.62
263.802	210.62
264.035	218.62
264.267	217.62
264.499	211.62
264.732	214.62
264.964	211.62
265.197	219.62
265.429	204.62
265.661	204.62
265.894	206.62
266.126	243.62
266.358	216.62
266.591	222.62
266.823	218.62
267.055	230.62
267.287	216.62
267.52	226.62
267.752	225.62
267.984	258.62
268.216	245.62
268.448	228.62
268.681	254.62
268.913	260.62
269.145	263.62
269.377	272.62
269.609	262.62
269.841	264.62
270.073	248.62
270.306	287.62
270.538	320.62
270.77	293.62
271.002	291.62
271.234	287.62
271.466	281.62
271.698	298.62
271.93	318.62
272.162	325.62
272.394	309.62
272.626	292.62
272.858	296.62
273.09	260.62
273.322	279.62
273.553	259.62
273.785	253.62
274.017	271.62
274.249	266.62
274.481	270.62
274.713	264.62
274.945	279.62
275.176	267.62
275.408	264.62
275.64	248.62
275.872	258.62
276.104	251.62
276.335	247.62
276.567	276.62
276.799	283.62
277.031	283.62
277.262	315.62
277.494	306.62
277.726	291.62
277.957	280.62
278.189	283.62
278.421	276.62
278.652	264.62
278.884	264.62
279.115	235.62
279.347	296.62
279.579	276.62
279.81	283.62
280.042	277.62
280.273	284.62
280.505	284.62
280.736	276.62
280.968	259.62
281.199	263.62
281.431	290.62
281.662	292.62
281.894	261.62
282.125	277.62
282.356	295.62
282.588	319.62
282.819	304.62
283.051	284.62
283.282	283.62
283.513	271.62
283.745	279.62
283.976	278.62
284.207	280.62
284.439	286.62
284.67	280.62
284.901	277.62
285.132	262.62
285.364	267.62
285.595	276.62
285.826	281.62
286.057	298.62
286.288	266.62
286.52	288.62
286.751	277.62
286.982	279.62
287.213	273.62
287.444	282.62
287.675	293.62
287.906	292.62
288.138	316.62
288.369	294.62
288.6	300.62
288.831	308.62
289.062	303.62
289.293	286.62
289.524	283.62
289.755	282.62
289.986	294.62
290.217	290.62
290.448	297.62
290.679	298.62
290.91	295.62
291.141	298.62
291.371	297.62
291.602	300.62
291.833	312.62
292.064	299.62
292.295	304.62
292.526	285.62
292.757	300.62
292.987	303.62
293.218	302.62
293.449	299.62
293.68	293.62
293.91	287.62
294.141	298.62
294.372	297.62
294.603	304.62
294.833	296.62
295.064	300.62
295.295	296.62
295.525	297.62
295.756	300.62
295.987	304.62
296.217	321.62
296.448	328.62
296.679	311.62
296.909	316.62
297.14	299.62
297.37	323.62
297.601	311.62
297.831	290.62
298.062	285.62
298.292	306.62
298.523	308.62
298.753	302.62
298.984	309.62
299.214	320.62
299.445	323.62
299.675	307.62
299.905	328.62
300.136	308.62
300.366	309.62
300.597	325.62
300.827	314.62
301.057	326.62
301.288	336.62
301.518	335.62
301.748	316.62
301.979	314.62
302.209	330.62
302.439	334.62
302.669	324.62
302.9	340.62
303.13	333.62
303.36	325.62
303.59	353.62
303.82	327.62
304.051	328.62
304.281	349.62
304.511	322.62
304.741	328.62
304.971	344.62
305.201	336.62
305.431	320.62
305.661	340.62
305.891	338.62
306.121	341.62
306.352	332.62
306.582	354.62
306.812	333.62
307.042	336.62
307.272	335.62
307.502	331.62
307.731	347.62
307.961	334.62
308.191	349.62
308.421	320.62
308.651	315.62
308.881	329.62
309.111	344.62
309.341	344.62
309.571	357.62
309.8	349.62
310.03	370.62
310.26	375.62
310.49	374.62
310.72	378.62
310.949	384.62
311.179	375.62
311.409	380.62
311.639	362.62
311.868	375.62
312.098	378.62
312.328	387.62
312.557	394.62
312.787	405.62
313.017	410.62
313.246	410.62
313.476	378.62
313.706	384.62
313.935	392.62
314.165	382.62
314.394	395.62
314.624	388.62
314.853	374.62
315.083	379.62
315.312	376.62
315.542	380.62
315.771	369.62
316.001	382.62
316.23	363.62
316.46	381.62
316.689	391.62
316.919	396.62
317.148	368.62
317.377	366.62
317.607	386.62
317.836	390.62
318.065	387.62
318.295	381.62
318.524	379.62
318.753	367.62
318.983	366.62
319.212	372.62
319.441	404.62
319.67	382.62
319.9	389.62
320.129	391.62
320.358	399.62
320.587	395.62
320.816	381.62
321.046	396.62
321.275	409.62
321.504	409.62
321.733	389.62
321.962	416.62
322.191	414.62
322.42	422.62
322.649	422.62
322.878	431.62
323.108	452.62
323.337	472.62
323.566	471.62
323.795	487.62
324.024	559.62
324.253	605.62
324.482	891.62
324.71	1387.62
324.939	2073.62
325.168	1778.62
325.397	882.62
325.626	605.62
325.855	520.62
326.084	484.62
326.313	484.62
326.542	507.62
326.77	543.62
326.999	599.62
327.228	861.62
327.457	1258.62
327.686	1586.62
327.914	1020.62
328.143	687.62
328.372	569.62
328.6	549.62
328.829	548.62
329.058	536.62
329.287	568.62
329.515	515.62
329.744	500.62
329.972	514.62
330.201	509.62
330.43	547.62
330.658	564.62
330.887	574.62
331.115	582.62
331.344	510.62
331.572	494.62
331.801	514.62
332.03	485.62
332.258	476.62
332.486	458.62
332.715	461.62
332.943	459.62
333.172	462.62
333.4	442.62
333.629	474.62
333.857	484.62
334.085	509.62
334.314	520.62
334.542	552.62
334.771	565.62
334.999	507.62
335.227	491.62
335.455	467.62
335.684	462.62
335.912	454.62
336.14	454.62
336.369	449.62
336.597	469.62
336.825	469.62
337.053	460.62
337.281	457.62
337.51	432.62
337.738	442.62
337.966	472.62
338.194	459.62
338.422	457.62
338.65	438.62
338.878	457.62
339.106	422.62
339.334	422.62
339.562	449.62
339.79	441.62
340.018	428.62
340.246	440.62
340.474	458.62
340.702	436.62
340.93	435.62
341.158	419.62
341.386	440.62
341.614	445.62
341.842	440.62
342.07	438.62
342.298	433.62
342.526	428.62
342.754	431.62
342.981	424.62
343.209	422.62
343.437	434.62
343.665	435.62
343.893	451.62
344.12	467.62
344.348	463.62
344.576	447.62
344.804	459.62
345.031	462.62
345.259	447.62
345.487	461.62
345.714	458.62
345.942	458.62
346.17	427.62
346.397	434.62
346.625	444.62
346.853	422.62
347.08	417.62
347.308	401.62
347.535	438.62
347.763	452.62
347.99	439.62
348.218	461.62
348.445	441.62
348.673	445.62
348.9	420.62
349.128	418.62
349.355	415.62
349.583	416.62
349.81	405.62
350.037	412.62
350.265	418.62
350.492	409.62
350.72	428.62
350.947	435.62
351.174	455.62
351.402	422.62
351.629	438.62
351.856	448.62
352.083	460.62
352.311	440.62
352.538	432.62
352.765	436.62
352.992	451.62
353.22	428.62
353.447	439.62
353.674	429.62
353.901	414.62
354.128	407.62
354.355	408.62
354.583	399.62
354.81	416.62
355.037	401.62
355.264	412.62
355.491	408.62
355.718	409.62
355.945	423.62
356.172	424.62
356.399	411.62
356.626	406.62
356.853	420.62
357.08	397.62
357.307	413.62
357.534	403.62
357.761	425.62
357.988	412.62
358.215	413.62
358.441	408.62
358.668	399.62
358.895	424.62
359.122	409.62
359.349	418.62
359.576	434.62
359.802	442.62
360.029	468.62
360.256	472.62
360.483	456.62
360.709	439.62
360.936	424.62
361.163	428.62
361.39	428.62
361.616	426.62
361.843	427.62
362.07	441.62
362.296	429.62
362.523	435.62
362.749	428.62
362.976	431.62
363.203	426.62
363.429	426.62
363.656	415.62
363.882	418.62
364.109	436.62
364.335	412.62
364.562	407.62
364.788	416.62
365.015	417.62
365.241	420.62
365.468	423.62
365.694	425.62
365.92	438.62
366.147	412.62
366.373	428.62
366.599	435.62
366.826	414.62
367.052	434.62
367.278	433.62
367.505	418.62
367.731	414.62
367.957	418.62
368.184	404.62
368.41	434.62
368.636	440.62
368.862	445.62
369.089	425.62
369.315	445.62
369.541	430.62
369.767	434.62
369.993	421.62
370.219	441.62
370.445	427.62
370.672	429.62
370.898	423.62
371.124	421.62
371.35	434.62
371.576	438.62
371.802	458.62
372.028	448.62
372.254	424.62
372.48	435.62
372.706	442.62
372.932	446.62
373.158	455.62
373.384	440.62
373.61	414.62
373.835	438.62
374.061	420.62
374.287	454.62
374.513	439.62
374.739	461.62
374.965	450.62
375.191	452.62
375.416	445.62
375.642	448.62
375.868	436.62
376.094	442.62
376.319	466.62
376.545	436.62
376.771	427.62
376.997	423.62
377.222	426.62
377.448	436.62
377.674	445.62
377.899	439.62
378.125	406.62
378.35	423.62
378.576	422.62
378.802	414.62
379.027	425.62
379.253	443.62
379.478	429.62
379.704	444.62
379.929	432.62
380.155	421.62
380.38	438.62
380.606	442.62
380.831	442.62
381.057	450.62
381.282	444.62
381.507	456.62
381.733	439.62
381.958	450.62
382.184	457.62
382.409	454.62
382.634	444.62
382.86	464.62
383.085	454.62
383.31	467.62
383.535	446.62
383.761	457.62
383.986	457.62
384.211	453.62
384.436	475.62
384.662	480.62
384.887	471.62
385.112	467.62
385.337	474.62
385.562	479.62
385.787	493.62
386.013	487.62
386.238	486.62
386.463	485.62
386.688	479.62
386.913	476.62
387.138	468.62
387.363	492.62
387.588	482.62
387.813	480.62
388.038	478.62
388.263	478.62
388.488	482.62
388.713	504.62
388.938	476.62
389.163	484.62
389.387	494.62
389.612	471.62
389.837	493.62
390.062	496.62
390.287	484.62
390.512	490.62
390.736	511.62
390.961	504.62
391.186	491.62
391.411	467.62
391.636	499.62
391.86	494.62
392.085	486.62
392.31	504.62
392.534	524.62
392.759	499.62
392.984	504.62
393.208	507.62
393.433	516.62
393.658	516.62
393.882	503.62
394.107	510.62
394.331	514.62
394.556	491.62
394.78	479.62
395.005	512.62
395.229	499.62
395.454	490.62
395.678	492.62
395.903	525.62
396.127	515.62
396.352	566.62
396.576	529.62
396.801	517.62
397.025	523.62
397.249	526.62
397.474	521.62
397.698	536.62
397.922	549.62
398.147	540.62
398.371	570.62
398.595	554.62
398.82	564.62
399.044	566.62
399.268	570.62
399.492	599.62
399.717	664.62
399.941	659.62
400.165	713.62
400.389	697.62
400.613	632.62
400.837	608.62
401.062	592.62
401.286	576.62
401.51	576.62
401.734	568.62
401.958	570.62
402.182	580.62
402.406	578.62
402.63	567.62
402.854	580.62
403.078	573.62
403.302	591.62
403.526	583.62
403.75	588.62
403.974	576.62
404.198	577.62
404.422	578.62
404.645	613.62
404.869	606.62
405.093	630.62
405.317	666.62
405.541	706.62
405.765	647.62
405.988	622.62
406.212	616.62
406.436	635.62
406.66	631.62
406.883	633.62
407.107	664.62
407.331	713.62
407.555	788.62
407.778	760.62
408.002	719.62
408.226	656.62
408.449	664.62
408.673	647.62
408.896	668.62
409.12	714.62
409.344	653.62
409.567	622.62
409.791	620.62
410.014	581.62
410.238	589.62
410.461	610.62
410.685	598.62
410.908	592.62
411.132	626.62
411.355	683.62
411.578	652.62
411.802	595.62
412.025	592.62
412.249	615.62
412.472	621.62
412.695	659.62
412.919	647.62
413.142	615.62
413.365	572.62
413.589	574.62
413.812	578.62
414.035	545.62
414.258	566.62
414.482	580.62
414.705	544.62
414.928	558.62
415.151	556.62
415.374	552.62
415.597	554.62
415.821	541.62
416.044	557.62
416.267	551.62
416.49	562.62
416.713	527.62
416.936	559.62
417.159	570.62
417.382	546.62
417.605	555.62
417.828	566.62
418.051	574.62
418.274	569.62
418.497	547.62
418.72	544.62
418.943	548.62
419.166	576.62
419.389	611.62
419.611	612.62
419.834	597.62
420.057	581.62
420.28	604.62
420.503	598.62
420.726	571.62
420.948	571.62
421.171	639.62
421.394	666.62
421.617	594.62
421.839	555.62
422.062	576.62
422.285	590.62
422.507	643.62
422.73	749.62
422.953	736.62
423.175	639.62
423.398	605.62
423.621	610.62
423.843	614.62
424.066	623.62
424.288	638.62
424.511	644.62
424.733	683.62
424.956	770.62
425.178	754.62
425.401	751.62
425.623	760.62
425.846	658.62
426.068	611.62
426.291	589.62
426.513	606.62
426.735	635.62
426.958	657.62
427.18	757.62
427.402	882.62
427.625	986.62
427.847	847.62
428.069	726.62
428.292	670.62
428.514	614.62
428.736	570.62
428.958	584.62
429.181	579.62
429.403	580.62
429.625	609.62
429.847	628.62
430.069	682.62
430.292	682.62
430.514	587.62
430.736	585.62
430.958	571.62
431.18	565.62
431.402	558.62
431.624	547.62
431.846	570.62
432.068	544.62
432.29	557.62
432.512	563.62
432.734	572.62
432.956	556.62
433.178	565.62
433.4	579.62
433.622	546.62
433.844	552.62
434.066	545.62
434.287	539.62
434.509	563.62
434.731	564.62
434.953	583.62
435.175	583.62
435.397	612.62
435.618	604.62
435.84	629.62
436.062	756.62
436.284	836.62
436.505	693.62
436.727	634.62
436.949	593.62
437.17	578.62
437.392	572.62
437.614	580.62
437.835	583.62
438.057	708.62
438.278	820.62
438.5	836.62
438.721	909.62
438.943	884.62
439.165	676.62
439.386	637.62
439.608	618.62
439.829	603.62
440.05	647.62
440.272	692.62
440.493	655.62
440.715	605.62
440.936	597.62
441.158	595.62
441.379	580.62
441.6	590.62
441.822	627.62
442.043	672.62
442.264	724.62
442.486	791.62
442.707	681.62
442.928	614.62
443.149	656.62
443.371	677.62
443.592	662.62
443.813	810.62
444.034	882.62
444.255	734.62
444.476	632.62
444.698	642.62
444.919	655.62
445.14	723.62
445.361	658.62
445.582	691.62
445.803	733.62
446.024	837.62
446.245	830.62
446.466	732.62
446.687	675.62
446.908	626.62
447.129	597.62
447.35	575.62
447.571	583.62
447.792	569.62
448.013	574.62
448.234	591.62
448.455	642.62
448.675	759.62
448.896	895.62
449.117	793.62
449.338	714.62
449.559	838.62
449.779	983.62
450	754.62
450.221	618.62
450.442	573.62
450.662	566.62
450.883	565.62
451.104	575.62
451.324	542.62
451.545	527.62
451.766	522.62
451.986	513.62
452.207	513.62
452.428	521.62
452.648	512.62
452.869	520.62
453.089	499.62
453.31	542.62
453.53	500.62
453.751	520.62
453.971	500.62
454.192	535.62
454.412	520.62
454.633	521.62
454.853	518.62
455.073	520.62
455.294	527.62
455.514	605.62
455.734	579.62
455.955	523.62
456.175	488.62
456.395	498.62
456.616	486.62
456.836	479.62
457.056	471.62
457.276	463.62
457.497	484.62
457.717	487.62
457.937	506.62
458.157	500.62
458.377	520.62
458.598	532.62
458.818	586.62
459.038	639.62
459.258	660.62
459.478	586.62
459.698	564.62
459.918	553.62
460.138	546.62
460.358	572.62
460.578	587.62
460.798	590.62
461.018	565.62
461.238	537.62
461.458	560.62
461.678	532.62
461.898	568.62
462.118	578.62
462.338	572.62
462.558	587.62
462.777	574.62
462.997	622.62
463.217	638.62
463.437	632.62
463.657	615.62
463.876	607.62
464.096	606.62
464.316	585.62
464.536	636.62
464.755	616.62
464.975	626.62
465.195	639.62
465.414	664.62
465.634	612.62
465.854	576.62
466.073	579.62
466.293	553.62
466.512	541.62
466.732	533.62
466.951	508.62
467.171	536.62
467.391	526.62
467.61	536.62
467.829	557.62
468.049	546.62
468.268	536.62
468.488	515.62
468.707	522.62
468.927	502.62
469.146	495.62
469.365	500.62
469.585	510.62
469.804	529.62
470.023	534.62
470.243	539.62
470.462	520.62
470.681	555.62
470.901	559.62
471.12	557.62
471.339	557.62
471.558	536.62
471.777	541.62
471.997	533.62
472.216	547.62
472.435	567.62
472.654	578.62
472.873	537.62
473.092	550.62
473.311	518.62
473.53	537.62
473.749	555.62
473.968	579.62
474.187	694.62
474.406	705.62
474.625	613.62
474.844	566.62
475.063	548.62
475.282	541.62
475.501	547.62
475.72	547.62
475.939	531.62
476.158	571.62
476.377	580.62
476.596	543.62
476.814	559.62
477.033	574.62
477.252	572.62
477.471	559.62
477.69	588.62
477.908	555.62
478.127	599.62
478.346	600.62
478.564	619.62
478.783	631.62
479.002	610.62
479.22	616.62
479.439	619.62
479.658	643.62
479.876	655.62
480.095	653.62
480.313	683.62
480.532	668.62
480.751	654.62
480.969	656.62
481.188	715.62
481.406	740.62
481.624	681.62
481.843	667.62
482.061	648.62
482.28	636.62
482.498	667.62
482.717	612.62
482.935	622.62
483.153	612.62
483.372	626.62
483.59	634.62
483.808	639.62
484.027	626.62
484.245	618.62
484.463	664.62
484.681	646.62
484.9	618.62
485.118	620.62
485.336	665.62
485.554	640.62
485.772	639.62
485.99	645.62
486.209	681.62
486.427	660.62
486.645	655.62
486.863	685.62
487.081	665.62
487.299	680.62
487.517	671.62
487.735	692.62
487.953	696.62
488.171	650.62
488.389	704.62
488.607	708.62
488.825	700.62
489.043	672.62
489.261	674.62
489.479	669.62
489.696	681.62
489.914	696.62
490.132	698.62
490.35	708.62
490.568	712.62
490.786	708.62
491.003	735.62
491.221	736.62
491.439	738.62
491.657	738.62
491.874	755.62
492.092	735.62
492.31	770.62
492.527	776.62
492.745	772.62
492.963	781.62
493.18	771.62
493.398	772.62
493.615	796.62
493.833	788.62
494.05	797.62
494.268	792.62
494.485	791.62
494.703	799.62
494.92	784.62
495.138	803.62
495.355	798.62
495.573	798.62
495.79	816.62
496.008	803.62
496.225	834.62
496.442	796.62
496.66	843.62
496.877	802.62
497.094	819.62
497.312	816.62
497.529	834.62
497.746	834.62
497.963	858.62
498.181	879.62
498.398	854.62
498.615	918.62
498.832	936.62
499.049	978.62
499.267	942.62
499.484	1006.62
499.701	1052.62
499.918	1103.62
500.135	1100.62
500.352	1172.62
500.569	1202.62
500.786	1176.62
501.003	1185.62
501.22	1140.62
501.437	1112.62
501.654	1064.62
