Data from 1966.PennyLincolnUp.Lamp.En5.5.200Scan.071719.P1._HRD10591_14-13-12-913.txt Node
Date: Thu Jul 18 14:13:12 EDT 2019
User: cochatt
Spectrometer: HR+D1059
Trigger mode: 1
Integration Time (sec): 1.000000E-1
Scans to average: 1
Electric dark correction enabled: true
Nonlinearity correction enabled: false
Boxcar width: 0
XAxis mode: Wavelengths
Number of Pixels in Spectrum: 2048
>>>>>Begin Spectral Data<<<<<
223.165	-17.56
223.4	-17.56
223.635	-17.56
223.869	-2.56
224.104	-14.56
224.338	-11.56
224.573	-14.56
224.808	-8.56
225.042	-12.56
225.277	-18.56
225.511	-5.56
225.746	-2.56
225.98	-14.56
226.215	17.44
226.449	9.44
226.683	28.44
226.918	35.44
227.152	32.44
227.387	55.44
227.621	44.44
227.856	41.44
228.09	56.44
228.324	54.44
228.559	64.44
228.793	54.44
229.027	74.44
229.262	94.44
229.496	100.44
229.73	96.44
229.964	106.44
230.199	95.44
230.433	98.44
230.667	101.44
230.901	89.44
231.136	88.44
231.37	104.44
231.604	96.44
231.838	89.44
232.072	94.44
232.306	83.44
232.541	93.44
232.775	95.44
233.009	97.44
233.243	90.44
233.477	89.44
233.711	101.44
233.945	112.44
234.179	108.44
234.413	98.44
234.647	94.44
234.881	100.44
235.115	95.44
235.349	96.44
235.583	106.44
235.817	91.44
236.051	113.44
236.285	109.44
236.519	106.44
236.753	109.44
236.987	107.44
237.221	131.44
237.455	151.44
237.689	122.44
237.922	103.44
238.156	108.44
238.39	111.44
238.624	91.44
238.858	120.44
239.091	102.44
239.325	111.44
239.559	105.44
239.793	91.44
240.027	103.44
240.26	113.44
240.494	106.44
240.728	114.44
240.961	112.44
241.195	106.44
241.429	107.44
241.662	116.44
241.896	106.44
242.13	102.44
242.363	104.44
242.597	93.44
242.83	107.44
243.064	111.44
243.298	108.44
243.531	110.44
243.765	100.44
243.998	98.44
244.232	112.44
244.465	122.44
244.699	106.44
244.932	109.44
245.166	107.44
245.399	116.44
245.633	108.44
245.866	98.44
246.099	103.44
246.333	121.44
246.566	107.44
246.8	114.44
247.033	112.44
247.266	112.44
247.5	109.44
247.733	106.44
247.966	119.44
248.2	111.44
248.433	122.44
248.666	123.44
248.899	124.44
249.133	127.44
249.366	142.44
249.599	136.44
249.832	130.44
250.066	106.44
250.299	131.44
250.532	142.44
250.765	127.44
250.998	149.44
251.231	134.44
251.465	141.44
251.698	129.44
251.931	123.44
252.164	139.44
252.397	134.44
252.63	136.44
252.863	139.44
253.096	133.44
253.329	143.44
253.562	149.44
253.795	144.44
254.028	135.44
254.261	137.44
254.494	159.44
254.727	165.44
254.96	177.44
255.193	154.44
255.426	142.44
255.659	139.44
255.892	135.44
256.124	150.44
256.357	135.44
256.59	134.44
256.823	145.44
257.056	141.44
257.289	121.44
257.521	135.44
257.754	126.44
257.987	131.44
258.22	143.44
258.452	135.44
258.685	140.44
258.918	132.44
259.151	140.44
259.383	128.44
259.616	145.44
259.849	139.44
260.081	156.44
260.314	150.44
260.547	154.44
260.779	137.44
261.012	135.44
261.244	149.44
261.477	145.44
261.71	161.44
261.942	139.44
262.175	136.44
262.407	156.44
262.64	150.44
262.872	143.44
263.105	133.44
263.337	132.44
263.57	133.44
263.802	131.44
264.035	136.44
264.267	120.44
264.499	130.44
264.732	138.44
264.964	153.44
265.197	123.44
265.429	129.44
265.661	147.44
265.894	132.44
266.126	124.44
266.358	160.44
266.591	155.44
266.823	146.44
267.055	145.44
267.287	137.44
267.52	136.44
267.752	148.44
267.984	135.44
268.216	144.44
268.448	150.44
268.681	147.44
268.913	171.44
269.145	180.44
269.377	168.44
269.609	169.44
269.841	158.44
270.073	168.44
270.306	176.44
270.538	192.44
270.77	186.44
271.002	182.44
271.234	146.44
271.466	169.44
271.698	177.44
271.93	185.44
272.162	197.44
272.394	177.44
272.626	177.44
272.858	161.44
273.09	161.44
273.322	159.44
273.553	156.44
273.785	149.44
274.017	160.44
274.249	137.44
274.481	171.44
274.713	150.44
274.945	163.44
275.176	177.44
275.408	162.44
275.64	154.44
275.872	149.44
276.104	165.44
276.335	155.44
276.567	152.44
276.799	160.44
277.031	190.44
277.262	178.44
277.494	184.44
277.726	178.44
277.957	173.44
278.189	165.44
278.421	151.44
278.652	163.44
278.884	162.44
279.115	171.44
279.347	168.44
279.579	161.44
279.81	149.44
280.042	143.44
280.273	153.44
280.505	173.44
280.736	148.44
280.968	163.44
281.199	161.44
281.431	153.44
281.662	159.44
281.894	161.44
282.125	160.44
282.356	172.44
282.588	200.44
282.819	184.44
283.051	175.44
283.282	158.44
283.513	163.44
283.745	179.44
283.976	157.44
284.207	168.44
284.439	171.44
284.67	170.44
284.901	172.44
285.132	177.44
285.364	163.44
285.595	173.44
285.826	160.44
286.057	176.44
286.288	169.44
286.52	169.44
286.751	157.44
286.982	162.44
287.213	156.44
287.444	160.44
287.675	175.44
287.906	173.44
288.138	188.44
288.369	195.44
288.6	183.44
288.831	165.44
289.062	176.44
289.293	157.44
289.524	160.44
289.755	148.44
289.986	183.44
290.217	179.44
290.448	164.44
290.679	174.44
290.91	171.44
291.141	177.44
291.371	161.44
291.602	172.44
291.833	147.44
292.064	166.44
292.295	167.44
292.526	164.44
292.757	169.44
292.987	183.44
293.218	187.44
293.449	186.44
293.68	163.44
293.91	179.44
294.141	155.44
294.372	170.44
294.603	173.44
294.833	172.44
295.064	148.44
295.295	186.44
295.525	161.44
295.756	195.44
295.987	202.44
296.217	185.44
296.448	210.44
296.679	185.44
296.909	175.44
297.14	177.44
297.37	165.44
297.601	168.44
297.831	172.44
298.062	175.44
298.292	187.44
298.523	176.44
298.753	176.44
298.984	175.44
299.214	174.44
299.445	179.44
299.675	171.44
299.905	176.44
300.136	189.44
300.366	183.44
300.597	177.44
300.827	177.44
301.057	185.44
301.288	187.44
301.518	193.44
301.748	188.44
301.979	176.44
302.209	172.44
302.439	203.44
302.669	189.44
302.9	194.44
303.13	179.44
303.36	185.44
303.59	193.44
303.82	207.44
304.051	186.44
304.281	197.44
304.511	191.44
304.741	200.44
304.971	194.44
305.201	185.44
305.431	183.44
305.661	197.44
305.891	169.44
306.121	181.44
306.352	187.44
306.582	181.44
306.812	196.44
307.042	181.44
307.272	191.44
307.502	175.44
307.731	189.44
307.961	189.44
308.191	191.44
308.421	189.44
308.651	177.44
308.881	183.44
309.111	207.44
309.341	199.44
309.571	214.44
309.8	203.44
310.03	216.44
310.26	218.44
310.49	206.44
310.72	207.44
310.949	211.44
311.179	211.44
311.409	212.44
311.639	216.44
311.868	212.44
312.098	209.44
312.328	201.44
312.557	208.44
312.787	207.44
313.017	221.44
313.246	210.44
313.476	226.44
313.706	199.44
313.935	213.44
314.165	225.44
314.394	214.44
314.624	225.44
314.853	227.44
315.083	209.44
315.312	208.44
315.542	195.44
315.771	202.44
316.001	202.44
316.23	201.44
316.46	203.44
316.689	213.44
316.919	227.44
317.148	208.44
317.377	214.44
317.607	196.44
317.836	197.44
318.065	217.44
318.295	205.44
318.524	215.44
318.753	217.44
318.983	194.44
319.212	204.44
319.441	208.44
319.67	229.44
319.9	213.44
320.129	200.44
320.358	200.44
320.587	205.44
320.816	213.44
321.046	213.44
321.275	220.44
321.504	200.44
321.733	186.44
321.962	232.44
322.191	238.44
322.42	217.44
322.649	239.44
322.878	237.44
323.108	259.44
323.337	253.44
323.566	271.44
323.795	256.44
324.024	267.44
324.253	366.44
324.482	498.44
324.71	735.44
324.939	968.44
325.168	775.44
325.397	404.44
325.626	287.44
325.855	248.44
326.084	255.44
326.313	250.44
326.542	254.44
326.77	288.44
326.999	340.44
327.228	437.44
327.457	641.44
327.686	745.44
327.914	487.44
328.143	335.44
328.372	316.44
328.6	299.44
328.829	275.44
329.058	290.44
329.287	294.44
329.515	290.44
329.744	270.44
329.972	264.44
330.201	303.44
330.43	286.44
330.658	298.44
330.887	311.44
331.115	326.44
331.344	263.44
331.572	251.44
331.801	264.44
332.03	249.44
332.258	233.44
332.486	242.44
332.715	227.44
332.943	226.44
333.172	252.44
333.4	229.44
333.629	245.44
333.857	241.44
334.085	261.44
334.314	274.44
334.542	290.44
334.771	309.44
334.999	257.44
335.227	243.44
335.455	244.44
335.684	235.44
335.912	242.44
336.14	226.44
336.369	228.44
336.597	237.44
336.825	244.44
337.053	220.44
337.281	250.44
337.51	219.44
337.738	241.44
337.966	233.44
338.194	231.44
338.422	236.44
338.65	216.44
338.878	223.44
339.106	215.44
339.334	224.44
339.562	226.44
339.79	220.44
340.018	233.44
340.246	227.44
340.474	236.44
340.702	240.44
340.93	223.44
341.158	224.44
341.386	225.44
341.614	240.44
341.842	224.44
342.07	231.44
342.298	217.44
342.526	208.44
342.754	217.44
342.981	222.44
343.209	204.44
343.437	231.44
343.665	217.44
343.893	240.44
344.12	239.44
344.348	231.44
344.576	224.44
344.804	232.44
345.031	226.44
345.259	247.44
345.487	244.44
345.714	235.44
345.942	214.44
346.17	214.44
346.397	232.44
346.625	227.44
346.853	224.44
347.08	222.44
347.308	212.44
347.535	244.44
347.763	213.44
347.99	219.44
348.218	217.44
348.445	204.44
348.673	235.44
348.9	234.44
349.128	222.44
349.355	214.44
349.583	219.44
349.81	218.44
350.037	213.44
350.265	203.44
350.492	217.44
350.72	224.44
350.947	218.44
351.174	221.44
351.402	230.44
351.629	225.44
351.856	233.44
352.083	230.44
352.311	234.44
352.538	235.44
352.765	234.44
352.992	240.44
353.22	213.44
353.447	219.44
353.674	204.44
353.901	219.44
354.128	207.44
354.355	197.44
354.583	207.44
354.81	213.44
355.037	213.44
355.264	212.44
355.491	202.44
355.718	199.44
355.945	215.44
356.172	211.44
356.399	220.44
356.626	213.44
356.853	208.44
357.08	205.44
357.307	189.44
357.534	203.44
357.761	196.44
357.988	204.44
358.215	202.44
358.441	202.44
358.668	208.44
358.895	206.44
359.122	212.44
359.349	207.44
359.576	224.44
359.802	222.44
360.029	248.44
360.256	248.44
360.483	232.44
360.709	234.44
360.936	235.44
361.163	228.44
361.39	221.44
361.616	222.44
361.843	212.44
362.07	217.44
362.296	235.44
362.523	213.44
362.749	211.44
362.976	225.44
363.203	211.44
363.429	202.44
363.656	193.44
363.882	207.44
364.109	209.44
364.335	211.44
364.562	209.44
364.788	214.44
365.015	220.44
365.241	205.44
365.468	211.44
365.694	197.44
365.92	213.44
366.147	221.44
366.373	215.44
366.599	219.44
366.826	208.44
367.052	215.44
367.278	210.44
367.505	201.44
367.731	217.44
367.957	204.44
368.184	219.44
368.41	220.44
368.636	199.44
368.862	229.44
369.089	225.44
369.315	212.44
369.541	223.44
369.767	213.44
369.993	200.44
370.219	219.44
370.445	201.44
370.672	201.44
370.898	216.44
371.124	209.44
371.35	201.44
371.576	211.44
371.802	196.44
372.028	204.44
372.254	208.44
372.48	210.44
372.706	187.44
372.932	208.44
373.158	215.44
373.384	195.44
373.61	207.44
373.835	208.44
374.061	195.44
374.287	192.44
374.513	203.44
374.739	219.44
374.965	209.44
375.191	202.44
375.416	219.44
375.642	204.44
375.868	216.44
376.094	208.44
376.319	192.44
376.545	218.44
376.771	197.44
376.997	215.44
377.222	207.44
377.448	206.44
377.674	203.44
377.899	210.44
378.125	210.44
378.35	193.44
378.576	212.44
378.802	198.44
379.027	219.44
379.253	197.44
379.478	207.44
379.704	206.44
379.929	195.44
380.155	199.44
380.38	206.44
380.606	213.44
380.831	201.44
381.057	213.44
381.282	209.44
381.507	219.44
381.733	196.44
381.958	212.44
382.184	222.44
382.409	218.44
382.634	201.44
382.86	217.44
383.085	211.44
383.31	202.44
383.535	224.44
383.761	228.44
383.986	212.44
384.211	207.44
384.436	233.44
384.662	222.44
384.887	237.44
385.112	218.44
385.337	232.44
385.562	215.44
385.787	227.44
386.013	219.44
386.238	232.44
386.463	251.44
386.688	219.44
386.913	210.44
387.138	208.44
387.363	191.44
387.588	221.44
387.813	227.44
388.038	219.44
388.263	234.44
388.488	217.44
388.713	217.44
388.938	217.44
389.163	207.44
389.387	210.44
389.612	210.44
389.837	221.44
390.062	220.44
390.287	232.44
390.512	213.44
390.736	210.44
390.961	221.44
391.186	228.44
391.411	218.44
391.636	232.44
391.86	220.44
392.085	244.44
392.31	232.44
392.534	232.44
392.759	242.44
392.984	237.44
393.208	210.44
393.433	239.44
393.658	242.44
393.882	221.44
394.107	211.44
394.331	223.44
394.556	208.44
394.78	220.44
395.005	224.44
395.229	220.44
395.454	226.44
395.678	223.44
395.903	209.44
396.127	223.44
396.352	245.44
396.576	217.44
396.801	227.44
397.025	242.44
397.249	223.44
397.474	220.44
397.698	229.44
397.922	237.44
398.147	240.44
398.371	243.44
398.595	242.44
398.82	274.44
399.044	249.44
399.268	269.44
399.492	281.44
399.717	284.44
399.941	299.44
400.165	308.44
400.389	301.44
400.613	278.44
400.837	257.44
401.062	238.44
401.286	237.44
401.51	236.44
401.734	264.44
401.958	264.44
402.182	242.44
402.406	256.44
402.63	268.44
402.854	271.44
403.078	252.44
403.302	273.44
403.526	269.44
403.75	249.44
403.974	259.44
404.198	270.44
404.422	261.44
404.645	260.44
404.869	270.44
405.093	283.44
405.317	263.44
405.541	304.44
405.765	282.44
405.988	275.44
406.212	275.44
406.436	288.44
406.66	311.44
406.883	281.44
407.107	286.44
407.331	294.44
407.555	329.44
407.778	329.44
408.002	284.44
408.226	295.44
408.449	298.44
408.673	271.44
408.896	290.44
409.12	318.44
409.344	279.44
409.567	253.44
409.791	253.44
410.014	250.44
410.238	257.44
410.461	257.44
410.685	266.44
410.908	264.44
411.132	269.44
411.355	286.44
411.578	287.44
411.802	254.44
412.025	257.44
412.249	267.44
412.472	285.44
412.695	274.44
412.919	285.44
413.142	257.44
413.365	269.44
413.589	272.44
413.812	247.44
414.035	258.44
414.258	257.44
414.482	242.44
414.705	242.44
414.928	254.44
415.151	239.44
415.374	249.44
415.597	233.44
415.821	247.44
416.044	231.44
416.267	248.44
416.49	249.44
416.713	239.44
416.936	239.44
417.159	247.44
417.382	240.44
417.605	256.44
417.828	263.44
418.051	249.44
418.274	264.44
418.497	249.44
418.72	248.44
418.943	247.44
419.166	267.44
419.389	268.44
419.611	274.44
419.834	255.44
420.057	257.44
420.28	256.44
420.503	264.44
420.726	255.44
420.948	273.44
421.171	278.44
421.394	294.44
421.617	271.44
421.839	272.44
422.062	274.44
422.285	263.44
422.507	287.44
422.73	318.44
422.953	304.44
423.175	287.44
423.398	274.44
423.621	269.44
423.843	287.44
424.066	296.44
424.288	270.44
424.511	295.44
424.733	297.44
424.956	335.44
425.178	321.44
425.401	320.44
425.623	341.44
425.846	285.44
426.068	276.44
426.291	273.44
426.513	272.44
426.735	287.44
426.958	302.44
427.18	329.44
427.402	370.44
427.625	397.44
427.847	383.44
428.069	322.44
428.292	296.44
428.514	269.44
428.736	256.44
428.958	252.44
429.181	255.44
429.403	272.44
429.625	265.44
429.847	285.44
430.069	309.44
430.292	313.44
430.514	266.44
430.736	261.44
430.958	263.44
431.18	233.44
431.402	263.44
431.624	242.44
431.846	244.44
432.068	257.44
432.29	235.44
432.512	232.44
432.734	261.44
432.956	247.44
433.178	276.44
433.4	266.44
433.622	256.44
433.844	257.44
434.066	252.44
434.287	247.44
434.509	267.44
434.731	256.44
434.953	244.44
435.175	264.44
435.397	290.44
435.618	267.44
435.84	291.44
436.062	315.44
436.284	341.44
436.505	302.44
436.727	271.44
436.949	260.44
437.17	249.44
437.392	265.44
437.614	269.44
437.835	263.44
438.057	298.44
438.278	340.44
438.5	340.44
438.721	351.44
438.943	360.44
439.165	301.44
439.386	262.44
439.608	274.44
439.829	289.44
440.05	303.44
440.272	298.44
440.493	299.44
440.715	286.44
440.936	257.44
441.158	279.44
441.379	252.44
441.6	277.44
441.822	292.44
442.043	289.44
442.264	314.44
442.486	341.44
442.707	295.44
442.928	271.44
443.149	288.44
443.371	302.44
443.592	302.44
443.813	354.44
444.034	354.44
444.255	307.44
444.476	283.44
444.698	259.44
444.919	285.44
445.14	364.44
445.361	315.44
445.582	294.44
445.803	330.44
446.024	365.44
446.245	376.44
446.466	328.44
446.687	281.44
446.908	276.44
447.129	265.44
447.35	284.44
447.571	249.44
447.792	267.44
448.013	251.44
448.234	267.44
448.455	285.44
448.675	342.44
448.896	377.44
449.117	318.44
449.338	314.44
449.559	352.44
449.779	378.44
450	327.44
450.221	279.44
450.442	253.44
450.662	260.44
450.883	253.44
451.104	249.44
451.324	261.44
451.545	258.44
451.766	236.44
451.986	237.44
452.207	250.44
452.428	226.44
452.648	231.44
452.869	235.44
453.089	232.44
453.31	251.44
453.53	233.44
453.751	240.44
453.971	243.44
454.192	240.44
454.412	235.44
454.633	228.44
454.853	250.44
455.073	228.44
455.294	249.44
455.514	265.44
455.734	267.44
455.955	243.44
456.175	221.44
456.395	229.44
456.616	225.44
456.836	235.44
457.056	230.44
457.276	220.44
457.497	226.44
457.717	223.44
457.937	214.44
458.157	224.44
458.377	214.44
458.598	234.44
458.818	276.44
459.038	298.44
459.258	299.44
459.478	264.44
459.698	248.44
459.918	244.44
460.138	249.44
460.358	240.44
460.578	245.44
460.798	244.44
461.018	247.44
461.238	248.44
461.458	255.44
461.678	228.44
461.898	249.44
462.118	236.44
462.338	245.44
462.558	256.44
462.777	253.44
462.997	263.44
463.217	260.44
463.437	281.44
463.657	276.44
463.876	250.44
464.096	270.44
464.316	251.44
464.536	259.44
464.755	267.44
464.975	252.44
465.195	292.44
465.414	331.44
465.634	299.44
465.854	256.44
466.073	249.44
466.293	251.44
466.512	240.44
466.732	231.44
466.951	236.44
467.171	254.44
467.391	230.44
467.61	262.44
467.829	227.44
468.049	226.44
468.268	240.44
468.488	232.44
468.707	219.44
468.927	242.44
469.146	243.44
469.365	244.44
469.585	229.44
469.804	243.44
470.023	247.44
470.243	260.44
470.462	239.44
470.681	269.44
470.901	263.44
471.12	235.44
471.339	250.44
471.558	252.44
471.777	251.44
471.997	238.44
472.216	256.44
472.435	277.44
472.654	254.44
472.873	250.44
473.092	243.44
473.311	234.44
473.53	238.44
473.749	254.44
473.968	269.44
474.187	302.44
474.406	324.44
474.625	251.44
474.844	237.44
475.063	267.44
475.282	236.44
475.501	240.44
475.72	234.44
475.939	255.44
476.158	236.44
476.377	236.44
476.596	247.44
476.814	242.44
477.033	244.44
477.252	233.44
477.471	238.44
477.69	248.44
477.908	266.44
478.127	276.44
478.346	262.44
478.564	278.44
478.783	259.44
479.002	286.44
479.22	296.44
479.439	285.44
479.658	292.44
479.876	278.44
480.095	288.44
480.313	295.44
480.532	295.44
480.751	283.44
480.969	304.44
481.188	355.44
481.406	362.44
481.624	292.44
481.843	275.44
482.061	292.44
482.28	256.44
482.498	270.44
482.717	275.44
482.935	280.44
483.153	289.44
483.372	263.44
483.59	273.44
483.808	273.44
484.027	277.44
484.245	281.44
484.463	296.44
484.681	288.44
484.9	278.44
485.118	301.44
485.336	281.44
485.554	261.44
485.772	287.44
485.99	285.44
486.209	285.44
486.427	291.44
486.645	277.44
486.863	286.44
487.081	281.44
487.299	286.44
487.517	294.44
487.735	284.44
487.953	290.44
488.171	296.44
488.389	311.44
488.607	283.44
488.825	311.44
489.043	285.44
489.261	309.44
489.479	296.44
489.696	300.44
489.914	301.44
490.132	299.44
490.35	311.44
490.568	305.44
490.786	317.44
491.003	306.44
491.221	327.44
491.439	343.44
491.657	325.44
491.874	317.44
492.092	330.44
492.31	337.44
492.527	346.44
492.745	320.44
492.963	344.44
493.18	345.44
493.398	331.44
493.615	354.44
493.833	342.44
494.05	351.44
494.268	349.44
494.485	349.44
494.703	338.44
494.92	332.44
495.138	333.44
495.355	337.44
495.573	345.44
495.79	342.44
496.008	340.44
496.225	336.44
496.442	341.44
496.66	346.44
496.877	343.44
497.094	361.44
497.312	345.44
497.529	346.44
497.746	347.44
497.963	361.44
498.181	367.44
498.398	357.44
498.615	363.44
498.832	369.44
499.049	385.44
499.267	373.44
499.484	383.44
499.701	403.44
499.918	419.44
500.135	428.44
500.352	447.44
500.569	445.44
500.786	464.44
501.003	462.44
501.22	426.44
501.437	423.44
501.654	423.44
501.871	412.44
502.088	399.44
502.305	373.44
