Data from 1966.PennyLincolnUp.Lamp.En5.5.200Scan.071719.P1.Scan2.head_HRD10591_14-16-55-067.txt Node
Date: Thu Jul 18 14:16:55 EDT 2019
User: cochatt
Spectrometer: HR+D1059
Trigger mode: 1
Integration Time (sec): 1.000000E-1
Scans to average: 1
Electric dark correction enabled: true
Nonlinearity correction enabled: false
Boxcar width: 0
XAxis mode: Wavelengths
Number of Pixels in Spectrum: 2048
>>>>>Begin Spectral Data<<<<<
223.165	-10.88
223.4	-10.88
223.635	-10.88
223.869	-9.88
224.104	-13.88
224.338	-14.88
224.573	-18.88
224.808	-10.88
225.042	-2.88
225.277	-11.88
225.511	-6.88
225.746	11.12
225.98	9.12
226.215	-4.88
226.449	15.12
226.683	27.12
226.918	25.12
227.152	18.12
227.387	21.12
227.621	33.12
227.856	47.12
228.09	42.12
228.324	49.12
228.559	54.12
228.793	56.12
229.027	87.12
229.262	114.12
229.496	95.12
229.73	123.12
229.964	132.12
230.199	121.12
230.433	98.12
230.667	103.12
230.901	104.12
231.136	98.12
231.37	110.12
231.604	103.12
231.838	105.12
232.072	100.12
232.306	107.12
232.541	106.12
232.775	100.12
233.009	106.12
233.243	116.12
233.477	116.12
233.711	122.12
233.945	110.12
234.179	113.12
234.413	109.12
234.647	117.12
234.881	107.12
235.115	125.12
235.349	121.12
235.583	110.12
235.817	114.12
236.051	117.12
236.285	129.12
236.519	109.12
236.753	110.12
236.987	122.12
237.221	149.12
237.455	224.12
237.689	189.12
237.922	130.12
238.156	121.12
238.39	129.12
238.624	127.12
238.858	133.12
239.091	118.12
239.325	116.12
239.559	124.12
239.793	133.12
240.027	133.12
240.26	134.12
240.494	149.12
240.728	145.12
240.961	149.12
241.195	135.12
241.429	128.12
241.662	119.12
241.896	137.12
242.13	137.12
242.363	149.12
242.597	133.12
242.83	130.12
243.064	133.12
243.298	153.12
243.531	143.12
243.765	147.12
243.998	129.12
244.232	137.12
244.465	138.12
244.699	142.12
244.932	140.12
245.166	139.12
245.399	136.12
245.633	144.12
245.866	149.12
246.099	116.12
246.333	145.12
246.566	143.12
246.8	143.12
247.033	146.12
247.266	150.12
247.5	162.12
247.733	171.12
247.966	156.12
248.2	171.12
248.433	175.12
248.666	146.12
248.899	179.12
249.133	178.12
249.366	182.12
249.599	180.12
249.832	160.12
250.066	181.12
250.299	157.12
250.532	163.12
250.765	188.12
250.998	199.12
251.231	204.12
251.465	203.12
251.698	190.12
251.931	186.12
252.164	183.12
252.397	194.12
252.63	203.12
252.863	188.12
253.096	195.12
253.329	208.12
253.562	193.12
253.795	222.12
254.028	203.12
254.261	193.12
254.494	216.12
254.727	230.12
254.96	246.12
255.193	250.12
255.426	215.12
255.659	228.12
255.892	214.12
256.124	212.12
256.357	225.12
256.59	202.12
256.823	173.12
257.056	195.12
257.289	198.12
257.521	196.12
257.754	179.12
257.987	202.12
258.22	206.12
258.452	199.12
258.685	199.12
258.918	217.12
259.151	201.12
259.383	224.12
259.616	212.12
259.849	209.12
260.081	199.12
260.314	243.12
260.547	241.12
260.779	230.12
261.012	222.12
261.244	214.12
261.477	218.12
261.71	221.12
261.942	209.12
262.175	224.12
262.407	204.12
262.64	188.12
262.872	210.12
263.105	213.12
263.337	207.12
263.57	206.12
263.802	187.12
264.035	198.12
264.267	212.12
264.499	193.12
264.732	199.12
264.964	193.12
265.197	194.12
265.429	210.12
265.661	207.12
265.894	193.12
266.126	201.12
266.358	206.12
266.591	209.12
266.823	205.12
267.055	217.12
267.287	210.12
267.52	214.12
267.752	228.12
267.984	213.12
268.216	211.12
268.448	210.12
268.681	210.12
268.913	221.12
269.145	235.12
269.377	258.12
269.609	245.12
269.841	253.12
270.073	247.12
270.306	260.12
270.538	274.12
270.77	275.12
271.002	270.12
271.234	277.12
271.466	273.12
271.698	280.12
271.93	293.12
272.162	271.12
272.394	295.12
272.626	278.12
272.858	266.12
273.09	245.12
273.322	257.12
273.553	233.12
273.785	250.12
274.017	229.12
274.249	257.12
274.481	234.12
274.713	242.12
274.945	249.12
275.176	247.12
275.408	229.12
275.64	242.12
275.872	257.12
276.104	251.12
276.335	230.12
276.567	241.12
276.799	268.12
277.031	275.12
277.262	297.12
277.494	281.12
277.726	269.12
277.957	228.12
278.189	266.12
278.421	241.12
278.652	257.12
278.884	241.12
279.115	238.12
279.347	250.12
279.579	254.12
279.81	250.12
280.042	234.12
280.273	246.12
280.505	263.12
280.736	236.12
280.968	246.12
281.199	259.12
281.431	237.12
281.662	247.12
281.894	251.12
282.125	255.12
282.356	263.12
282.588	279.12
282.819	285.12
283.051	266.12
283.282	258.12
283.513	257.12
283.745	269.12
283.976	283.12
284.207	271.12
284.439	270.12
284.67	254.12
284.901	268.12
285.132	265.12
285.364	244.12
285.595	268.12
285.826	254.12
286.057	257.12
286.288	249.12
286.52	246.12
286.751	278.12
286.982	264.12
287.213	259.12
287.444	261.12
287.675	268.12
287.906	280.12
288.138	266.12
288.369	282.12
288.6	275.12
288.831	288.12
289.062	286.12
289.293	270.12
289.524	264.12
289.755	265.12
289.986	279.12
290.217	275.12
290.448	265.12
290.679	270.12
290.91	251.12
291.141	263.12
291.371	249.12
291.602	259.12
291.833	259.12
292.064	269.12
292.295	285.12
292.526	281.12
292.757	297.12
292.987	269.12
293.218	259.12
293.449	264.12
293.68	287.12
293.91	275.12
294.141	270.12
294.372	273.12
294.603	275.12
294.833	268.12
295.064	270.12
295.295	265.12
295.525	278.12
295.756	271.12
295.987	267.12
296.217	306.12
296.448	290.12
296.679	269.12
296.909	283.12
297.14	293.12
297.37	302.12
297.601	281.12
297.831	283.12
298.062	283.12
298.292	278.12
298.523	288.12
298.753	299.12
298.984	283.12
299.214	297.12
299.445	287.12
299.675	282.12
299.905	275.12
300.136	282.12
300.366	306.12
300.597	305.12
300.827	297.12
301.057	307.12
301.288	298.12
301.518	314.12
301.748	299.12
301.979	301.12
302.209	304.12
302.439	297.12
302.669	308.12
302.9	325.12
303.13	303.12
303.36	285.12
303.59	296.12
303.82	311.12
304.051	323.12
304.281	329.12
304.511	300.12
304.741	314.12
304.971	313.12
305.201	300.12
305.431	309.12
305.661	300.12
305.891	309.12
306.121	321.12
306.352	321.12
306.582	330.12
306.812	310.12
307.042	310.12
307.272	314.12
307.502	315.12
307.731	300.12
307.961	301.12
308.191	293.12
308.421	310.12
308.651	313.12
308.881	323.12
309.111	313.12
309.341	295.12
309.571	318.12
309.8	324.12
310.03	331.12
310.26	357.12
310.49	318.12
310.72	344.12
310.949	349.12
311.179	369.12
311.409	335.12
311.639	346.12
311.868	337.12
312.098	342.12
312.328	340.12
312.557	363.12
312.787	366.12
313.017	379.12
313.246	366.12
313.476	357.12
313.706	339.12
313.935	354.12
314.165	362.12
314.394	374.12
314.624	348.12
314.853	363.12
315.083	371.12
315.312	349.12
315.542	345.12
315.771	331.12
316.001	332.12
316.23	354.12
316.46	347.12
316.689	337.12
316.919	363.12
317.148	361.12
317.377	379.12
317.607	357.12
317.836	351.12
318.065	354.12
318.295	358.12
318.524	350.12
318.753	358.12
318.983	351.12
319.212	362.12
319.441	367.12
319.67	347.12
319.9	353.12
320.129	350.12
320.358	337.12
320.587	348.12
320.816	353.12
321.046	375.12
321.275	373.12
321.504	380.12
321.733	369.12
321.962	375.12
322.191	364.12
322.42	375.12
322.649	405.12
322.878	401.12
323.108	402.12
323.337	422.12
323.566	442.12
323.795	447.12
324.024	478.12
324.253	570.12
324.482	778.12
324.71	1189.12
324.939	1801.12
325.168	1579.12
325.397	785.12
325.626	541.12
325.855	472.12
326.084	422.12
326.313	436.12
326.542	452.12
326.77	497.12
326.999	550.12
327.228	729.12
327.457	1102.12
327.686	1387.12
327.914	891.12
328.143	593.12
328.372	517.12
328.6	498.12
328.829	492.12
329.058	485.12
329.287	501.12
329.515	471.12
329.744	447.12
329.972	455.12
330.201	456.12
330.43	469.12
330.658	497.12
330.887	526.12
331.115	514.12
331.344	442.12
331.572	462.12
331.801	437.12
332.03	429.12
332.258	439.12
332.486	406.12
332.715	428.12
332.943	417.12
333.172	427.12
333.4	422.12
333.629	426.12
333.857	447.12
334.085	467.12
334.314	467.12
334.542	476.12
334.771	493.12
334.999	480.12
335.227	454.12
335.455	435.12
335.684	427.12
335.912	435.12
336.14	422.12
336.369	439.12
336.597	413.12
336.825	451.12
337.053	419.12
337.281	418.12
337.51	381.12
337.738	417.12
337.966	399.12
338.194	414.12
338.422	409.12
338.65	395.12
338.878	417.12
339.106	422.12
339.334	406.12
339.562	394.12
339.79	398.12
340.018	414.12
340.246	409.12
340.474	397.12
340.702	421.12
340.93	436.12
341.158	417.12
341.386	398.12
341.614	407.12
341.842	403.12
342.07	393.12
342.298	391.12
342.526	397.12
342.754	403.12
342.981	402.12
343.209	400.12
343.437	417.12
343.665	421.12
343.893	404.12
344.12	426.12
344.348	433.12
344.576	418.12
344.804	424.12
345.031	440.12
345.259	425.12
345.487	425.12
345.714	415.12
345.942	411.12
346.17	405.12
346.397	390.12
346.625	391.12
346.853	399.12
347.08	386.12
347.308	393.12
347.535	413.12
347.763	403.12
347.99	411.12
348.218	422.12
348.445	421.12
348.673	396.12
348.9	409.12
349.128	396.12
349.355	405.12
349.583	407.12
349.81	378.12
350.037	394.12
350.265	379.12
350.492	377.12
350.72	376.12
350.947	376.12
351.174	421.12
351.402	396.12
351.629	422.12
351.856	417.12
352.083	410.12
352.311	404.12
352.538	416.12
352.765	419.12
352.992	375.12
353.22	380.12
353.447	414.12
353.674	398.12
353.901	399.12
354.128	380.12
354.355	387.12
354.583	392.12
354.81	380.12
355.037	383.12
355.264	374.12
355.491	386.12
355.718	378.12
355.945	388.12
356.172	392.12
356.399	377.12
356.626	379.12
356.853	374.12
357.08	377.12
357.307	377.12
357.534	395.12
357.761	377.12
357.988	371.12
358.215	373.12
358.441	383.12
358.668	382.12
358.895	397.12
359.122	403.12
359.349	383.12
359.576	402.12
359.802	420.12
360.029	454.12
360.256	441.12
360.483	416.12
360.709	421.12
360.936	400.12
361.163	402.12
361.39	403.12
361.616	415.12
361.843	393.12
362.07	393.12
362.296	389.12
362.523	397.12
362.749	398.12
362.976	405.12
363.203	394.12
363.429	374.12
363.656	387.12
363.882	390.12
364.109	415.12
364.335	398.12
364.562	397.12
364.788	417.12
365.015	388.12
365.241	405.12
365.468	393.12
365.694	389.12
365.92	426.12
366.147	398.12
366.373	393.12
366.599	412.12
366.826	382.12
367.052	381.12
367.278	396.12
367.505	390.12
367.731	383.12
367.957	383.12
368.184	385.12
368.41	407.12
368.636	403.12
368.862	392.12
369.089	401.12
369.315	375.12
369.541	398.12
369.767	403.12
369.993	405.12
370.219	410.12
370.445	378.12
370.672	417.12
370.898	397.12
371.124	396.12
371.35	395.12
371.576	400.12
371.802	404.12
372.028	411.12
372.254	389.12
372.48	391.12
372.706	411.12
372.932	418.12
373.158	403.12
373.384	401.12
373.61	391.12
373.835	404.12
374.061	403.12
374.287	406.12
374.513	414.12
374.739	412.12
374.965	434.12
375.191	409.12
375.416	390.12
375.642	410.12
375.868	416.12
376.094	408.12
376.319	417.12
376.545	406.12
376.771	409.12
376.997	399.12
377.222	406.12
377.448	407.12
377.674	393.12
377.899	399.12
378.125	399.12
378.35	430.12
378.576	416.12
378.802	393.12
379.027	387.12
379.253	414.12
379.478	404.12
379.704	413.12
379.929	408.12
380.155	390.12
380.38	395.12
380.606	415.12
380.831	391.12
381.057	394.12
381.282	407.12
381.507	424.12
381.733	410.12
381.958	411.12
382.184	414.12
382.409	424.12
382.634	418.12
382.86	412.12
383.085	415.12
383.31	463.12
383.535	416.12
383.761	427.12
383.986	438.12
384.211	437.12
384.436	425.12
384.662	433.12
384.887	441.12
385.112	458.12
385.337	452.12
385.562	426.12
385.787	434.12
386.013	445.12
386.238	479.12
386.463	461.12
386.688	447.12
386.913	446.12
387.138	439.12
387.363	448.12
387.588	461.12
387.813	459.12
388.038	457.12
388.263	453.12
388.488	441.12
388.713	445.12
388.938	437.12
389.163	444.12
389.387	443.12
389.612	429.12
389.837	450.12
390.062	460.12
390.287	441.12
390.512	440.12
390.736	435.12
390.961	434.12
391.186	456.12
391.411	470.12
391.636	456.12
391.86	472.12
392.085	467.12
392.31	466.12
392.534	463.12
392.759	472.12
392.984	474.12
393.208	460.12
393.433	478.12
393.658	493.12
393.882	475.12
394.107	477.12
394.331	482.12
394.556	446.12
394.78	452.12
395.005	466.12
395.229	481.12
395.454	462.12
395.678	481.12
395.903	485.12
396.127	520.12
396.352	483.12
396.576	477.12
396.801	487.12
397.025	473.12
397.249	490.12
397.474	490.12
397.698	486.12
397.922	515.12
398.147	503.12
398.371	522.12
398.595	505.12
398.82	512.12
399.044	523.12
399.268	539.12
399.492	589.12
399.717	595.12
399.941	627.12
400.165	674.12
400.389	647.12
400.613	615.12
400.837	574.12
401.062	537.12
401.286	538.12
401.51	539.12
401.734	502.12
401.958	530.12
402.182	537.12
402.406	546.12
402.63	536.12
402.854	536.12
403.078	527.12
403.302	555.12
403.526	548.12
403.75	525.12
403.974	537.12
404.198	539.12
404.422	539.12
404.645	563.12
404.869	555.12
405.093	586.12
405.317	601.12
405.541	667.12
405.765	605.12
405.988	577.12
406.212	581.12
406.436	605.12
406.66	597.12
406.883	586.12
407.107	601.12
407.331	618.12
407.555	706.12
407.778	710.12
408.002	645.12
408.226	585.12
408.449	582.12
408.673	584.12
408.896	636.12
409.12	656.12
409.344	626.12
409.567	569.12
409.791	561.12
410.014	553.12
410.238	545.12
410.461	566.12
410.685	532.12
410.908	587.12
411.132	604.12
411.355	634.12
411.578	577.12
411.802	558.12
412.025	530.12
412.249	559.12
412.472	567.12
412.695	620.12
412.919	610.12
413.142	569.12
413.365	531.12
413.589	533.12
413.812	529.12
414.035	494.12
414.258	533.12
414.482	523.12
414.705	507.12
414.928	517.12
415.151	513.12
415.374	520.12
415.597	499.12
415.821	501.12
416.044	505.12
416.267	531.12
416.49	513.12
416.713	498.12
416.936	509.12
417.159	510.12
417.382	508.12
417.605	527.12
417.828	527.12
418.051	512.12
418.274	533.12
418.497	505.12
418.72	510.12
418.943	494.12
419.166	549.12
419.389	575.12
419.611	551.12
419.834	549.12
420.057	551.12
420.28	568.12
420.503	552.12
420.726	539.12
420.948	533.12
421.171	567.12
421.394	606.12
421.617	561.12
421.839	552.12
422.062	528.12
422.285	550.12
422.507	602.12
422.73	684.12
422.953	691.12
423.175	587.12
423.398	575.12
423.621	563.12
423.843	558.12
424.066	556.12
424.288	555.12
424.511	590.12
424.733	647.12
424.956	719.12
425.178	689.12
425.401	698.12
425.623	715.12
425.846	629.12
426.068	567.12
426.291	552.12
426.513	564.12
426.735	569.12
426.958	610.12
427.18	670.12
427.402	821.12
427.625	887.12
427.847	760.12
428.069	656.12
428.292	598.12
428.514	548.12
428.736	547.12
428.958	545.12
429.181	523.12
429.403	533.12
429.625	545.12
429.847	570.12
430.069	614.12
430.292	659.12
430.514	562.12
430.736	509.12
430.958	513.12
431.18	517.12
431.402	499.12
431.624	493.12
431.846	499.12
432.068	504.12
432.29	513.12
432.512	521.12
432.734	515.12
432.956	535.12
433.178	517.12
433.4	542.12
433.622	498.12
433.844	531.12
434.066	502.12
434.287	514.12
434.509	534.12
434.731	525.12
434.953	531.12
435.175	534.12
435.397	567.12
435.618	573.12
435.84	596.12
436.062	704.12
436.284	756.12
436.505	628.12
436.727	573.12
436.949	547.12
437.17	535.12
437.392	523.12
437.614	557.12
437.835	564.12
438.057	653.12
438.278	748.12
438.5	778.12
438.721	854.12
438.943	817.12
439.165	657.12
439.386	598.12
439.608	608.12
439.829	580.12
440.05	586.12
440.272	623.12
440.493	601.12
440.715	540.12
440.936	511.12
441.158	539.12
441.379	540.12
441.6	558.12
441.822	591.12
442.043	584.12
442.264	673.12
442.486	733.12
442.707	597.12
442.928	558.12
443.149	577.12
443.371	610.12
443.592	643.12
443.813	759.12
444.034	819.12
444.255	672.12
444.476	614.12
444.698	604.12
444.919	587.12
445.14	669.12
445.361	639.12
445.582	615.12
445.803	673.12
446.024	757.12
446.245	780.12
446.466	709.12
446.687	605.12
446.908	573.12
447.129	541.12
447.35	546.12
447.571	536.12
447.792	521.12
448.013	505.12
448.234	537.12
448.455	599.12
448.675	704.12
448.896	827.12
449.117	684.12
449.338	620.12
449.559	761.12
449.779	873.12
450	691.12
450.221	558.12
450.442	531.12
450.662	506.12
450.883	513.12
451.104	539.12
451.324	538.12
451.545	484.12
451.766	484.12
451.986	471.12
452.207	471.12
452.428	486.12
452.648	447.12
452.869	445.12
453.089	452.12
453.31	480.12
453.53	476.12
453.751	460.12
453.971	467.12
454.192	476.12
454.412	492.12
454.633	482.12
454.853	481.12
455.073	470.12
455.294	505.12
455.514	553.12
455.734	554.12
455.955	470.12
456.175	454.12
456.395	480.12
456.616	449.12
456.836	448.12
457.056	462.12
457.276	446.12
457.497	456.12
457.717	449.12
457.937	455.12
458.157	458.12
458.377	464.12
458.598	504.12
458.818	531.12
459.038	591.12
459.258	606.12
459.478	545.12
459.698	543.12
459.918	520.12
460.138	515.12
460.358	530.12
460.578	511.12
460.798	499.12
461.018	521.12
461.238	531.12
461.458	508.12
461.678	528.12
461.898	542.12
462.118	539.12
462.338	559.12
462.558	554.12
462.777	557.12
462.997	570.12
463.217	585.12
463.437	572.12
463.657	575.12
463.876	576.12
464.096	569.12
464.316	587.12
464.536	587.12
464.755	576.12
464.975	553.12
465.195	579.12
465.414	635.12
465.634	583.12
465.854	555.12
466.073	503.12
466.293	515.12
466.512	512.12
466.732	488.12
466.951	494.12
467.171	470.12
467.391	474.12
467.61	506.12
467.829	516.12
468.049	510.12
468.268	505.12
468.488	478.12
468.707	479.12
468.927	490.12
469.146	478.12
469.365	457.12
469.585	480.12
469.804	493.12
470.023	511.12
470.243	487.12
470.462	501.12
470.681	495.12
470.901	504.12
471.12	499.12
471.339	489.12
471.558	504.12
471.777	516.12
471.997	481.12
472.216	502.12
472.435	522.12
472.654	527.12
472.873	500.12
473.092	481.12
473.311	491.12
473.53	494.12
473.749	521.12
473.968	531.12
474.187	637.12
474.406	653.12
474.625	552.12
474.844	516.12
475.063	511.12
475.282	502.12
475.501	501.12
475.72	501.12
475.939	515.12
476.158	522.12
476.377	519.12
476.596	504.12
476.814	525.12
477.033	531.12
477.252	527.12
477.471	547.12
477.69	534.12
477.908	555.12
478.127	550.12
478.346	549.12
478.564	566.12
478.783	579.12
479.002	585.12
479.22	583.12
479.439	597.12
479.658	617.12
479.876	604.12
480.095	601.12
480.313	637.12
480.532	630.12
480.751	592.12
480.969	614.12
481.188	661.12
481.406	682.12
481.624	633.12
481.843	602.12
482.061	600.12
482.28	613.12
482.498	589.12
482.717	584.12
482.935	586.12
483.153	592.12
483.372	589.12
483.59	586.12
483.808	626.12
484.027	581.12
484.245	583.12
484.463	577.12
484.681	591.12
484.9	594.12
485.118	609.12
485.336	611.12
485.554	618.12
485.772	628.12
485.99	596.12
486.209	609.12
486.427	619.12
486.645	619.12
486.863	640.12
487.081	670.12
487.299	645.12
487.517	621.12
487.735	631.12
487.953	645.12
488.171	623.12
488.389	627.12
488.607	619.12
488.825	637.12
489.043	643.12
489.261	659.12
489.479	633.12
489.696	619.12
489.914	627.12
490.132	646.12
490.35	649.12
490.568	659.12
490.786	663.12
491.003	675.12
491.221	669.12
491.439	683.12
491.657	687.12
491.874	714.12
492.092	676.12
492.31	720.12
492.527	714.12
492.745	723.12
492.963	723.12
493.18	718.12
493.398	739.12
493.615	745.12
493.833	741.12
494.05	748.12
494.268	714.12
494.485	713.12
494.703	725.12
494.92	739.12
495.138	748.12
495.355	734.12
495.573	742.12
495.79	748.12
496.008	771.12
496.225	761.12
496.442	759.12
496.66	773.12
496.877	762.12
497.094	758.12
497.312	742.12
497.529	741.12
497.746	780.12
497.963	777.12
498.181	809.12
498.398	782.12
498.615	822.12
498.832	851.12
499.049	867.12
499.267	890.12
499.484	927.12
499.701	985.12
499.918	990.12
500.135	1030.12
500.352	1077.12
500.569	1109.12
500.786	1127.12
501.003	1100.12
501.22	1070.12
501.437	1037.12
501.654	975.12
