Data from 1966.PennyLincolnUp.Lamp.En5.5.200Scan.071719.P1.Scan2.head_HRD10591_14-18-17-175.txt Node
Date: Thu Jul 18 14:18:17 EDT 2019
User: cochatt
Spectrometer: HR+D1059
Trigger mode: 1
Integration Time (sec): 1.000000E-1
Scans to average: 1
Electric dark correction enabled: true
Nonlinearity correction enabled: false
Boxcar width: 0
XAxis mode: Wavelengths
Number of Pixels in Spectrum: 2048
>>>>>Begin Spectral Data<<<<<
223.165	-13.81
223.4	-13.81
223.635	-13.81
223.869	-14.81
224.104	-10.81
224.338	-20.81
224.573	-1.81
224.808	-6.81
225.042	-19.81
225.277	-16.81
225.511	5.19
225.746	-0.81
225.98	-3.81
226.215	12.19
226.449	21.19
226.683	16.19
226.918	26.19
227.152	29.19
227.387	34.19
227.621	41.19
227.856	53.19
228.09	35.19
228.324	42.19
228.559	53.19
228.793	77.19
229.027	81.19
229.262	101.19
229.496	120.19
229.73	149.19
229.964	152.19
230.199	135.19
230.433	119.19
230.667	130.19
230.901	116.19
231.136	102.19
231.37	107.19
231.604	111.19
231.838	106.19
232.072	129.19
232.306	117.19
232.541	108.19
232.775	123.19
233.009	129.19
233.243	121.19
233.477	102.19
233.711	116.19
233.945	118.19
234.179	129.19
234.413	127.19
234.647	139.19
234.881	122.19
235.115	111.19
235.349	129.19
235.583	131.19
235.817	138.19
236.051	141.19
236.285	137.19
236.519	134.19
236.753	136.19
236.987	158.19
237.221	187.19
237.455	241.19
237.689	181.19
237.922	144.19
238.156	155.19
238.39	123.19
238.624	138.19
238.858	125.19
239.091	125.19
239.325	134.19
239.559	122.19
239.793	129.19
240.027	139.19
240.26	146.19
240.494	149.19
240.728	141.19
240.961	146.19
241.195	158.19
241.429	139.19
241.662	149.19
241.896	131.19
242.13	133.19
242.363	141.19
242.597	134.19
242.83	146.19
243.064	148.19
243.298	151.19
243.531	150.19
243.765	150.19
243.998	147.19
244.232	141.19
244.465	147.19
244.699	159.19
244.932	155.19
245.166	145.19
245.399	146.19
245.633	157.19
245.866	151.19
246.099	158.19
246.333	156.19
246.566	157.19
246.8	160.19
247.033	176.19
247.266	184.19
247.5	172.19
247.733	173.19
247.966	190.19
248.2	177.19
248.433	170.19
248.666	181.19
248.899	185.19
249.133	217.19
249.366	225.19
249.599	203.19
249.832	184.19
250.066	173.19
250.299	204.19
250.532	189.19
250.765	210.19
250.998	231.19
251.231	233.19
251.465	232.19
251.698	209.19
251.931	217.19
252.164	214.19
252.397	208.19
252.63	220.19
252.863	211.19
253.096	217.19
253.329	233.19
253.562	214.19
253.795	230.19
254.028	207.19
254.261	224.19
254.494	228.19
254.727	255.19
254.96	287.19
255.193	289.19
255.426	263.19
255.659	266.19
255.892	239.19
256.124	238.19
256.357	247.19
256.59	229.19
256.823	216.19
257.056	215.19
257.289	224.19
257.521	207.19
257.754	215.19
257.987	239.19
258.22	216.19
258.452	215.19
258.685	218.19
258.918	215.19
259.151	217.19
259.383	229.19
259.616	238.19
259.849	225.19
260.081	247.19
260.314	277.19
260.547	255.19
260.779	261.19
261.012	262.19
261.244	247.19
261.477	239.19
261.71	236.19
261.942	228.19
262.175	234.19
262.407	237.19
262.64	223.19
262.872	211.19
263.105	221.19
263.337	226.19
263.57	215.19
263.802	235.19
264.035	218.19
264.267	205.19
264.499	219.19
264.732	234.19
264.964	221.19
265.197	217.19
265.429	232.19
265.661	214.19
265.894	235.19
266.126	218.19
266.358	230.19
266.591	241.19
266.823	245.19
267.055	237.19
267.287	249.19
267.52	223.19
267.752	245.19
267.984	244.19
268.216	224.19
268.448	242.19
268.681	253.19
268.913	256.19
269.145	270.19
269.377	299.19
269.609	273.19
269.841	276.19
270.073	272.19
270.306	295.19
270.538	330.19
270.77	317.19
271.002	311.19
271.234	297.19
271.466	304.19
271.698	317.19
271.93	337.19
272.162	321.19
272.394	319.19
272.626	314.19
272.858	296.19
273.09	285.19
273.322	282.19
273.553	273.19
273.785	279.19
274.017	261.19
274.249	274.19
274.481	284.19
274.713	274.19
274.945	273.19
275.176	281.19
275.408	294.19
275.64	272.19
275.872	285.19
276.104	276.19
276.335	271.19
276.567	298.19
276.799	287.19
277.031	302.19
277.262	331.19
277.494	342.19
277.726	310.19
277.957	298.19
278.189	298.19
278.421	288.19
278.652	297.19
278.884	268.19
279.115	264.19
279.347	275.19
279.579	283.19
279.81	264.19
280.042	253.19
280.273	273.19
280.505	266.19
280.736	277.19
280.968	279.19
281.199	288.19
281.431	283.19
281.662	279.19
281.894	275.19
282.125	289.19
282.356	281.19
282.588	316.19
282.819	309.19
283.051	291.19
283.282	281.19
283.513	285.19
283.745	290.19
283.976	266.19
284.207	287.19
284.439	279.19
284.67	292.19
284.901	285.19
285.132	286.19
285.364	283.19
285.595	298.19
285.826	276.19
286.057	299.19
286.288	286.19
286.52	285.19
286.751	286.19
286.982	281.19
287.213	292.19
287.444	299.19
287.675	315.19
287.906	306.19
288.138	316.19
288.369	329.19
288.6	305.19
288.831	313.19
289.062	312.19
289.293	317.19
289.524	297.19
289.755	318.19
289.986	317.19
290.217	306.19
290.448	302.19
290.679	313.19
290.91	294.19
291.141	321.19
291.371	301.19
291.602	297.19
291.833	291.19
292.064	305.19
292.295	302.19
292.526	306.19
292.757	300.19
292.987	303.19
293.218	313.19
293.449	296.19
293.68	289.19
293.91	309.19
294.141	327.19
294.372	307.19
294.603	293.19
294.833	297.19
295.064	309.19
295.295	327.19
295.525	308.19
295.756	334.19
295.987	323.19
296.217	323.19
296.448	343.19
296.679	333.19
296.909	328.19
297.14	315.19
297.37	314.19
297.601	298.19
297.831	321.19
298.062	327.19
298.292	305.19
298.523	322.19
298.753	324.19
298.984	314.19
299.214	323.19
299.445	315.19
299.675	331.19
299.905	333.19
300.136	325.19
300.366	339.19
300.597	320.19
300.827	329.19
301.057	331.19
301.288	334.19
301.518	329.19
301.748	328.19
301.979	326.19
302.209	353.19
302.439	352.19
302.669	351.19
302.9	338.19
303.13	338.19
303.36	358.19
303.59	341.19
303.82	345.19
304.051	339.19
304.281	353.19
304.511	363.19
304.741	360.19
304.971	338.19
305.201	337.19
305.431	341.19
305.661	338.19
305.891	339.19
306.121	344.19
306.352	342.19
306.582	361.19
306.812	335.19
307.042	355.19
307.272	351.19
307.502	359.19
307.731	363.19
307.961	341.19
308.191	314.19
308.421	361.19
308.651	376.19
308.881	356.19
309.111	353.19
309.341	352.19
309.571	357.19
309.8	391.19
310.03	383.19
310.26	396.19
310.49	388.19
310.72	378.19
310.949	408.19
311.179	406.19
311.409	388.19
311.639	397.19
311.868	375.19
312.098	393.19
312.328	391.19
312.557	418.19
312.787	416.19
313.017	421.19
313.246	425.19
313.476	407.19
313.706	409.19
313.935	417.19
314.165	395.19
314.394	409.19
314.624	424.19
314.853	397.19
315.083	391.19
315.312	391.19
315.542	390.19
315.771	375.19
316.001	383.19
316.23	383.19
316.46	381.19
316.689	398.19
316.919	420.19
317.148	407.19
317.377	411.19
317.607	403.19
317.836	399.19
318.065	400.19
318.295	401.19
318.524	405.19
318.753	399.19
318.983	412.19
319.212	407.19
319.441	401.19
319.67	411.19
319.9	390.19
320.129	399.19
320.358	399.19
320.587	411.19
320.816	407.19
321.046	404.19
321.275	399.19
321.504	405.19
321.733	407.19
321.962	422.19
322.191	427.19
322.42	443.19
322.649	453.19
322.878	472.19
323.108	500.19
323.337	513.19
323.566	510.19
323.795	535.19
324.024	581.19
324.253	693.19
324.482	974.19
324.71	1552.19
324.939	2270.19
325.168	2025.19
325.397	963.19
325.626	653.19
325.855	559.19
326.084	521.19
326.313	510.19
326.542	529.19
326.77	563.19
326.999	648.19
327.228	887.19
327.457	1343.19
327.686	1729.19
327.914	1114.19
328.143	713.19
328.372	606.19
328.6	591.19
328.829	573.19
329.058	593.19
329.287	588.19
329.515	562.19
329.744	539.19
329.972	531.19
330.201	547.19
330.43	580.19
330.658	626.19
330.887	637.19
331.115	609.19
331.344	557.19
331.572	539.19
331.801	530.19
332.03	508.19
332.258	493.19
332.486	471.19
332.715	483.19
332.943	488.19
333.172	473.19
333.4	489.19
333.629	504.19
333.857	516.19
334.085	522.19
334.314	529.19
334.542	554.19
334.771	559.19
334.999	542.19
335.227	519.19
335.455	490.19
335.684	468.19
335.912	461.19
336.14	494.19
336.369	488.19
336.597	475.19
336.825	478.19
337.053	460.19
337.281	465.19
337.51	464.19
337.738	466.19
337.966	456.19
338.194	466.19
338.422	471.19
338.65	465.19
338.878	461.19
339.106	438.19
339.334	453.19
339.562	469.19
339.79	454.19
340.018	461.19
340.246	463.19
340.474	454.19
340.702	458.19
340.93	456.19
341.158	460.19
341.386	481.19
341.614	466.19
341.842	456.19
342.07	445.19
342.298	459.19
342.526	450.19
342.754	443.19
342.981	434.19
343.209	424.19
343.437	452.19
343.665	461.19
343.893	474.19
344.12	472.19
344.348	473.19
344.576	448.19
344.804	462.19
345.031	473.19
345.259	492.19
345.487	460.19
345.714	459.19
345.942	432.19
346.17	439.19
346.397	433.19
346.625	455.19
346.853	468.19
347.08	458.19
347.308	462.19
347.535	458.19
347.763	466.19
347.99	463.19
348.218	449.19
348.445	455.19
348.673	449.19
348.9	456.19
349.128	451.19
349.355	433.19
349.583	426.19
349.81	431.19
350.037	445.19
350.265	456.19
350.492	433.19
350.72	430.19
350.947	453.19
351.174	441.19
351.402	442.19
351.629	454.19
351.856	432.19
352.083	477.19
352.311	476.19
352.538	471.19
352.765	456.19
352.992	434.19
353.22	433.19
353.447	431.19
353.674	432.19
353.901	447.19
354.128	429.19
354.355	430.19
354.583	443.19
354.81	425.19
355.037	423.19
355.264	423.19
355.491	430.19
355.718	416.19
355.945	432.19
356.172	414.19
356.399	424.19
356.626	425.19
356.853	419.19
357.08	432.19
357.307	435.19
357.534	423.19
357.761	421.19
357.988	422.19
358.215	431.19
358.441	429.19
358.668	420.19
358.895	434.19
359.122	428.19
359.349	446.19
359.576	479.19
359.802	460.19
360.029	505.19
360.256	540.19
360.483	493.19
360.709	465.19
360.936	461.19
361.163	457.19
361.39	462.19
361.616	458.19
361.843	446.19
362.07	438.19
362.296	445.19
362.523	445.19
362.749	458.19
362.976	459.19
363.203	445.19
363.429	446.19
363.656	467.19
363.882	445.19
364.109	422.19
364.335	439.19
364.562	441.19
364.788	419.19
365.015	425.19
365.241	432.19
365.468	450.19
365.694	451.19
365.92	447.19
366.147	433.19
366.373	460.19
366.599	421.19
366.826	423.19
367.052	435.19
367.278	445.19
367.505	431.19
367.731	458.19
367.957	441.19
368.184	446.19
368.41	445.19
368.636	440.19
368.862	440.19
369.089	468.19
369.315	445.19
369.541	438.19
369.767	440.19
369.993	441.19
370.219	432.19
370.445	461.19
370.672	449.19
370.898	449.19
371.124	446.19
371.35	429.19
371.576	446.19
371.802	431.19
372.028	449.19
372.254	446.19
372.48	435.19
372.706	428.19
372.932	461.19
373.158	445.19
373.384	446.19
373.61	464.19
373.835	471.19
374.061	445.19
374.287	464.19
374.513	466.19
374.739	471.19
374.965	453.19
375.191	447.19
375.416	455.19
375.642	450.19
375.868	435.19
376.094	476.19
376.319	455.19
376.545	450.19
376.771	443.19
376.997	454.19
377.222	433.19
377.448	445.19
377.674	447.19
377.899	426.19
378.125	447.19
378.35	440.19
378.576	433.19
378.802	419.19
379.027	433.19
379.253	469.19
379.478	439.19
379.704	446.19
379.929	446.19
380.155	443.19
380.38	458.19
380.606	444.19
380.831	457.19
381.057	481.19
381.282	452.19
381.507	450.19
381.733	446.19
381.958	459.19
382.184	468.19
382.409	453.19
382.634	461.19
382.86	464.19
383.085	459.19
383.31	479.19
383.535	454.19
383.761	466.19
383.986	468.19
384.211	477.19
384.436	494.19
384.662	486.19
384.887	477.19
385.112	476.19
385.337	482.19
385.562	494.19
385.787	507.19
386.013	496.19
386.238	513.19
386.463	495.19
386.688	504.19
386.913	500.19
387.138	486.19
387.363	503.19
387.588	498.19
387.813	494.19
388.038	504.19
388.263	513.19
388.488	514.19
388.713	517.19
388.938	490.19
389.163	494.19
389.387	498.19
389.612	506.19
389.837	466.19
390.062	490.19
390.287	458.19
390.512	509.19
390.736	489.19
390.961	504.19
391.186	511.19
391.411	518.19
391.636	491.19
391.86	501.19
392.085	513.19
392.31	506.19
392.534	509.19
392.759	529.19
392.984	518.19
393.208	502.19
393.433	497.19
393.658	498.19
393.882	505.19
394.107	501.19
394.331	505.19
394.556	489.19
394.78	509.19
395.005	497.19
395.229	518.19
395.454	515.19
395.678	515.19
395.903	531.19
396.127	555.19
396.352	545.19
396.576	528.19
396.801	525.19
397.025	523.19
397.249	551.19
397.474	541.19
397.698	547.19
397.922	568.19
398.147	577.19
398.371	594.19
398.595	586.19
398.82	584.19
399.044	580.19
399.268	593.19
399.492	632.19
399.717	642.19
399.941	694.19
400.165	734.19
400.389	723.19
400.613	663.19
400.837	626.19
401.062	607.19
401.286	607.19
401.51	576.19
401.734	563.19
401.958	558.19
402.182	607.19
402.406	592.19
402.63	601.19
402.854	585.19
403.078	588.19
403.302	582.19
403.526	619.19
403.75	607.19
403.974	601.19
404.198	577.19
404.422	587.19
404.645	606.19
404.869	625.19
405.093	657.19
405.317	696.19
405.541	722.19
405.765	671.19
405.988	614.19
406.212	653.19
406.436	657.19
406.66	688.19
406.883	667.19
407.107	680.19
407.331	742.19
407.555	793.19
407.778	797.19
408.002	746.19
408.226	699.19
408.449	675.19
408.673	657.19
408.896	679.19
409.12	726.19
409.344	709.19
409.567	639.19
409.791	615.19
410.014	614.19
410.238	609.19
410.461	608.19
410.685	599.19
410.908	613.19
411.132	661.19
411.355	705.19
411.578	655.19
411.802	621.19
412.025	599.19
412.249	598.19
412.472	638.19
412.695	693.19
412.919	677.19
413.142	640.19
413.365	589.19
413.589	587.19
413.812	601.19
414.035	579.19
414.258	572.19
414.482	579.19
414.705	576.19
414.928	543.19
415.151	567.19
415.374	546.19
415.597	587.19
415.821	551.19
416.044	584.19
416.267	592.19
416.49	578.19
416.713	587.19
416.936	568.19
417.159	549.19
417.382	557.19
417.605	585.19
417.828	588.19
418.051	596.19
418.274	584.19
418.497	583.19
418.72	554.19
418.943	572.19
419.166	600.19
419.389	623.19
419.611	614.19
419.834	593.19
420.057	602.19
420.28	601.19
420.503	610.19
420.726	603.19
420.948	611.19
421.171	639.19
421.394	686.19
421.617	625.19
421.839	584.19
422.062	614.19
422.285	616.19
422.507	685.19
422.73	765.19
422.953	753.19
423.175	649.19
423.398	618.19
423.621	622.19
423.843	641.19
424.066	651.19
424.288	640.19
424.511	669.19
424.733	723.19
424.956	801.19
425.178	782.19
425.401	761.19
425.623	791.19
425.846	691.19
426.068	655.19
426.291	633.19
426.513	635.19
426.735	644.19
426.958	706.19
427.18	797.19
427.402	939.19
427.625	1063.19
427.847	904.19
428.069	780.19
428.292	679.19
428.514	625.19
428.736	607.19
428.958	617.19
429.181	591.19
429.403	615.19
429.625	603.19
429.847	619.19
430.069	697.19
430.292	727.19
430.514	619.19
430.736	604.19
430.958	595.19
431.18	583.19
431.402	550.19
431.624	545.19
431.846	549.19
432.068	550.19
432.29	571.19
432.512	552.19
432.734	589.19
432.956	574.19
433.178	597.19
433.4	567.19
433.622	566.19
433.844	561.19
434.066	557.19
434.287	559.19
434.509	560.19
434.731	575.19
434.953	577.19
435.175	601.19
435.397	631.19
435.618	643.19
435.84	698.19
436.062	783.19
436.284	862.19
436.505	706.19
436.727	663.19
436.949	613.19
437.17	586.19
437.392	590.19
437.614	606.19
437.835	630.19
438.057	776.19
438.278	863.19
438.5	857.19
438.721	953.19
438.943	907.19
439.165	733.19
439.386	675.19
439.608	651.19
439.829	623.19
440.05	677.19
440.272	733.19
440.493	686.19
440.715	629.19
440.936	627.19
441.158	614.19
441.379	603.19
441.6	599.19
441.822	614.19
442.043	688.19
442.264	787.19
442.486	825.19
442.707	710.19
442.928	641.19
443.149	666.19
443.371	696.19
443.592	707.19
443.813	839.19
444.034	922.19
444.255	743.19
444.476	687.19
444.698	648.19
444.919	635.19
445.14	757.19
445.361	699.19
445.582	685.19
445.803	773.19
446.024	887.19
446.245	904.19
446.466	834.19
446.687	677.19
446.908	646.19
447.129	619.19
447.35	581.19
447.571	573.19
447.792	566.19
448.013	578.19
448.234	611.19
448.455	653.19
448.675	806.19
448.896	945.19
449.117	801.19
449.338	734.19
449.559	865.19
449.779	971.19
450	777.19
450.221	653.19
450.442	599.19
450.662	567.19
450.883	558.19
451.104	602.19
451.324	578.19
451.545	539.19
451.766	532.19
451.986	537.19
452.207	522.19
452.428	527.19
452.648	521.19
452.869	519.19
453.089	556.19
453.31	539.19
453.53	529.19
453.751	532.19
453.971	515.19
454.192	548.19
454.412	521.19
454.633	534.19
454.853	536.19
455.073	506.19
455.294	561.19
455.514	632.19
455.734	623.19
455.955	546.19
456.175	515.19
456.395	507.19
456.616	508.19
456.836	495.19
457.056	501.19
457.276	481.19
457.497	496.19
457.717	498.19
457.937	537.19
458.157	525.19
458.377	525.19
458.598	551.19
458.818	611.19
459.038	701.19
459.258	683.19
459.478	595.19
459.698	550.19
459.918	553.19
460.138	573.19
460.358	561.19
460.578	570.19
460.798	590.19
461.018	594.19
461.238	578.19
461.458	572.19
461.678	589.19
461.898	586.19
462.118	565.19
462.338	601.19
462.558	601.19
462.777	617.19
462.997	644.19
463.217	633.19
463.437	639.19
463.657	631.19
463.876	624.19
464.096	624.19
464.316	620.19
464.536	612.19
464.755	640.19
464.975	609.19
465.195	658.19
465.414	718.19
465.634	642.19
465.854	600.19
466.073	560.19
466.293	565.19
466.512	537.19
466.732	576.19
466.951	546.19
467.171	523.19
467.391	557.19
467.61	567.19
467.829	573.19
468.049	567.19
468.268	570.19
468.488	547.19
468.707	523.19
468.927	548.19
469.146	543.19
469.365	521.19
469.585	553.19
469.804	529.19
470.023	546.19
470.243	565.19
470.462	575.19
470.681	549.19
470.901	544.19
471.12	546.19
471.339	550.19
471.558	545.19
471.777	555.19
471.997	533.19
472.216	557.19
472.435	605.19
472.654	586.19
472.873	535.19
473.092	559.19
473.311	556.19
473.53	547.19
473.749	566.19
473.968	618.19
474.187	724.19
474.406	723.19
474.625	623.19
474.844	580.19
475.063	546.19
475.282	552.19
475.501	568.19
475.72	576.19
475.939	564.19
476.158	562.19
476.377	573.19
476.596	565.19
476.814	553.19
477.033	581.19
477.252	588.19
477.471	582.19
477.69	607.19
477.908	613.19
478.127	597.19
478.346	610.19
478.564	618.19
478.783	640.19
479.002	631.19
479.22	613.19
479.439	665.19
479.658	661.19
479.876	658.19
480.095	697.19
480.313	701.19
480.532	695.19
480.751	690.19
480.969	691.19
481.188	744.19
481.406	779.19
481.624	705.19
481.843	674.19
482.061	674.19
482.28	668.19
482.498	639.19
482.717	656.19
482.935	647.19
483.153	649.19
483.372	647.19
483.59	658.19
483.808	663.19
484.027	619.19
484.245	670.19
484.463	661.19
484.681	651.19
484.9	647.19
485.118	682.19
485.336	649.19
485.554	673.19
485.772	658.19
485.99	689.19
486.209	678.19
486.427	689.19
486.645	689.19
486.863	703.19
487.081	713.19
487.299	696.19
487.517	707.19
487.735	687.19
487.953	685.19
488.171	720.19
488.389	675.19
488.607	705.19
488.825	720.19
489.043	718.19
489.261	698.19
489.479	707.19
489.696	718.19
489.914	693.19
490.132	720.19
490.35	743.19
490.568	713.19
490.786	737.19
491.003	759.19
491.221	757.19
491.439	791.19
491.657	786.19
491.874	817.19
492.092	797.19
492.31	797.19
492.527	779.19
492.745	793.19
492.963	828.19
493.18	826.19
493.398	843.19
493.615	834.19
493.833	836.19
494.05	857.19
494.268	821.19
494.485	825.19
494.703	823.19
494.92	831.19
495.138	827.19
495.355	827.19
495.573	843.19
495.79	851.19
496.008	822.19
496.225	817.19
496.442	835.19
496.66	833.19
496.877	863.19
497.094	839.19
497.312	839.19
497.529	858.19
497.746	861.19
497.963	875.19
498.181	903.19
498.398	920.19
498.615	956.19
498.832	956.19
499.049	941.19
499.267	984.19
499.484	1013.19
499.701	1077.19
499.918	1064.19
500.135	1126.19
500.352	1200.19
500.569	1221.19
500.786	1211.19
501.003	1193.19
501.22	1148.19
501.437	1121.19
501.654	1085.19
