Data from 1966.PennyLincolnUp.Lamp.En5.5.200Scan.071719.P1.Scan2.head_HRD10591_14-17-27-109.txt Node
Date: Thu Jul 18 14:17:27 EDT 2019
User: cochatt
Spectrometer: HR+D1059
Trigger mode: 1
Integration Time (sec): 1.000000E-1
Scans to average: 1
Electric dark correction enabled: true
Nonlinearity correction enabled: false
Boxcar width: 0
XAxis mode: Wavelengths
Number of Pixels in Spectrum: 2048
>>>>>Begin Spectral Data<<<<<
223.165	-12.88
223.4	-12.88
223.635	-12.88
223.869	-21.88
224.104	-11.88
224.338	-21.88
224.573	-9.88
224.808	-9.88
225.042	-2.88
225.277	-4.88
225.511	6.12
225.746	0.12
225.98	16.12
226.215	9.12
226.449	0.12
226.683	29.12
226.918	13.12
227.152	22.12
227.387	37.12
227.621	26.12
227.856	32.12
228.09	47.12
228.324	61.12
228.559	53.12
228.793	65.12
229.027	102.12
229.262	106.12
229.496	111.12
229.73	117.12
229.964	141.12
230.199	114.12
230.433	103.12
230.667	105.12
230.901	107.12
231.136	106.12
231.37	111.12
231.604	117.12
231.838	119.12
232.072	120.12
232.306	121.12
232.541	124.12
232.775	126.12
233.009	118.12
233.243	115.12
233.477	108.12
233.711	109.12
233.945	126.12
234.179	118.12
234.413	108.12
234.647	128.12
234.881	96.12
235.115	129.12
235.349	134.12
235.583	117.12
235.817	114.12
236.051	118.12
236.285	119.12
236.519	136.12
236.753	132.12
236.987	127.12
237.221	182.12
237.455	232.12
237.689	179.12
237.922	140.12
238.156	120.12
238.39	128.12
238.624	134.12
238.858	131.12
239.091	127.12
239.325	126.12
239.559	136.12
239.793	142.12
240.027	127.12
240.26	125.12
240.494	145.12
240.728	154.12
240.961	150.12
241.195	142.12
241.429	151.12
241.662	132.12
241.896	129.12
242.13	128.12
242.363	138.12
242.597	134.12
242.83	135.12
243.064	139.12
243.298	147.12
243.531	130.12
243.765	147.12
243.998	128.12
244.232	142.12
244.465	138.12
244.699	136.12
244.932	149.12
245.166	142.12
245.399	152.12
245.633	150.12
245.866	146.12
246.099	140.12
246.333	150.12
246.566	143.12
246.8	156.12
247.033	151.12
247.266	157.12
247.5	161.12
247.733	156.12
247.966	174.12
248.2	186.12
248.433	168.12
248.666	178.12
248.899	172.12
249.133	189.12
249.366	200.12
249.599	186.12
249.832	178.12
250.066	163.12
250.299	180.12
250.532	182.12
250.765	186.12
250.998	226.12
251.231	229.12
251.465	193.12
251.698	199.12
251.931	195.12
252.164	198.12
252.397	184.12
252.63	193.12
252.863	199.12
253.096	211.12
253.329	220.12
253.562	200.12
253.795	214.12
254.028	205.12
254.261	190.12
254.494	222.12
254.727	236.12
254.96	283.12
255.193	253.12
255.426	240.12
255.659	218.12
255.892	225.12
256.124	215.12
256.357	228.12
256.59	233.12
256.823	207.12
257.056	205.12
257.289	198.12
257.521	214.12
257.754	194.12
257.987	195.12
258.22	209.12
258.452	207.12
258.685	206.12
258.918	194.12
259.151	208.12
259.383	212.12
259.616	206.12
259.849	205.12
260.081	232.12
260.314	252.12
260.547	242.12
260.779	241.12
261.012	229.12
261.244	219.12
261.477	218.12
261.71	223.12
261.942	207.12
262.175	211.12
262.407	223.12
262.64	211.12
262.872	206.12
263.105	210.12
263.337	213.12
263.57	206.12
263.802	206.12
264.035	211.12
264.267	202.12
264.499	208.12
264.732	238.12
264.964	211.12
265.197	207.12
265.429	212.12
265.661	190.12
265.894	203.12
266.126	201.12
266.358	198.12
266.591	207.12
266.823	221.12
267.055	223.12
267.287	221.12
267.52	229.12
267.752	213.12
267.984	214.12
268.216	216.12
268.448	235.12
268.681	233.12
268.913	246.12
269.145	230.12
269.377	274.12
269.609	255.12
269.841	262.12
270.073	258.12
270.306	275.12
270.538	285.12
270.77	290.12
271.002	280.12
271.234	273.12
271.466	267.12
271.698	303.12
271.93	298.12
272.162	297.12
272.394	274.12
272.626	290.12
272.858	273.12
273.09	263.12
273.322	256.12
273.553	250.12
273.785	265.12
274.017	260.12
274.249	266.12
274.481	257.12
274.713	255.12
274.945	260.12
275.176	261.12
275.408	272.12
275.64	255.12
275.872	254.12
276.104	262.12
276.335	264.12
276.567	262.12
276.799	275.12
277.031	284.12
277.262	296.12
277.494	298.12
277.726	286.12
277.957	294.12
278.189	254.12
278.421	271.12
278.652	262.12
278.884	246.12
279.115	251.12
279.347	251.12
279.579	258.12
279.81	270.12
280.042	274.12
280.273	288.12
280.505	254.12
280.736	269.12
280.968	263.12
281.199	252.12
281.431	282.12
281.662	268.12
281.894	245.12
282.125	242.12
282.356	265.12
282.588	300.12
282.819	291.12
283.051	253.12
283.282	254.12
283.513	271.12
283.745	268.12
283.976	271.12
284.207	279.12
284.439	269.12
284.67	285.12
284.901	258.12
285.132	274.12
285.364	280.12
285.595	278.12
285.826	259.12
286.057	267.12
286.288	272.12
286.52	288.12
286.751	266.12
286.982	279.12
287.213	271.12
287.444	281.12
287.675	290.12
287.906	292.12
288.138	291.12
288.369	304.12
288.6	285.12
288.831	285.12
289.062	300.12
289.293	287.12
289.524	279.12
289.755	277.12
289.986	288.12
290.217	274.12
290.448	278.12
290.679	266.12
290.91	263.12
291.141	274.12
291.371	271.12
291.602	286.12
291.833	286.12
292.064	256.12
292.295	283.12
292.526	291.12
292.757	282.12
292.987	285.12
293.218	292.12
293.449	282.12
293.68	283.12
293.91	285.12
294.141	287.12
294.372	285.12
294.603	312.12
294.833	283.12
295.064	292.12
295.295	287.12
295.525	287.12
295.756	306.12
295.987	296.12
296.217	316.12
296.448	325.12
296.679	302.12
296.909	291.12
297.14	286.12
297.37	307.12
297.601	306.12
297.831	288.12
298.062	287.12
298.292	288.12
298.523	284.12
298.753	302.12
298.984	303.12
299.214	304.12
299.445	300.12
299.675	295.12
299.905	315.12
300.136	308.12
300.366	280.12
300.597	302.12
300.827	309.12
301.057	308.12
301.288	323.12
301.518	323.12
301.748	321.12
301.979	330.12
302.209	311.12
302.439	320.12
302.669	304.12
302.9	301.12
303.13	327.12
303.36	315.12
303.59	330.12
303.82	340.12
304.051	331.12
304.281	307.12
304.511	316.12
304.741	325.12
304.971	323.12
305.201	320.12
305.431	323.12
305.661	327.12
305.891	327.12
306.121	339.12
306.352	332.12
306.582	316.12
306.812	316.12
307.042	314.12
307.272	331.12
307.502	315.12
307.731	315.12
307.961	318.12
308.191	332.12
308.421	329.12
308.651	323.12
308.881	336.12
309.111	301.12
309.341	315.12
309.571	331.12
309.8	360.12
310.03	368.12
310.26	363.12
310.49	353.12
310.72	350.12
310.949	376.12
311.179	369.12
311.409	355.12
311.639	342.12
311.868	350.12
312.098	390.12
312.328	372.12
312.557	368.12
312.787	393.12
313.017	386.12
313.246	390.12
313.476	374.12
313.706	355.12
313.935	356.12
314.165	381.12
314.394	366.12
314.624	364.12
314.853	366.12
315.083	366.12
315.312	377.12
315.542	364.12
315.771	356.12
316.001	346.12
316.23	362.12
316.46	356.12
316.689	379.12
316.919	382.12
317.148	378.12
317.377	382.12
317.607	383.12
317.836	389.12
318.065	380.12
318.295	361.12
318.524	344.12
318.753	356.12
318.983	358.12
319.212	342.12
319.441	372.12
319.67	392.12
319.9	363.12
320.129	382.12
320.358	363.12
320.587	382.12
320.816	367.12
321.046	393.12
321.275	397.12
321.504	383.12
321.733	371.12
321.962	377.12
322.191	396.12
322.42	401.12
322.649	435.12
322.878	424.12
323.108	438.12
323.337	450.12
323.566	463.12
323.795	499.12
324.024	527.12
324.253	630.12
324.482	851.12
324.71	1362.12
324.939	2032.12
325.168	1741.12
325.397	874.12
325.626	607.12
325.855	510.12
326.084	469.12
326.313	478.12
326.542	465.12
326.77	501.12
326.999	590.12
327.228	762.12
327.457	1199.12
327.686	1528.12
327.914	972.12
328.143	668.12
328.372	567.12
328.6	552.12
328.829	507.12
329.058	539.12
329.287	534.12
329.515	505.12
329.744	487.12
329.972	482.12
330.201	503.12
330.43	538.12
330.658	553.12
330.887	590.12
331.115	567.12
331.344	498.12
331.572	455.12
331.801	452.12
332.03	473.12
332.258	435.12
332.486	446.12
332.715	444.12
332.943	458.12
333.172	447.12
333.4	451.12
333.629	464.12
333.857	488.12
334.085	491.12
334.314	496.12
334.542	532.12
334.771	539.12
334.999	495.12
335.227	482.12
335.455	447.12
335.684	449.12
335.912	448.12
336.14	455.12
336.369	426.12
336.597	439.12
336.825	442.12
337.053	441.12
337.281	420.12
337.51	425.12
337.738	420.12
337.966	436.12
338.194	431.12
338.422	430.12
338.65	431.12
338.878	439.12
339.106	416.12
339.334	413.12
339.562	425.12
339.79	410.12
340.018	406.12
340.246	417.12
340.474	431.12
340.702	412.12
340.93	411.12
341.158	439.12
341.386	417.12
341.614	409.12
341.842	447.12
342.07	416.12
342.298	419.12
342.526	400.12
342.754	430.12
342.981	400.12
343.209	422.12
343.437	400.12
343.665	430.12
343.893	438.12
344.12	436.12
344.348	436.12
344.576	442.12
344.804	441.12
345.031	440.12
345.259	455.12
345.487	432.12
345.714	419.12
345.942	428.12
346.17	439.12
346.397	415.12
346.625	425.12
346.853	422.12
347.08	421.12
347.308	404.12
347.535	416.12
347.763	408.12
347.99	415.12
348.218	426.12
348.445	414.12
348.673	412.12
348.9	429.12
349.128	407.12
349.355	389.12
349.583	411.12
349.81	381.12
350.037	405.12
350.265	393.12
350.492	379.12
350.72	402.12
350.947	418.12
351.174	412.12
351.402	441.12
351.629	425.12
351.856	420.12
352.083	421.12
352.311	410.12
352.538	431.12
352.765	432.12
352.992	442.12
353.22	422.12
353.447	423.12
353.674	414.12
353.901	392.12
354.128	392.12
354.355	391.12
354.583	415.12
354.81	393.12
355.037	393.12
355.264	384.12
355.491	385.12
355.718	394.12
355.945	415.12
356.172	383.12
356.399	400.12
356.626	403.12
356.853	399.12
357.08	398.12
357.307	393.12
357.534	391.12
357.761	411.12
357.988	368.12
358.215	382.12
358.441	404.12
358.668	384.12
358.895	381.12
359.122	394.12
359.349	409.12
359.576	420.12
359.802	426.12
360.029	443.12
360.256	471.12
360.483	446.12
360.709	419.12
360.936	417.12
361.163	395.12
361.39	423.12
361.616	418.12
361.843	421.12
362.07	439.12
362.296	434.12
362.523	424.12
362.749	414.12
362.976	408.12
363.203	427.12
363.429	409.12
363.656	417.12
363.882	389.12
364.109	401.12
364.335	412.12
364.562	405.12
364.788	398.12
365.015	403.12
365.241	417.12
365.468	393.12
365.694	406.12
365.92	417.12
366.147	402.12
366.373	405.12
366.599	407.12
366.826	399.12
367.052	411.12
367.278	425.12
367.505	405.12
367.731	406.12
367.957	398.12
368.184	416.12
368.41	412.12
368.636	420.12
368.862	432.12
369.089	408.12
369.315	415.12
369.541	413.12
369.767	407.12
369.993	414.12
370.219	419.12
370.445	412.12
370.672	400.12
370.898	404.12
371.124	405.12
371.35	404.12
371.576	422.12
371.802	426.12
372.028	415.12
372.254	434.12
372.48	406.12
372.706	383.12
372.932	399.12
373.158	417.12
373.384	416.12
373.61	412.12
373.835	443.12
374.061	413.12
374.287	422.12
374.513	433.12
374.739	416.12
374.965	453.12
375.191	442.12
375.416	438.12
375.642	433.12
375.868	436.12
376.094	443.12
376.319	427.12
376.545	403.12
376.771	420.12
376.997	425.12
377.222	410.12
377.448	410.12
377.674	397.12
377.899	421.12
378.125	416.12
378.35	424.12
378.576	422.12
378.802	438.12
379.027	431.12
379.253	439.12
379.478	430.12
379.704	415.12
379.929	426.12
380.155	431.12
380.38	424.12
380.606	423.12
380.831	412.12
381.057	422.12
381.282	424.12
381.507	450.12
381.733	427.12
381.958	418.12
382.184	418.12
382.409	422.12
382.634	419.12
382.86	432.12
383.085	454.12
383.31	446.12
383.535	426.12
383.761	455.12
383.986	441.12
384.211	446.12
384.436	456.12
384.662	453.12
384.887	439.12
385.112	482.12
385.337	452.12
385.562	454.12
385.787	460.12
386.013	468.12
386.238	471.12
386.463	466.12
386.688	466.12
386.913	465.12
387.138	437.12
387.363	462.12
387.588	458.12
387.813	476.12
388.038	452.12
388.263	439.12
388.488	480.12
388.713	480.12
388.938	468.12
389.163	461.12
389.387	468.12
389.612	473.12
389.837	471.12
390.062	464.12
390.287	453.12
390.512	467.12
390.736	443.12
390.961	475.12
391.186	472.12
391.411	468.12
391.636	462.12
391.86	473.12
392.085	490.12
392.31	487.12
392.534	462.12
392.759	478.12
392.984	471.12
393.208	479.12
393.433	491.12
393.658	484.12
393.882	475.12
394.107	468.12
394.331	504.12
394.556	471.12
394.78	472.12
395.005	457.12
395.229	450.12
395.454	479.12
395.678	490.12
395.903	495.12
396.127	527.12
396.352	525.12
396.576	499.12
396.801	492.12
397.025	493.12
397.249	508.12
397.474	519.12
397.698	507.12
397.922	512.12
398.147	525.12
398.371	547.12
398.595	525.12
398.82	520.12
399.044	548.12
399.268	576.12
399.492	584.12
399.717	616.12
399.941	691.12
400.165	683.12
400.389	690.12
400.613	588.12
400.837	569.12
401.062	564.12
401.286	555.12
401.51	554.12
401.734	544.12
401.958	562.12
402.182	544.12
402.406	551.12
402.63	552.12
402.854	536.12
403.078	547.12
403.302	558.12
403.526	570.12
403.75	590.12
403.974	568.12
404.198	546.12
404.422	562.12
404.645	594.12
404.869	586.12
405.093	602.12
405.317	656.12
405.541	684.12
405.765	616.12
405.988	606.12
406.212	617.12
406.436	619.12
406.66	626.12
406.883	598.12
407.107	626.12
407.331	679.12
407.555	733.12
407.778	743.12
408.002	667.12
408.226	628.12
408.449	629.12
408.673	612.12
408.896	635.12
409.12	686.12
409.344	639.12
409.567	568.12
409.791	575.12
410.014	589.12
410.238	589.12
410.461	567.12
410.685	570.12
410.908	593.12
411.132	607.12
411.355	648.12
411.578	618.12
411.802	600.12
412.025	554.12
412.249	555.12
412.472	600.12
412.695	665.12
412.919	631.12
413.142	591.12
413.365	551.12
413.589	552.12
413.812	562.12
414.035	541.12
414.258	532.12
414.482	545.12
414.705	537.12
414.928	527.12
415.151	521.12
415.374	507.12
415.597	517.12
415.821	508.12
416.044	547.12
416.267	532.12
416.49	521.12
416.713	539.12
416.936	526.12
417.159	534.12
417.382	538.12
417.605	522.12
417.828	556.12
418.051	570.12
418.274	540.12
418.497	546.12
418.72	558.12
418.943	549.12
419.166	548.12
419.389	591.12
419.611	576.12
419.834	551.12
420.057	572.12
420.28	545.12
420.503	562.12
420.726	569.12
420.948	571.12
421.171	622.12
421.394	636.12
421.617	564.12
421.839	543.12
422.062	547.12
422.285	566.12
422.507	620.12
422.73	701.12
422.953	670.12
423.175	608.12
423.398	575.12
423.621	578.12
423.843	588.12
424.066	591.12
424.288	597.12
424.511	640.12
424.733	666.12
424.956	747.12
425.178	708.12
425.401	717.12
425.623	735.12
425.846	644.12
426.068	605.12
426.291	596.12
426.513	580.12
426.735	580.12
426.958	644.12
427.18	712.12
427.402	879.12
427.625	947.12
427.847	839.12
428.069	718.12
428.292	645.12
428.514	583.12
428.736	571.12
428.958	575.12
429.181	544.12
429.403	554.12
429.625	556.12
429.847	583.12
430.069	676.12
430.292	663.12
430.514	587.12
430.736	552.12
430.958	546.12
431.18	535.12
431.402	520.12
431.624	500.12
431.846	532.12
432.068	505.12
432.29	500.12
432.512	526.12
432.734	543.12
432.956	524.12
433.178	519.12
433.4	540.12
433.622	532.12
433.844	534.12
434.066	540.12
434.287	522.12
434.509	530.12
434.731	552.12
434.953	522.12
435.175	565.12
435.397	594.12
435.618	601.12
435.84	643.12
436.062	742.12
436.284	813.12
436.505	670.12
436.727	602.12
436.949	558.12
437.17	548.12
437.392	544.12
437.614	540.12
437.835	606.12
438.057	708.12
438.278	784.12
438.5	804.12
438.721	887.12
438.943	847.12
439.165	674.12
439.386	621.12
439.608	607.12
439.829	603.12
440.05	635.12
440.272	662.12
440.493	639.12
440.715	587.12
440.936	573.12
441.158	549.12
441.379	561.12
441.6	580.12
441.822	582.12
442.043	630.12
442.264	690.12
442.486	767.12
442.707	674.12
442.928	618.12
443.149	598.12
443.371	624.12
443.592	664.12
443.813	794.12
444.034	836.12
444.255	703.12
444.476	626.12
444.698	603.12
444.919	602.12
445.14	694.12
445.361	658.12
445.582	629.12
445.803	693.12
446.024	783.12
446.245	818.12
446.466	750.12
446.687	646.12
446.908	596.12
447.129	578.12
447.35	548.12
447.571	568.12
447.792	538.12
448.013	562.12
448.234	586.12
448.455	616.12
448.675	741.12
448.896	847.12
449.117	726.12
449.338	684.12
449.559	804.12
449.779	891.12
450	722.12
450.221	599.12
450.442	548.12
450.662	540.12
450.883	537.12
451.104	572.12
451.324	563.12
451.545	518.12
451.766	514.12
451.986	511.12
452.207	490.12
452.428	500.12
452.648	511.12
452.869	496.12
453.089	490.12
453.31	509.12
453.53	471.12
453.751	489.12
453.971	460.12
454.192	524.12
454.412	499.12
454.633	490.12
454.853	490.12
455.073	500.12
455.294	510.12
455.514	583.12
455.734	569.12
455.955	479.12
456.175	470.12
456.395	471.12
456.616	482.12
456.836	457.12
457.056	460.12
457.276	451.12
457.497	481.12
457.717	477.12
457.937	495.12
458.157	483.12
458.377	467.12
458.598	505.12
458.818	564.12
459.038	631.12
459.258	655.12
459.478	566.12
459.698	548.12
459.918	520.12
460.138	542.12
460.358	532.12
460.578	529.12
460.798	533.12
461.018	540.12
461.238	531.12
461.458	547.12
461.678	552.12
461.898	558.12
462.118	562.12
462.338	559.12
462.558	589.12
462.777	582.12
462.997	598.12
463.217	602.12
463.437	626.12
463.657	584.12
463.876	574.12
464.096	590.12
464.316	567.12
464.536	572.12
464.755	562.12
464.975	579.12
465.195	631.12
465.414	652.12
465.634	603.12
465.854	549.12
466.073	555.12
466.293	524.12
466.512	510.12
466.732	505.12
466.951	506.12
467.171	509.12
467.391	502.12
467.61	520.12
467.829	516.12
468.049	506.12
468.268	524.12
468.488	505.12
468.707	486.12
468.927	498.12
469.146	503.12
469.365	466.12
469.585	501.12
469.804	499.12
470.023	520.12
470.243	549.12
470.462	514.12
470.681	525.12
470.901	525.12
471.12	494.12
471.339	532.12
471.558	517.12
471.777	524.12
471.997	511.12
472.216	520.12
472.435	540.12
472.654	539.12
472.873	507.12
473.092	503.12
473.311	507.12
473.53	515.12
473.749	485.12
473.968	550.12
474.187	655.12
474.406	704.12
474.625	572.12
474.844	527.12
475.063	498.12
475.282	511.12
475.501	507.12
475.72	546.12
475.939	542.12
476.158	522.12
476.377	537.12
476.596	534.12
476.814	539.12
477.033	569.12
477.252	542.12
477.471	573.12
477.69	569.12
477.908	563.12
478.127	568.12
478.346	579.12
478.564	580.12
478.783	576.12
479.002	599.12
479.22	610.12
479.439	626.12
479.658	629.12
479.876	627.12
480.095	617.12
480.313	645.12
480.532	627.12
480.751	618.12
480.969	648.12
481.188	695.12
481.406	742.12
481.624	679.12
481.843	630.12
482.061	607.12
482.28	623.12
482.498	602.12
482.717	614.12
482.935	627.12
483.153	593.12
483.372	626.12
483.59	613.12
483.808	618.12
484.027	619.12
484.245	606.12
484.463	604.12
484.681	599.12
484.9	626.12
485.118	610.12
485.336	613.12
485.554	636.12
485.772	647.12
485.99	599.12
486.209	626.12
486.427	646.12
486.645	651.12
486.863	676.12
487.081	634.12
487.299	634.12
487.517	662.12
487.735	622.12
487.953	634.12
488.171	658.12
488.389	639.12
488.607	647.12
488.825	648.12
489.043	654.12
489.261	648.12
489.479	646.12
489.696	676.12
489.914	692.12
490.132	694.12
490.35	677.12
490.568	687.12
490.786	707.12
491.003	694.12
491.221	706.12
491.439	705.12
491.657	722.12
491.874	755.12
492.092	740.12
492.31	743.12
492.527	746.12
492.745	780.12
492.963	754.12
493.18	750.12
493.398	770.12
493.615	766.12
493.833	751.12
494.05	774.12
494.268	772.12
494.485	768.12
494.703	729.12
494.92	774.12
495.138	742.12
495.355	744.12
495.573	778.12
495.79	757.12
496.008	756.12
496.225	781.12
496.442	768.12
496.66	776.12
496.877	770.12
497.094	751.12
497.312	788.12
497.529	774.12
497.746	816.12
497.963	811.12
498.181	820.12
498.398	847.12
498.615	848.12
498.832	876.12
499.049	890.12
499.267	914.12
499.484	951.12
499.701	980.12
499.918	1018.12
500.135	1074.12
500.352	1106.12
500.569	1152.12
500.786	1133.12
501.003	1100.12
501.22	1086.12
501.437	1034.12
501.654	1013.12
