Data from 1966.PennyLincolnUp.Lamp.En5.5.200Scan.071719.P1._HRD10591_14-14-17-914.txt Node
Date: Thu Jul 18 14:14:17 EDT 2019
User: cochatt
Spectrometer: HR+D1059
Trigger mode: 1
Integration Time (sec): 1.000000E-1
Scans to average: 1
Electric dark correction enabled: true
Nonlinearity correction enabled: false
Boxcar width: 0
XAxis mode: Wavelengths
Number of Pixels in Spectrum: 2048
>>>>>Begin Spectral Data<<<<<
223.165	-5.06
223.4	-5.06
223.635	-5.06
223.869	-12.06
224.104	-22.06
224.338	-8.06
224.573	-1.06
224.808	-11.06
225.042	-2.06
225.277	-9.06
225.511	-18.06
225.746	5.94
225.98	-7.06
226.215	2.94
226.449	17.94
226.683	14.94
226.918	28.94
227.152	24.94
227.387	32.94
227.621	30.94
227.856	48.94
228.09	55.94
228.324	58.94
228.559	54.94
228.793	75.94
229.027	79.94
229.262	71.94
229.496	88.94
229.73	97.94
229.964	117.94
230.199	88.94
230.433	86.94
230.667	82.94
230.901	87.94
231.136	88.94
231.37	80.94
231.604	89.94
231.838	105.94
232.072	96.94
232.306	92.94
232.541	96.94
232.775	84.94
233.009	91.94
233.243	93.94
233.477	84.94
233.711	95.94
233.945	97.94
234.179	98.94
234.413	98.94
234.647	99.94
234.881	95.94
235.115	87.94
235.349	98.94
235.583	90.94
235.817	93.94
236.051	85.94
236.285	92.94
236.519	80.94
236.753	106.94
236.987	120.94
237.221	125.94
237.455	148.94
237.689	128.94
237.922	102.94
238.156	108.94
238.39	103.94
238.624	103.94
238.858	93.94
239.091	104.94
239.325	90.94
239.559	88.94
239.793	107.94
240.027	104.94
240.26	106.94
240.494	99.94
240.728	118.94
240.961	112.94
241.195	109.94
241.429	102.94
241.662	111.94
241.896	112.94
242.13	84.94
242.363	98.94
242.597	109.94
242.83	112.94
243.064	93.94
243.298	108.94
243.531	92.94
243.765	101.94
243.998	103.94
244.232	116.94
244.465	103.94
244.699	90.94
244.932	107.94
245.166	109.94
245.399	98.94
245.633	97.94
245.866	104.94
246.099	112.94
246.333	93.94
246.566	86.94
246.8	108.94
247.033	108.94
247.266	119.94
247.5	103.94
247.733	114.94
247.966	110.94
248.2	112.94
248.433	116.94
248.666	127.94
248.899	137.94
249.133	139.94
249.366	122.94
249.599	113.94
249.832	99.94
250.066	112.94
250.299	122.94
250.532	132.94
250.765	136.94
250.998	136.94
251.231	140.94
251.465	126.94
251.698	130.94
251.931	131.94
252.164	126.94
252.397	128.94
252.63	122.94
252.863	134.94
253.096	140.94
253.329	142.94
253.562	139.94
253.795	142.94
254.028	129.94
254.261	139.94
254.494	140.94
254.727	167.94
254.96	170.94
255.193	181.94
255.426	150.94
255.659	141.94
255.892	145.94
256.124	141.94
256.357	131.94
256.59	136.94
256.823	142.94
257.056	138.94
257.289	139.94
257.521	138.94
257.754	109.94
257.987	139.94
258.22	138.94
258.452	130.94
258.685	134.94
258.918	127.94
259.151	138.94
259.383	133.94
259.616	135.94
259.849	147.94
260.081	161.94
260.314	145.94
260.547	167.94
260.779	154.94
261.012	149.94
261.244	138.94
261.477	138.94
261.71	126.94
261.942	132.94
262.175	165.94
262.407	141.94
262.64	140.94
262.872	124.94
263.105	130.94
263.337	133.94
263.57	133.94
263.802	146.94
264.035	126.94
264.267	143.94
264.499	139.94
264.732	142.94
264.964	145.94
265.197	150.94
265.429	132.94
265.661	130.94
265.894	130.94
266.126	128.94
266.358	141.94
266.591	133.94
266.823	154.94
267.055	143.94
267.287	139.94
267.52	136.94
267.752	141.94
267.984	154.94
268.216	142.94
268.448	157.94
268.681	134.94
268.913	158.94
269.145	160.94
269.377	171.94
269.609	165.94
269.841	143.94
270.073	165.94
270.306	184.94
270.538	190.94
270.77	179.94
271.002	180.94
271.234	167.94
271.466	178.94
271.698	188.94
271.93	206.94
272.162	178.94
272.394	180.94
272.626	160.94
272.858	178.94
273.09	152.94
273.322	169.94
273.553	168.94
273.785	158.94
274.017	153.94
274.249	157.94
274.481	155.94
274.713	157.94
274.945	159.94
275.176	158.94
275.408	148.94
275.64	161.94
275.872	155.94
276.104	161.94
276.335	161.94
276.567	167.94
276.799	173.94
277.031	182.94
277.262	204.94
277.494	201.94
277.726	186.94
277.957	173.94
278.189	165.94
278.421	154.94
278.652	151.94
278.884	173.94
279.115	158.94
279.347	154.94
279.579	142.94
279.81	147.94
280.042	176.94
280.273	153.94
280.505	156.94
280.736	176.94
280.968	155.94
281.199	160.94
281.431	162.94
281.662	160.94
281.894	156.94
282.125	178.94
282.356	180.94
282.588	182.94
282.819	181.94
283.051	174.94
283.282	158.94
283.513	165.94
283.745	163.94
283.976	171.94
284.207	170.94
284.439	175.94
284.67	158.94
284.901	174.94
285.132	181.94
285.364	154.94
285.595	168.94
285.826	184.94
286.057	165.94
286.288	166.94
286.52	171.94
286.751	168.94
286.982	167.94
287.213	153.94
287.444	151.94
287.675	163.94
287.906	155.94
288.138	168.94
288.369	196.94
288.6	184.94
288.831	190.94
289.062	173.94
289.293	150.94
289.524	170.94
289.755	164.94
289.986	156.94
290.217	163.94
290.448	164.94
290.679	162.94
290.91	176.94
291.141	154.94
291.371	165.94
291.602	181.94
291.833	178.94
292.064	176.94
292.295	156.94
292.526	179.94
292.757	154.94
292.987	170.94
293.218	168.94
293.449	163.94
293.68	163.94
293.91	167.94
294.141	167.94
294.372	177.94
294.603	162.94
294.833	190.94
295.064	176.94
295.295	173.94
295.525	164.94
295.756	176.94
295.987	172.94
296.217	187.94
296.448	198.94
296.679	191.94
296.909	165.94
297.14	180.94
297.37	191.94
297.601	170.94
297.831	176.94
298.062	184.94
298.292	173.94
298.523	171.94
298.753	169.94
298.984	183.94
299.214	190.94
299.445	192.94
299.675	178.94
299.905	172.94
300.136	190.94
300.366	175.94
300.597	186.94
300.827	168.94
301.057	176.94
301.288	189.94
301.518	186.94
301.748	191.94
301.979	192.94
302.209	190.94
302.439	186.94
302.669	211.94
302.9	193.94
303.13	188.94
303.36	186.94
303.59	205.94
303.82	199.94
304.051	184.94
304.281	185.94
304.511	185.94
304.741	182.94
304.971	180.94
305.201	171.94
305.431	184.94
305.661	190.94
305.891	190.94
306.121	186.94
306.352	200.94
306.582	191.94
306.812	196.94
307.042	193.94
307.272	202.94
307.502	193.94
307.731	193.94
307.961	188.94
308.191	196.94
308.421	196.94
308.651	200.94
308.881	191.94
309.111	200.94
309.341	192.94
309.571	202.94
309.8	206.94
310.03	189.94
310.26	202.94
310.49	205.94
310.72	208.94
310.949	210.94
311.179	220.94
311.409	196.94
311.639	197.94
311.868	197.94
312.098	218.94
312.328	202.94
312.557	218.94
312.787	215.94
313.017	225.94
313.246	211.94
313.476	219.94
313.706	206.94
313.935	218.94
314.165	235.94
314.394	221.94
314.624	247.94
314.853	217.94
315.083	214.94
315.312	220.94
315.542	206.94
315.771	199.94
316.001	212.94
316.23	193.94
316.46	210.94
316.689	200.94
316.919	211.94
317.148	219.94
317.377	205.94
317.607	226.94
317.836	192.94
318.065	224.94
318.295	217.94
318.524	209.94
318.753	203.94
318.983	210.94
319.212	211.94
319.441	205.94
319.67	206.94
319.9	212.94
320.129	205.94
320.358	187.94
320.587	209.94
320.816	213.94
321.046	221.94
321.275	225.94
321.504	226.94
321.733	227.94
321.962	233.94
322.191	219.94
322.42	234.94
322.649	222.94
322.878	244.94
323.108	245.94
323.337	276.94
323.566	271.94
323.795	295.94
324.024	305.94
324.253	370.94
324.482	512.94
324.71	780.94
324.939	1066.94
325.168	870.94
325.397	446.94
325.626	309.94
325.855	276.94
326.084	254.94
326.313	250.94
326.542	263.94
326.77	302.94
326.999	364.94
327.228	513.94
327.457	702.94
327.686	805.94
327.914	522.94
328.143	368.94
328.372	330.94
328.6	310.94
328.829	311.94
329.058	317.94
329.287	319.94
329.515	282.94
329.744	265.94
329.972	273.94
330.201	270.94
330.43	330.94
330.658	335.94
330.887	338.94
331.115	315.94
331.344	266.94
331.572	264.94
331.801	275.94
332.03	265.94
332.258	250.94
332.486	232.94
332.715	241.94
332.943	236.94
333.172	267.94
333.4	243.94
333.629	252.94
333.857	249.94
334.085	258.94
334.314	287.94
334.542	305.94
334.771	311.94
334.999	276.94
335.227	261.94
335.455	262.94
335.684	242.94
335.912	230.94
336.14	229.94
336.369	221.94
336.597	235.94
336.825	255.94
337.053	230.94
337.281	248.94
337.51	233.94
337.738	224.94
337.966	231.94
338.194	246.94
338.422	234.94
338.65	241.94
338.878	245.94
339.106	218.94
339.334	216.94
339.562	220.94
339.79	216.94
340.018	207.94
340.246	226.94
340.474	237.94
340.702	236.94
340.93	236.94
341.158	229.94
341.386	231.94
341.614	224.94
341.842	222.94
342.07	226.94
342.298	221.94
342.526	232.94
342.754	213.94
342.981	223.94
343.209	217.94
343.437	201.94
343.665	217.94
343.893	229.94
344.12	247.94
344.348	236.94
344.576	254.94
344.804	229.94
345.031	228.94
345.259	240.94
345.487	243.94
345.714	231.94
345.942	219.94
346.17	213.94
346.397	226.94
346.625	220.94
346.853	238.94
347.08	220.94
347.308	220.94
347.535	230.94
347.763	234.94
347.99	230.94
348.218	237.94
348.445	229.94
348.673	221.94
348.9	218.94
349.128	231.94
349.355	218.94
349.583	213.94
349.81	222.94
350.037	224.94
350.265	209.94
350.492	224.94
350.72	236.94
350.947	227.94
351.174	217.94
351.402	227.94
351.629	222.94
351.856	242.94
352.083	238.94
352.311	240.94
352.538	229.94
352.765	239.94
352.992	227.94
353.22	230.94
353.447	208.94
353.674	218.94
353.901	225.94
354.128	215.94
354.355	203.94
354.583	241.94
354.81	230.94
355.037	201.94
355.264	188.94
355.491	199.94
355.718	217.94
355.945	209.94
356.172	192.94
356.399	207.94
356.626	207.94
356.853	209.94
357.08	189.94
357.307	197.94
357.534	191.94
357.761	213.94
357.988	201.94
358.215	200.94
358.441	197.94
358.668	213.94
358.895	219.94
359.122	201.94
359.349	206.94
359.576	213.94
359.802	245.94
360.029	254.94
360.256	257.94
360.483	231.94
360.709	233.94
360.936	224.94
361.163	206.94
361.39	208.94
361.616	229.94
361.843	225.94
362.07	223.94
362.296	206.94
362.523	219.94
362.749	217.94
362.976	206.94
363.203	233.94
363.429	206.94
363.656	212.94
363.882	205.94
364.109	215.94
364.335	217.94
364.562	224.94
364.788	214.94
365.015	212.94
365.241	201.94
365.468	207.94
365.694	222.94
365.92	221.94
366.147	218.94
366.373	204.94
366.599	229.94
366.826	217.94
367.052	218.94
367.278	220.94
367.505	228.94
367.731	217.94
367.957	202.94
368.184	207.94
368.41	209.94
368.636	206.94
368.862	214.94
369.089	218.94
369.315	206.94
369.541	214.94
369.767	209.94
369.993	202.94
370.219	215.94
370.445	219.94
370.672	216.94
370.898	208.94
371.124	218.94
371.35	218.94
371.576	212.94
371.802	212.94
372.028	201.94
372.254	208.94
372.48	208.94
372.706	204.94
372.932	210.94
373.158	197.94
373.384	221.94
373.61	208.94
373.835	206.94
374.061	202.94
374.287	205.94
374.513	221.94
374.739	205.94
374.965	205.94
375.191	212.94
375.416	232.94
375.642	216.94
375.868	224.94
376.094	193.94
376.319	202.94
376.545	214.94
376.771	193.94
376.997	191.94
377.222	217.94
377.448	204.94
377.674	206.94
377.899	209.94
378.125	205.94
378.35	217.94
378.576	216.94
378.802	212.94
379.027	203.94
379.253	189.94
379.478	224.94
379.704	202.94
379.929	211.94
380.155	210.94
380.38	230.94
380.606	201.94
380.831	219.94
381.057	221.94
381.282	206.94
381.507	201.94
381.733	203.94
381.958	199.94
382.184	192.94
382.409	221.94
382.634	207.94
382.86	213.94
383.085	203.94
383.31	212.94
383.535	202.94
383.761	229.94
383.986	235.94
384.211	213.94
384.436	217.94
384.662	220.94
384.887	220.94
385.112	221.94
385.337	222.94
385.562	228.94
385.787	239.94
386.013	235.94
386.238	222.94
386.463	224.94
386.688	216.94
386.913	213.94
387.138	208.94
387.363	221.94
387.588	219.94
387.813	213.94
388.038	209.94
388.263	224.94
388.488	225.94
388.713	210.94
388.938	224.94
389.163	225.94
389.387	213.94
389.612	220.94
389.837	211.94
390.062	237.94
390.287	222.94
390.512	222.94
390.736	232.94
390.961	216.94
391.186	222.94
391.411	213.94
391.636	229.94
391.86	227.94
392.085	227.94
392.31	235.94
392.534	219.94
392.759	206.94
392.984	216.94
393.208	227.94
393.433	234.94
393.658	232.94
393.882	211.94
394.107	232.94
394.331	229.94
394.556	206.94
394.78	231.94
395.005	224.94
395.229	213.94
395.454	235.94
395.678	232.94
395.903	216.94
396.127	250.94
396.352	265.94
396.576	231.94
396.801	223.94
397.025	233.94
397.249	235.94
397.474	228.94
397.698	254.94
397.922	256.94
398.147	260.94
398.371	257.94
398.595	240.94
398.82	248.94
399.044	267.94
399.268	260.94
399.492	276.94
399.717	304.94
399.941	317.94
400.165	291.94
400.389	310.94
400.613	268.94
400.837	269.94
401.062	250.94
401.286	282.94
401.51	250.94
401.734	258.94
401.958	252.94
402.182	270.94
402.406	268.94
402.63	274.94
402.854	274.94
403.078	275.94
403.302	269.94
403.526	258.94
403.75	273.94
403.974	270.94
404.198	273.94
404.422	256.94
404.645	283.94
404.869	278.94
405.093	286.94
405.317	314.94
405.541	307.94
405.765	293.94
405.988	278.94
406.212	297.94
406.436	305.94
406.66	317.94
406.883	289.94
407.107	292.94
407.331	311.94
407.555	337.94
407.778	339.94
408.002	311.94
408.226	288.94
408.449	270.94
408.673	266.94
408.896	279.94
409.12	299.94
409.344	301.94
409.567	268.94
409.791	261.94
410.014	268.94
410.238	251.94
410.461	270.94
410.685	271.94
410.908	271.94
411.132	301.94
411.355	311.94
411.578	297.94
411.802	268.94
412.025	268.94
412.249	267.94
412.472	269.94
412.695	284.94
412.919	293.94
413.142	254.94
413.365	251.94
413.589	262.94
413.812	250.94
414.035	266.94
414.258	256.94
414.482	249.94
414.705	243.94
414.928	244.94
415.151	252.94
415.374	252.94
415.597	260.94
415.821	252.94
416.044	246.94
416.267	258.94
416.49	251.94
416.713	243.94
416.936	256.94
417.159	263.94
417.382	253.94
417.605	258.94
417.828	266.94
418.051	269.94
418.274	266.94
418.497	271.94
418.72	260.94
418.943	244.94
419.166	259.94
419.389	264.94
419.611	278.94
419.834	280.94
420.057	250.94
420.28	276.94
420.503	253.94
420.726	261.94
420.948	288.94
421.171	285.94
421.394	306.94
421.617	274.94
421.839	254.94
422.062	253.94
422.285	269.94
422.507	300.94
422.73	318.94
422.953	311.94
423.175	277.94
423.398	290.94
423.621	294.94
423.843	278.94
424.066	283.94
424.288	288.94
424.511	276.94
424.733	322.94
424.956	340.94
425.178	329.94
425.401	315.94
425.623	348.94
425.846	295.94
426.068	276.94
426.291	272.94
426.513	287.94
426.735	285.94
426.958	296.94
427.18	331.94
427.402	374.94
427.625	444.94
427.847	379.94
428.069	327.94
428.292	282.94
428.514	276.94
428.736	271.94
428.958	249.94
429.181	230.94
429.403	269.94
429.625	253.94
429.847	269.94
430.069	310.94
430.292	292.94
430.514	262.94
430.736	260.94
430.958	251.94
431.18	252.94
431.402	245.94
431.624	257.94
431.846	237.94
432.068	233.94
432.29	259.94
432.512	242.94
432.734	268.94
432.956	243.94
433.178	245.94
433.4	244.94
433.622	245.94
433.844	248.94
434.066	259.94
434.287	233.94
434.509	252.94
434.731	278.94
434.953	265.94
435.175	277.94
435.397	286.94
435.618	288.94
435.84	297.94
436.062	334.94
436.284	357.94
436.505	308.94
436.727	274.94
436.949	274.94
437.17	246.94
437.392	254.94
437.614	257.94
437.835	307.94
438.057	333.94
438.278	359.94
438.5	377.94
438.721	390.94
438.943	390.94
439.165	290.94
439.386	284.94
439.608	280.94
439.829	268.94
440.05	288.94
440.272	324.94
440.493	297.94
440.715	263.94
440.936	264.94
441.158	282.94
441.379	256.94
441.6	284.94
441.822	293.94
442.043	314.94
442.264	345.94
442.486	354.94
442.707	287.94
442.928	304.94
443.149	300.94
443.371	278.94
443.592	340.94
443.813	349.94
444.034	384.94
444.255	318.94
444.476	300.94
444.698	288.94
444.919	292.94
445.14	404.94
445.361	349.94
445.582	300.94
445.803	328.94
446.024	375.94
446.245	382.94
446.466	354.94
446.687	306.94
446.908	264.94
447.129	268.94
447.35	267.94
447.571	275.94
447.792	258.94
448.013	253.94
448.234	261.94
448.455	281.94
448.675	343.94
448.896	376.94
449.117	336.94
449.338	310.94
449.559	380.94
449.779	416.94
450	307.94
450.221	284.94
450.442	260.94
450.662	257.94
450.883	264.94
451.104	279.94
451.324	265.94
451.545	241.94
451.766	250.94
451.986	258.94
452.207	230.94
452.428	226.94
452.648	240.94
452.869	246.94
453.089	237.94
453.31	247.94
453.53	242.94
453.751	232.94
453.971	240.94
454.192	241.94
454.412	241.94
454.633	238.94
454.853	229.94
455.073	230.94
455.294	267.94
455.514	272.94
455.734	248.94
455.955	234.94
456.175	235.94
456.395	221.94
456.616	219.94
456.836	226.94
457.056	227.94
457.276	208.94
457.497	218.94
457.717	230.94
457.937	241.94
458.157	242.94
458.377	236.94
458.598	249.94
458.818	271.94
459.038	340.94
459.258	306.94
459.478	261.94
459.698	252.94
459.918	249.94
460.138	235.94
460.358	258.94
460.578	270.94
460.798	262.94
461.018	264.94
461.238	249.94
461.458	232.94
461.678	247.94
461.898	270.94
462.118	244.94
462.338	259.94
462.558	243.94
462.777	253.94
462.997	260.94
463.217	265.94
463.437	285.94
463.657	278.94
463.876	260.94
464.096	262.94
464.316	264.94
464.536	285.94
464.755	276.94
464.975	270.94
465.195	314.94
465.414	351.94
465.634	298.94
465.854	252.94
466.073	250.94
466.293	248.94
466.512	251.94
466.732	247.94
466.951	245.94
467.171	272.94
467.391	242.94
467.61	241.94
467.829	267.94
468.049	244.94
468.268	255.94
468.488	245.94
468.707	248.94
468.927	226.94
469.146	249.94
469.365	241.94
469.585	237.94
469.804	229.94
470.023	254.94
470.243	242.94
470.462	258.94
470.681	274.94
470.901	264.94
471.12	229.94
471.339	245.94
471.558	250.94
471.777	249.94
471.997	246.94
472.216	234.94
472.435	308.94
472.654	269.94
472.873	235.94
473.092	248.94
473.311	244.94
473.53	245.94
473.749	245.94
473.968	278.94
474.187	330.94
474.406	330.94
474.625	275.94
474.844	262.94
475.063	244.94
475.282	243.94
475.501	243.94
475.72	245.94
475.939	243.94
476.158	231.94
476.377	262.94
476.596	230.94
476.814	257.94
477.033	260.94
477.252	261.94
477.471	266.94
477.69	252.94
477.908	266.94
478.127	267.94
478.346	275.94
478.564	273.94
478.783	286.94
479.002	261.94
479.22	268.94
479.439	293.94
479.658	285.94
479.876	283.94
480.095	299.94
480.313	322.94
480.532	301.94
480.751	297.94
480.969	309.94
481.188	364.94
481.406	389.94
481.624	315.94
481.843	308.94
482.061	283.94
482.28	283.94
482.498	277.94
482.717	262.94
482.935	285.94
483.153	259.94
483.372	282.94
483.59	285.94
483.808	278.94
484.027	293.94
484.245	276.94
484.463	268.94
484.681	277.94
484.9	297.94
485.118	298.94
485.336	289.94
485.554	285.94
485.772	294.94
485.99	288.94
486.209	290.94
486.427	280.94
486.645	296.94
486.863	301.94
487.081	306.94
487.299	299.94
487.517	296.94
487.735	285.94
487.953	294.94
488.171	307.94
488.389	304.94
488.607	294.94
488.825	287.94
489.043	306.94
489.261	313.94
489.479	293.94
489.696	316.94
489.914	314.94
490.132	307.94
490.35	310.94
490.568	305.94
490.786	316.94
491.003	315.94
491.221	352.94
491.439	360.94
491.657	345.94
491.874	355.94
492.092	348.94
492.31	368.94
492.527	364.94
492.745	370.94
492.963	368.94
493.18	356.94
493.398	364.94
493.615	358.94
493.833	369.94
494.05	340.94
494.268	361.94
494.485	370.94
494.703	380.94
494.92	357.94
495.138	368.94
495.355	341.94
495.573	361.94
495.79	346.94
496.008	341.94
496.225	359.94
496.442	365.94
496.66	361.94
496.877	345.94
497.094	339.94
497.312	338.94
497.529	362.94
497.746	360.94
497.963	362.94
498.181	373.94
498.398	366.94
498.615	376.94
498.832	380.94
499.049	380.94
499.267	373.94
499.484	405.94
499.701	421.94
499.918	443.94
500.135	466.94
500.352	455.94
500.569	481.94
500.786	481.94
501.003	492.94
501.22	473.94
501.437	429.94
501.654	418.94
501.871	449.94
502.088	397.94
502.305	398.94
502.522	386.94
502.739	386.94
