Data from 1966.PennyLincolnUp.Lamp.En5.5.200Scan.071719.P1.Scan2.head_HRD10591_14-17-58-150.txt Node
Date: Thu Jul 18 14:17:58 EDT 2019
User: cochatt
Spectrometer: HR+D1059
Trigger mode: 1
Integration Time (sec): 1.000000E-1
Scans to average: 1
Electric dark correction enabled: true
Nonlinearity correction enabled: false
Boxcar width: 0
XAxis mode: Wavelengths
Number of Pixels in Spectrum: 2048
>>>>>Begin Spectral Data<<<<<
223.165	0.25
223.4	0.25
223.635	0.25
223.869	-16.75
224.104	-18.75
224.338	-8.75
224.573	-18.75
224.808	-15.75
225.042	-7.75
225.277	-9.75
225.511	-4.75
225.746	0.25
225.98	5.25
226.215	14.25
226.449	15.25
226.683	20.25
226.918	10.25
227.152	35.25
227.387	22.25
227.621	40.25
227.856	40.25
228.09	50.25
228.324	62.25
228.559	55.25
228.793	70.25
229.027	79.25
229.262	87.25
229.496	107.25
229.73	124.25
229.964	144.25
230.199	137.25
230.433	112.25
230.667	108.25
230.901	107.25
231.136	105.25
231.37	113.25
231.604	108.25
231.838	117.25
232.072	118.25
232.306	117.25
232.541	105.25
232.775	103.25
233.009	116.25
233.243	114.25
233.477	107.25
233.711	114.25
233.945	123.25
234.179	108.25
234.413	118.25
234.647	120.25
234.881	125.25
235.115	110.25
235.349	112.25
235.583	112.25
235.817	119.25
236.051	138.25
236.285	122.25
236.519	123.25
236.753	124.25
236.987	133.25
237.221	177.25
237.455	225.25
237.689	174.25
237.922	146.25
238.156	128.25
238.39	130.25
238.624	129.25
238.858	128.25
239.091	105.25
239.325	119.25
239.559	124.25
239.793	124.25
240.027	136.25
240.26	148.25
240.494	162.25
240.728	134.25
240.961	140.25
241.195	141.25
241.429	148.25
241.662	133.25
241.896	128.25
242.13	134.25
242.363	141.25
242.597	138.25
242.83	135.25
243.064	131.25
243.298	145.25
243.531	141.25
243.765	149.25
243.998	145.25
244.232	132.25
244.465	141.25
244.699	154.25
244.932	147.25
245.166	154.25
245.399	145.25
245.633	140.25
245.866	140.25
246.099	144.25
246.333	164.25
246.566	148.25
246.8	152.25
247.033	149.25
247.266	156.25
247.5	144.25
247.733	158.25
247.966	171.25
248.2	165.25
248.433	175.25
248.666	173.25
248.899	182.25
249.133	191.25
249.366	192.25
249.599	188.25
249.832	181.25
250.066	180.25
250.299	188.25
250.532	174.25
250.765	191.25
250.998	231.25
251.231	237.25
251.465	210.25
251.698	198.25
251.931	195.25
252.164	192.25
252.397	207.25
252.63	200.25
252.863	206.25
253.096	225.25
253.329	228.25
253.562	216.25
253.795	210.25
254.028	221.25
254.261	208.25
254.494	214.25
254.727	253.25
254.96	266.25
255.193	268.25
255.426	237.25
255.659	200.25
255.892	226.25
256.124	249.25
256.357	228.25
256.59	200.25
256.823	209.25
257.056	202.25
257.289	201.25
257.521	202.25
257.754	211.25
257.987	219.25
258.22	225.25
258.452	202.25
258.685	206.25
258.918	216.25
259.151	200.25
259.383	215.25
259.616	212.25
259.849	214.25
260.081	222.25
260.314	230.25
260.547	236.25
260.779	242.25
261.012	232.25
261.244	221.25
261.477	209.25
261.71	208.25
261.942	226.25
262.175	233.25
262.407	230.25
262.64	191.25
262.872	197.25
263.105	205.25
263.337	222.25
263.57	216.25
263.802	200.25
264.035	209.25
264.267	200.25
264.499	206.25
264.732	208.25
264.964	208.25
265.197	214.25
265.429	221.25
265.661	218.25
265.894	219.25
266.126	227.25
266.358	220.25
266.591	221.25
266.823	218.25
267.055	225.25
267.287	243.25
267.52	217.25
267.752	228.25
267.984	226.25
268.216	237.25
268.448	225.25
268.681	216.25
268.913	244.25
269.145	254.25
269.377	273.25
269.609	270.25
269.841	255.25
270.073	266.25
270.306	288.25
270.538	307.25
270.77	309.25
271.002	288.25
271.234	285.25
271.466	293.25
271.698	300.25
271.93	301.25
272.162	314.25
272.394	320.25
272.626	290.25
272.858	272.25
273.09	266.25
273.322	270.25
273.553	263.25
273.785	268.25
274.017	252.25
274.249	247.25
274.481	253.25
274.713	242.25
274.945	266.25
275.176	250.25
275.408	251.25
275.64	247.25
275.872	259.25
276.104	268.25
276.335	263.25
276.567	269.25
276.799	273.25
277.031	298.25
277.262	302.25
277.494	310.25
277.726	288.25
277.957	276.25
278.189	278.25
278.421	278.25
278.652	268.25
278.884	264.25
279.115	261.25
279.347	260.25
279.579	258.25
279.81	263.25
280.042	265.25
280.273	276.25
280.505	264.25
280.736	267.25
280.968	268.25
281.199	255.25
281.431	278.25
281.662	266.25
281.894	270.25
282.125	267.25
282.356	257.25
282.588	302.25
282.819	308.25
283.051	278.25
283.282	264.25
283.513	277.25
283.745	256.25
283.976	281.25
284.207	261.25
284.439	291.25
284.67	265.25
284.901	277.25
285.132	260.25
285.364	280.25
285.595	279.25
285.826	280.25
286.057	283.25
286.288	286.25
286.52	281.25
286.751	269.25
286.982	262.25
287.213	285.25
287.444	288.25
287.675	291.25
287.906	284.25
288.138	286.25
288.369	298.25
288.6	289.25
288.831	312.25
289.062	293.25
289.293	278.25
289.524	280.25
289.755	287.25
289.986	305.25
290.217	293.25
290.448	279.25
290.679	299.25
290.91	293.25
291.141	294.25
291.371	299.25
291.602	288.25
291.833	289.25
292.064	279.25
292.295	289.25
292.526	283.25
292.757	293.25
292.987	282.25
293.218	287.25
293.449	282.25
293.68	288.25
293.91	286.25
294.141	295.25
294.372	275.25
294.603	280.25
294.833	294.25
295.064	292.25
295.295	281.25
295.525	292.25
295.756	311.25
295.987	299.25
296.217	314.25
296.448	341.25
296.679	311.25
296.909	280.25
297.14	314.25
297.37	304.25
297.601	304.25
297.831	290.25
298.062	281.25
298.292	293.25
298.523	298.25
298.753	283.25
298.984	277.25
299.214	292.25
299.445	300.25
299.675	313.25
299.905	288.25
300.136	317.25
300.366	286.25
300.597	317.25
300.827	310.25
301.057	331.25
301.288	331.25
301.518	346.25
301.748	311.25
301.979	317.25
302.209	337.25
302.439	332.25
302.669	312.25
302.9	331.25
303.13	306.25
303.36	335.25
303.59	321.25
303.82	330.25
304.051	327.25
304.281	305.25
304.511	315.25
304.741	333.25
304.971	324.25
305.201	322.25
305.431	327.25
305.661	315.25
305.891	322.25
306.121	343.25
306.352	320.25
306.582	338.25
306.812	317.25
307.042	331.25
307.272	323.25
307.502	316.25
307.731	312.25
307.961	332.25
308.191	349.25
308.421	347.25
308.651	337.25
308.881	333.25
309.111	342.25
309.341	325.25
309.571	339.25
309.8	345.25
310.03	333.25
310.26	365.25
310.49	352.25
310.72	386.25
310.949	380.25
311.179	388.25
311.409	389.25
311.639	356.25
311.868	364.25
312.098	388.25
312.328	352.25
312.557	390.25
312.787	398.25
313.017	393.25
313.246	396.25
313.476	372.25
313.706	369.25
313.935	373.25
314.165	378.25
314.394	390.25
314.624	384.25
314.853	365.25
315.083	396.25
315.312	376.25
315.542	362.25
315.771	366.25
316.001	364.25
316.23	373.25
316.46	362.25
316.689	372.25
316.919	386.25
317.148	378.25
317.377	379.25
317.607	363.25
317.836	377.25
318.065	375.25
318.295	370.25
318.524	351.25
318.753	347.25
318.983	392.25
319.212	382.25
319.441	377.25
319.67	382.25
319.9	391.25
320.129	360.25
320.358	384.25
320.587	389.25
320.816	376.25
321.046	398.25
321.275	388.25
321.504	389.25
321.733	394.25
321.962	393.25
322.191	412.25
322.42	408.25
322.649	415.25
322.878	423.25
323.108	444.25
323.337	471.25
323.566	478.25
323.795	498.25
324.024	551.25
324.253	638.25
324.482	920.25
324.71	1434.25
324.939	2101.25
325.168	1865.25
325.397	892.25
325.626	612.25
325.855	527.25
326.084	487.25
326.313	474.25
326.542	492.25
326.77	519.25
326.999	605.25
327.228	835.25
327.457	1259.25
327.686	1582.25
327.914	1034.25
328.143	674.25
328.372	609.25
328.6	562.25
328.829	531.25
329.058	563.25
329.287	561.25
329.515	504.25
329.744	542.25
329.972	500.25
330.201	532.25
330.43	548.25
330.658	578.25
330.887	601.25
331.115	587.25
331.344	497.25
331.572	472.25
331.801	477.25
332.03	482.25
332.258	458.25
332.486	462.25
332.715	457.25
332.943	442.25
333.172	459.25
333.4	471.25
333.629	475.25
333.857	483.25
334.085	487.25
334.314	493.25
334.542	539.25
334.771	574.25
334.999	514.25
335.227	487.25
335.455	467.25
335.684	469.25
335.912	452.25
336.14	447.25
336.369	462.25
336.597	451.25
336.825	440.25
337.053	468.25
337.281	449.25
337.51	430.25
337.738	436.25
337.966	438.25
338.194	448.25
338.422	444.25
338.65	425.25
338.878	418.25
339.106	419.25
339.334	443.25
339.562	421.25
339.79	442.25
340.018	438.25
340.246	421.25
340.474	433.25
340.702	450.25
340.93	428.25
341.158	433.25
341.386	412.25
341.614	433.25
341.842	434.25
342.07	437.25
342.298	426.25
342.526	436.25
342.754	429.25
342.981	421.25
343.209	407.25
343.437	437.25
343.665	420.25
343.893	440.25
344.12	443.25
344.348	434.25
344.576	439.25
344.804	425.25
345.031	444.25
345.259	471.25
345.487	450.25
345.714	441.25
345.942	438.25
346.17	388.25
346.397	451.25
346.625	401.25
346.853	423.25
347.08	425.25
347.308	421.25
347.535	413.25
347.763	429.25
347.99	415.25
348.218	457.25
348.445	423.25
348.673	420.25
348.9	425.25
349.128	416.25
349.355	390.25
349.583	405.25
349.81	402.25
350.037	411.25
350.265	425.25
350.492	416.25
350.72	417.25
350.947	440.25
351.174	450.25
351.402	420.25
351.629	459.25
351.856	437.25
352.083	426.25
352.311	427.25
352.538	437.25
352.765	451.25
352.992	410.25
353.22	434.25
353.447	428.25
353.674	422.25
353.901	414.25
354.128	401.25
354.355	402.25
354.583	412.25
354.81	382.25
355.037	405.25
355.264	401.25
355.491	382.25
355.718	398.25
355.945	414.25
356.172	397.25
356.399	397.25
356.626	398.25
356.853	388.25
357.08	409.25
357.307	390.25
357.534	392.25
357.761	381.25
357.988	407.25
358.215	410.25
358.441	411.25
358.668	410.25
358.895	402.25
359.122	393.25
359.349	418.25
359.576	422.25
359.802	449.25
360.029	462.25
360.256	459.25
360.483	473.25
360.709	448.25
360.936	434.25
361.163	442.25
361.39	421.25
361.616	406.25
361.843	435.25
362.07	427.25
362.296	426.25
362.523	423.25
362.749	440.25
362.976	415.25
363.203	418.25
363.429	414.25
363.656	421.25
363.882	405.25
364.109	419.25
364.335	421.25
364.562	393.25
364.788	423.25
365.015	434.25
365.241	410.25
365.468	406.25
365.694	441.25
365.92	388.25
366.147	437.25
366.373	409.25
366.599	402.25
366.826	420.25
367.052	425.25
367.278	414.25
367.505	419.25
367.731	409.25
367.957	396.25
368.184	421.25
368.41	420.25
368.636	438.25
368.862	435.25
369.089	421.25
369.315	424.25
369.541	411.25
369.767	422.25
369.993	428.25
370.219	405.25
370.445	416.25
370.672	419.25
370.898	418.25
371.124	425.25
371.35	407.25
371.576	436.25
371.802	424.25
372.028	406.25
372.254	401.25
372.48	442.25
372.706	418.25
372.932	438.25
373.158	418.25
373.384	446.25
373.61	418.25
373.835	412.25
374.061	424.25
374.287	443.25
374.513	422.25
374.739	434.25
374.965	420.25
375.191	411.25
375.416	410.25
375.642	406.25
375.868	427.25
376.094	426.25
376.319	417.25
376.545	400.25
376.771	420.25
376.997	400.25
377.222	406.25
377.448	415.25
377.674	432.25
377.899	410.25
378.125	408.25
378.35	414.25
378.576	430.25
378.802	425.25
379.027	433.25
379.253	417.25
379.478	429.25
379.704	420.25
379.929	423.25
380.155	423.25
380.38	434.25
380.606	442.25
380.831	404.25
381.057	414.25
381.282	425.25
381.507	446.25
381.733	427.25
381.958	433.25
382.184	430.25
382.409	434.25
382.634	436.25
382.86	451.25
383.085	426.25
383.31	444.25
383.535	459.25
383.761	436.25
383.986	458.25
384.211	424.25
384.436	452.25
384.662	449.25
384.887	456.25
385.112	441.25
385.337	451.25
385.562	452.25
385.787	470.25
386.013	451.25
386.238	480.25
386.463	485.25
386.688	464.25
386.913	464.25
387.138	471.25
387.363	460.25
387.588	460.25
387.813	453.25
388.038	457.25
388.263	469.25
388.488	469.25
388.713	476.25
388.938	481.25
389.163	481.25
389.387	468.25
389.612	483.25
389.837	469.25
390.062	480.25
390.287	476.25
390.512	478.25
390.736	458.25
390.961	458.25
391.186	480.25
391.411	460.25
391.636	476.25
391.86	492.25
392.085	458.25
392.31	486.25
392.534	478.25
392.759	492.25
392.984	468.25
393.208	470.25
393.433	486.25
393.658	488.25
393.882	489.25
394.107	473.25
394.331	472.25
394.556	483.25
394.78	480.25
395.005	483.25
395.229	481.25
395.454	483.25
395.678	500.25
395.903	521.25
396.127	518.25
396.352	538.25
396.576	491.25
396.801	509.25
397.025	491.25
397.249	504.25
397.474	523.25
397.698	527.25
397.922	520.25
398.147	539.25
398.371	531.25
398.595	530.25
398.82	542.25
399.044	551.25
399.268	577.25
399.492	604.25
399.717	632.25
399.941	670.25
400.165	700.25
400.389	672.25
400.613	624.25
400.837	594.25
401.062	562.25
401.286	571.25
401.51	556.25
401.734	555.25
401.958	529.25
402.182	564.25
402.406	573.25
402.63	560.25
402.854	540.25
403.078	556.25
403.302	535.25
403.526	580.25
403.75	552.25
403.974	556.25
404.198	567.25
404.422	576.25
404.645	574.25
404.869	566.25
405.093	607.25
405.317	669.25
405.541	682.25
405.765	650.25
405.988	612.25
406.212	609.25
406.436	627.25
406.66	633.25
406.883	614.25
407.107	631.25
407.331	679.25
407.555	744.25
407.778	750.25
408.002	697.25
408.226	658.25
408.449	634.25
408.673	605.25
408.896	640.25
409.12	708.25
409.344	676.25
409.567	616.25
409.791	611.25
410.014	575.25
410.238	561.25
410.461	564.25
410.685	564.25
410.908	604.25
411.132	633.25
411.355	667.25
411.578	640.25
411.802	576.25
412.025	578.25
412.249	590.25
412.472	599.25
412.695	641.25
412.919	638.25
413.142	578.25
413.365	564.25
413.589	558.25
413.812	564.25
414.035	558.25
414.258	546.25
414.482	553.25
414.705	539.25
414.928	530.25
415.151	544.25
415.374	535.25
415.597	522.25
415.821	532.25
416.044	509.25
416.267	548.25
416.49	531.25
416.713	546.25
416.936	525.25
417.159	539.25
417.382	542.25
417.605	535.25
417.828	553.25
418.051	562.25
418.274	537.25
418.497	550.25
418.72	547.25
418.943	546.25
419.166	568.25
419.389	584.25
419.611	576.25
419.834	571.25
420.057	580.25
420.28	560.25
420.503	587.25
420.726	587.25
420.948	568.25
421.171	608.25
421.394	650.25
421.617	584.25
421.839	551.25
422.062	566.25
422.285	581.25
422.507	635.25
422.73	714.25
422.953	677.25
423.175	605.25
423.398	600.25
423.621	600.25
423.843	631.25
424.066	613.25
424.288	604.25
424.511	611.25
424.733	671.25
424.956	738.25
425.178	753.25
425.401	727.25
425.623	768.25
425.846	654.25
426.068	635.25
426.291	586.25
426.513	588.25
426.735	601.25
426.958	646.25
427.18	725.25
427.402	884.25
427.625	992.25
427.847	854.25
428.069	732.25
428.292	650.25
428.514	580.25
428.736	568.25
428.958	584.25
429.181	560.25
429.403	561.25
429.625	572.25
429.847	582.25
430.069	680.25
430.292	693.25
430.514	602.25
430.736	562.25
430.958	566.25
431.18	560.25
431.402	540.25
431.624	531.25
431.846	535.25
432.068	527.25
432.29	519.25
432.512	535.25
432.734	548.25
432.956	513.25
433.178	528.25
433.4	557.25
433.622	539.25
433.844	529.25
434.066	547.25
434.287	544.25
434.509	524.25
434.731	558.25
434.953	568.25
435.175	566.25
435.397	601.25
435.618	607.25
435.84	648.25
436.062	732.25
436.284	820.25
436.505	673.25
436.727	610.25
436.949	578.25
437.17	575.25
437.392	560.25
437.614	586.25
437.835	618.25
438.057	715.25
438.278	809.25
438.5	814.25
438.721	892.25
438.943	857.25
439.165	699.25
439.386	644.25
439.608	611.25
439.829	608.25
440.05	658.25
440.272	683.25
440.493	652.25
440.715	594.25
440.936	576.25
441.158	567.25
441.379	574.25
441.6	606.25
441.822	620.25
442.043	635.25
442.264	730.25
442.486	772.25
442.707	666.25
442.928	624.25
443.149	633.25
443.371	668.25
443.592	711.25
443.813	784.25
444.034	883.25
444.255	706.25
444.476	651.25
444.698	626.25
444.919	605.25
445.14	718.25
445.361	688.25
445.582	668.25
445.803	721.25
446.024	829.25
446.245	844.25
446.466	750.25
446.687	655.25
446.908	610.25
447.129	568.25
447.35	571.25
447.571	536.25
447.792	549.25
448.013	549.25
448.234	589.25
448.455	650.25
448.675	741.25
448.896	877.25
449.117	720.25
449.338	690.25
449.559	792.25
449.779	907.25
450	727.25
450.221	602.25
450.442	571.25
450.662	568.25
450.883	549.25
451.104	573.25
451.324	555.25
451.545	541.25
451.766	501.25
451.986	520.25
452.207	532.25
452.428	506.25
452.648	498.25
452.869	490.25
453.089	481.25
453.31	514.25
453.53	500.25
453.751	481.25
453.971	503.25
454.192	529.25
454.412	518.25
454.633	503.25
454.853	489.25
455.073	488.25
455.294	543.25
455.514	580.25
455.734	589.25
455.955	517.25
456.175	487.25
456.395	442.25
456.616	475.25
456.836	457.25
457.056	459.25
457.276	466.25
457.497	476.25
457.717	492.25
457.937	477.25
458.157	486.25
458.377	506.25
458.598	502.25
458.818	577.25
459.038	654.25
459.258	664.25
459.478	587.25
459.698	538.25
459.918	524.25
460.138	524.25
460.358	541.25
460.578	541.25
460.798	553.25
461.018	552.25
461.238	532.25
461.458	537.25
461.678	548.25
461.898	564.25
462.118	541.25
462.338	565.25
462.558	564.25
462.777	576.25
462.997	572.25
463.217	620.25
463.437	612.25
463.657	604.25
463.876	570.25
464.096	591.25
464.316	592.25
464.536	582.25
464.755	589.25
464.975	597.25
465.195	637.25
465.414	701.25
465.634	605.25
465.854	564.25
466.073	556.25
466.293	542.25
466.512	521.25
466.732	518.25
466.951	506.25
467.171	522.25
467.391	512.25
467.61	510.25
467.829	530.25
468.049	525.25
468.268	516.25
468.488	509.25
468.707	504.25
468.927	507.25
469.146	502.25
469.365	501.25
469.585	488.25
469.804	504.25
470.023	487.25
470.243	526.25
470.462	525.25
470.681	545.25
470.901	536.25
471.12	524.25
471.339	522.25
471.558	524.25
471.777	520.25
471.997	535.25
472.216	533.25
472.435	593.25
472.654	545.25
472.873	523.25
473.092	524.25
473.311	497.25
473.53	548.25
473.749	532.25
473.968	539.25
474.187	654.25
474.406	683.25
474.625	579.25
474.844	552.25
475.063	514.25
475.282	523.25
475.501	536.25
475.72	552.25
475.939	530.25
476.158	542.25
476.377	538.25
476.596	545.25
476.814	555.25
477.033	574.25
477.252	549.25
477.471	546.25
477.69	577.25
477.908	593.25
478.127	589.25
478.346	578.25
478.564	601.25
478.783	597.25
479.002	608.25
479.22	591.25
479.439	597.25
479.658	638.25
479.876	628.25
480.095	633.25
480.313	656.25
480.532	653.25
480.751	652.25
480.969	651.25
481.188	717.25
481.406	733.25
481.624	676.25
481.843	651.25
482.061	646.25
482.28	631.25
482.498	618.25
482.717	626.25
482.935	600.25
483.153	619.25
483.372	618.25
483.59	616.25
483.808	618.25
484.027	613.25
484.245	617.25
484.463	636.25
484.681	648.25
484.9	613.25
485.118	624.25
485.336	652.25
485.554	628.25
485.772	621.25
485.99	621.25
486.209	658.25
486.427	662.25
486.645	644.25
486.863	684.25
487.081	637.25
487.299	667.25
487.517	664.25
487.735	639.25
487.953	669.25
488.171	662.25
488.389	669.25
488.607	644.25
488.825	646.25
489.043	667.25
489.261	694.25
489.479	653.25
489.696	673.25
489.914	665.25
490.132	706.25
490.35	693.25
490.568	698.25
490.786	721.25
491.003	703.25
491.221	738.25
491.439	756.25
491.657	726.25
491.874	776.25
492.092	765.25
492.31	772.25
492.527	774.25
492.745	802.25
492.963	788.25
493.18	757.25
493.398	777.25
493.615	764.25
493.833	813.25
494.05	757.25
494.268	774.25
494.485	777.25
494.703	772.25
494.92	788.25
495.138	778.25
495.355	816.25
495.573	760.25
495.79	774.25
496.008	795.25
496.225	798.25
496.442	798.25
496.66	796.25
496.877	805.25
497.094	809.25
497.312	780.25
497.529	833.25
497.746	842.25
497.963	846.25
498.181	847.25
498.398	875.25
498.615	863.25
498.832	876.25
499.049	905.25
499.267	938.25
499.484	977.25
499.701	1034.25
499.918	1018.25
500.135	1099.25
500.352	1113.25
500.569	1129.25
500.786	1169.25
501.003	1117.25
501.22	1100.25
501.437	1051.25
501.654	1044.25
