Data from 1966.PennyLincolnUp.Lamp.En5.5.200Scan.071719.P1._HRD10591_14-15-24-947.txt Node
Date: Thu Jul 18 14:15:24 EDT 2019
User: cochatt
Spectrometer: HR+D1059
Trigger mode: 1
Integration Time (sec): 1.000000E-1
Scans to average: 1
Electric dark correction enabled: true
Nonlinearity correction enabled: false
Boxcar width: 0
XAxis mode: Wavelengths
Number of Pixels in Spectrum: 2048
>>>>>Begin Spectral Data<<<<<
223.165	-23.81
223.4	-23.81
223.635	-23.81
223.869	-3.81
224.104	-19.81
224.338	-23.81
224.573	-21.81
224.808	-12.81
225.042	-10.81
225.277	-5.81
225.511	-11.81
225.746	15.19
225.98	12.19
226.215	18.19
226.449	23.19
226.683	17.19
226.918	20.19
227.152	28.19
227.387	29.19
227.621	41.19
227.856	34.19
228.09	55.19
228.324	53.19
228.559	47.19
228.793	56.19
229.027	91.19
229.262	89.19
229.496	94.19
229.73	102.19
229.964	96.19
230.199	86.19
230.433	94.19
230.667	80.19
230.901	101.19
231.136	91.19
231.37	94.19
231.604	87.19
231.838	88.19
232.072	91.19
232.306	93.19
232.541	92.19
232.775	104.19
233.009	96.19
233.243	103.19
233.477	97.19
233.711	79.19
233.945	92.19
234.179	89.19
234.413	94.19
234.647	95.19
234.881	123.19
235.115	109.19
235.349	99.19
235.583	109.19
235.817	95.19
236.051	82.19
236.285	97.19
236.519	91.19
236.753	94.19
236.987	115.19
237.221	123.19
237.455	136.19
237.689	120.19
237.922	105.19
238.156	106.19
238.39	99.19
238.624	103.19
238.858	101.19
239.091	81.19
239.325	104.19
239.559	92.19
239.793	106.19
240.027	105.19
240.26	113.19
240.494	108.19
240.728	115.19
240.961	119.19
241.195	115.19
241.429	93.19
241.662	87.19
241.896	97.19
242.13	92.19
242.363	121.19
242.597	87.19
242.83	96.19
243.064	121.19
243.298	114.19
243.531	99.19
243.765	109.19
243.998	98.19
244.232	104.19
244.465	105.19
244.699	111.19
244.932	119.19
245.166	101.19
245.399	104.19
245.633	103.19
245.866	117.19
246.099	117.19
246.333	110.19
246.566	117.19
246.8	103.19
247.033	114.19
247.266	117.19
247.5	111.19
247.733	128.19
247.966	127.19
248.2	135.19
248.433	114.19
248.666	123.19
248.899	133.19
249.133	146.19
249.366	134.19
249.599	147.19
249.832	125.19
250.066	114.19
250.299	119.19
250.532	121.19
250.765	148.19
250.998	144.19
251.231	148.19
251.465	131.19
251.698	141.19
251.931	142.19
252.164	128.19
252.397	129.19
252.63	126.19
252.863	135.19
253.096	136.19
253.329	150.19
253.562	142.19
253.795	130.19
254.028	147.19
254.261	147.19
254.494	141.19
254.727	150.19
254.96	166.19
255.193	159.19
255.426	147.19
255.659	150.19
255.892	154.19
256.124	143.19
256.357	152.19
256.59	149.19
256.823	133.19
257.056	134.19
257.289	137.19
257.521	139.19
257.754	127.19
257.987	129.19
258.22	143.19
258.452	133.19
258.685	136.19
258.918	117.19
259.151	123.19
259.383	135.19
259.616	139.19
259.849	151.19
260.081	155.19
260.314	163.19
260.547	155.19
260.779	159.19
261.012	152.19
261.244	150.19
261.477	137.19
261.71	144.19
261.942	148.19
262.175	146.19
262.407	153.19
262.64	149.19
262.872	128.19
263.105	139.19
263.337	135.19
263.57	140.19
263.802	139.19
264.035	138.19
264.267	136.19
264.499	138.19
264.732	125.19
264.964	149.19
265.197	132.19
265.429	138.19
265.661	131.19
265.894	137.19
266.126	138.19
266.358	141.19
266.591	143.19
266.823	150.19
267.055	135.19
267.287	134.19
267.52	149.19
267.752	146.19
267.984	143.19
268.216	141.19
268.448	150.19
268.681	151.19
268.913	149.19
269.145	165.19
269.377	166.19
269.609	173.19
269.841	164.19
270.073	161.19
270.306	193.19
270.538	191.19
270.77	200.19
271.002	181.19
271.234	173.19
271.466	181.19
271.698	193.19
271.93	192.19
272.162	177.19
272.394	196.19
272.626	175.19
272.858	173.19
273.09	156.19
273.322	153.19
273.553	169.19
273.785	174.19
274.017	148.19
274.249	170.19
274.481	163.19
274.713	157.19
274.945	179.19
275.176	165.19
275.408	162.19
275.64	144.19
275.872	159.19
276.104	166.19
276.335	169.19
276.567	182.19
276.799	187.19
277.031	188.19
277.262	206.19
277.494	189.19
277.726	178.19
277.957	183.19
278.189	168.19
278.421	170.19
278.652	160.19
278.884	153.19
279.115	159.19
279.347	155.19
279.579	158.19
279.81	152.19
280.042	169.19
280.273	175.19
280.505	174.19
280.736	159.19
280.968	170.19
281.199	170.19
281.431	160.19
281.662	172.19
281.894	164.19
282.125	158.19
282.356	175.19
282.588	202.19
282.819	178.19
283.051	160.19
283.282	168.19
283.513	170.19
283.745	167.19
283.976	183.19
284.207	153.19
284.439	175.19
284.67	171.19
284.901	180.19
285.132	154.19
285.364	166.19
285.595	174.19
285.826	157.19
286.057	158.19
286.288	175.19
286.52	169.19
286.751	174.19
286.982	181.19
287.213	163.19
287.444	170.19
287.675	188.19
287.906	167.19
288.138	178.19
288.369	183.19
288.6	189.19
288.831	176.19
289.062	175.19
289.293	169.19
289.524	177.19
289.755	185.19
289.986	182.19
290.217	182.19
290.448	174.19
290.679	174.19
290.91	173.19
291.141	170.19
291.371	177.19
291.602	183.19
291.833	171.19
292.064	180.19
292.295	166.19
292.526	171.19
292.757	170.19
292.987	179.19
293.218	165.19
293.449	165.19
293.68	171.19
293.91	166.19
294.141	165.19
294.372	174.19
294.603	166.19
294.833	184.19
295.064	166.19
295.295	167.19
295.525	185.19
295.756	186.19
295.987	187.19
296.217	205.19
296.448	195.19
296.679	181.19
296.909	177.19
297.14	176.19
297.37	165.19
297.601	148.19
297.831	180.19
298.062	177.19
298.292	179.19
298.523	187.19
298.753	186.19
298.984	187.19
299.214	183.19
299.445	172.19
299.675	181.19
299.905	191.19
300.136	174.19
300.366	182.19
300.597	181.19
300.827	180.19
301.057	185.19
301.288	199.19
301.518	189.19
301.748	176.19
301.979	199.19
302.209	182.19
302.439	190.19
302.669	201.19
302.9	188.19
303.13	191.19
303.36	196.19
303.59	188.19
303.82	197.19
304.051	199.19
304.281	197.19
304.511	207.19
304.741	192.19
304.971	180.19
305.201	181.19
305.431	201.19
305.661	194.19
305.891	189.19
306.121	200.19
306.352	197.19
306.582	195.19
306.812	200.19
307.042	194.19
307.272	196.19
307.502	194.19
307.731	196.19
307.961	197.19
308.191	201.19
308.421	205.19
308.651	192.19
308.881	200.19
309.111	215.19
309.341	197.19
309.571	216.19
309.8	201.19
310.03	216.19
310.26	227.19
310.49	215.19
310.72	215.19
310.949	249.19
311.179	237.19
311.409	204.19
311.639	208.19
311.868	216.19
312.098	203.19
312.328	208.19
312.557	241.19
312.787	230.19
313.017	239.19
313.246	225.19
313.476	214.19
313.706	220.19
313.935	209.19
314.165	241.19
314.394	226.19
314.624	226.19
314.853	236.19
315.083	220.19
315.312	206.19
315.542	214.19
315.771	215.19
316.001	206.19
316.23	216.19
316.46	212.19
316.689	209.19
316.919	222.19
317.148	213.19
317.377	212.19
317.607	230.19
317.836	215.19
318.065	197.19
318.295	211.19
318.524	215.19
318.753	215.19
318.983	211.19
319.212	238.19
319.441	232.19
319.67	217.19
319.9	221.19
320.129	210.19
320.358	224.19
320.587	217.19
320.816	218.19
321.046	237.19
321.275	242.19
321.504	219.19
321.733	228.19
321.962	236.19
322.191	225.19
322.42	232.19
322.649	255.19
322.878	251.19
323.108	265.19
323.337	286.19
323.566	293.19
323.795	297.19
324.024	327.19
324.253	392.19
324.482	556.19
324.71	870.19
324.939	1127.19
325.168	926.19
325.397	467.19
325.626	331.19
325.855	285.19
326.084	277.19
326.313	265.19
326.542	271.19
326.77	302.19
326.999	364.19
327.228	481.19
327.457	734.19
327.686	835.19
327.914	585.19
328.143	363.19
328.372	333.19
328.6	309.19
328.829	314.19
329.058	310.19
329.287	335.19
329.515	313.19
329.744	291.19
329.972	273.19
330.201	318.19
330.43	353.19
330.658	356.19
330.887	361.19
331.115	357.19
331.344	293.19
331.572	276.19
331.801	267.19
332.03	261.19
332.258	247.19
332.486	258.19
332.715	236.19
332.943	228.19
333.172	257.19
333.4	230.19
333.629	268.19
333.857	264.19
334.085	270.19
334.314	299.19
334.542	328.19
334.771	323.19
334.999	299.19
335.227	262.19
335.455	243.19
335.684	242.19
335.912	241.19
336.14	238.19
336.369	232.19
336.597	250.19
336.825	235.19
337.053	263.19
337.281	247.19
337.51	237.19
337.738	244.19
337.966	255.19
338.194	233.19
338.422	263.19
338.65	246.19
338.878	226.19
339.106	231.19
339.334	239.19
339.562	235.19
339.79	235.19
340.018	244.19
340.246	236.19
340.474	231.19
340.702	220.19
340.93	236.19
341.158	243.19
341.386	262.19
341.614	236.19
341.842	235.19
342.07	231.19
342.298	218.19
342.526	239.19
342.754	247.19
342.981	222.19
343.209	214.19
343.437	227.19
343.665	247.19
343.893	227.19
344.12	244.19
344.348	227.19
344.576	245.19
344.804	251.19
345.031	255.19
345.259	245.19
345.487	240.19
345.714	236.19
345.942	221.19
346.17	236.19
346.397	224.19
346.625	263.19
346.853	223.19
347.08	211.19
347.308	209.19
347.535	234.19
347.763	261.19
347.99	235.19
348.218	235.19
348.445	241.19
348.673	241.19
348.9	231.19
349.128	229.19
349.355	220.19
349.583	226.19
349.81	212.19
350.037	218.19
350.265	215.19
350.492	216.19
350.72	226.19
350.947	239.19
351.174	245.19
351.402	234.19
351.629	231.19
351.856	243.19
352.083	246.19
352.311	243.19
352.538	238.19
352.765	238.19
352.992	246.19
353.22	243.19
353.447	234.19
353.674	235.19
353.901	221.19
354.128	215.19
354.355	208.19
354.583	213.19
354.81	217.19
355.037	204.19
355.264	226.19
355.491	201.19
355.718	200.19
355.945	205.19
356.172	215.19
356.399	197.19
356.626	196.19
356.853	207.19
357.08	215.19
357.307	211.19
357.534	218.19
357.761	207.19
357.988	205.19
358.215	217.19
358.441	210.19
358.668	205.19
358.895	210.19
359.122	228.19
359.349	213.19
359.576	223.19
359.802	238.19
360.029	261.19
360.256	271.19
360.483	241.19
360.709	223.19
360.936	227.19
361.163	227.19
361.39	241.19
361.616	215.19
361.843	210.19
362.07	234.19
362.296	237.19
362.523	233.19
362.749	220.19
362.976	224.19
363.203	220.19
363.429	202.19
363.656	209.19
363.882	225.19
364.109	231.19
364.335	215.19
364.562	219.19
364.788	217.19
365.015	210.19
365.241	215.19
365.468	219.19
365.694	214.19
365.92	220.19
366.147	213.19
366.373	208.19
366.599	204.19
366.826	216.19
367.052	216.19
367.278	217.19
367.505	214.19
367.731	214.19
367.957	212.19
368.184	217.19
368.41	227.19
368.636	219.19
368.862	234.19
369.089	226.19
369.315	222.19
369.541	229.19
369.767	220.19
369.993	209.19
370.219	223.19
370.445	211.19
370.672	205.19
370.898	194.19
371.124	202.19
371.35	222.19
371.576	211.19
371.802	223.19
372.028	203.19
372.254	227.19
372.48	205.19
372.706	201.19
372.932	228.19
373.158	217.19
373.384	200.19
373.61	213.19
373.835	225.19
374.061	218.19
374.287	229.19
374.513	215.19
374.739	212.19
374.965	216.19
375.191	211.19
375.416	210.19
375.642	204.19
375.868	195.19
376.094	206.19
376.319	232.19
376.545	216.19
376.771	227.19
376.997	210.19
377.222	193.19
377.448	230.19
377.674	207.19
377.899	199.19
378.125	212.19
378.35	203.19
378.576	191.19
378.802	201.19
379.027	214.19
379.253	211.19
379.478	197.19
379.704	211.19
379.929	212.19
380.155	207.19
380.38	203.19
380.606	210.19
380.831	194.19
381.057	227.19
381.282	210.19
381.507	207.19
381.733	214.19
381.958	225.19
382.184	212.19
382.409	215.19
382.634	214.19
382.86	201.19
383.085	197.19
383.31	197.19
383.535	223.19
383.761	220.19
383.986	224.19
384.211	215.19
384.436	219.19
384.662	213.19
384.887	230.19
385.112	250.19
385.337	230.19
385.562	220.19
385.787	214.19
386.013	254.19
386.238	225.19
386.463	208.19
386.688	217.19
386.913	212.19
387.138	221.19
387.363	216.19
387.588	227.19
387.813	219.19
388.038	213.19
388.263	228.19
388.488	227.19
388.713	229.19
388.938	226.19
389.163	241.19
389.387	232.19
389.612	221.19
389.837	222.19
390.062	222.19
390.287	217.19
390.512	239.19
390.736	207.19
390.961	218.19
391.186	214.19
391.411	225.19
391.636	227.19
391.86	231.19
392.085	245.19
392.31	234.19
392.534	234.19
392.759	239.19
392.984	228.19
393.208	231.19
393.433	234.19
393.658	241.19
393.882	239.19
394.107	234.19
394.331	211.19
394.556	220.19
394.78	228.19
395.005	226.19
395.229	225.19
395.454	237.19
395.678	222.19
395.903	233.19
396.127	260.19
396.352	265.19
396.576	243.19
396.801	231.19
397.025	239.19
397.249	241.19
397.474	235.19
397.698	245.19
397.922	246.19
398.147	266.19
398.371	237.19
398.595	246.19
398.82	245.19
399.044	264.19
399.268	271.19
399.492	273.19
399.717	296.19
399.941	290.19
400.165	305.19
400.389	305.19
400.613	296.19
400.837	274.19
401.062	256.19
401.286	254.19
401.51	258.19
401.734	246.19
401.958	241.19
402.182	260.19
402.406	275.19
402.63	283.19
402.854	266.19
403.078	269.19
403.302	261.19
403.526	270.19
403.75	269.19
403.974	274.19
404.198	253.19
404.422	252.19
404.645	270.19
404.869	274.19
405.093	287.19
405.317	297.19
405.541	310.19
405.765	299.19
405.988	282.19
406.212	294.19
406.436	313.19
406.66	315.19
406.883	311.19
407.107	302.19
407.331	329.19
407.555	345.19
407.778	314.19
408.002	298.19
408.226	283.19
408.449	268.19
408.673	275.19
408.896	304.19
409.12	326.19
409.344	289.19
409.567	277.19
409.791	281.19
410.014	261.19
410.238	254.19
410.461	266.19
410.685	266.19
410.908	268.19
411.132	285.19
411.355	284.19
411.578	288.19
411.802	265.19
412.025	272.19
412.249	265.19
412.472	278.19
412.695	300.19
412.919	296.19
413.142	269.19
413.365	275.19
413.589	279.19
413.812	251.19
414.035	248.19
414.258	262.19
414.482	234.19
414.705	253.19
414.928	253.19
415.151	242.19
415.374	255.19
415.597	259.19
415.821	234.19
416.044	255.19
416.267	263.19
416.49	261.19
416.713	245.19
416.936	259.19
417.159	239.19
417.382	262.19
417.605	274.19
417.828	259.19
418.051	284.19
418.274	269.19
418.497	257.19
418.72	262.19
418.943	269.19
419.166	269.19
419.389	291.19
419.611	262.19
419.834	272.19
420.057	283.19
420.28	261.19
420.503	285.19
420.726	247.19
420.948	259.19
421.171	296.19
421.394	298.19
421.617	278.19
421.839	250.19
422.062	278.19
422.285	279.19
422.507	292.19
422.73	332.19
422.953	329.19
423.175	282.19
423.398	263.19
423.621	280.19
423.843	281.19
424.066	320.19
424.288	290.19
424.511	292.19
424.733	316.19
424.956	339.19
425.178	337.19
425.401	318.19
425.623	335.19
425.846	303.19
426.068	289.19
426.291	287.19
426.513	277.19
426.735	292.19
426.958	286.19
427.18	337.19
427.402	377.19
427.625	429.19
427.847	385.19
428.069	335.19
428.292	283.19
428.514	291.19
428.736	265.19
428.958	257.19
429.181	266.19
429.403	277.19
429.625	267.19
429.847	297.19
430.069	326.19
430.292	303.19
430.514	283.19
430.736	260.19
430.958	264.19
431.18	255.19
431.402	247.19
431.624	244.19
431.846	231.19
432.068	261.19
432.29	240.19
432.512	249.19
432.734	258.19
432.956	266.19
433.178	264.19
433.4	263.19
433.622	244.19
433.844	259.19
434.066	241.19
434.287	235.19
434.509	272.19
434.731	269.19
434.953	257.19
435.175	284.19
435.397	291.19
435.618	275.19
435.84	317.19
436.062	339.19
436.284	350.19
436.505	315.19
436.727	293.19
436.949	261.19
437.17	282.19
437.392	268.19
437.614	276.19
437.835	299.19
438.057	340.19
438.278	369.19
438.5	371.19
438.721	393.19
438.943	353.19
439.165	289.19
439.386	278.19
439.608	292.19
439.829	291.19
440.05	303.19
440.272	327.19
440.493	300.19
440.715	279.19
440.936	266.19
441.158	276.19
441.379	268.19
441.6	273.19
441.822	281.19
442.043	288.19
442.264	350.19
442.486	361.19
442.707	295.19
442.928	289.19
443.149	294.19
443.371	299.19
443.592	328.19
443.813	365.19
444.034	379.19
444.255	323.19
444.476	282.19
444.698	281.19
444.919	296.19
445.14	409.19
445.361	342.19
445.582	320.19
445.803	339.19
446.024	383.19
446.245	380.19
446.466	351.19
446.687	305.19
446.908	267.19
447.129	268.19
447.35	270.19
447.571	254.19
447.792	259.19
448.013	265.19
448.234	292.19
448.455	301.19
448.675	365.19
448.896	398.19
449.117	325.19
449.338	325.19
449.559	379.19
449.779	401.19
450	352.19
450.221	262.19
450.442	258.19
450.662	261.19
450.883	269.19
451.104	273.19
451.324	283.19
451.545	244.19
451.766	250.19
451.986	236.19
452.207	227.19
452.428	231.19
452.648	251.19
452.869	239.19
453.089	263.19
453.31	262.19
453.53	252.19
453.751	247.19
453.971	242.19
454.192	247.19
454.412	248.19
454.633	232.19
454.853	242.19
455.073	250.19
455.294	245.19
455.514	284.19
455.734	264.19
455.955	252.19
456.175	235.19
456.395	214.19
456.616	206.19
456.836	210.19
457.056	221.19
457.276	234.19
457.497	234.19
457.717	236.19
457.937	211.19
458.157	222.19
458.377	223.19
458.598	226.19
458.818	291.19
459.038	338.19
459.258	354.19
459.478	291.19
459.698	242.19
459.918	246.19
460.138	254.19
460.358	259.19
460.578	237.19
460.798	255.19
461.018	265.19
461.238	263.19
461.458	248.19
461.678	265.19
461.898	264.19
462.118	255.19
462.338	270.19
462.558	264.19
462.777	257.19
462.997	273.19
463.217	269.19
463.437	263.19
463.657	257.19
463.876	278.19
464.096	278.19
464.316	252.19
464.536	275.19
464.755	260.19
464.975	293.19
465.195	323.19
465.414	330.19
465.634	307.19
465.854	276.19
466.073	246.19
466.293	236.19
466.512	246.19
466.732	233.19
466.951	251.19
467.171	253.19
467.391	245.19
467.61	261.19
467.829	266.19
468.049	250.19
468.268	264.19
468.488	261.19
468.707	254.19
468.927	247.19
469.146	218.19
469.365	232.19
469.585	245.19
469.804	249.19
470.023	271.19
470.243	257.19
470.462	252.19
470.681	279.19
470.901	270.19
471.12	252.19
471.339	255.19
471.558	266.19
471.777	255.19
471.997	230.19
472.216	253.19
472.435	296.19
472.654	275.19
472.873	255.19
473.092	265.19
473.311	232.19
473.53	249.19
473.749	247.19
473.968	274.19
474.187	315.19
474.406	326.19
474.625	267.19
474.844	263.19
475.063	260.19
475.282	248.19
475.501	254.19
475.72	251.19
475.939	238.19
476.158	245.19
476.377	262.19
476.596	250.19
476.814	247.19
477.033	279.19
477.252	275.19
477.471	266.19
477.69	269.19
477.908	284.19
478.127	265.19
478.346	264.19
478.564	253.19
478.783	284.19
479.002	267.19
479.22	289.19
479.439	294.19
479.658	305.19
479.876	300.19
480.095	287.19
480.313	324.19
480.532	298.19
480.751	294.19
480.969	293.19
481.188	370.19
481.406	401.19
481.624	325.19
481.843	313.19
482.061	286.19
482.28	289.19
482.498	294.19
482.717	284.19
482.935	282.19
483.153	277.19
483.372	295.19
483.59	280.19
483.808	286.19
484.027	279.19
484.245	278.19
484.463	286.19
484.681	278.19
484.9	285.19
485.118	286.19
485.336	300.19
485.554	298.19
485.772	275.19
485.99	299.19
486.209	287.19
486.427	315.19
486.645	325.19
486.863	306.19
487.081	315.19
487.299	302.19
487.517	294.19
487.735	306.19
487.953	307.19
488.171	286.19
488.389	310.19
488.607	315.19
488.825	331.19
489.043	297.19
489.261	302.19
489.479	328.19
489.696	307.19
489.914	312.19
490.132	335.19
490.35	315.19
490.568	342.19
490.786	317.19
491.003	326.19
491.221	341.19
491.439	357.19
491.657	370.19
491.874	372.19
492.092	358.19
492.31	380.19
492.527	364.19
492.745	349.19
492.963	334.19
493.18	361.19
493.398	383.19
493.615	360.19
493.833	353.19
494.05	364.19
494.268	360.19
494.485	383.19
494.703	348.19
494.92	361.19
495.138	364.19
495.355	356.19
495.573	360.19
495.79	358.19
496.008	352.19
496.225	352.19
496.442	371.19
496.66	374.19
496.877	338.19
497.094	377.19
497.312	372.19
497.529	360.19
497.746	361.19
497.963	375.19
498.181	374.19
498.398	378.19
498.615	378.19
498.832	375.19
499.049	386.19
499.267	391.19
499.484	416.19
499.701	405.19
499.918	419.19
500.135	436.19
500.352	465.19
500.569	466.19
500.786	463.19
501.003	477.19
501.22	469.19
501.437	452.19
501.654	434.19
501.871	430.19
502.088	428.19
502.305	407.19
502.522	389.19
