Data from 1966.PennyLincolnUp.Lamp.En5.5.200Scan.071719.P1._HRD10591_14-15-09-927.txt Node
Date: Thu Jul 18 14:15:09 EDT 2019
User: cochatt
Spectrometer: HR+D1059
Trigger mode: 1
Integration Time (sec): 1.000000E-1
Scans to average: 1
Electric dark correction enabled: true
Nonlinearity correction enabled: false
Boxcar width: 0
XAxis mode: Wavelengths
Number of Pixels in Spectrum: 2048
>>>>>Begin Spectral Data<<<<<
223.165	-15.19
223.4	-15.19
223.635	-15.19
223.869	-17.19
224.104	-33.19
224.338	-8.19
224.573	-13.19
224.808	-8.19
225.042	-10.19
225.277	-12.19
225.511	0.81
225.746	5.81
225.98	-5.19
226.215	12.81
226.449	12.81
226.683	24.81
226.918	26.81
227.152	38.81
227.387	29.81
227.621	31.81
227.856	41.81
228.09	34.81
228.324	37.81
228.559	56.81
228.793	47.81
229.027	74.81
229.262	71.81
229.496	84.81
229.73	100.81
229.964	117.81
230.199	99.81
230.433	87.81
230.667	92.81
230.901	95.81
231.136	89.81
231.37	95.81
231.604	102.81
231.838	88.81
232.072	83.81
232.306	79.81
232.541	105.81
232.775	89.81
233.009	93.81
233.243	90.81
233.477	85.81
233.711	84.81
233.945	96.81
234.179	96.81
234.413	89.81
234.647	91.81
234.881	91.81
235.115	102.81
235.349	100.81
235.583	99.81
235.817	85.81
236.051	91.81
236.285	91.81
236.519	98.81
236.753	110.81
236.987	110.81
237.221	129.81
237.455	140.81
237.689	126.81
237.922	105.81
238.156	116.81
238.39	95.81
238.624	93.81
238.858	104.81
239.091	95.81
239.325	78.81
239.559	82.81
239.793	86.81
240.027	99.81
240.26	105.81
240.494	117.81
240.728	110.81
240.961	112.81
241.195	106.81
241.429	99.81
241.662	82.81
241.896	86.81
242.13	97.81
242.363	99.81
242.597	103.81
242.83	112.81
243.064	96.81
243.298	99.81
243.531	89.81
243.765	104.81
243.998	93.81
244.232	91.81
244.465	85.81
244.699	98.81
244.932	93.81
245.166	104.81
245.399	105.81
245.633	107.81
245.866	80.81
246.099	98.81
246.333	103.81
246.566	114.81
246.8	111.81
247.033	95.81
247.266	117.81
247.5	115.81
247.733	120.81
247.966	130.81
248.2	112.81
248.433	113.81
248.666	124.81
248.899	125.81
249.133	140.81
249.366	141.81
249.599	145.81
249.832	124.81
250.066	123.81
250.299	119.81
250.532	128.81
250.765	141.81
250.998	157.81
251.231	142.81
251.465	127.81
251.698	127.81
251.931	136.81
252.164	128.81
252.397	121.81
252.63	122.81
252.863	129.81
253.096	143.81
253.329	149.81
253.562	125.81
253.795	137.81
254.028	127.81
254.261	145.81
254.494	142.81
254.727	162.81
254.96	185.81
255.193	171.81
255.426	151.81
255.659	153.81
255.892	133.81
256.124	138.81
256.357	162.81
256.59	132.81
256.823	151.81
257.056	133.81
257.289	124.81
257.521	128.81
257.754	131.81
257.987	127.81
258.22	131.81
258.452	133.81
258.685	137.81
258.918	142.81
259.151	125.81
259.383	144.81
259.616	125.81
259.849	143.81
260.081	150.81
260.314	150.81
260.547	147.81
260.779	154.81
261.012	147.81
261.244	135.81
261.477	138.81
261.71	136.81
261.942	144.81
262.175	148.81
262.407	137.81
262.64	137.81
262.872	124.81
263.105	120.81
263.337	149.81
263.57	129.81
263.802	135.81
264.035	129.81
264.267	134.81
264.499	137.81
264.732	142.81
264.964	139.81
265.197	134.81
265.429	153.81
265.661	142.81
265.894	137.81
266.126	134.81
266.358	125.81
266.591	121.81
266.823	155.81
267.055	155.81
267.287	144.81
267.52	141.81
267.752	136.81
267.984	136.81
268.216	155.81
268.448	157.81
268.681	145.81
268.913	154.81
269.145	154.81
269.377	170.81
269.609	161.81
269.841	181.81
270.073	170.81
270.306	189.81
270.538	169.81
270.77	175.81
271.002	185.81
271.234	154.81
271.466	168.81
271.698	193.81
271.93	187.81
272.162	192.81
272.394	187.81
272.626	151.81
272.858	174.81
273.09	157.81
273.322	160.81
273.553	145.81
273.785	163.81
274.017	157.81
274.249	156.81
274.481	155.81
274.713	157.81
274.945	161.81
275.176	158.81
275.408	153.81
275.64	163.81
275.872	171.81
276.104	175.81
276.335	151.81
276.567	164.81
276.799	169.81
277.031	194.81
277.262	203.81
277.494	190.81
277.726	165.81
277.957	169.81
278.189	175.81
278.421	179.81
278.652	174.81
278.884	163.81
279.115	162.81
279.347	151.81
279.579	157.81
279.81	169.81
280.042	177.81
280.273	166.81
280.505	165.81
280.736	159.81
280.968	167.81
281.199	167.81
281.431	161.81
281.662	153.81
281.894	166.81
282.125	166.81
282.356	172.81
282.588	191.81
282.819	185.81
283.051	176.81
283.282	173.81
283.513	165.81
283.745	168.81
283.976	165.81
284.207	170.81
284.439	177.81
284.67	168.81
284.901	174.81
285.132	163.81
285.364	170.81
285.595	171.81
285.826	155.81
286.057	156.81
286.288	165.81
286.52	170.81
286.751	159.81
286.982	170.81
287.213	150.81
287.444	173.81
287.675	182.81
287.906	173.81
288.138	174.81
288.369	181.81
288.6	170.81
288.831	162.81
289.062	165.81
289.293	185.81
289.524	165.81
289.755	181.81
289.986	172.81
290.217	170.81
290.448	178.81
290.679	165.81
290.91	175.81
291.141	178.81
291.371	166.81
291.602	174.81
291.833	171.81
292.064	162.81
292.295	151.81
292.526	190.81
292.757	170.81
292.987	175.81
293.218	179.81
293.449	189.81
293.68	152.81
293.91	174.81
294.141	183.81
294.372	167.81
294.603	168.81
294.833	169.81
295.064	175.81
295.295	177.81
295.525	166.81
295.756	177.81
295.987	193.81
296.217	185.81
296.448	205.81
296.679	183.81
296.909	181.81
297.14	177.81
297.37	175.81
297.601	185.81
297.831	179.81
298.062	176.81
298.292	183.81
298.523	192.81
298.753	175.81
298.984	197.81
299.214	180.81
299.445	191.81
299.675	187.81
299.905	201.81
300.136	177.81
300.366	162.81
300.597	177.81
300.827	180.81
301.057	189.81
301.288	202.81
301.518	175.81
301.748	191.81
301.979	191.81
302.209	195.81
302.439	183.81
302.669	193.81
302.9	182.81
303.13	189.81
303.36	185.81
303.59	181.81
303.82	201.81
304.051	185.81
304.281	186.81
304.511	186.81
304.741	189.81
304.971	169.81
305.201	181.81
305.431	189.81
305.661	195.81
305.891	185.81
306.121	207.81
306.352	189.81
306.582	189.81
306.812	168.81
307.042	191.81
307.272	183.81
307.502	194.81
307.731	206.81
307.961	187.81
308.191	193.81
308.421	196.81
308.651	201.81
308.881	190.81
309.111	227.81
309.341	200.81
309.571	207.81
309.8	210.81
310.03	224.81
310.26	214.81
310.49	217.81
310.72	227.81
310.949	240.81
311.179	231.81
311.409	212.81
311.639	209.81
311.868	227.81
312.098	204.81
312.328	218.81
312.557	232.81
312.787	251.81
313.017	235.81
313.246	210.81
313.476	202.81
313.706	216.81
313.935	208.81
314.165	223.81
314.394	223.81
314.624	215.81
314.853	232.81
315.083	212.81
315.312	204.81
315.542	207.81
315.771	209.81
316.001	197.81
316.23	201.81
316.46	204.81
316.689	203.81
316.919	223.81
317.148	226.81
317.377	195.81
317.607	184.81
317.836	221.81
318.065	213.81
318.295	211.81
318.524	201.81
318.753	208.81
318.983	200.81
319.212	218.81
319.441	217.81
319.67	241.81
319.9	201.81
320.129	202.81
320.358	184.81
320.587	211.81
320.816	203.81
321.046	226.81
321.275	219.81
321.504	221.81
321.733	209.81
321.962	228.81
322.191	232.81
322.42	243.81
322.649	240.81
322.878	250.81
323.108	254.81
323.337	259.81
323.566	273.81
323.795	285.81
324.024	307.81
324.253	391.81
324.482	567.81
324.71	870.81
324.939	1105.81
325.168	891.81
325.397	470.81
325.626	321.81
325.855	275.81
326.084	277.81
326.313	251.81
326.542	283.81
326.77	288.81
326.999	346.81
327.228	486.81
327.457	728.81
327.686	808.81
327.914	552.81
328.143	371.81
328.372	339.81
328.6	331.81
328.829	307.81
329.058	317.81
329.287	321.81
329.515	303.81
329.744	296.81
329.972	285.81
330.201	310.81
330.43	322.81
330.658	342.81
330.887	368.81
331.115	343.81
331.344	283.81
331.572	273.81
331.801	285.81
332.03	265.81
332.258	251.81
332.486	241.81
332.715	240.81
332.943	239.81
333.172	231.81
333.4	244.81
333.629	251.81
333.857	272.81
334.085	292.81
334.314	273.81
334.542	305.81
334.771	321.81
334.999	301.81
335.227	272.81
335.455	285.81
335.684	244.81
335.912	241.81
336.14	241.81
336.369	243.81
336.597	254.81
336.825	254.81
337.053	246.81
337.281	250.81
337.51	233.81
337.738	241.81
337.966	247.81
338.194	250.81
338.422	239.81
338.65	232.81
338.878	227.81
339.106	231.81
339.334	240.81
339.562	225.81
339.79	223.81
340.018	213.81
340.246	241.81
340.474	245.81
340.702	227.81
340.93	221.81
341.158	227.81
341.386	229.81
341.614	217.81
341.842	224.81
342.07	233.81
342.298	235.81
342.526	230.81
342.754	218.81
342.981	222.81
343.209	215.81
343.437	232.81
343.665	236.81
343.893	230.81
344.12	235.81
344.348	217.81
344.576	223.81
344.804	206.81
345.031	256.81
345.259	234.81
345.487	257.81
345.714	235.81
345.942	223.81
346.17	226.81
346.397	224.81
346.625	215.81
346.853	223.81
347.08	223.81
347.308	231.81
347.535	226.81
347.763	249.81
347.99	253.81
348.218	241.81
348.445	227.81
348.673	230.81
348.9	235.81
349.128	217.81
349.355	221.81
349.583	232.81
349.81	228.81
350.037	216.81
350.265	187.81
350.492	227.81
350.72	210.81
350.947	228.81
351.174	233.81
351.402	234.81
351.629	229.81
351.856	223.81
352.083	235.81
352.311	246.81
352.538	228.81
352.765	242.81
352.992	224.81
353.22	220.81
353.447	222.81
353.674	218.81
353.901	213.81
354.128	212.81
354.355	213.81
354.583	215.81
354.81	202.81
355.037	218.81
355.264	205.81
355.491	196.81
355.718	203.81
355.945	196.81
356.172	209.81
356.399	209.81
356.626	209.81
356.853	221.81
357.08	200.81
357.307	190.81
357.534	193.81
357.761	209.81
357.988	204.81
358.215	209.81
358.441	213.81
358.668	208.81
358.895	200.81
359.122	204.81
359.349	213.81
359.576	227.81
359.802	241.81
360.029	253.81
360.256	250.81
360.483	233.81
360.709	225.81
360.936	238.81
361.163	225.81
361.39	217.81
361.616	226.81
361.843	213.81
362.07	225.81
362.296	246.81
362.523	219.81
362.749	207.81
362.976	217.81
363.203	226.81
363.429	217.81
363.656	219.81
363.882	224.81
364.109	213.81
364.335	227.81
364.562	207.81
364.788	214.81
365.015	229.81
365.241	224.81
365.468	211.81
365.694	225.81
365.92	237.81
366.147	218.81
366.373	216.81
366.599	206.81
366.826	214.81
367.052	223.81
367.278	209.81
367.505	211.81
367.731	224.81
367.957	203.81
368.184	210.81
368.41	206.81
368.636	228.81
368.862	226.81
369.089	238.81
369.315	216.81
369.541	201.81
369.767	208.81
369.993	219.81
370.219	207.81
370.445	214.81
370.672	227.81
370.898	220.81
371.124	216.81
371.35	191.81
371.576	222.81
371.802	212.81
372.028	211.81
372.254	223.81
372.48	206.81
372.706	217.81
372.932	197.81
373.158	214.81
373.384	212.81
373.61	203.81
373.835	204.81
374.061	213.81
374.287	225.81
374.513	205.81
374.739	207.81
374.965	198.81
375.191	199.81
375.416	212.81
375.642	203.81
375.868	217.81
376.094	187.81
376.319	207.81
376.545	202.81
376.771	200.81
376.997	211.81
377.222	210.81
377.448	196.81
377.674	206.81
377.899	219.81
378.125	210.81
378.35	208.81
378.576	194.81
378.802	204.81
379.027	215.81
379.253	208.81
379.478	217.81
379.704	200.81
379.929	220.81
380.155	221.81
380.38	200.81
380.606	215.81
380.831	206.81
381.057	224.81
381.282	212.81
381.507	210.81
381.733	212.81
381.958	222.81
382.184	221.81
382.409	219.81
382.634	223.81
382.86	210.81
383.085	225.81
383.31	215.81
383.535	205.81
383.761	217.81
383.986	213.81
384.211	221.81
384.436	225.81
384.662	240.81
384.887	218.81
385.112	236.81
385.337	203.81
385.562	208.81
385.787	226.81
386.013	228.81
386.238	231.81
386.463	226.81
386.688	216.81
386.913	229.81
387.138	214.81
387.363	248.81
387.588	237.81
387.813	226.81
388.038	206.81
388.263	217.81
388.488	212.81
388.713	234.81
388.938	216.81
389.163	221.81
389.387	220.81
389.612	214.81
389.837	243.81
390.062	227.81
390.287	218.81
390.512	218.81
390.736	214.81
390.961	224.81
391.186	244.81
391.411	234.81
391.636	218.81
391.86	234.81
392.085	214.81
392.31	241.81
392.534	229.81
392.759	230.81
392.984	222.81
393.208	224.81
393.433	230.81
393.658	235.81
393.882	232.81
394.107	205.81
394.331	211.81
394.556	223.81
394.78	228.81
395.005	235.81
395.229	210.81
395.454	224.81
395.678	232.81
395.903	228.81
396.127	243.81
396.352	229.81
396.576	259.81
396.801	240.81
397.025	240.81
397.249	238.81
397.474	261.81
397.698	257.81
397.922	263.81
398.147	241.81
398.371	268.81
398.595	242.81
398.82	234.81
399.044	249.81
399.268	263.81
399.492	263.81
399.717	306.81
399.941	299.81
400.165	297.81
400.389	308.81
400.613	277.81
400.837	262.81
401.062	251.81
401.286	255.81
401.51	247.81
401.734	258.81
401.958	232.81
402.182	255.81
402.406	266.81
402.63	285.81
402.854	260.81
403.078	263.81
403.302	261.81
403.526	262.81
403.75	267.81
403.974	283.81
404.198	277.81
404.422	249.81
404.645	293.81
404.869	268.81
405.093	272.81
405.317	312.81
405.541	304.81
405.765	276.81
405.988	288.81
406.212	277.81
406.436	289.81
406.66	330.81
406.883	295.81
407.107	303.81
407.331	323.81
407.555	345.81
407.778	325.81
408.002	293.81
408.226	278.81
408.449	278.81
408.673	293.81
408.896	302.81
409.12	292.81
409.344	307.81
409.567	268.81
409.791	248.81
410.014	271.81
410.238	267.81
410.461	283.81
410.685	264.81
410.908	286.81
411.132	283.81
411.355	303.81
411.578	290.81
411.802	274.81
412.025	277.81
412.249	275.81
412.472	290.81
412.695	284.81
412.919	278.81
413.142	271.81
413.365	270.81
413.589	244.81
413.812	261.81
414.035	242.81
414.258	251.81
414.482	235.81
414.705	245.81
414.928	250.81
415.151	259.81
415.374	245.81
415.597	254.81
415.821	255.81
416.044	258.81
416.267	260.81
416.49	256.81
416.713	265.81
416.936	259.81
417.159	253.81
417.382	264.81
417.605	285.81
417.828	275.81
418.051	258.81
418.274	262.81
418.497	253.81
418.72	237.81
418.943	235.81
419.166	265.81
419.389	287.81
419.611	278.81
419.834	270.81
420.057	279.81
420.28	271.81
420.503	273.81
420.726	263.81
420.948	263.81
421.171	309.81
421.394	318.81
421.617	305.81
421.839	257.81
422.062	240.81
422.285	282.81
422.507	304.81
422.73	327.81
422.953	342.81
423.175	258.81
423.398	271.81
423.621	275.81
423.843	290.81
424.066	287.81
424.288	282.81
424.511	284.81
424.733	301.81
424.956	356.81
425.178	333.81
425.401	316.81
425.623	339.81
425.846	293.81
426.068	284.81
426.291	289.81
426.513	279.81
426.735	285.81
426.958	305.81
427.18	335.81
427.402	394.81
427.625	440.81
427.847	401.81
428.069	343.81
428.292	307.81
428.514	301.81
428.736	274.81
428.958	260.81
429.181	267.81
429.403	270.81
429.625	259.81
429.847	285.81
430.069	317.81
430.292	307.81
430.514	274.81
430.736	266.81
430.958	260.81
431.18	235.81
431.402	259.81
431.624	254.81
431.846	243.81
432.068	250.81
432.29	245.81
432.512	254.81
432.734	260.81
432.956	286.81
433.178	261.81
433.4	261.81
433.622	262.81
433.844	233.81
434.066	249.81
434.287	253.81
434.509	261.81
434.731	257.81
434.953	263.81
435.175	285.81
435.397	287.81
435.618	284.81
435.84	287.81
436.062	341.81
436.284	367.81
436.505	301.81
436.727	265.81
436.949	289.81
437.17	270.81
437.392	269.81
437.614	276.81
437.835	287.81
438.057	337.81
438.278	354.81
438.5	366.81
438.721	378.81
438.943	363.81
439.165	305.81
439.386	277.81
439.608	289.81
439.829	289.81
440.05	309.81
440.272	318.81
440.493	323.81
440.715	277.81
440.936	269.81
441.158	264.81
441.379	257.81
441.6	270.81
441.822	297.81
442.043	297.81
442.264	344.81
442.486	351.81
442.707	305.81
442.928	321.81
443.149	293.81
443.371	323.81
443.592	326.81
443.813	375.81
444.034	402.81
444.255	337.81
444.476	305.81
444.698	286.81
444.919	282.81
445.14	362.81
445.361	332.81
445.582	301.81
445.803	346.81
446.024	402.81
446.245	383.81
446.466	322.81
446.687	309.81
446.908	285.81
447.129	264.81
447.35	266.81
447.571	247.81
447.792	255.81
448.013	267.81
448.234	262.81
448.455	295.81
448.675	354.81
448.896	392.81
449.117	323.81
449.338	313.81
449.559	377.81
449.779	402.81
450	331.81
450.221	291.81
450.442	245.81
450.662	258.81
450.883	253.81
451.104	280.81
451.324	282.81
451.545	251.81
451.766	286.81
451.986	223.81
452.207	222.81
452.428	233.81
452.648	255.81
452.869	233.81
453.089	253.81
453.31	262.81
453.53	258.81
453.751	243.81
453.971	242.81
454.192	262.81
454.412	247.81
454.633	242.81
454.853	224.81
455.073	233.81
455.294	246.81
455.514	281.81
455.734	289.81
455.955	221.81
456.175	210.81
456.395	225.81
456.616	221.81
456.836	219.81
457.056	224.81
457.276	212.81
457.497	217.81
457.717	217.81
457.937	207.81
458.157	220.81
458.377	226.81
458.598	249.81
458.818	285.81
459.038	343.81
459.258	338.81
459.478	277.81
459.698	246.81
459.918	264.81
460.138	241.81
460.358	259.81
460.578	256.81
460.798	269.81
461.018	277.81
461.238	255.81
461.458	244.81
461.678	249.81
461.898	253.81
462.118	253.81
462.338	246.81
462.558	259.81
462.777	269.81
462.997	261.81
463.217	252.81
463.437	279.81
463.657	271.81
463.876	257.81
464.096	269.81
464.316	260.81
464.536	273.81
464.755	283.81
464.975	259.81
465.195	334.81
465.414	385.81
465.634	303.81
465.854	269.81
466.073	255.81
466.293	251.81
466.512	241.81
466.732	245.81
466.951	243.81
467.171	234.81
467.391	240.81
467.61	253.81
467.829	264.81
468.049	261.81
468.268	271.81
468.488	246.81
468.707	225.81
468.927	251.81
469.146	241.81
469.365	232.81
469.585	243.81
469.804	263.81
470.023	254.81
470.243	258.81
470.462	246.81
470.681	292.81
470.901	257.81
471.12	229.81
471.339	261.81
471.558	258.81
471.777	251.81
471.997	245.81
472.216	274.81
472.435	318.81
472.654	280.81
472.873	239.81
473.092	237.81
473.311	237.81
473.53	249.81
473.749	242.81
473.968	283.81
474.187	343.81
474.406	341.81
474.625	251.81
474.844	230.81
475.063	255.81
475.282	237.81
475.501	255.81
475.72	243.81
475.939	225.81
476.158	261.81
476.377	248.81
476.596	240.81
476.814	244.81
477.033	271.81
477.252	265.81
477.471	232.81
477.69	269.81
477.908	253.81
478.127	256.81
478.346	262.81
478.564	280.81
478.783	273.81
479.002	264.81
479.22	274.81
479.439	283.81
479.658	293.81
479.876	301.81
480.095	286.81
480.313	309.81
480.532	317.81
480.751	294.81
480.969	315.81
481.188	381.81
481.406	418.81
481.624	311.81
481.843	287.81
482.061	296.81
482.28	287.81
482.498	263.81
482.717	281.81
482.935	281.81
483.153	281.81
483.372	285.81
483.59	256.81
483.808	271.81
484.027	311.81
484.245	273.81
484.463	266.81
484.681	289.81
484.9	311.81
485.118	292.81
485.336	301.81
485.554	285.81
485.772	276.81
485.99	296.81
486.209	296.81
486.427	301.81
486.645	311.81
486.863	321.81
487.081	313.81
487.299	323.81
487.517	311.81
487.735	311.81
487.953	314.81
488.171	286.81
488.389	292.81
488.607	314.81
488.825	303.81
489.043	286.81
489.261	298.81
489.479	302.81
489.696	291.81
489.914	299.81
490.132	318.81
490.35	328.81
490.568	313.81
490.786	323.81
491.003	341.81
491.221	341.81
491.439	338.81
491.657	345.81
491.874	352.81
492.092	353.81
492.31	372.81
492.527	360.81
492.745	348.81
492.963	366.81
493.18	354.81
493.398	378.81
493.615	377.81
493.833	384.81
494.05	380.81
494.268	370.81
494.485	365.81
494.703	375.81
494.92	373.81
495.138	362.81
495.355	387.81
495.573	363.81
495.79	356.81
496.008	368.81
496.225	363.81
496.442	373.81
496.66	353.81
496.877	351.81
497.094	369.81
497.312	365.81
497.529	371.81
497.746	370.81
497.963	369.81
498.181	373.81
498.398	390.81
498.615	366.81
498.832	395.81
499.049	396.81
499.267	407.81
499.484	409.81
499.701	403.81
499.918	429.81
500.135	470.81
500.352	462.81
500.569	478.81
500.786	487.81
501.003	475.81
501.22	449.81
501.437	458.81
501.654	439.81
501.871	432.81
502.088	426.81
502.305	389.81
502.522	390.81
502.739	383.81
