Data from 1966.PennyLincolnUp.Lamp.En5.5.200Scan.071719.P1.Scan2.head_HRD10591_14-18-27-188.txt Node
Date: Thu Jul 18 14:18:27 EDT 2019
User: cochatt
Spectrometer: HR+D1059
Trigger mode: 1
Integration Time (sec): 1.000000E-1
Scans to average: 1
Electric dark correction enabled: true
Nonlinearity correction enabled: false
Boxcar width: 0
XAxis mode: Wavelengths
Number of Pixels in Spectrum: 2048
>>>>>Begin Spectral Data<<<<<
223.165	6.31
223.4	6.31
223.635	6.31
223.869	1.31
224.104	-8.69
224.338	-30.69
224.573	-6.69
224.808	-27.69
225.042	-23.69
225.277	-16.69
225.511	-1.69
225.746	-2.69
225.98	12.31
226.215	17.31
226.449	7.31
226.683	12.31
226.918	28.31
227.152	33.31
227.387	34.31
227.621	43.31
227.856	40.31
228.09	45.31
228.324	56.31
228.559	61.31
228.793	61.31
229.027	100.31
229.262	110.31
229.496	110.31
229.73	125.31
229.964	146.31
230.199	125.31
230.433	106.31
230.667	125.31
230.901	119.31
231.136	111.31
231.37	109.31
231.604	120.31
231.838	89.31
232.072	106.31
232.306	107.31
232.541	105.31
232.775	105.31
233.009	119.31
233.243	124.31
233.477	116.31
233.711	120.31
233.945	118.31
234.179	131.31
234.413	115.31
234.647	115.31
234.881	123.31
235.115	114.31
235.349	106.31
235.583	113.31
235.817	125.31
236.051	126.31
236.285	139.31
236.519	125.31
236.753	137.31
236.987	148.31
237.221	192.31
237.455	243.31
237.689	201.31
237.922	143.31
238.156	139.31
238.39	131.31
238.624	126.31
238.858	121.31
239.091	136.31
239.325	127.31
239.559	140.31
239.793	137.31
240.027	140.31
240.26	143.31
240.494	156.31
240.728	156.31
240.961	166.31
241.195	152.31
241.429	142.31
241.662	150.31
241.896	145.31
242.13	147.31
242.363	135.31
242.597	123.31
242.83	145.31
243.064	155.31
243.298	148.31
243.531	139.31
243.765	156.31
243.998	130.31
244.232	140.31
244.465	147.31
244.699	135.31
244.932	150.31
245.166	139.31
245.399	144.31
245.633	169.31
245.866	149.31
246.099	139.31
246.333	151.31
246.566	155.31
246.8	148.31
247.033	173.31
247.266	156.31
247.5	155.31
247.733	173.31
247.966	161.31
248.2	170.31
248.433	182.31
248.666	180.31
248.899	184.31
249.133	220.31
249.366	211.31
249.599	205.31
249.832	198.31
250.066	174.31
250.299	197.31
250.532	206.31
250.765	209.31
250.998	224.31
251.231	221.31
251.465	217.31
251.698	180.31
251.931	223.31
252.164	219.31
252.397	201.31
252.63	203.31
252.863	196.31
253.096	240.31
253.329	238.31
253.562	236.31
253.795	225.31
254.028	225.31
254.261	212.31
254.494	222.31
254.727	257.31
254.96	278.31
255.193	279.31
255.426	228.31
255.659	238.31
255.892	255.31
256.124	229.31
256.357	234.31
256.59	219.31
256.823	217.31
257.056	217.31
257.289	199.31
257.521	215.31
257.754	202.31
257.987	206.31
258.22	220.31
258.452	228.31
258.685	218.31
258.918	213.31
259.151	205.31
259.383	221.31
259.616	214.31
259.849	230.31
260.081	208.31
260.314	252.31
260.547	263.31
260.779	255.31
261.012	243.31
261.244	228.31
261.477	233.31
261.71	246.31
261.942	228.31
262.175	252.31
262.407	224.31
262.64	214.31
262.872	214.31
263.105	219.31
263.337	229.31
263.57	215.31
263.802	220.31
264.035	223.31
264.267	221.31
264.499	236.31
264.732	219.31
264.964	228.31
265.197	203.31
265.429	227.31
265.661	208.31
265.894	221.31
266.126	226.31
266.358	221.31
266.591	208.31
266.823	246.31
267.055	220.31
267.287	240.31
267.52	229.31
267.752	232.31
267.984	246.31
268.216	234.31
268.448	230.31
268.681	240.31
268.913	250.31
269.145	259.31
269.377	287.31
269.609	268.31
269.841	285.31
270.073	272.31
270.306	298.31
270.538	328.31
270.77	325.31
271.002	298.31
271.234	273.31
271.466	304.31
271.698	317.31
271.93	322.31
272.162	306.31
272.394	315.31
272.626	311.31
272.858	293.31
273.09	268.31
273.322	269.31
273.553	273.31
273.785	268.31
274.017	258.31
274.249	267.31
274.481	268.31
274.713	271.31
274.945	275.31
275.176	278.31
275.408	276.31
275.64	279.31
275.872	279.31
276.104	264.31
276.335	287.31
276.567	270.31
276.799	299.31
277.031	315.31
277.262	320.31
277.494	320.31
277.726	296.31
277.957	287.31
278.189	277.31
278.421	283.31
278.652	287.31
278.884	269.31
279.115	268.31
279.347	269.31
279.579	271.31
279.81	278.31
280.042	271.31
280.273	264.31
280.505	275.31
280.736	267.31
280.968	263.31
281.199	279.31
281.431	276.31
281.662	274.31
281.894	284.31
282.125	265.31
282.356	302.31
282.588	301.31
282.819	317.31
283.051	298.31
283.282	278.31
283.513	272.31
283.745	289.31
283.976	292.31
284.207	295.31
284.439	290.31
284.67	281.31
284.901	279.31
285.132	279.31
285.364	282.31
285.595	288.31
285.826	271.31
286.057	284.31
286.288	268.31
286.52	282.31
286.751	267.31
286.982	288.31
287.213	289.31
287.444	295.31
287.675	308.31
287.906	291.31
288.138	284.31
288.369	331.31
288.6	303.31
288.831	310.31
289.062	303.31
289.293	296.31
289.524	282.31
289.755	296.31
289.986	285.31
290.217	302.31
290.448	296.31
290.679	285.31
290.91	283.31
291.141	301.31
291.371	289.31
291.602	297.31
291.833	285.31
292.064	303.31
292.295	297.31
292.526	303.31
292.757	288.31
292.987	295.31
293.218	285.31
293.449	297.31
293.68	287.31
293.91	280.31
294.141	279.31
294.372	302.31
294.603	297.31
294.833	314.31
295.064	299.31
295.295	291.31
295.525	294.31
295.756	300.31
295.987	308.31
296.217	321.31
296.448	332.31
296.679	304.31
296.909	305.31
297.14	318.31
297.37	315.31
297.601	317.31
297.831	322.31
298.062	307.31
298.292	311.31
298.523	309.31
298.753	320.31
298.984	329.31
299.214	315.31
299.445	309.31
299.675	308.31
299.905	315.31
300.136	323.31
300.366	313.31
300.597	325.31
300.827	302.31
301.057	329.31
301.288	352.31
301.518	341.31
301.748	341.31
301.979	324.31
302.209	329.31
302.439	342.31
302.669	333.31
302.9	352.31
303.13	330.31
303.36	345.31
303.59	344.31
303.82	350.31
304.051	349.31
304.281	343.31
304.511	336.31
304.741	325.31
304.971	348.31
305.201	327.31
305.431	355.31
305.661	334.31
305.891	329.31
306.121	338.31
306.352	336.31
306.582	342.31
306.812	333.31
307.042	348.31
307.272	328.31
307.502	329.31
307.731	329.31
307.961	340.31
308.191	341.31
308.421	325.31
308.651	342.31
308.881	333.31
309.111	348.31
309.341	345.31
309.571	357.31
309.8	364.31
310.03	388.31
310.26	385.31
310.49	370.31
310.72	399.31
310.949	397.31
311.179	371.31
311.409	374.31
311.639	368.31
311.868	377.31
312.098	384.31
312.328	386.31
312.557	411.31
312.787	421.31
313.017	400.31
313.246	415.31
313.476	398.31
313.706	383.31
313.935	378.31
314.165	389.31
314.394	398.31
314.624	416.31
314.853	403.31
315.083	388.31
315.312	391.31
315.542	385.31
315.771	390.31
316.001	375.31
316.23	388.31
316.46	379.31
316.689	378.31
316.919	400.31
317.148	415.31
317.377	394.31
317.607	407.31
317.836	411.31
318.065	374.31
318.295	377.31
318.524	382.31
318.753	375.31
318.983	397.31
319.212	376.31
319.441	397.31
319.67	419.31
319.9	401.31
320.129	379.31
320.358	401.31
320.587	397.31
320.816	404.31
321.046	411.31
321.275	404.31
321.504	417.31
321.733	412.31
321.962	413.31
322.191	442.31
322.42	429.31
322.649	447.31
322.878	437.31
323.108	447.31
323.337	467.31
323.566	501.31
323.795	535.31
324.024	568.31
324.253	649.31
324.482	931.31
324.71	1507.31
324.939	2277.31
325.168	1947.31
325.397	953.31
325.626	654.31
325.855	529.31
326.084	495.31
326.313	506.31
326.542	515.31
326.77	563.31
326.999	649.31
327.228	880.31
327.457	1353.31
327.686	1691.31
327.914	1081.31
328.143	695.31
328.372	635.31
328.6	558.31
328.829	567.31
329.058	594.31
329.287	590.31
329.515	538.31
329.744	518.31
329.972	515.31
330.201	551.31
330.43	580.31
330.658	592.31
330.887	642.31
331.115	611.31
331.344	537.31
331.572	490.31
331.801	515.31
332.03	504.31
332.258	462.31
332.486	470.31
332.715	479.31
332.943	453.31
333.172	467.31
333.4	479.31
333.629	478.31
333.857	481.31
334.085	490.31
334.314	522.31
334.542	530.31
334.771	588.31
334.999	518.31
335.227	492.31
335.455	465.31
335.684	468.31
335.912	477.31
336.14	472.31
336.369	464.31
336.597	485.31
336.825	490.31
337.053	464.31
337.281	462.31
337.51	438.31
337.738	447.31
337.966	461.31
338.194	455.31
338.422	454.31
338.65	449.31
338.878	457.31
339.106	429.31
339.334	441.31
339.562	451.31
339.79	459.31
340.018	444.31
340.246	447.31
340.474	446.31
340.702	452.31
340.93	437.31
341.158	438.31
341.386	443.31
341.614	436.31
341.842	455.31
342.07	444.31
342.298	444.31
342.526	432.31
342.754	431.31
342.981	440.31
343.209	423.31
343.437	461.31
343.665	435.31
343.893	473.31
344.12	458.31
344.348	462.31
344.576	458.31
344.804	472.31
345.031	492.31
345.259	478.31
345.487	481.31
345.714	458.31
345.942	454.31
346.17	464.31
346.397	460.31
346.625	435.31
346.853	443.31
347.08	431.31
347.308	459.31
347.535	445.31
347.763	455.31
347.99	467.31
348.218	445.31
348.445	440.31
348.673	446.31
348.9	433.31
349.128	440.31
349.355	410.31
349.583	427.31
349.81	423.31
350.037	404.31
350.265	415.31
350.492	440.31
350.72	435.31
350.947	438.31
351.174	439.31
351.402	447.31
351.629	460.31
351.856	428.31
352.083	437.31
352.311	454.31
352.538	460.31
352.765	479.31
352.992	448.31
353.22	433.31
353.447	435.31
353.674	448.31
353.901	425.31
354.128	417.31
354.355	428.31
354.583	406.31
354.81	420.31
355.037	430.31
355.264	385.31
355.491	401.31
355.718	399.31
355.945	402.31
356.172	427.31
356.399	410.31
356.626	418.31
356.853	416.31
357.08	402.31
357.307	392.31
357.534	427.31
357.761	407.31
357.988	416.31
358.215	404.31
358.441	405.31
358.668	414.31
358.895	418.31
359.122	422.31
359.349	431.31
359.576	431.31
359.802	481.31
360.029	480.31
360.256	479.31
360.483	482.31
360.709	442.31
360.936	445.31
361.163	446.31
361.39	431.31
361.616	430.31
361.843	444.31
362.07	434.31
362.296	439.31
362.523	449.31
362.749	443.31
362.976	462.31
363.203	449.31
363.429	416.31
363.656	439.31
363.882	423.31
364.109	414.31
364.335	427.31
364.562	429.31
364.788	439.31
365.015	455.31
365.241	438.31
365.468	412.31
365.694	413.31
365.92	454.31
366.147	439.31
366.373	413.31
366.599	432.31
366.826	439.31
367.052	421.31
367.278	426.31
367.505	448.31
367.731	425.31
367.957	449.31
368.184	450.31
368.41	430.31
368.636	440.31
368.862	474.31
369.089	441.31
369.315	436.31
369.541	445.31
369.767	433.31
369.993	439.31
370.219	409.31
370.445	441.31
370.672	430.31
370.898	446.31
371.124	461.31
371.35	439.31
371.576	432.31
371.802	420.31
372.028	414.31
372.254	411.31
372.48	439.31
372.706	437.31
372.932	434.31
373.158	437.31
373.384	441.31
373.61	437.31
373.835	437.31
374.061	439.31
374.287	452.31
374.513	443.31
374.739	446.31
374.965	446.31
375.191	448.31
375.416	426.31
375.642	444.31
375.868	445.31
376.094	438.31
376.319	432.31
376.545	432.31
376.771	433.31
376.997	423.31
377.222	425.31
377.448	440.31
377.674	439.31
377.899	444.31
378.125	413.31
378.35	413.31
378.576	434.31
378.802	444.31
379.027	433.31
379.253	440.31
379.478	432.31
379.704	420.31
379.929	436.31
380.155	422.31
380.38	433.31
380.606	426.31
380.831	431.31
381.057	427.31
381.282	440.31
381.507	451.31
381.733	455.31
381.958	437.31
382.184	436.31
382.409	428.31
382.634	449.31
382.86	429.31
383.085	445.31
383.31	447.31
383.535	453.31
383.761	435.31
383.986	466.31
384.211	461.31
384.436	475.31
384.662	469.31
384.887	471.31
385.112	465.31
385.337	463.31
385.562	473.31
385.787	483.31
386.013	495.31
386.238	488.31
386.463	478.31
386.688	481.31
386.913	471.31
387.138	463.31
387.363	472.31
387.588	476.31
387.813	506.31
388.038	473.31
388.263	479.31
388.488	475.31
388.713	470.31
388.938	483.31
389.163	490.31
389.387	500.31
389.612	463.31
389.837	487.31
390.062	485.31
390.287	500.31
390.512	485.31
390.736	488.31
390.961	495.31
391.186	500.31
391.411	491.31
391.636	502.31
391.86	488.31
392.085	509.31
392.31	532.31
392.534	507.31
392.759	484.31
392.984	486.31
393.208	495.31
393.433	483.31
393.658	506.31
393.882	492.31
394.107	499.31
394.331	493.31
394.556	483.31
394.78	483.31
395.005	487.31
395.229	492.31
395.454	492.31
395.678	532.31
395.903	525.31
396.127	550.31
396.352	552.31
396.576	509.31
396.801	517.31
397.025	536.31
397.249	517.31
397.474	527.31
397.698	547.31
397.922	538.31
398.147	582.31
398.371	553.31
398.595	559.31
398.82	573.31
399.044	569.31
399.268	585.31
399.492	632.31
399.717	649.31
399.941	676.31
400.165	708.31
400.389	730.31
400.613	641.31
400.837	612.31
401.062	571.31
401.286	569.31
401.51	553.31
401.734	543.31
401.958	579.31
402.182	572.31
402.406	589.31
402.63	596.31
402.854	597.31
403.078	559.31
403.302	579.31
403.526	607.31
403.75	574.31
403.974	571.31
404.198	597.31
404.422	590.31
404.645	588.31
404.869	593.31
405.093	642.31
405.317	652.31
405.541	714.31
405.765	621.31
405.988	617.31
406.212	607.31
406.436	631.31
406.66	645.31
406.883	629.31
407.107	669.31
407.331	677.31
407.555	759.31
407.778	775.31
408.002	709.31
408.226	632.31
408.449	654.31
408.673	616.31
408.896	662.31
409.12	703.31
409.344	686.31
409.567	612.31
409.791	571.31
410.014	574.31
410.238	580.31
410.461	589.31
410.685	612.31
410.908	612.31
411.132	661.31
411.355	675.31
411.578	682.31
411.802	580.31
412.025	599.31
412.249	594.31
412.472	631.31
412.695	665.31
412.919	663.31
413.142	620.31
413.365	582.31
413.589	584.31
413.812	565.31
414.035	564.31
414.258	571.31
414.482	550.31
414.705	561.31
414.928	574.31
415.151	536.31
415.374	567.31
415.597	564.31
415.821	558.31
416.044	588.31
416.267	579.31
416.49	552.31
416.713	575.31
416.936	563.31
417.159	542.31
417.382	574.31
417.605	555.31
417.828	559.31
418.051	583.31
418.274	569.31
418.497	556.31
418.72	561.31
418.943	543.31
419.166	595.31
419.389	621.31
419.611	597.31
419.834	590.31
420.057	615.31
420.28	586.31
420.503	581.31
420.726	567.31
420.948	610.31
421.171	647.31
421.394	687.31
421.617	596.31
421.839	594.31
422.062	578.31
422.285	614.31
422.507	656.31
422.73	754.31
422.953	695.31
423.175	643.31
423.398	631.31
423.621	604.31
423.843	633.31
424.066	627.31
424.288	617.31
424.511	636.31
424.733	680.31
424.956	790.31
425.178	776.31
425.401	753.31
425.623	772.31
425.846	655.31
426.068	613.31
426.291	621.31
426.513	616.31
426.735	641.31
426.958	684.31
427.18	782.31
427.402	916.31
427.625	991.31
427.847	873.31
428.069	767.31
428.292	673.31
428.514	608.31
428.736	597.31
428.958	604.31
429.181	592.31
429.403	563.31
429.625	576.31
429.847	634.31
430.069	675.31
430.292	677.31
430.514	599.31
430.736	558.31
430.958	559.31
431.18	554.31
431.402	564.31
431.624	535.31
431.846	549.31
432.068	554.31
432.29	538.31
432.512	556.31
432.734	548.31
432.956	573.31
433.178	575.31
433.4	561.31
433.622	573.31
433.844	547.31
434.066	534.31
434.287	532.31
434.509	535.31
434.731	562.31
434.953	572.31
435.175	591.31
435.397	613.31
435.618	622.31
435.84	663.31
436.062	761.31
436.284	831.31
436.505	687.31
436.727	618.31
436.949	606.31
437.17	585.31
437.392	603.31
437.614	607.31
437.835	625.31
438.057	737.31
438.278	844.31
438.5	843.31
438.721	917.31
438.943	884.31
439.165	704.31
439.386	614.31
439.608	638.31
439.829	620.31
440.05	650.31
440.272	709.31
440.493	652.31
440.715	624.31
440.936	593.31
441.158	584.31
441.379	593.31
441.6	616.31
441.822	629.31
442.043	681.31
442.264	750.31
442.486	799.31
442.707	678.31
442.928	638.31
443.149	633.31
443.371	656.31
443.592	683.31
443.813	831.31
444.034	895.31
444.255	748.31
444.476	671.31
444.698	650.31
444.919	636.31
445.14	773.31
445.361	706.31
445.582	691.31
445.803	720.31
446.024	850.31
446.245	877.31
446.466	793.31
446.687	657.31
446.908	647.31
447.129	595.31
447.35	586.31
447.571	593.31
447.792	567.31
448.013	583.31
448.234	602.31
448.455	643.31
448.675	765.31
448.896	897.31
449.117	752.31
449.338	737.31
449.559	832.31
449.779	934.31
450	784.31
450.221	627.31
450.442	591.31
450.662	572.31
450.883	545.31
451.104	590.31
451.324	542.31
451.545	547.31
451.766	532.31
451.986	499.31
452.207	532.31
452.428	509.31
452.648	519.31
452.869	520.31
453.089	510.31
453.31	521.31
453.53	546.31
453.751	531.31
453.971	522.31
454.192	528.31
454.412	524.31
454.633	502.31
454.853	507.31
455.073	495.31
455.294	542.31
455.514	617.31
455.734	603.31
455.955	515.31
456.175	507.31
456.395	489.31
456.616	462.31
456.836	497.31
457.056	480.31
457.276	476.31
457.497	483.31
457.717	499.31
457.937	504.31
458.157	525.31
458.377	497.31
458.598	542.31
458.818	604.31
459.038	668.31
459.258	706.31
459.478	605.31
459.698	559.31
459.918	564.31
460.138	549.31
460.358	558.31
460.578	556.31
460.798	556.31
461.018	559.31
461.238	576.31
461.458	564.31
461.678	558.31
461.898	565.31
462.118	547.31
462.338	593.31
462.558	575.31
462.777	599.31
462.997	640.31
463.217	630.31
463.437	635.31
463.657	601.31
463.876	588.31
464.096	608.31
464.316	606.31
464.536	604.31
464.755	590.31
464.975	627.31
465.195	651.31
465.414	708.31
465.634	618.31
465.854	596.31
466.073	568.31
466.293	554.31
466.512	547.31
466.732	533.31
466.951	526.31
467.171	527.31
467.391	542.31
467.61	536.31
467.829	571.31
468.049	545.31
468.268	537.31
468.488	518.31
468.707	512.31
468.927	520.31
469.146	535.31
469.365	495.31
469.585	521.31
469.804	517.31
470.023	546.31
470.243	549.31
470.462	522.31
470.681	555.31
470.901	561.31
471.12	534.31
471.339	549.31
471.558	563.31
471.777	560.31
471.997	510.31
472.216	543.31
472.435	576.31
472.654	588.31
472.873	546.31
473.092	536.31
473.311	551.31
473.53	537.31
473.749	546.31
473.968	587.31
474.187	685.31
474.406	698.31
474.625	606.31
474.844	556.31
475.063	556.31
475.282	546.31
475.501	543.31
475.72	548.31
475.939	569.31
476.158	573.31
476.377	561.31
476.596	573.31
476.814	583.31
477.033	579.31
477.252	583.31
477.471	588.31
477.69	590.31
477.908	600.31
478.127	578.31
478.346	582.31
478.564	601.31
478.783	617.31
479.002	586.31
479.22	620.31
479.439	650.31
479.658	647.31
479.876	653.31
480.095	635.31
480.313	684.31
480.532	664.31
480.751	646.31
480.969	685.31
481.188	752.31
481.406	794.31
481.624	713.31
481.843	670.31
482.061	656.31
482.28	652.31
482.498	646.31
482.717	638.31
482.935	643.31
483.153	647.31
483.372	639.31
483.59	614.31
483.808	653.31
484.027	632.31
484.245	625.31
484.463	625.31
484.681	644.31
484.9	640.31
485.118	653.31
485.336	643.31
485.554	651.31
485.772	660.31
485.99	677.31
486.209	648.31
486.427	653.31
486.645	663.31
486.863	694.31
487.081	693.31
487.299	696.31
487.517	683.31
487.735	667.31
487.953	684.31
488.171	712.31
488.389	682.31
488.607	685.31
488.825	681.31
489.043	676.31
489.261	696.31
489.479	696.31
489.696	678.31
489.914	678.31
490.132	693.31
490.35	711.31
490.568	727.31
490.786	699.31
491.003	762.31
491.221	775.31
491.439	783.31
491.657	766.31
491.874	774.31
492.092	796.31
492.31	804.31
492.527	783.31
492.745	795.31
492.963	785.31
493.18	798.31
493.398	815.31
493.615	781.31
493.833	807.31
494.05	805.31
494.268	813.31
494.485	793.31
494.703	804.31
494.92	803.31
495.138	809.31
495.355	810.31
495.573	805.31
495.79	824.31
496.008	815.31
496.225	805.31
496.442	828.31
496.66	825.31
496.877	798.31
497.094	808.31
497.312	823.31
497.529	845.31
497.746	860.31
497.963	871.31
498.181	877.31
498.398	893.31
498.615	920.31
498.832	911.31
499.049	963.31
499.267	948.31
499.484	980.31
499.701	1055.31
499.918	1049.31
500.135	1104.31
500.352	1148.31
500.569	1167.31
500.786	1191.31
501.003	1183.31
501.22	1126.31
501.437	1113.31
501.654	1065.31
