Data from 1966.PennyLincolnUp.Lamp.En5.5.200Scan.071719.P1._HRD10591_14-14-05-913.txt Node
Date: Thu Jul 18 14:14:05 EDT 2019
User: cochatt
Spectrometer: HR+D1059
Trigger mode: 1
Integration Time (sec): 1.000000E-1
Scans to average: 1
Electric dark correction enabled: true
Nonlinearity correction enabled: false
Boxcar width: 0
XAxis mode: Wavelengths
Number of Pixels in Spectrum: 2048
>>>>>Begin Spectral Data<<<<<
223.165	-8.5
223.4	-8.5
223.635	-8.5
223.869	-19.5
224.104	-24.5
224.338	-16.5
224.573	-15.5
224.808	-7.5
225.042	-3.5
225.277	3.5
225.511	-7.5
225.746	-0.5
225.98	4.5
226.215	10.5
226.449	33.5
226.683	13.5
226.918	13.5
227.152	24.5
227.387	36.5
227.621	44.5
227.856	31.5
228.09	42.5
228.324	55.5
228.559	51.5
228.793	51.5
229.027	74.5
229.262	72.5
229.496	76.5
229.73	97.5
229.964	119.5
230.199	94.5
230.433	93.5
230.667	85.5
230.901	77.5
231.136	78.5
231.37	89.5
231.604	89.5
231.838	91.5
232.072	93.5
232.306	89.5
232.541	89.5
232.775	89.5
233.009	88.5
233.243	94.5
233.477	85.5
233.711	87.5
233.945	90.5
234.179	97.5
234.413	94.5
234.647	88.5
234.881	88.5
235.115	109.5
235.349	95.5
235.583	97.5
235.817	101.5
236.051	99.5
236.285	86.5
236.519	98.5
236.753	101.5
236.987	111.5
237.221	125.5
237.455	137.5
237.689	115.5
237.922	108.5
238.156	106.5
238.39	90.5
238.624	94.5
238.858	88.5
239.091	97.5
239.325	96.5
239.559	98.5
239.793	97.5
240.027	94.5
240.26	104.5
240.494	111.5
240.728	106.5
240.961	108.5
241.195	95.5
241.429	105.5
241.662	87.5
241.896	107.5
242.13	104.5
242.363	100.5
242.597	112.5
242.83	107.5
243.064	94.5
243.298	100.5
243.531	124.5
243.765	80.5
243.998	102.5
244.232	95.5
244.465	95.5
244.699	91.5
244.932	92.5
245.166	88.5
245.399	105.5
245.633	95.5
245.866	101.5
246.099	100.5
246.333	81.5
246.566	96.5
246.8	121.5
247.033	115.5
247.266	94.5
247.5	130.5
247.733	121.5
247.966	128.5
248.2	115.5
248.433	107.5
248.666	117.5
248.899	116.5
249.133	125.5
249.366	140.5
249.599	118.5
249.832	121.5
250.066	119.5
250.299	127.5
250.532	118.5
250.765	122.5
250.998	136.5
251.231	137.5
251.465	135.5
251.698	125.5
251.931	105.5
252.164	119.5
252.397	132.5
252.63	141.5
252.863	138.5
253.096	137.5
253.329	136.5
253.562	157.5
253.795	139.5
254.028	139.5
254.261	133.5
254.494	144.5
254.727	161.5
254.96	164.5
255.193	160.5
255.426	142.5
255.659	148.5
255.892	137.5
256.124	138.5
256.357	148.5
256.59	141.5
256.823	148.5
257.056	133.5
257.289	129.5
257.521	140.5
257.754	135.5
257.987	136.5
258.22	145.5
258.452	139.5
258.685	133.5
258.918	120.5
259.151	121.5
259.383	136.5
259.616	136.5
259.849	156.5
260.081	139.5
260.314	162.5
260.547	158.5
260.779	147.5
261.012	138.5
261.244	141.5
261.477	131.5
261.71	129.5
261.942	129.5
262.175	151.5
262.407	141.5
262.64	143.5
262.872	144.5
263.105	133.5
263.337	131.5
263.57	118.5
263.802	126.5
264.035	138.5
264.267	128.5
264.499	134.5
264.732	131.5
264.964	143.5
265.197	133.5
265.429	136.5
265.661	127.5
265.894	127.5
266.126	152.5
266.358	139.5
266.591	123.5
266.823	154.5
267.055	136.5
267.287	151.5
267.52	145.5
267.752	140.5
267.984	127.5
268.216	143.5
268.448	161.5
268.681	143.5
268.913	153.5
269.145	162.5
269.377	161.5
269.609	171.5
269.841	161.5
270.073	157.5
270.306	166.5
270.538	188.5
270.77	168.5
271.002	173.5
271.234	174.5
271.466	163.5
271.698	185.5
271.93	181.5
272.162	171.5
272.394	168.5
272.626	175.5
272.858	175.5
273.09	174.5
273.322	155.5
273.553	153.5
273.785	162.5
274.017	159.5
274.249	155.5
274.481	152.5
274.713	150.5
274.945	171.5
275.176	155.5
275.408	161.5
275.64	148.5
275.872	147.5
276.104	145.5
276.335	144.5
276.567	152.5
276.799	168.5
277.031	180.5
277.262	179.5
277.494	183.5
277.726	169.5
277.957	156.5
278.189	167.5
278.421	153.5
278.652	154.5
278.884	179.5
279.115	161.5
279.347	155.5
279.579	149.5
279.81	153.5
280.042	146.5
280.273	161.5
280.505	163.5
280.736	163.5
280.968	157.5
281.199	152.5
281.431	164.5
281.662	155.5
281.894	151.5
282.125	170.5
282.356	179.5
282.588	191.5
282.819	163.5
283.051	181.5
283.282	159.5
283.513	167.5
283.745	165.5
283.976	163.5
284.207	174.5
284.439	167.5
284.67	157.5
284.901	159.5
285.132	150.5
285.364	148.5
285.595	167.5
285.826	152.5
286.057	153.5
286.288	152.5
286.52	151.5
286.751	160.5
286.982	169.5
287.213	145.5
287.444	148.5
287.675	165.5
287.906	172.5
288.138	177.5
288.369	183.5
288.6	181.5
288.831	181.5
289.062	161.5
289.293	193.5
289.524	166.5
289.755	165.5
289.986	167.5
290.217	180.5
290.448	181.5
290.679	167.5
290.91	181.5
291.141	174.5
291.371	181.5
291.602	164.5
291.833	161.5
292.064	168.5
292.295	175.5
292.526	165.5
292.757	175.5
292.987	160.5
293.218	161.5
293.449	170.5
293.68	175.5
293.91	181.5
294.141	190.5
294.372	167.5
294.603	156.5
294.833	185.5
295.064	172.5
295.295	176.5
295.525	181.5
295.756	172.5
295.987	182.5
296.217	187.5
296.448	177.5
296.679	166.5
296.909	167.5
297.14	160.5
297.37	172.5
297.601	174.5
297.831	187.5
298.062	172.5
298.292	168.5
298.523	169.5
298.753	179.5
298.984	187.5
299.214	183.5
299.445	188.5
299.675	165.5
299.905	181.5
300.136	168.5
300.366	173.5
300.597	163.5
300.827	192.5
301.057	179.5
301.288	182.5
301.518	168.5
301.748	174.5
301.979	187.5
302.209	175.5
302.439	195.5
302.669	195.5
302.9	188.5
303.13	171.5
303.36	194.5
303.59	191.5
303.82	186.5
304.051	198.5
304.281	194.5
304.511	180.5
304.741	185.5
304.971	189.5
305.201	171.5
305.431	175.5
305.661	184.5
305.891	203.5
306.121	181.5
306.352	175.5
306.582	181.5
306.812	192.5
307.042	192.5
307.272	180.5
307.502	174.5
307.731	187.5
307.961	177.5
308.191	185.5
308.421	187.5
308.651	188.5
308.881	175.5
309.111	193.5
309.341	193.5
309.571	197.5
309.8	205.5
310.03	204.5
310.26	214.5
310.49	206.5
310.72	224.5
310.949	208.5
311.179	217.5
311.409	220.5
311.639	206.5
311.868	192.5
312.098	209.5
312.328	207.5
312.557	200.5
312.787	231.5
313.017	244.5
313.246	219.5
313.476	208.5
313.706	200.5
313.935	211.5
314.165	203.5
314.394	236.5
314.624	217.5
314.853	228.5
315.083	207.5
315.312	209.5
315.542	197.5
315.771	206.5
316.001	202.5
316.23	197.5
316.46	200.5
316.689	213.5
316.919	216.5
317.148	225.5
317.377	215.5
317.607	221.5
317.836	195.5
318.065	212.5
318.295	193.5
318.524	204.5
318.753	193.5
318.983	213.5
319.212	179.5
319.441	224.5
319.67	204.5
319.9	214.5
320.129	206.5
320.358	205.5
320.587	201.5
320.816	208.5
321.046	207.5
321.275	214.5
321.504	220.5
321.733	218.5
321.962	225.5
322.191	217.5
322.42	239.5
322.649	225.5
322.878	218.5
323.108	251.5
323.337	251.5
323.566	251.5
323.795	274.5
324.024	288.5
324.253	361.5
324.482	495.5
324.71	723.5
324.939	987.5
325.168	792.5
325.397	421.5
325.626	291.5
325.855	271.5
326.084	241.5
326.313	262.5
326.542	255.5
326.77	270.5
326.999	342.5
327.228	440.5
327.457	631.5
327.686	732.5
327.914	493.5
328.143	345.5
328.372	336.5
328.6	307.5
328.829	283.5
329.058	292.5
329.287	308.5
329.515	296.5
329.744	261.5
329.972	260.5
330.201	276.5
330.43	314.5
330.658	326.5
330.887	314.5
331.115	315.5
331.344	277.5
331.572	262.5
331.801	263.5
332.03	248.5
332.258	252.5
332.486	244.5
332.715	222.5
332.943	229.5
333.172	240.5
333.4	240.5
333.629	261.5
333.857	269.5
334.085	258.5
334.314	280.5
334.542	282.5
334.771	299.5
334.999	283.5
335.227	248.5
335.455	255.5
335.684	249.5
335.912	247.5
336.14	220.5
336.369	222.5
336.597	228.5
336.825	234.5
337.053	216.5
337.281	237.5
337.51	246.5
337.738	235.5
337.966	221.5
338.194	233.5
338.422	252.5
338.65	222.5
338.878	226.5
339.106	240.5
339.334	214.5
339.562	236.5
339.79	225.5
340.018	232.5
340.246	221.5
340.474	232.5
340.702	226.5
340.93	212.5
341.158	225.5
341.386	216.5
341.614	224.5
341.842	208.5
342.07	217.5
342.298	220.5
342.526	229.5
342.754	218.5
342.981	215.5
343.209	216.5
343.437	233.5
343.665	231.5
343.893	229.5
344.12	227.5
344.348	225.5
344.576	213.5
344.804	226.5
345.031	241.5
345.259	234.5
345.487	239.5
345.714	230.5
345.942	217.5
346.17	230.5
346.397	231.5
346.625	232.5
346.853	213.5
347.08	239.5
347.308	221.5
347.535	222.5
347.763	215.5
347.99	237.5
348.218	224.5
348.445	234.5
348.673	225.5
348.9	211.5
349.128	211.5
349.355	235.5
349.583	206.5
349.81	195.5
350.037	203.5
350.265	202.5
350.492	199.5
350.72	209.5
350.947	223.5
351.174	217.5
351.402	228.5
351.629	212.5
351.856	230.5
352.083	216.5
352.311	228.5
352.538	252.5
352.765	230.5
352.992	223.5
353.22	224.5
353.447	223.5
353.674	209.5
353.901	211.5
354.128	209.5
354.355	208.5
354.583	201.5
354.81	206.5
355.037	177.5
355.264	215.5
355.491	205.5
355.718	217.5
355.945	204.5
356.172	199.5
356.399	195.5
356.626	210.5
356.853	190.5
357.08	215.5
357.307	199.5
357.534	209.5
357.761	201.5
357.988	207.5
358.215	195.5
358.441	203.5
358.668	198.5
358.895	185.5
359.122	205.5
359.349	198.5
359.576	205.5
359.802	236.5
360.029	231.5
360.256	245.5
360.483	218.5
360.709	215.5
360.936	201.5
361.163	216.5
361.39	221.5
361.616	222.5
361.843	208.5
362.07	229.5
362.296	218.5
362.523	212.5
362.749	224.5
362.976	219.5
363.203	201.5
363.429	208.5
363.656	208.5
363.882	205.5
364.109	206.5
364.335	209.5
364.562	229.5
364.788	209.5
365.015	221.5
365.241	206.5
365.468	204.5
365.694	215.5
365.92	203.5
366.147	209.5
366.373	216.5
366.599	216.5
366.826	205.5
367.052	218.5
367.278	208.5
367.505	224.5
367.731	230.5
367.957	199.5
368.184	193.5
368.41	200.5
368.636	218.5
368.862	217.5
369.089	232.5
369.315	208.5
369.541	220.5
369.767	204.5
369.993	202.5
370.219	210.5
370.445	209.5
370.672	209.5
370.898	192.5
371.124	206.5
371.35	210.5
371.576	218.5
371.802	210.5
372.028	212.5
372.254	207.5
372.48	203.5
372.706	203.5
372.932	183.5
373.158	211.5
373.384	228.5
373.61	207.5
373.835	205.5
374.061	201.5
374.287	201.5
374.513	189.5
374.739	203.5
374.965	206.5
375.191	217.5
375.416	216.5
375.642	200.5
375.868	208.5
376.094	207.5
376.319	217.5
376.545	212.5
376.771	201.5
376.997	199.5
377.222	198.5
377.448	184.5
377.674	187.5
377.899	207.5
378.125	200.5
378.35	204.5
378.576	197.5
378.802	204.5
379.027	203.5
379.253	223.5
379.478	187.5
379.704	196.5
379.929	223.5
380.155	184.5
380.38	214.5
380.606	202.5
380.831	215.5
381.057	203.5
381.282	212.5
381.507	206.5
381.733	202.5
381.958	198.5
382.184	206.5
382.409	201.5
382.634	209.5
382.86	212.5
383.085	191.5
383.31	201.5
383.535	190.5
383.761	200.5
383.986	199.5
384.211	214.5
384.436	222.5
384.662	219.5
384.887	211.5
385.112	218.5
385.337	214.5
385.562	203.5
385.787	224.5
386.013	226.5
386.238	223.5
386.463	219.5
386.688	225.5
386.913	222.5
387.138	219.5
387.363	213.5
387.588	225.5
387.813	220.5
388.038	212.5
388.263	219.5
388.488	228.5
388.713	220.5
388.938	223.5
389.163	222.5
389.387	227.5
389.612	228.5
389.837	219.5
390.062	213.5
390.287	228.5
390.512	223.5
390.736	217.5
390.961	215.5
391.186	209.5
391.411	214.5
391.636	229.5
391.86	225.5
392.085	231.5
392.31	210.5
392.534	223.5
392.759	223.5
392.984	216.5
393.208	224.5
393.433	230.5
393.658	221.5
393.882	208.5
394.107	233.5
394.331	228.5
394.556	213.5
394.78	214.5
395.005	216.5
395.229	218.5
395.454	231.5
395.678	224.5
395.903	241.5
396.127	250.5
396.352	247.5
396.576	213.5
396.801	232.5
397.025	224.5
397.249	248.5
397.474	240.5
397.698	213.5
397.922	257.5
398.147	249.5
398.371	253.5
398.595	258.5
398.82	243.5
399.044	261.5
399.268	267.5
399.492	268.5
399.717	291.5
399.941	290.5
400.165	288.5
400.389	279.5
400.613	267.5
400.837	282.5
401.062	264.5
401.286	260.5
401.51	263.5
401.734	247.5
401.958	251.5
402.182	252.5
402.406	266.5
402.63	266.5
402.854	251.5
403.078	249.5
403.302	260.5
403.526	246.5
403.75	267.5
403.974	264.5
404.198	237.5
404.422	257.5
404.645	269.5
404.869	279.5
405.093	289.5
405.317	299.5
405.541	300.5
405.765	284.5
405.988	276.5
406.212	282.5
406.436	305.5
406.66	305.5
406.883	281.5
407.107	311.5
407.331	305.5
407.555	326.5
407.778	323.5
408.002	291.5
408.226	269.5
408.449	281.5
408.673	296.5
408.896	296.5
409.12	301.5
409.344	284.5
409.567	262.5
409.791	261.5
410.014	278.5
410.238	268.5
410.461	240.5
410.685	253.5
410.908	286.5
411.132	294.5
411.355	299.5
411.578	263.5
411.802	262.5
412.025	269.5
412.249	272.5
412.472	283.5
412.695	288.5
412.919	270.5
413.142	259.5
413.365	262.5
413.589	262.5
413.812	260.5
414.035	245.5
414.258	269.5
414.482	224.5
414.705	249.5
414.928	246.5
415.151	231.5
415.374	248.5
415.597	258.5
415.821	251.5
416.044	255.5
416.267	271.5
416.49	243.5
416.713	238.5
416.936	233.5
417.159	245.5
417.382	236.5
417.605	239.5
417.828	252.5
418.051	263.5
418.274	248.5
418.497	244.5
418.72	247.5
418.943	241.5
419.166	251.5
419.389	242.5
419.611	261.5
419.834	265.5
420.057	269.5
420.28	279.5
420.503	285.5
420.726	255.5
420.948	275.5
421.171	299.5
421.394	313.5
421.617	279.5
421.839	250.5
422.062	259.5
422.285	269.5
422.507	287.5
422.73	307.5
422.953	292.5
423.175	278.5
423.398	278.5
423.621	276.5
423.843	268.5
424.066	254.5
424.288	273.5
424.511	268.5
424.733	289.5
424.956	353.5
425.178	325.5
425.401	319.5
425.623	328.5
425.846	288.5
426.068	265.5
426.291	253.5
426.513	277.5
426.735	259.5
426.958	301.5
427.18	325.5
427.402	376.5
427.625	416.5
427.847	375.5
428.069	320.5
428.292	298.5
428.514	276.5
428.736	261.5
428.958	244.5
429.181	239.5
429.403	259.5
429.625	254.5
429.847	262.5
430.069	297.5
430.292	301.5
430.514	252.5
430.736	263.5
430.958	243.5
431.18	249.5
431.402	236.5
431.624	237.5
431.846	231.5
432.068	239.5
432.29	238.5
432.512	248.5
432.734	243.5
432.956	265.5
433.178	259.5
433.4	261.5
433.622	249.5
433.844	249.5
434.066	244.5
434.287	244.5
434.509	244.5
434.731	232.5
434.953	265.5
435.175	266.5
435.397	287.5
435.618	267.5
435.84	289.5
436.062	334.5
436.284	341.5
436.505	285.5
436.727	260.5
436.949	257.5
437.17	265.5
437.392	246.5
437.614	261.5
437.835	279.5
438.057	310.5
438.278	355.5
438.5	347.5
438.721	373.5
438.943	344.5
439.165	296.5
439.386	280.5
439.608	264.5
439.829	278.5
440.05	290.5
440.272	311.5
440.493	295.5
440.715	282.5
440.936	262.5
441.158	255.5
441.379	267.5
441.6	271.5
441.822	286.5
442.043	301.5
442.264	329.5
442.486	332.5
442.707	312.5
442.928	295.5
443.149	283.5
443.371	287.5
443.592	300.5
443.813	335.5
444.034	369.5
444.255	343.5
444.476	278.5
444.698	283.5
444.919	268.5
445.14	363.5
445.361	337.5
445.582	282.5
445.803	328.5
446.024	389.5
446.245	357.5
446.466	330.5
446.687	269.5
446.908	273.5
447.129	248.5
447.35	254.5
447.571	237.5
447.792	231.5
448.013	245.5
448.234	254.5
448.455	277.5
448.675	341.5
448.896	367.5
449.117	325.5
449.338	296.5
449.559	339.5
449.779	398.5
450	313.5
450.221	281.5
450.442	262.5
450.662	245.5
450.883	249.5
451.104	279.5
451.324	277.5
451.545	258.5
451.766	225.5
451.986	238.5
452.207	232.5
452.428	227.5
452.648	227.5
452.869	247.5
453.089	229.5
453.31	238.5
453.53	224.5
453.751	227.5
453.971	238.5
454.192	232.5
454.412	245.5
454.633	229.5
454.853	243.5
455.073	231.5
455.294	234.5
455.514	278.5
455.734	267.5
455.955	232.5
456.175	234.5
456.395	224.5
456.616	211.5
456.836	229.5
457.056	218.5
457.276	206.5
457.497	221.5
457.717	217.5
457.937	217.5
458.157	228.5
458.377	206.5
458.598	258.5
458.818	287.5
459.038	317.5
459.258	316.5
459.478	269.5
459.698	263.5
459.918	255.5
460.138	266.5
460.358	261.5
460.578	252.5
460.798	245.5
461.018	251.5
461.238	244.5
461.458	240.5
461.678	248.5
461.898	273.5
462.118	245.5
462.338	236.5
462.558	256.5
462.777	269.5
462.997	263.5
463.217	272.5
463.437	291.5
463.657	273.5
463.876	253.5
464.096	248.5
464.316	268.5
464.536	263.5
464.755	250.5
464.975	267.5
465.195	305.5
465.414	337.5
465.634	277.5
465.854	281.5
466.073	261.5
466.293	248.5
466.512	237.5
466.732	228.5
466.951	223.5
467.171	232.5
467.391	227.5
467.61	274.5
467.829	246.5
468.049	265.5
468.268	264.5
468.488	243.5
468.707	236.5
468.927	231.5
469.146	236.5
469.365	248.5
469.585	230.5
469.804	256.5
470.023	249.5
470.243	249.5
470.462	244.5
470.681	255.5
470.901	245.5
471.12	235.5
471.339	248.5
471.558	248.5
471.777	247.5
471.997	229.5
472.216	247.5
472.435	268.5
472.654	279.5
472.873	238.5
473.092	256.5
473.311	236.5
473.53	232.5
473.749	239.5
473.968	255.5
474.187	318.5
474.406	310.5
474.625	265.5
474.844	243.5
475.063	252.5
475.282	244.5
475.501	224.5
475.72	240.5
475.939	236.5
476.158	249.5
476.377	231.5
476.596	247.5
476.814	244.5
477.033	263.5
477.252	255.5
477.471	241.5
477.69	238.5
477.908	267.5
478.127	259.5
478.346	259.5
478.564	270.5
478.783	254.5
479.002	273.5
479.22	275.5
479.439	285.5
479.658	287.5
479.876	289.5
480.095	279.5
480.313	277.5
480.532	294.5
480.751	293.5
480.969	312.5
481.188	361.5
481.406	377.5
481.624	319.5
481.843	293.5
482.061	285.5
482.28	267.5
482.498	290.5
482.717	270.5
482.935	279.5
483.153	285.5
483.372	277.5
483.59	279.5
483.808	283.5
484.027	284.5
484.245	280.5
484.463	265.5
484.681	279.5
484.9	276.5
485.118	282.5
485.336	268.5
485.554	272.5
485.772	300.5
485.99	279.5
486.209	309.5
486.427	286.5
486.645	290.5
486.863	310.5
487.081	292.5
487.299	291.5
487.517	291.5
487.735	281.5
487.953	289.5
488.171	294.5
488.389	299.5
488.607	303.5
488.825	303.5
489.043	292.5
489.261	295.5
489.479	304.5
489.696	318.5
489.914	307.5
490.132	288.5
490.35	299.5
490.568	321.5
490.786	312.5
491.003	321.5
491.221	335.5
491.439	319.5
491.657	343.5
491.874	344.5
492.092	342.5
492.31	358.5
492.527	344.5
492.745	329.5
492.963	357.5
493.18	346.5
493.398	356.5
493.615	333.5
493.833	340.5
494.05	368.5
494.268	340.5
494.485	368.5
494.703	345.5
494.92	360.5
495.138	343.5
495.355	345.5
495.573	355.5
495.79	355.5
496.008	337.5
496.225	311.5
496.442	341.5
496.66	349.5
496.877	342.5
497.094	338.5
497.312	330.5
497.529	354.5
497.746	359.5
497.963	342.5
498.181	386.5
498.398	380.5
498.615	379.5
498.832	375.5
499.049	376.5
499.267	378.5
499.484	389.5
499.701	400.5
499.918	432.5
500.135	425.5
500.352	472.5
500.569	455.5
500.786	448.5
501.003	424.5
501.22	443.5
501.437	422.5
501.654	400.5
501.871	420.5
502.088	395.5
502.305	398.5
502.522	375.5
502.739	349.5
502.956	361.5
503.172	336.5
503.389	360.5
503.606	345.5
503.823	338.5
504.04	336.5
504.256	348.5
504.473	341.5
504.69	333.5
504.907	334.5
505.123	321.5
505.34	328.5
505.557	340.5
505.773	333.5
505.99	345.5
506.207	329.5
506.423	329.5
506.64	332.5
506.856	327.5
507.073	336.5
507.289	325.5
507.506	333.5
507.722	309.5
507.939	346.5
508.155	310.5
508.372	323.5
508.588	286.5
508.805	308.5
509.021	313.5
509.238	317.5
509.454	340.5
509.67	335.5
509.887	318.5
510.103	311.5
510.319	312.5
510.536	391.5
510.752	734.5
510.968	543.5
511.184	341.5
511.401	301.5
511.617	302.5
511.833	300.5
512.049	293.5
512.265	280.5
512.481	302.5
512.698	297.5
512.914	282.5
513.13	281.5
513.346	296.5
513.562	299.5
513.778	304.5
513.994	296.5
514.21	320.5
514.426	334.5
514.642	336.5
514.858	361.5
515.074	360.5
515.29	480.5
515.506	775.5
515.721	632.5
515.937	379.5
516.153	326.5
516.369	297.5
516.585	295.5
516.801	279.5
517.016	288.5
517.232	291.5
517.448	292.5
517.664	303.5
517.879	308.5
518.095	318.5
518.311	287.5
518.527	298.5
518.742	299.5
518.958	310.5
519.173	298.5
519.389	282.5
519.605	275.5
519.82	312.5
520.036	281.5
520.251	309.5
520.467	331.5
520.682	321.5
