Data from 1966.PennyLincolnUp.Lamp.En5.5.200Scan.071719.P1.Scan2.head_HRD10591_14-17-19-099.txt Node
Date: Thu Jul 18 14:17:19 EDT 2019
User: cochatt
Spectrometer: HR+D1059
Trigger mode: 1
Integration Time (sec): 1.000000E-1
Scans to average: 1
Electric dark correction enabled: true
Nonlinearity correction enabled: false
Boxcar width: 0
XAxis mode: Wavelengths
Number of Pixels in Spectrum: 2048
>>>>>Begin Spectral Data<<<<<
223.165	-20.56
223.4	-20.56
223.635	-20.56
223.869	-22.56
224.104	-16.56
224.338	-18.56
224.573	-24.56
224.808	-22.56
225.042	-14.56
225.277	13.44
225.511	-8.56
225.746	6.44
225.98	13.44
226.215	7.44
226.449	17.44
226.683	30.44
226.918	28.44
227.152	31.44
227.387	43.44
227.621	44.44
227.856	57.44
228.09	43.44
228.324	34.44
228.559	47.44
228.793	56.44
229.027	91.44
229.262	104.44
229.496	109.44
229.73	115.44
229.964	146.44
230.199	130.44
230.433	120.44
230.667	122.44
230.901	110.44
231.136	101.44
231.37	108.44
231.604	106.44
231.838	125.44
232.072	98.44
232.306	104.44
232.541	111.44
232.775	115.44
233.009	124.44
233.243	135.44
233.477	109.44
233.711	118.44
233.945	111.44
234.179	103.44
234.413	118.44
234.647	118.44
234.881	120.44
235.115	138.44
235.349	133.44
235.583	129.44
235.817	115.44
236.051	127.44
236.285	119.44
236.519	130.44
236.753	139.44
236.987	139.44
237.221	174.44
237.455	212.44
237.689	186.44
237.922	144.44
238.156	130.44
238.39	124.44
238.624	136.44
238.858	118.44
239.091	128.44
239.325	130.44
239.559	145.44
239.793	134.44
240.027	148.44
240.26	133.44
240.494	157.44
240.728	162.44
240.961	145.44
241.195	142.44
241.429	158.44
241.662	126.44
241.896	143.44
242.13	144.44
242.363	136.44
242.597	131.44
242.83	130.44
243.064	144.44
243.298	138.44
243.531	128.44
243.765	131.44
243.998	132.44
244.232	140.44
244.465	128.44
244.699	150.44
244.932	147.44
245.166	141.44
245.399	142.44
245.633	143.44
245.866	151.44
246.099	147.44
246.333	166.44
246.566	166.44
246.8	155.44
247.033	152.44
247.266	141.44
247.5	172.44
247.733	166.44
247.966	164.44
248.2	174.44
248.433	170.44
248.666	178.44
248.899	174.44
249.133	183.44
249.366	203.44
249.599	199.44
249.832	181.44
250.066	200.44
250.299	185.44
250.532	184.44
250.765	205.44
250.998	217.44
251.231	215.44
251.465	196.44
251.698	192.44
251.931	204.44
252.164	206.44
252.397	175.44
252.63	196.44
252.863	197.44
253.096	219.44
253.329	232.44
253.562	230.44
253.795	211.44
254.028	214.44
254.261	205.44
254.494	221.44
254.727	245.44
254.96	252.44
255.193	276.44
255.426	226.44
255.659	234.44
255.892	225.44
256.124	228.44
256.357	229.44
256.59	215.44
256.823	220.44
257.056	216.44
257.289	195.44
257.521	211.44
257.754	216.44
257.987	199.44
258.22	212.44
258.452	202.44
258.685	214.44
258.918	205.44
259.151	207.44
259.383	221.44
259.616	212.44
259.849	223.44
260.081	234.44
260.314	254.44
260.547	242.44
260.779	243.44
261.012	224.44
261.244	222.44
261.477	226.44
261.71	211.44
261.942	222.44
262.175	222.44
262.407	221.44
262.64	219.44
262.872	218.44
263.105	213.44
263.337	214.44
263.57	218.44
263.802	227.44
264.035	209.44
264.267	208.44
264.499	212.44
264.732	220.44
264.964	215.44
265.197	216.44
265.429	203.44
265.661	199.44
265.894	208.44
266.126	208.44
266.358	208.44
266.591	222.44
266.823	216.44
267.055	215.44
267.287	244.44
267.52	235.44
267.752	216.44
267.984	224.44
268.216	228.44
268.448	226.44
268.681	235.44
268.913	252.44
269.145	248.44
269.377	270.44
269.609	261.44
269.841	250.44
270.073	257.44
270.306	278.44
270.538	301.44
270.77	301.44
271.002	291.44
271.234	250.44
271.466	287.44
271.698	303.44
271.93	313.44
272.162	306.44
272.394	285.44
272.626	294.44
272.858	261.44
273.09	264.44
273.322	263.44
273.553	272.44
273.785	271.44
274.017	262.44
274.249	270.44
274.481	266.44
274.713	268.44
274.945	263.44
275.176	255.44
275.408	264.44
275.64	238.44
275.872	264.44
276.104	264.44
276.335	278.44
276.567	248.44
276.799	265.44
277.031	279.44
277.262	302.44
277.494	328.44
277.726	299.44
277.957	280.44
278.189	271.44
278.421	261.44
278.652	270.44
278.884	256.44
279.115	263.44
279.347	263.44
279.579	283.44
279.81	246.44
280.042	263.44
280.273	270.44
280.505	276.44
280.736	258.44
280.968	269.44
281.199	275.44
281.431	270.44
281.662	262.44
281.894	259.44
282.125	283.44
282.356	291.44
282.588	297.44
282.819	313.44
283.051	271.44
283.282	273.44
283.513	269.44
283.745	271.44
283.976	269.44
284.207	304.44
284.439	297.44
284.67	275.44
284.901	274.44
285.132	281.44
285.364	256.44
285.595	281.44
285.826	270.44
286.057	271.44
286.288	282.44
286.52	288.44
286.751	274.44
286.982	262.44
287.213	291.44
287.444	293.44
287.675	281.44
287.906	294.44
288.138	291.44
288.369	278.44
288.6	307.44
288.831	294.44
289.062	290.44
289.293	291.44
289.524	300.44
289.755	275.44
289.986	263.44
290.217	283.44
290.448	293.44
290.679	280.44
290.91	272.44
291.141	290.44
291.371	306.44
291.602	279.44
291.833	284.44
292.064	284.44
292.295	271.44
292.526	292.44
292.757	301.44
292.987	283.44
293.218	283.44
293.449	281.44
293.68	291.44
293.91	284.44
294.141	299.44
294.372	279.44
294.603	296.44
294.833	294.44
295.064	291.44
295.295	284.44
295.525	291.44
295.756	296.44
295.987	319.44
296.217	310.44
296.448	312.44
296.679	320.44
296.909	298.44
297.14	299.44
297.37	316.44
297.601	329.44
297.831	322.44
298.062	312.44
298.292	308.44
298.523	311.44
298.753	306.44
298.984	294.44
299.214	312.44
299.445	314.44
299.675	312.44
299.905	310.44
300.136	302.44
300.366	299.44
300.597	314.44
300.827	330.44
301.057	318.44
301.288	316.44
301.518	310.44
301.748	318.44
301.979	329.44
302.209	316.44
302.439	350.44
302.669	326.44
302.9	318.44
303.13	308.44
303.36	325.44
303.59	324.44
303.82	329.44
304.051	325.44
304.281	333.44
304.511	333.44
304.741	334.44
304.971	324.44
305.201	331.44
305.431	328.44
305.661	322.44
305.891	311.44
306.121	308.44
306.352	335.44
306.582	332.44
306.812	331.44
307.042	327.44
307.272	336.44
307.502	329.44
307.731	348.44
307.961	338.44
308.191	314.44
308.421	341.44
308.651	336.44
308.881	334.44
309.111	322.44
309.341	332.44
309.571	344.44
309.8	358.44
310.03	366.44
310.26	363.44
310.49	373.44
310.72	360.44
310.949	373.44
311.179	378.44
311.409	372.44
311.639	380.44
311.868	349.44
312.098	368.44
312.328	379.44
312.557	372.44
312.787	394.44
313.017	391.44
313.246	361.44
313.476	346.44
313.706	363.44
313.935	373.44
314.165	386.44
314.394	389.44
314.624	381.44
314.853	386.44
315.083	392.44
315.312	367.44
315.542	375.44
315.771	372.44
316.001	366.44
316.23	382.44
316.46	372.44
316.689	379.44
316.919	400.44
317.148	391.44
317.377	395.44
317.607	377.44
317.836	371.44
318.065	380.44
318.295	370.44
318.524	372.44
318.753	359.44
318.983	355.44
319.212	357.44
319.441	364.44
319.67	388.44
319.9	396.44
320.129	354.44
320.358	368.44
320.587	386.44
320.816	363.44
321.046	377.44
321.275	409.44
321.504	387.44
321.733	412.44
321.962	412.44
322.191	403.44
322.42	417.44
322.649	424.44
322.878	422.44
323.108	419.44
323.337	468.44
323.566	444.44
323.795	512.44
324.024	527.44
324.253	626.44
324.482	849.44
324.71	1332.44
324.939	1995.44
325.168	1727.44
325.397	858.44
325.626	581.44
325.855	500.44
326.084	484.44
326.313	467.44
326.542	487.44
326.77	490.44
326.999	582.44
327.228	781.44
327.457	1169.44
327.686	1530.44
327.914	983.44
328.143	666.44
328.372	570.44
328.6	560.44
328.829	536.44
329.058	509.44
329.287	534.44
329.515	524.44
329.744	495.44
329.972	478.44
330.201	498.44
330.43	546.44
330.658	559.44
330.887	574.44
331.115	548.44
331.344	505.44
331.572	487.44
331.801	459.44
332.03	484.44
332.258	461.44
332.486	453.44
332.715	430.44
332.943	435.44
333.172	461.44
333.4	461.44
333.629	464.44
333.857	472.44
334.085	490.44
334.314	487.44
334.542	529.44
334.771	538.44
334.999	506.44
335.227	480.44
335.455	477.44
335.684	468.44
335.912	449.44
336.14	420.44
336.369	463.44
336.597	452.44
336.825	443.44
337.053	463.44
337.281	443.44
337.51	444.44
337.738	460.44
337.966	453.44
338.194	461.44
338.422	460.44
338.65	449.44
338.878	436.44
339.106	412.44
339.334	453.44
339.562	428.44
339.79	444.44
340.018	441.44
340.246	431.44
340.474	440.44
340.702	452.44
340.93	438.44
341.158	427.44
341.386	426.44
341.614	445.44
341.842	452.44
342.07	442.44
342.298	441.44
342.526	426.44
342.754	426.44
342.981	436.44
343.209	412.44
343.437	430.44
343.665	421.44
343.893	423.44
344.12	461.44
344.348	447.44
344.576	441.44
344.804	454.44
345.031	448.44
345.259	442.44
345.487	447.44
345.714	422.44
345.942	418.44
346.17	405.44
346.397	403.44
346.625	418.44
346.853	420.44
347.08	409.44
347.308	424.44
347.535	422.44
347.763	423.44
347.99	448.44
348.218	425.44
348.445	440.44
348.673	430.44
348.9	431.44
349.128	409.44
349.355	419.44
349.583	404.44
349.81	391.44
350.037	428.44
350.265	407.44
350.492	415.44
350.72	412.44
350.947	427.44
351.174	412.44
351.402	438.44
351.629	411.44
351.856	426.44
352.083	435.44
352.311	437.44
352.538	420.44
352.765	438.44
352.992	415.44
353.22	429.44
353.447	412.44
353.674	403.44
353.901	407.44
354.128	415.44
354.355	396.44
354.583	400.44
354.81	395.44
355.037	420.44
355.264	393.44
355.491	412.44
355.718	398.44
355.945	392.44
356.172	402.44
356.399	416.44
356.626	376.44
356.853	381.44
357.08	413.44
357.307	381.44
357.534	392.44
357.761	399.44
357.988	392.44
358.215	414.44
358.441	414.44
358.668	403.44
358.895	413.44
359.122	394.44
359.349	410.44
359.576	411.44
359.802	436.44
360.029	471.44
360.256	477.44
360.483	445.44
360.709	420.44
360.936	416.44
361.163	429.44
361.39	432.44
361.616	441.44
361.843	418.44
362.07	436.44
362.296	458.44
362.523	424.44
362.749	428.44
362.976	420.44
363.203	429.44
363.429	389.44
363.656	413.44
363.882	410.44
364.109	410.44
364.335	401.44
364.562	408.44
364.788	410.44
365.015	402.44
365.241	429.44
365.468	421.44
365.694	449.44
365.92	445.44
366.147	415.44
366.373	407.44
366.599	403.44
366.826	429.44
367.052	396.44
367.278	412.44
367.505	407.44
367.731	433.44
367.957	423.44
368.184	392.44
368.41	418.44
368.636	434.44
368.862	441.44
369.089	430.44
369.315	425.44
369.541	422.44
369.767	419.44
369.993	429.44
370.219	417.44
370.445	430.44
370.672	417.44
370.898	408.44
371.124	414.44
371.35	422.44
371.576	407.44
371.802	437.44
372.028	425.44
372.254	419.44
372.48	392.44
372.706	420.44
372.932	429.44
373.158	435.44
373.384	426.44
373.61	418.44
373.835	424.44
374.061	416.44
374.287	415.44
374.513	441.44
374.739	447.44
374.965	427.44
375.191	412.44
375.416	451.44
375.642	443.44
375.868	428.44
376.094	424.44
376.319	410.44
376.545	429.44
376.771	432.44
376.997	429.44
377.222	410.44
377.448	407.44
377.674	424.44
377.899	437.44
378.125	428.44
378.35	414.44
378.576	415.44
378.802	396.44
379.027	422.44
379.253	401.44
379.478	423.44
379.704	416.44
379.929	421.44
380.155	421.44
380.38	420.44
380.606	421.44
380.831	422.44
381.057	417.44
381.282	400.44
381.507	422.44
381.733	422.44
381.958	419.44
382.184	435.44
382.409	419.44
382.634	428.44
382.86	441.44
383.085	442.44
383.31	457.44
383.535	442.44
383.761	441.44
383.986	437.44
384.211	442.44
384.436	443.44
384.662	440.44
384.887	439.44
385.112	455.44
385.337	463.44
385.562	460.44
385.787	464.44
386.013	473.44
386.238	476.44
386.463	466.44
386.688	464.44
386.913	479.44
387.138	470.44
387.363	470.44
387.588	485.44
387.813	468.44
388.038	478.44
388.263	471.44
388.488	457.44
388.713	474.44
388.938	464.44
389.163	483.44
389.387	460.44
389.612	448.44
389.837	485.44
390.062	470.44
390.287	450.44
390.512	458.44
390.736	469.44
390.961	471.44
391.186	457.44
391.411	486.44
391.636	510.44
391.86	474.44
392.085	516.44
392.31	504.44
392.534	485.44
392.759	490.44
392.984	473.44
393.208	502.44
393.433	494.44
393.658	491.44
393.882	489.44
394.107	481.44
394.331	478.44
394.556	494.44
394.78	451.44
395.005	503.44
395.229	499.44
395.454	486.44
395.678	488.44
395.903	505.44
396.127	516.44
396.352	520.44
396.576	500.44
396.801	512.44
397.025	499.44
397.249	503.44
397.474	489.44
397.698	505.44
397.922	524.44
398.147	539.44
398.371	584.44
398.595	528.44
398.82	572.44
399.044	570.44
399.268	601.44
399.492	599.44
399.717	632.44
399.941	673.44
400.165	652.44
400.389	672.44
400.613	627.44
400.837	596.44
401.062	564.44
401.286	574.44
401.51	553.44
401.734	545.44
401.958	546.44
402.182	557.44
402.406	531.44
402.63	576.44
402.854	548.44
403.078	539.44
403.302	570.44
403.526	557.44
403.75	576.44
403.974	580.44
404.198	565.44
404.422	556.44
404.645	584.44
404.869	613.44
405.093	628.44
405.317	662.44
405.541	687.44
405.765	644.44
405.988	599.44
406.212	613.44
406.436	610.44
406.66	638.44
406.883	629.44
407.107	648.44
407.331	690.44
407.555	766.44
407.778	742.44
408.002	675.44
408.226	675.44
408.449	634.44
408.673	618.44
408.896	648.44
409.12	688.44
409.344	654.44
409.567	600.44
409.791	603.44
410.014	566.44
410.238	569.44
410.461	587.44
410.685	576.44
410.908	600.44
411.132	615.44
411.355	652.44
411.578	647.44
411.802	584.44
412.025	560.44
412.249	586.44
412.472	586.44
412.695	638.44
412.919	631.44
413.142	591.44
413.365	572.44
413.589	545.44
413.812	546.44
414.035	545.44
414.258	549.44
414.482	533.44
414.705	557.44
414.928	527.44
415.151	545.44
415.374	548.44
415.597	527.44
415.821	527.44
416.044	541.44
416.267	540.44
416.49	547.44
416.713	528.44
416.936	527.44
417.159	552.44
417.382	531.44
417.605	547.44
417.828	557.44
418.051	571.44
418.274	570.44
418.497	544.44
418.72	557.44
418.943	557.44
419.166	567.44
419.389	601.44
419.611	613.44
419.834	576.44
420.057	573.44
420.28	555.44
420.503	566.44
420.726	550.44
420.948	599.44
421.171	632.44
421.394	654.44
421.617	609.44
421.839	584.44
422.062	580.44
422.285	545.44
422.507	634.44
422.73	695.44
422.953	707.44
423.175	600.44
423.398	562.44
423.621	574.44
423.843	609.44
424.066	617.44
424.288	587.44
424.511	592.44
424.733	692.44
424.956	749.44
425.178	730.44
425.401	729.44
425.623	751.44
425.846	650.44
426.068	617.44
426.291	564.44
426.513	582.44
426.735	611.44
426.958	655.44
427.18	733.44
427.402	858.44
427.625	953.44
427.847	812.44
428.069	701.44
428.292	650.44
428.514	589.44
428.736	569.44
428.958	551.44
429.181	557.44
429.403	563.44
429.625	598.44
429.847	583.44
430.069	635.44
430.292	656.44
430.514	559.44
430.736	557.44
430.958	578.44
431.18	539.44
431.402	509.44
431.624	512.44
431.846	538.44
432.068	526.44
432.29	541.44
432.512	540.44
432.734	526.44
432.956	541.44
433.178	538.44
433.4	557.44
433.622	526.44
433.844	532.44
434.066	539.44
434.287	546.44
434.509	539.44
434.731	540.44
434.953	558.44
435.175	553.44
435.397	564.44
435.618	588.44
435.84	647.44
436.062	746.44
436.284	810.44
436.505	672.44
436.727	614.44
436.949	568.44
437.17	553.44
437.392	576.44
437.614	575.44
437.835	619.44
438.057	700.44
438.278	803.44
438.5	823.44
438.721	896.44
438.943	831.44
439.165	690.44
439.386	594.44
439.608	612.44
439.829	601.44
440.05	645.44
440.272	669.44
440.493	643.44
440.715	583.44
440.936	597.44
441.158	564.44
441.379	563.44
441.6	576.44
441.822	603.44
442.043	633.44
442.264	723.44
442.486	751.44
442.707	660.44
442.928	592.44
443.149	621.44
443.371	640.44
443.592	661.44
443.813	792.44
444.034	858.44
444.255	719.44
444.476	632.44
444.698	627.44
444.919	639.44
445.14	694.44
445.361	658.44
445.582	656.44
445.803	716.44
446.024	813.44
446.245	812.44
446.466	724.44
446.687	640.44
446.908	617.44
447.129	570.44
447.35	576.44
447.571	558.44
447.792	547.44
448.013	541.44
448.234	559.44
448.455	634.44
448.675	721.44
448.896	860.44
449.117	725.44
449.338	687.44
449.559	796.44
449.779	943.44
450	726.44
450.221	630.44
450.442	571.44
450.662	570.44
450.883	547.44
451.104	533.44
451.324	528.44
451.545	522.44
451.766	509.44
451.986	521.44
452.207	493.44
452.428	480.44
452.648	478.44
452.869	507.44
453.089	495.44
453.31	497.44
453.53	483.44
453.751	489.44
453.971	468.44
454.192	518.44
454.412	498.44
454.633	498.44
454.853	474.44
455.073	483.44
455.294	510.44
455.514	582.44
455.734	547.44
455.955	520.44
456.175	488.44
456.395	461.44
456.616	450.44
456.836	462.44
457.056	456.44
457.276	473.44
457.497	464.44
457.717	489.44
457.937	475.44
458.157	489.44
458.377	492.44
458.598	529.44
458.818	546.44
459.038	621.44
459.258	675.44
459.478	584.44
459.698	542.44
459.918	539.44
460.138	548.44
460.358	559.44
460.578	543.44
460.798	551.44
461.018	542.44
461.238	553.44
461.458	521.44
461.678	546.44
461.898	566.44
462.118	542.44
462.338	555.44
462.558	578.44
462.777	578.44
462.997	588.44
463.217	610.44
463.437	618.44
463.657	587.44
463.876	589.44
464.096	600.44
464.316	582.44
464.536	592.44
464.755	584.44
464.975	590.44
465.195	620.44
465.414	696.44
465.634	596.44
465.854	574.44
466.073	571.44
466.293	532.44
466.512	552.44
466.732	516.44
466.951	503.44
467.171	506.44
467.391	512.44
467.61	534.44
467.829	538.44
468.049	532.44
468.268	525.44
468.488	504.44
468.707	500.44
468.927	502.44
469.146	487.44
469.365	516.44
469.585	513.44
469.804	518.44
470.023	525.44
470.243	538.44
470.462	528.44
470.681	540.44
470.901	540.44
471.12	536.44
471.339	532.44
471.558	531.44
471.777	517.44
471.997	504.44
472.216	521.44
472.435	562.44
472.654	532.44
472.873	520.44
473.092	526.44
473.311	523.44
473.53	507.44
473.749	534.44
473.968	564.44
474.187	664.44
474.406	684.44
474.625	604.44
474.844	549.44
475.063	534.44
475.282	523.44
475.501	514.44
475.72	551.44
475.939	568.44
476.158	557.44
476.377	536.44
476.596	528.44
476.814	541.44
477.033	551.44
477.252	548.44
477.471	551.44
477.69	551.44
477.908	548.44
478.127	573.44
478.346	559.44
478.564	592.44
478.783	581.44
479.002	587.44
479.22	606.44
479.439	632.44
479.658	619.44
479.876	631.44
480.095	635.44
480.313	664.44
480.532	650.44
480.751	641.44
480.969	666.44
481.188	699.44
481.406	711.44
481.624	688.44
481.843	644.44
482.061	631.44
482.28	632.44
482.498	617.44
482.717	619.44
482.935	640.44
483.153	610.44
483.372	608.44
483.59	636.44
483.808	613.44
484.027	644.44
484.245	621.44
484.463	626.44
484.681	634.44
484.9	615.44
485.118	612.44
485.336	618.44
485.554	627.44
485.772	620.44
485.99	638.44
486.209	644.44
486.427	642.44
486.645	623.44
486.863	635.44
487.081	675.44
487.299	660.44
487.517	652.44
487.735	646.44
487.953	666.44
488.171	640.44
488.389	668.44
488.607	668.44
488.825	643.44
489.043	670.44
489.261	666.44
489.479	677.44
489.696	654.44
489.914	675.44
490.132	693.44
490.35	689.44
490.568	696.44
490.786	706.44
491.003	729.44
491.221	717.44
491.439	719.44
491.657	736.44
491.874	721.44
492.092	747.44
492.31	752.44
492.527	722.44
492.745	762.44
492.963	741.44
493.18	737.44
493.398	765.44
493.615	768.44
493.833	776.44
494.05	770.44
494.268	766.44
494.485	760.44
494.703	798.44
494.92	770.44
495.138	756.44
495.355	789.44
495.573	770.44
495.79	786.44
496.008	791.44
496.225	792.44
496.442	766.44
496.66	781.44
496.877	774.44
497.094	805.44
497.312	779.44
497.529	779.44
497.746	802.44
497.963	850.44
498.181	871.44
498.398	857.44
498.615	866.44
498.832	920.44
499.049	924.44
499.267	948.44
499.484	983.44
499.701	993.44
499.918	1023.44
500.135	1099.44
500.352	1115.44
500.569	1142.44
500.786	1130.44
501.003	1124.44
501.22	1127.44
501.437	1039.44
501.654	1040.44
