Data from 1966.PennyLincolnUp.Lamp.En5.5.200Scan.071719.P1._HRD10591_14-13-39-914.txt Node
Date: Thu Jul 18 14:13:39 EDT 2019
User: cochatt
Spectrometer: HR+D1059
Trigger mode: 1
Integration Time (sec): 1.000000E-1
Scans to average: 1
Electric dark correction enabled: true
Nonlinearity correction enabled: false
Boxcar width: 0
XAxis mode: Wavelengths
Number of Pixels in Spectrum: 2048
>>>>>Begin Spectral Data<<<<<
223.165	-1.38
223.4	-1.38
223.635	-1.38
223.869	-11.38
224.104	-19.38
224.338	-1.38
224.573	-10.38
224.808	-10.38
225.042	7.62
225.277	-4.38
225.511	-8.38
225.746	-1.38
225.98	-4.38
226.215	-2.38
226.449	15.62
226.683	18.62
226.918	10.62
227.152	22.62
227.387	6.62
227.621	34.62
227.856	54.62
228.09	49.62
228.324	49.62
228.559	55.62
228.793	68.62
229.027	78.62
229.262	76.62
229.496	95.62
229.73	106.62
229.964	104.62
230.199	105.62
230.433	96.62
230.667	93.62
230.901	87.62
231.136	96.62
231.37	89.62
231.604	80.62
231.838	103.62
232.072	92.62
232.306	98.62
232.541	98.62
232.775	97.62
233.009	90.62
233.243	98.62
233.477	115.62
233.711	101.62
233.945	101.62
234.179	82.62
234.413	93.62
234.647	102.62
234.881	96.62
235.115	97.62
235.349	107.62
235.583	95.62
235.817	94.62
236.051	93.62
236.285	91.62
236.519	102.62
236.753	92.62
236.987	116.62
237.221	117.62
237.455	137.62
237.689	128.62
237.922	93.62
238.156	102.62
238.39	97.62
238.624	90.62
238.858	88.62
239.091	80.62
239.325	83.62
239.559	104.62
239.793	100.62
240.027	99.62
240.26	95.62
240.494	107.62
240.728	104.62
240.961	111.62
241.195	105.62
241.429	105.62
241.662	108.62
241.896	89.62
242.13	104.62
242.363	101.62
242.597	97.62
242.83	106.62
243.064	107.62
243.298	106.62
243.531	101.62
243.765	103.62
243.998	89.62
244.232	113.62
244.465	109.62
244.699	109.62
244.932	114.62
245.166	104.62
245.399	123.62
245.633	108.62
245.866	113.62
246.099	98.62
246.333	107.62
246.566	97.62
246.8	106.62
247.033	107.62
247.266	102.62
247.5	111.62
247.733	126.62
247.966	114.62
248.2	105.62
248.433	122.62
248.666	120.62
248.899	116.62
249.133	145.62
249.366	137.62
249.599	140.62
249.832	124.62
250.066	124.62
250.299	118.62
250.532	121.62
250.765	133.62
250.998	159.62
251.231	140.62
251.465	132.62
251.698	140.62
251.931	120.62
252.164	128.62
252.397	123.62
252.63	129.62
252.863	120.62
253.096	132.62
253.329	152.62
253.562	132.62
253.795	132.62
254.028	138.62
254.261	133.62
254.494	156.62
254.727	144.62
254.96	158.62
255.193	157.62
255.426	137.62
255.659	132.62
255.892	134.62
256.124	136.62
256.357	142.62
256.59	136.62
256.823	138.62
257.056	135.62
257.289	135.62
257.521	144.62
257.754	137.62
257.987	133.62
258.22	121.62
258.452	137.62
258.685	129.62
258.918	134.62
259.151	134.62
259.383	141.62
259.616	152.62
259.849	136.62
260.081	138.62
260.314	146.62
260.547	166.62
260.779	136.62
261.012	136.62
261.244	140.62
261.477	142.62
261.71	136.62
261.942	129.62
262.175	130.62
262.407	148.62
262.64	146.62
262.872	128.62
263.105	134.62
263.337	143.62
263.57	128.62
263.802	134.62
264.035	135.62
264.267	109.62
264.499	126.62
264.732	140.62
264.964	147.62
265.197	127.62
265.429	124.62
265.661	124.62
265.894	133.62
266.126	137.62
266.358	133.62
266.591	146.62
266.823	132.62
267.055	133.62
267.287	135.62
267.52	119.62
267.752	135.62
267.984	151.62
268.216	140.62
268.448	121.62
268.681	148.62
268.913	150.62
269.145	146.62
269.377	156.62
269.609	167.62
269.841	173.62
270.073	166.62
270.306	173.62
270.538	185.62
270.77	180.62
271.002	166.62
271.234	161.62
271.466	164.62
271.698	168.62
271.93	176.62
272.162	198.62
272.394	177.62
272.626	187.62
272.858	155.62
273.09	152.62
273.322	150.62
273.553	154.62
273.785	160.62
274.017	165.62
274.249	160.62
274.481	144.62
274.713	156.62
274.945	149.62
275.176	154.62
275.408	151.62
275.64	157.62
275.872	143.62
276.104	150.62
276.335	155.62
276.567	165.62
276.799	162.62
277.031	192.62
277.262	181.62
277.494	182.62
277.726	181.62
277.957	182.62
278.189	146.62
278.421	166.62
278.652	168.62
278.884	158.62
279.115	157.62
279.347	152.62
279.579	158.62
279.81	150.62
280.042	163.62
280.273	147.62
280.505	165.62
280.736	143.62
280.968	161.62
281.199	162.62
281.431	145.62
281.662	161.62
281.894	175.62
282.125	161.62
282.356	162.62
282.588	176.62
282.819	165.62
283.051	162.62
283.282	148.62
283.513	156.62
283.745	162.62
283.976	160.62
284.207	166.62
284.439	159.62
284.67	158.62
284.901	171.62
285.132	167.62
285.364	162.62
285.595	175.62
285.826	152.62
286.057	163.62
286.288	158.62
286.52	180.62
286.751	156.62
286.982	149.62
287.213	145.62
287.444	151.62
287.675	165.62
287.906	162.62
288.138	183.62
288.369	177.62
288.6	181.62
288.831	166.62
289.062	176.62
289.293	180.62
289.524	157.62
289.755	175.62
289.986	179.62
290.217	164.62
290.448	164.62
290.679	162.62
290.91	166.62
291.141	157.62
291.371	167.62
291.602	171.62
291.833	162.62
292.064	156.62
292.295	157.62
292.526	154.62
292.757	157.62
292.987	159.62
293.218	169.62
293.449	159.62
293.68	162.62
293.91	154.62
294.141	170.62
294.372	175.62
294.603	174.62
294.833	153.62
295.064	163.62
295.295	169.62
295.525	162.62
295.756	177.62
295.987	174.62
296.217	192.62
296.448	185.62
296.679	168.62
296.909	179.62
297.14	167.62
297.37	165.62
297.601	176.62
297.831	188.62
298.062	160.62
298.292	166.62
298.523	167.62
298.753	169.62
298.984	167.62
299.214	190.62
299.445	166.62
299.675	196.62
299.905	189.62
300.136	186.62
300.366	178.62
300.597	164.62
300.827	180.62
301.057	169.62
301.288	194.62
301.518	177.62
301.748	185.62
301.979	175.62
302.209	184.62
302.439	193.62
302.669	176.62
302.9	173.62
303.13	173.62
303.36	192.62
303.59	203.62
303.82	189.62
304.051	190.62
304.281	189.62
304.511	184.62
304.741	180.62
304.971	181.62
305.201	191.62
305.431	190.62
305.661	191.62
305.891	188.62
306.121	187.62
306.352	176.62
306.582	187.62
306.812	178.62
307.042	188.62
307.272	177.62
307.502	163.62
307.731	172.62
307.961	167.62
308.191	176.62
308.421	174.62
308.651	170.62
308.881	199.62
309.111	191.62
309.341	176.62
309.571	178.62
309.8	201.62
310.03	204.62
310.26	188.62
310.49	200.62
310.72	206.62
310.949	221.62
311.179	208.62
311.409	210.62
311.639	189.62
311.868	196.62
312.098	197.62
312.328	219.62
312.557	205.62
312.787	222.62
313.017	214.62
313.246	210.62
313.476	203.62
313.706	222.62
313.935	212.62
314.165	213.62
314.394	219.62
314.624	219.62
314.853	204.62
315.083	208.62
315.312	217.62
315.542	193.62
315.771	205.62
316.001	195.62
316.23	199.62
316.46	196.62
316.689	210.62
316.919	205.62
317.148	212.62
317.377	214.62
317.607	176.62
317.836	202.62
318.065	212.62
318.295	200.62
318.524	221.62
318.753	209.62
318.983	194.62
319.212	200.62
319.441	210.62
319.67	217.62
319.9	198.62
320.129	192.62
320.358	193.62
320.587	192.62
320.816	215.62
321.046	220.62
321.275	202.62
321.504	211.62
321.733	206.62
321.962	200.62
322.191	207.62
322.42	210.62
322.649	225.62
322.878	248.62
323.108	231.62
323.337	255.62
323.566	250.62
323.795	280.62
324.024	280.62
324.253	345.62
324.482	505.62
324.71	756.62
324.939	989.62
325.168	800.62
325.397	413.62
325.626	279.62
325.855	259.62
326.084	228.62
326.313	256.62
326.542	246.62
326.77	296.62
326.999	332.62
327.228	442.62
327.457	639.62
327.686	745.62
327.914	473.62
328.143	338.62
328.372	292.62
328.6	286.62
328.829	286.62
329.058	316.62
329.287	307.62
329.515	280.62
329.744	278.62
329.972	266.62
330.201	278.62
330.43	295.62
330.658	301.62
330.887	319.62
331.115	318.62
331.344	267.62
331.572	275.62
331.801	245.62
332.03	257.62
332.258	241.62
332.486	230.62
332.715	234.62
332.943	236.62
333.172	239.62
333.4	222.62
333.629	247.62
333.857	244.62
334.085	259.62
334.314	286.62
334.542	303.62
334.771	301.62
334.999	272.62
335.227	255.62
335.455	243.62
335.684	222.62
335.912	233.62
336.14	207.62
336.369	233.62
336.597	222.62
336.825	230.62
337.053	229.62
337.281	224.62
337.51	206.62
337.738	236.62
337.966	219.62
338.194	231.62
338.422	211.62
338.65	237.62
338.878	216.62
339.106	246.62
339.334	225.62
339.562	221.62
339.79	215.62
340.018	221.62
340.246	213.62
340.474	213.62
340.702	229.62
340.93	234.62
341.158	221.62
341.386	216.62
341.614	236.62
341.842	202.62
342.07	226.62
342.298	233.62
342.526	217.62
342.754	222.62
342.981	235.62
343.209	210.62
343.437	225.62
343.665	207.62
343.893	221.62
344.12	238.62
344.348	232.62
344.576	201.62
344.804	203.62
345.031	229.62
345.259	233.62
345.487	227.62
345.714	224.62
345.942	218.62
346.17	211.62
346.397	196.62
346.625	210.62
346.853	216.62
347.08	196.62
347.308	223.62
347.535	238.62
347.763	223.62
347.99	225.62
348.218	216.62
348.445	217.62
348.673	223.62
348.9	216.62
349.128	200.62
349.355	208.62
349.583	203.62
349.81	210.62
350.037	202.62
350.265	212.62
350.492	202.62
350.72	203.62
350.947	219.62
351.174	213.62
351.402	208.62
351.629	222.62
351.856	214.62
352.083	208.62
352.311	225.62
352.538	217.62
352.765	241.62
352.992	225.62
353.22	215.62
353.447	217.62
353.674	220.62
353.901	202.62
354.128	191.62
354.355	196.62
354.583	202.62
354.81	206.62
355.037	208.62
355.264	205.62
355.491	188.62
355.718	208.62
355.945	202.62
356.172	191.62
356.399	200.62
356.626	222.62
356.853	216.62
357.08	188.62
357.307	194.62
357.534	185.62
357.761	190.62
357.988	203.62
358.215	209.62
358.441	208.62
358.668	216.62
358.895	201.62
359.122	217.62
359.349	207.62
359.576	220.62
359.802	227.62
360.029	258.62
360.256	241.62
360.483	232.62
360.709	223.62
360.936	217.62
361.163	212.62
361.39	215.62
361.616	200.62
361.843	236.62
362.07	217.62
362.296	222.62
362.523	211.62
362.749	217.62
362.976	222.62
363.203	228.62
363.429	205.62
363.656	207.62
363.882	205.62
364.109	205.62
364.335	209.62
364.562	208.62
364.788	210.62
365.015	205.62
365.241	211.62
365.468	212.62
365.694	235.62
365.92	209.62
366.147	215.62
366.373	196.62
366.599	203.62
366.826	206.62
367.052	189.62
367.278	177.62
367.505	206.62
367.731	200.62
367.957	214.62
368.184	224.62
368.41	209.62
368.636	200.62
368.862	198.62
369.089	208.62
369.315	190.62
369.541	202.62
369.767	202.62
369.993	198.62
370.219	180.62
370.445	206.62
370.672	194.62
370.898	203.62
371.124	203.62
371.35	192.62
371.576	203.62
371.802	180.62
372.028	189.62
372.254	200.62
372.48	180.62
372.706	213.62
372.932	218.62
373.158	198.62
373.384	207.62
373.61	214.62
373.835	197.62
374.061	199.62
374.287	208.62
374.513	211.62
374.739	206.62
374.965	191.62
375.191	197.62
375.416	206.62
375.642	190.62
375.868	195.62
376.094	206.62
376.319	205.62
376.545	212.62
376.771	195.62
376.997	199.62
377.222	192.62
377.448	199.62
377.674	187.62
377.899	201.62
378.125	192.62
378.35	208.62
378.576	200.62
378.802	192.62
379.027	198.62
379.253	205.62
379.478	213.62
379.704	205.62
379.929	209.62
380.155	191.62
380.38	196.62
380.606	206.62
380.831	207.62
381.057	228.62
381.282	210.62
381.507	218.62
381.733	202.62
381.958	204.62
382.184	214.62
382.409	200.62
382.634	212.62
382.86	200.62
383.085	218.62
383.31	213.62
383.535	233.62
383.761	209.62
383.986	224.62
384.211	209.62
384.436	212.62
384.662	228.62
384.887	218.62
385.112	217.62
385.337	221.62
385.562	196.62
385.787	205.62
386.013	240.62
386.238	209.62
386.463	231.62
386.688	222.62
386.913	214.62
387.138	212.62
387.363	198.62
387.588	214.62
387.813	205.62
388.038	210.62
388.263	220.62
388.488	199.62
388.713	224.62
388.938	199.62
389.163	221.62
389.387	213.62
389.612	213.62
389.837	219.62
390.062	206.62
390.287	208.62
390.512	232.62
390.736	209.62
390.961	216.62
391.186	216.62
391.411	221.62
391.636	221.62
391.86	220.62
392.085	205.62
392.31	223.62
392.534	222.62
392.759	213.62
392.984	214.62
393.208	215.62
393.433	229.62
393.658	208.62
393.882	213.62
394.107	210.62
394.331	208.62
394.556	216.62
394.78	217.62
395.005	215.62
395.229	208.62
395.454	230.62
395.678	240.62
395.903	222.62
396.127	229.62
396.352	236.62
396.576	228.62
396.801	218.62
397.025	232.62
397.249	221.62
397.474	223.62
397.698	215.62
397.922	233.62
398.147	237.62
398.371	255.62
398.595	221.62
398.82	246.62
399.044	241.62
399.268	268.62
399.492	274.62
399.717	277.62
399.941	295.62
400.165	286.62
400.389	287.62
400.613	254.62
400.837	241.62
401.062	270.62
401.286	247.62
401.51	252.62
401.734	231.62
401.958	230.62
402.182	250.62
402.406	261.62
402.63	269.62
402.854	249.62
403.078	246.62
403.302	240.62
403.526	264.62
403.75	242.62
403.974	257.62
404.198	248.62
404.422	271.62
404.645	251.62
404.869	271.62
405.093	255.62
405.317	270.62
405.541	307.62
405.765	289.62
405.988	269.62
406.212	270.62
406.436	287.62
406.66	300.62
406.883	280.62
407.107	276.62
407.331	294.62
407.555	312.62
407.778	324.62
408.002	288.62
408.226	266.62
408.449	273.62
408.673	264.62
408.896	261.62
409.12	290.62
409.344	280.62
409.567	244.62
409.791	265.62
410.014	259.62
410.238	257.62
410.461	259.62
410.685	264.62
410.908	278.62
411.132	267.62
411.355	283.62
411.578	277.62
411.802	254.62
412.025	266.62
412.249	256.62
412.472	274.62
412.695	300.62
412.919	273.62
413.142	273.62
413.365	240.62
413.589	248.62
413.812	252.62
414.035	264.62
414.258	236.62
414.482	227.62
414.705	239.62
414.928	228.62
415.151	240.62
415.374	230.62
415.597	236.62
415.821	233.62
416.044	246.62
416.267	235.62
416.49	236.62
416.713	236.62
416.936	246.62
417.159	241.62
417.382	249.62
417.605	250.62
417.828	243.62
418.051	261.62
418.274	268.62
418.497	246.62
418.72	233.62
418.943	240.62
419.166	268.62
419.389	269.62
419.611	260.62
419.834	241.62
420.057	249.62
420.28	254.62
420.503	247.62
420.726	251.62
420.948	257.62
421.171	279.62
421.394	272.62
421.617	247.62
421.839	255.62
422.062	266.62
422.285	265.62
422.507	282.62
422.73	313.62
422.953	318.62
423.175	274.62
423.398	281.62
423.621	280.62
423.843	265.62
424.066	278.62
424.288	268.62
424.511	281.62
424.733	288.62
424.956	329.62
425.178	305.62
425.401	299.62
425.623	324.62
425.846	281.62
426.068	275.62
426.291	260.62
426.513	247.62
426.735	251.62
426.958	286.62
427.18	325.62
427.402	367.62
427.625	408.62
427.847	370.62
428.069	321.62
428.292	275.62
428.514	253.62
428.736	264.62
428.958	257.62
429.181	252.62
429.403	248.62
429.625	252.62
429.847	268.62
430.069	291.62
430.292	294.62
430.514	255.62
430.736	256.62
430.958	262.62
431.18	231.62
431.402	239.62
431.624	246.62
431.846	246.62
432.068	223.62
432.29	248.62
432.512	236.62
432.734	257.62
432.956	233.62
433.178	227.62
433.4	253.62
433.622	241.62
433.844	241.62
434.066	244.62
434.287	237.62
434.509	245.62
434.731	253.62
434.953	230.62
435.175	250.62
435.397	257.62
435.618	269.62
435.84	286.62
436.062	311.62
436.284	328.62
436.505	276.62
436.727	271.62
436.949	245.62
437.17	233.62
437.392	255.62
437.614	241.62
437.835	274.62
438.057	317.62
438.278	348.62
438.5	346.62
438.721	370.62
438.943	351.62
439.165	284.62
439.386	258.62
439.608	270.62
439.829	266.62
440.05	286.62
440.272	312.62
440.493	288.62
440.715	270.62
440.936	256.62
441.158	260.62
441.379	243.62
441.6	253.62
441.822	274.62
442.043	280.62
442.264	322.62
442.486	334.62
442.707	292.62
442.928	274.62
443.149	292.62
443.371	295.62
443.592	306.62
443.813	342.62
444.034	358.62
444.255	314.62
444.476	264.62
444.698	278.62
444.919	280.62
445.14	380.62
445.361	320.62
445.582	283.62
445.803	321.62
446.024	349.62
446.245	377.62
446.466	336.62
446.687	274.62
446.908	269.62
447.129	265.62
447.35	259.62
447.571	263.62
447.792	266.62
448.013	250.62
448.234	270.62
448.455	286.62
448.675	338.62
448.896	356.62
449.117	313.62
449.338	300.62
449.559	363.62
449.779	378.62
450	320.62
450.221	263.62
450.442	249.62
450.662	257.62
450.883	262.62
451.104	268.62
451.324	248.62
451.545	245.62
451.766	223.62
451.986	221.62
452.207	221.62
452.428	230.62
452.648	236.62
452.869	225.62
453.089	238.62
453.31	237.62
453.53	233.62
453.751	237.62
453.971	230.62
454.192	247.62
454.412	241.62
454.633	222.62
454.853	209.62
455.073	228.62
455.294	238.62
455.514	260.62
455.734	257.62
455.955	233.62
456.175	226.62
456.395	231.62
456.616	208.62
456.836	207.62
457.056	202.62
457.276	216.62
457.497	231.62
457.717	200.62
457.937	224.62
458.157	228.62
458.377	236.62
458.598	221.62
458.818	250.62
459.038	310.62
459.258	297.62
459.478	277.62
459.698	238.62
459.918	248.62
460.138	249.62
460.358	240.62
460.578	237.62
460.798	234.62
461.018	236.62
461.238	246.62
461.458	236.62
461.678	241.62
461.898	226.62
462.118	261.62
462.338	248.62
462.558	244.62
462.777	251.62
462.997	255.62
463.217	279.62
463.437	252.62
463.657	250.62
463.876	249.62
464.096	244.62
464.316	248.62
464.536	265.62
464.755	264.62
464.975	273.62
465.195	290.62
465.414	339.62
465.634	266.62
465.854	264.62
466.073	249.62
466.293	237.62
466.512	238.62
466.732	237.62
466.951	234.62
467.171	217.62
467.391	228.62
467.61	226.62
467.829	255.62
468.049	237.62
468.268	238.62
468.488	246.62
468.707	223.62
468.927	220.62
469.146	230.62
469.365	221.62
469.585	241.62
469.804	241.62
470.023	233.62
470.243	235.62
470.462	242.62
470.681	269.62
470.901	261.62
471.12	250.62
471.339	231.62
471.558	247.62
471.777	238.62
471.997	227.62
472.216	241.62
472.435	278.62
472.654	255.62
472.873	232.62
473.092	228.62
473.311	237.62
473.53	216.62
473.749	232.62
473.968	237.62
474.187	294.62
474.406	298.62
474.625	266.62
474.844	220.62
475.063	237.62
475.282	237.62
475.501	231.62
475.72	238.62
475.939	238.62
476.158	226.62
476.377	232.62
476.596	226.62
476.814	220.62
477.033	262.62
477.252	246.62
477.471	250.62
477.69	251.62
477.908	240.62
478.127	248.62
478.346	244.62
478.564	248.62
478.783	249.62
479.002	255.62
479.22	269.62
479.439	278.62
479.658	304.62
479.876	288.62
480.095	281.62
480.313	306.62
480.532	285.62
480.751	290.62
480.969	295.62
481.188	350.62
481.406	367.62
481.624	305.62
481.843	280.62
482.061	270.62
482.28	261.62
482.498	272.62
482.717	264.62
482.935	269.62
483.153	266.62
483.372	268.62
483.59	262.62
483.808	285.62
484.027	273.62
484.245	279.62
484.463	274.62
484.681	266.62
484.9	254.62
485.118	278.62
485.336	294.62
485.554	271.62
485.772	288.62
485.99	271.62
486.209	268.62
486.427	281.62
486.645	300.62
486.863	272.62
487.081	298.62
487.299	273.62
487.517	295.62
487.735	277.62
487.953	283.62
488.171	284.62
488.389	306.62
488.607	304.62
488.825	287.62
489.043	285.62
489.261	303.62
489.479	306.62
489.696	299.62
489.914	289.62
490.132	303.62
490.35	300.62
490.568	293.62
490.786	303.62
491.003	304.62
491.221	312.62
491.439	331.62
491.657	319.62
491.874	334.62
492.092	321.62
492.31	337.62
492.527	342.62
492.745	330.62
492.963	325.62
493.18	346.62
493.398	337.62
493.615	345.62
493.833	349.62
494.05	346.62
494.268	338.62
494.485	335.62
494.703	338.62
494.92	332.62
495.138	345.62
495.355	334.62
495.573	344.62
495.79	336.62
496.008	343.62
496.225	326.62
496.442	344.62
496.66	333.62
496.877	320.62
497.094	329.62
497.312	332.62
497.529	340.62
497.746	339.62
497.963	341.62
498.181	362.62
498.398	340.62
498.615	354.62
498.832	368.62
499.049	382.62
499.267	377.62
499.484	378.62
499.701	409.62
499.918	439.62
500.135	424.62
500.352	450.62
500.569	444.62
500.786	432.62
501.003	442.62
501.22	411.62
501.437	408.62
501.654	411.62
501.871	415.62
502.088	401.62
502.305	367.62
502.522	374.62
