Data from 1966.PennyLincolnUp.Lamp.En5.5.200Scan.071719.P1.Scan2.head_HRD10591_14-19-41-287.txt Node
Date: Thu Jul 18 14:19:41 EDT 2019
User: cochatt
Spectrometer: HR+D1059
Trigger mode: 1
Integration Time (sec): 1.000000E-1
Scans to average: 1
Electric dark correction enabled: true
Nonlinearity correction enabled: false
Boxcar width: 0
XAxis mode: Wavelengths
Number of Pixels in Spectrum: 2048
>>>>>Begin Spectral Data<<<<<
223.165	-9.38
223.4	-9.38
223.635	-9.38
223.869	-8.38
224.104	-16.38
224.338	-22.38
224.573	-22.38
224.808	-11.38
225.042	-7.38
225.277	-20.38
225.511	-4.38
225.746	2.62
225.98	-13.38
226.215	13.62
226.449	20.62
226.683	26.62
226.918	35.62
227.152	36.62
227.387	21.62
227.621	32.62
227.856	39.62
228.09	49.62
228.324	49.62
228.559	55.62
228.793	74.62
229.027	106.62
229.262	105.62
229.496	109.62
229.73	143.62
229.964	151.62
230.199	130.62
230.433	118.62
230.667	101.62
230.901	115.62
231.136	113.62
231.37	123.62
231.604	118.62
231.838	104.62
232.072	121.62
232.306	114.62
232.541	115.62
232.775	123.62
233.009	123.62
233.243	118.62
233.477	110.62
233.711	131.62
233.945	103.62
234.179	104.62
234.413	118.62
234.647	128.62
234.881	123.62
235.115	133.62
235.349	106.62
235.583	106.62
235.817	123.62
236.051	130.62
236.285	124.62
236.519	135.62
236.753	115.62
236.987	140.62
237.221	194.62
237.455	245.62
237.689	202.62
237.922	149.62
238.156	136.62
238.39	126.62
238.624	126.62
238.858	135.62
239.091	134.62
239.325	125.62
239.559	127.62
239.793	125.62
240.027	136.62
240.26	143.62
240.494	150.62
240.728	153.62
240.961	174.62
241.195	156.62
241.429	151.62
241.662	125.62
241.896	150.62
242.13	130.62
242.363	143.62
242.597	130.62
242.83	148.62
243.064	148.62
243.298	156.62
243.531	145.62
243.765	155.62
243.998	150.62
244.232	140.62
244.465	154.62
244.699	156.62
244.932	154.62
245.166	145.62
245.399	152.62
245.633	154.62
245.866	148.62
246.099	150.62
246.333	161.62
246.566	146.62
246.8	157.62
247.033	158.62
247.266	162.62
247.5	142.62
247.733	169.62
247.966	179.62
248.2	178.62
248.433	185.62
248.666	168.62
248.899	199.62
249.133	202.62
249.366	223.62
249.599	207.62
249.832	192.62
250.066	191.62
250.299	192.62
250.532	206.62
250.765	222.62
250.998	247.62
251.231	258.62
251.465	231.62
251.698	215.62
251.931	209.62
252.164	215.62
252.397	208.62
252.63	208.62
252.863	206.62
253.096	214.62
253.329	234.62
253.562	235.62
253.795	205.62
254.028	213.62
254.261	214.62
254.494	231.62
254.727	265.62
254.96	298.62
255.193	287.62
255.426	260.62
255.659	247.62
255.892	243.62
256.124	234.62
256.357	231.62
256.59	246.62
256.823	231.62
257.056	215.62
257.289	218.62
257.521	227.62
257.754	219.62
257.987	234.62
258.22	233.62
258.452	221.62
258.685	222.62
258.918	213.62
259.151	222.62
259.383	223.62
259.616	228.62
259.849	238.62
260.081	250.62
260.314	285.62
260.547	258.62
260.779	269.62
261.012	266.62
261.244	230.62
261.477	230.62
261.71	226.62
261.942	246.62
262.175	235.62
262.407	242.62
262.64	240.62
262.872	212.62
263.105	223.62
263.337	194.62
263.57	210.62
263.802	214.62
264.035	217.62
264.267	224.62
264.499	233.62
264.732	226.62
264.964	227.62
265.197	226.62
265.429	220.62
265.661	224.62
265.894	224.62
266.126	234.62
266.358	216.62
266.591	237.62
266.823	223.62
267.055	250.62
267.287	253.62
267.52	240.62
267.752	225.62
267.984	245.62
268.216	240.62
268.448	235.62
268.681	230.62
268.913	252.62
269.145	276.62
269.377	289.62
269.609	282.62
269.841	275.62
270.073	278.62
270.306	285.62
270.538	323.62
270.77	318.62
271.002	316.62
271.234	303.62
271.466	310.62
271.698	317.62
271.93	334.62
272.162	327.62
272.394	345.62
272.626	322.62
272.858	306.62
273.09	286.62
273.322	283.62
273.553	264.62
273.785	294.62
274.017	293.62
274.249	263.62
274.481	275.62
274.713	278.62
274.945	287.62
275.176	271.62
275.408	272.62
275.64	279.62
275.872	277.62
276.104	282.62
276.335	275.62
276.567	276.62
276.799	288.62
277.031	313.62
277.262	333.62
277.494	337.62
277.726	309.62
277.957	298.62
278.189	295.62
278.421	280.62
278.652	284.62
278.884	281.62
279.115	270.62
279.347	295.62
279.579	288.62
279.81	283.62
280.042	284.62
280.273	280.62
280.505	271.62
280.736	265.62
280.968	276.62
281.199	278.62
281.431	280.62
281.662	278.62
281.894	288.62
282.125	292.62
282.356	314.62
282.588	327.62
282.819	333.62
283.051	295.62
283.282	272.62
283.513	269.62
283.745	283.62
283.976	299.62
284.207	310.62
284.439	318.62
284.67	301.62
284.901	314.62
285.132	302.62
285.364	311.62
285.595	284.62
285.826	299.62
286.057	297.62
286.288	296.62
286.52	282.62
286.751	279.62
286.982	316.62
287.213	292.62
287.444	296.62
287.675	296.62
287.906	307.62
288.138	326.62
288.369	316.62
288.6	334.62
288.831	315.62
289.062	322.62
289.293	317.62
289.524	294.62
289.755	295.62
289.986	302.62
290.217	290.62
290.448	311.62
290.679	303.62
290.91	316.62
291.141	319.62
291.371	298.62
291.602	313.62
291.833	306.62
292.064	309.62
292.295	302.62
292.526	298.62
292.757	307.62
292.987	302.62
293.218	314.62
293.449	314.62
293.68	315.62
293.91	315.62
294.141	320.62
294.372	309.62
294.603	316.62
294.833	295.62
295.064	308.62
295.295	317.62
295.525	298.62
295.756	312.62
295.987	318.62
296.217	342.62
296.448	356.62
296.679	329.62
296.909	321.62
297.14	326.62
297.37	314.62
297.601	330.62
297.831	319.62
298.062	316.62
298.292	308.62
298.523	328.62
298.753	333.62
298.984	335.62
299.214	311.62
299.445	307.62
299.675	337.62
299.905	332.62
300.136	330.62
300.366	323.62
300.597	342.62
300.827	317.62
301.057	332.62
301.288	346.62
301.518	335.62
301.748	343.62
301.979	351.62
302.209	364.62
302.439	353.62
302.669	364.62
302.9	354.62
303.13	335.62
303.36	338.62
303.59	342.62
303.82	363.62
304.051	336.62
304.281	357.62
304.511	350.62
304.741	325.62
304.971	344.62
305.201	350.62
305.431	346.62
305.661	328.62
305.891	335.62
306.121	335.62
306.352	359.62
306.582	389.62
306.812	347.62
307.042	373.62
307.272	351.62
307.502	359.62
307.731	364.62
307.961	329.62
308.191	363.62
308.421	346.62
308.651	360.62
308.881	374.62
309.111	364.62
309.341	342.62
309.571	357.62
309.8	382.62
310.03	384.62
310.26	400.62
310.49	397.62
310.72	416.62
310.949	431.62
311.179	414.62
311.409	399.62
311.639	400.62
311.868	389.62
312.098	376.62
312.328	391.62
312.557	424.62
312.787	438.62
313.017	422.62
313.246	421.62
313.476	393.62
313.706	401.62
313.935	395.62
314.165	410.62
314.394	432.62
314.624	421.62
314.853	400.62
315.083	416.62
315.312	395.62
315.542	391.62
315.771	388.62
316.001	408.62
316.23	394.62
316.46	403.62
316.689	386.62
316.919	405.62
317.148	402.62
317.377	411.62
317.607	419.62
317.836	405.62
318.065	411.62
318.295	404.62
318.524	387.62
318.753	380.62
318.983	389.62
319.212	415.62
319.441	422.62
319.67	441.62
319.9	404.62
320.129	409.62
320.358	420.62
320.587	400.62
320.816	436.62
321.046	432.62
321.275	424.62
321.504	432.62
321.733	421.62
321.962	451.62
322.191	448.62
322.42	449.62
322.649	472.62
322.878	484.62
323.108	478.62
323.337	504.62
323.566	505.62
323.795	563.62
324.024	571.62
324.253	719.62
324.482	1000.62
324.71	1598.62
324.939	2349.62
325.168	2004.62
325.397	1012.62
325.626	685.62
325.855	591.62
326.084	520.62
326.313	522.62
326.542	531.62
326.77	564.62
326.999	672.62
327.228	941.62
327.457	1410.62
327.686	1804.62
327.914	1184.62
328.143	768.62
328.372	662.62
328.6	610.62
328.829	572.62
329.058	591.62
329.287	609.62
329.515	568.62
329.744	523.62
329.972	514.62
330.201	571.62
330.43	601.62
330.658	607.62
330.887	623.62
331.115	635.62
331.344	558.62
331.572	532.62
331.801	542.62
332.03	522.62
332.258	504.62
332.486	508.62
332.715	472.62
332.943	493.62
333.172	525.62
333.4	486.62
333.629	502.62
333.857	540.62
334.085	528.62
334.314	568.62
334.542	591.62
334.771	595.62
334.999	568.62
335.227	516.62
335.455	512.62
335.684	491.62
335.912	505.62
336.14	491.62
336.369	496.62
336.597	512.62
336.825	503.62
337.053	487.62
337.281	493.62
337.51	463.62
337.738	480.62
337.966	460.62
338.194	487.62
338.422	485.62
338.65	486.62
338.878	485.62
339.106	476.62
339.334	463.62
339.562	467.62
339.79	470.62
340.018	475.62
340.246	457.62
340.474	481.62
340.702	466.62
340.93	477.62
341.158	453.62
341.386	459.62
341.614	452.62
341.842	476.62
342.07	448.62
342.298	474.62
342.526	457.62
342.754	456.62
342.981	461.62
343.209	452.62
343.437	449.62
343.665	465.62
343.893	474.62
344.12	477.62
344.348	468.62
344.576	451.62
344.804	478.62
345.031	489.62
345.259	515.62
345.487	483.62
345.714	462.62
345.942	450.62
346.17	471.62
346.397	455.62
346.625	436.62
346.853	446.62
347.08	471.62
347.308	461.62
347.535	474.62
347.763	465.62
347.99	448.62
348.218	460.62
348.445	470.62
348.673	477.62
348.9	462.62
349.128	457.62
349.355	429.62
349.583	441.62
349.81	442.62
350.037	444.62
350.265	454.62
350.492	446.62
350.72	439.62
350.947	467.62
351.174	466.62
351.402	464.62
351.629	457.62
351.856	483.62
352.083	467.62
352.311	469.62
352.538	456.62
352.765	481.62
352.992	476.62
353.22	466.62
353.447	453.62
353.674	460.62
353.901	443.62
354.128	418.62
354.355	421.62
354.583	453.62
354.81	438.62
355.037	458.62
355.264	419.62
355.491	414.62
355.718	408.62
355.945	413.62
356.172	429.62
356.399	430.62
356.626	439.62
356.853	444.62
357.08	405.62
357.307	436.62
357.534	424.62
357.761	416.62
357.988	450.62
358.215	436.62
358.441	430.62
358.668	444.62
358.895	436.62
359.122	432.62
359.349	438.62
359.576	464.62
359.802	474.62
360.029	525.62
360.256	498.62
360.483	486.62
360.709	476.62
360.936	451.62
361.163	452.62
361.39	463.62
361.616	475.62
361.843	461.62
362.07	459.62
362.296	468.62
362.523	453.62
362.749	443.62
362.976	447.62
363.203	424.62
363.429	441.62
363.656	450.62
363.882	438.62
364.109	452.62
364.335	448.62
364.562	434.62
364.788	432.62
365.015	414.62
365.241	448.62
365.468	434.62
365.694	444.62
365.92	475.62
366.147	434.62
366.373	437.62
366.599	427.62
366.826	432.62
367.052	446.62
367.278	441.62
367.505	451.62
367.731	450.62
367.957	456.62
368.184	431.62
368.41	441.62
368.636	460.62
368.862	475.62
369.089	471.62
369.315	448.62
369.541	442.62
369.767	450.62
369.993	431.62
370.219	430.62
370.445	445.62
370.672	439.62
370.898	422.62
371.124	447.62
371.35	442.62
371.576	466.62
371.802	450.62
372.028	427.62
372.254	441.62
372.48	458.62
372.706	458.62
372.932	462.62
373.158	455.62
373.384	457.62
373.61	447.62
373.835	460.62
374.061	438.62
374.287	456.62
374.513	475.62
374.739	453.62
374.965	446.62
375.191	452.62
375.416	473.62
375.642	431.62
375.868	464.62
376.094	458.62
376.319	437.62
376.545	456.62
376.771	450.62
376.997	457.62
377.222	451.62
377.448	450.62
377.674	445.62
377.899	454.62
378.125	434.62
378.35	434.62
378.576	439.62
378.802	443.62
379.027	431.62
379.253	430.62
379.478	468.62
379.704	440.62
379.929	461.62
380.155	470.62
380.38	450.62
380.606	477.62
380.831	455.62
381.057	454.62
381.282	472.62
381.507	447.62
381.733	447.62
381.958	455.62
382.184	471.62
382.409	469.62
382.634	471.62
382.86	479.62
383.085	464.62
383.31	454.62
383.535	475.62
383.761	474.62
383.986	479.62
384.211	479.62
384.436	481.62
384.662	482.62
384.887	481.62
385.112	496.62
385.337	487.62
385.562	493.62
385.787	492.62
386.013	505.62
386.238	515.62
386.463	496.62
386.688	514.62
386.913	502.62
387.138	509.62
387.363	493.62
387.588	494.62
387.813	511.62
388.038	500.62
388.263	511.62
388.488	501.62
388.713	488.62
388.938	494.62
389.163	504.62
389.387	510.62
389.612	498.62
389.837	532.62
390.062	502.62
390.287	484.62
390.512	491.62
390.736	487.62
390.961	487.62
391.186	504.62
391.411	528.62
391.636	516.62
391.86	531.62
392.085	546.62
392.31	527.62
392.534	516.62
392.759	519.62
392.984	486.62
393.208	512.62
393.433	522.62
393.658	510.62
393.882	494.62
394.107	522.62
394.331	516.62
394.556	508.62
394.78	522.62
395.005	519.62
395.229	494.62
395.454	518.62
395.678	531.62
395.903	517.62
396.127	535.62
396.352	592.62
396.576	529.62
396.801	552.62
397.025	539.62
397.249	528.62
397.474	543.62
397.698	535.62
397.922	535.62
398.147	568.62
398.371	568.62
398.595	582.62
398.82	585.62
399.044	608.62
399.268	606.62
399.492	645.62
399.717	676.62
399.941	692.62
400.165	725.62
400.389	737.62
400.613	687.62
400.837	655.62
401.062	601.62
401.286	599.62
401.51	589.62
401.734	586.62
401.958	626.62
402.182	598.62
402.406	600.62
402.63	608.62
402.854	603.62
403.078	610.62
403.302	618.62
403.526	626.62
403.75	610.62
403.974	598.62
404.198	618.62
404.422	620.62
404.645	630.62
404.869	625.62
405.093	627.62
405.317	698.62
405.541	734.62
405.765	692.62
405.988	642.62
406.212	666.62
406.436	683.62
406.66	673.62
406.883	651.62
407.107	690.62
407.331	747.62
407.555	796.62
407.778	797.62
408.002	734.62
408.226	688.62
408.449	664.62
408.673	680.62
408.896	705.62
409.12	752.62
409.344	709.62
409.567	623.62
409.791	638.62
410.014	618.62
410.238	611.62
410.461	615.62
410.685	613.62
410.908	643.62
411.132	687.62
411.355	722.62
411.578	674.62
411.802	616.62
412.025	589.62
412.249	642.62
412.472	666.62
412.695	697.62
412.919	695.62
413.142	637.62
413.365	604.62
413.589	605.62
413.812	591.62
414.035	574.62
414.258	594.62
414.482	592.62
414.705	589.62
414.928	572.62
415.151	562.62
415.374	599.62
415.597	594.62
415.821	595.62
416.044	591.62
416.267	566.62
416.49	564.62
416.713	563.62
416.936	559.62
417.159	606.62
417.382	575.62
417.605	586.62
417.828	596.62
418.051	592.62
418.274	582.62
418.497	584.62
418.72	585.62
418.943	563.62
419.166	578.62
419.389	640.62
419.611	617.62
419.834	613.62
420.057	624.62
420.28	626.62
420.503	620.62
420.726	608.62
420.948	618.62
421.171	690.62
421.394	685.62
421.617	648.62
421.839	604.62
422.062	613.62
422.285	632.62
422.507	687.62
422.73	783.62
422.953	734.62
423.175	639.62
423.398	632.62
423.621	630.62
423.843	645.62
424.066	648.62
424.288	647.62
424.511	671.62
424.733	751.62
424.956	812.62
425.178	777.62
425.401	795.62
425.623	815.62
425.846	700.62
426.068	649.62
426.291	656.62
426.513	674.62
426.735	663.62
426.958	679.62
427.18	785.62
427.402	982.62
427.625	1054.62
427.847	889.62
428.069	794.62
428.292	709.62
428.514	652.62
428.736	631.62
428.958	612.62
429.181	599.62
429.403	588.62
429.625	609.62
429.847	642.62
430.069	734.62
430.292	716.62
430.514	614.62
430.736	579.62
430.958	601.62
431.18	580.62
431.402	586.62
431.624	549.62
431.846	555.62
432.068	544.62
432.29	582.62
432.512	586.62
432.734	583.62
432.956	589.62
433.178	568.62
433.4	568.62
433.622	589.62
433.844	574.62
434.066	567.62
434.287	564.62
434.509	581.62
434.731	569.62
434.953	589.62
435.175	609.62
435.397	652.62
435.618	640.62
435.84	696.62
436.062	807.62
436.284	882.62
436.505	730.62
436.727	663.62
436.949	620.62
437.17	592.62
437.392	604.62
437.614	611.62
437.835	643.62
438.057	772.62
438.278	887.62
438.5	861.62
438.721	987.62
438.943	929.62
439.165	723.62
439.386	684.62
439.608	642.62
439.829	645.62
440.05	685.62
440.272	730.62
440.493	698.62
440.715	640.62
440.936	635.62
441.158	619.62
441.379	606.62
441.6	621.62
441.822	651.62
442.043	708.62
442.264	809.62
442.486	860.62
442.707	703.62
442.928	657.62
443.149	703.62
443.371	690.62
443.592	730.62
443.813	865.62
444.034	907.62
444.255	739.62
444.476	663.62
444.698	660.62
444.919	672.62
445.14	761.62
445.361	720.62
445.582	710.62
445.803	792.62
446.024	923.62
446.245	901.62
446.466	821.62
446.687	703.62
446.908	667.62
447.129	620.62
447.35	594.62
447.571	593.62
447.792	574.62
448.013	603.62
448.234	605.62
448.455	681.62
448.675	803.62
448.896	901.62
449.117	783.62
449.338	736.62
449.559	861.62
449.779	983.62
450	768.62
450.221	654.62
450.442	589.62
450.662	590.62
450.883	580.62
451.104	612.62
451.324	594.62
451.545	581.62
451.766	572.62
451.986	521.62
452.207	514.62
452.428	510.62
452.648	527.62
452.869	536.62
453.089	551.62
453.31	586.62
453.53	535.62
453.751	524.62
453.971	529.62
454.192	564.62
454.412	536.62
454.633	557.62
454.853	527.62
455.073	532.62
455.294	575.62
455.514	644.62
455.734	634.62
455.955	547.62
456.175	518.62
456.395	504.62
456.616	516.62
456.836	531.62
457.056	496.62
457.276	528.62
457.497	511.62
457.717	532.62
457.937	526.62
458.157	530.62
458.377	527.62
458.598	548.62
458.818	608.62
459.038	690.62
459.258	714.62
459.478	611.62
459.698	591.62
459.918	563.62
460.138	563.62
460.358	591.62
460.578	592.62
460.798	598.62
461.018	601.62
461.238	587.62
461.458	587.62
461.678	585.62
461.898	568.62
462.118	586.62
462.338	584.62
462.558	617.62
462.777	621.62
462.997	637.62
463.217	641.62
463.437	670.62
463.657	646.62
463.876	634.62
464.096	631.62
464.316	610.62
464.536	640.62
464.755	609.62
464.975	638.62
465.195	654.62
465.414	715.62
465.634	664.62
465.854	602.62
466.073	597.62
466.293	576.62
466.512	581.62
466.732	564.62
466.951	552.62
467.171	551.62
467.391	539.62
467.61	578.62
467.829	580.62
468.049	555.62
468.268	569.62
468.488	558.62
468.707	527.62
468.927	541.62
469.146	537.62
469.365	562.62
469.585	533.62
469.804	544.62
470.023	565.62
470.243	551.62
470.462	574.62
470.681	583.62
470.901	575.62
471.12	570.62
471.339	546.62
471.558	579.62
471.777	542.62
471.997	546.62
472.216	565.62
472.435	613.62
472.654	587.62
472.873	548.62
473.092	564.62
473.311	540.62
473.53	568.62
473.749	573.62
473.968	602.62
474.187	727.62
474.406	770.62
474.625	616.62
474.844	595.62
475.063	545.62
475.282	547.62
475.501	569.62
475.72	568.62
475.939	589.62
476.158	567.62
476.377	566.62
476.596	574.62
476.814	596.62
477.033	595.62
477.252	592.62
477.471	596.62
477.69	606.62
477.908	603.62
478.127	607.62
478.346	614.62
478.564	620.62
478.783	646.62
479.002	656.62
479.22	637.62
479.439	644.62
479.658	676.62
479.876	676.62
480.095	694.62
480.313	698.62
480.532	697.62
480.751	716.62
480.969	699.62
481.188	755.62
481.406	814.62
481.624	745.62
481.843	687.62
482.061	700.62
482.28	682.62
482.498	663.62
482.717	677.62
482.935	677.62
483.153	659.62
483.372	640.62
483.59	661.62
483.808	669.62
484.027	651.62
484.245	681.62
484.463	668.62
484.681	695.62
484.9	674.62
485.118	658.62
485.336	662.62
485.554	696.62
485.772	694.62
485.99	668.62
486.209	699.62
486.427	641.62
486.645	687.62
486.863	718.62
487.081	726.62
487.299	719.62
487.517	696.62
487.735	693.62
487.953	712.62
488.171	718.62
488.389	728.62
488.607	696.62
488.825	688.62
489.043	712.62
489.261	722.62
489.479	729.62
489.696	739.62
489.914	741.62
490.132	725.62
490.35	729.62
490.568	725.62
490.786	766.62
491.003	761.62
491.221	794.62
491.439	820.62
491.657	806.62
491.874	810.62
492.092	844.62
492.31	794.62
492.527	822.62
492.745	833.62
492.963	857.62
493.18	822.62
493.398	840.62
493.615	845.62
493.833	844.62
494.05	863.62
494.268	842.62
494.485	831.62
494.703	839.62
494.92	826.62
495.138	839.62
495.355	842.62
495.573	864.62
495.79	854.62
496.008	862.62
496.225	847.62
496.442	843.62
496.66	847.62
496.877	869.62
497.094	857.62
497.312	859.62
497.529	864.62
497.746	870.62
497.963	895.62
498.181	932.62
498.398	922.62
498.615	934.62
498.832	964.62
499.049	979.62
499.267	1019.62
499.484	1050.62
499.701	1092.62
499.918	1124.62
500.135	1177.62
500.352	1233.62
500.569	1244.62
500.786	1241.62
501.003	1236.62
501.22	1202.62
501.437	1126.62
501.654	1123.62
