Data from 1966.PennyLincolnUp.Lamp.En5.5.200Scan.071719.P1._HRD10591_14-13-21-914.txt Node
Date: Thu Jul 18 14:13:21 EDT 2019
User: cochatt
Spectrometer: HR+D1059
Trigger mode: 1
Integration Time (sec): 1.000000E-1
Scans to average: 1
Electric dark correction enabled: true
Nonlinearity correction enabled: false
Boxcar width: 0
XAxis mode: Wavelengths
Number of Pixels in Spectrum: 2048
>>>>>Begin Spectral Data<<<<<
223.165	-13.38
223.4	-13.38
223.635	-13.38
223.869	-19.38
224.104	-13.38
224.338	-17.38
224.573	-11.38
224.808	-8.38
225.042	-5.38
225.277	-6.38
225.511	-8.38
225.746	-15.38
225.98	10.62
226.215	9.62
226.449	20.62
226.683	38.62
226.918	22.62
227.152	16.62
227.387	35.62
227.621	40.62
227.856	35.62
228.09	35.62
228.324	45.62
228.559	55.62
228.793	57.62
229.027	77.62
229.262	78.62
229.496	86.62
229.73	73.62
229.964	88.62
230.199	80.62
230.433	92.62
230.667	92.62
230.901	78.62
231.136	85.62
231.37	98.62
231.604	92.62
231.838	102.62
232.072	99.62
232.306	86.62
232.541	99.62
232.775	85.62
233.009	105.62
233.243	109.62
233.477	102.62
233.711	99.62
233.945	80.62
234.179	91.62
234.413	100.62
234.647	90.62
234.881	102.62
235.115	110.62
235.349	88.62
235.583	94.62
235.817	104.62
236.051	99.62
236.285	95.62
236.519	107.62
236.753	109.62
236.987	117.62
237.221	118.62
237.455	131.62
237.689	119.62
237.922	95.62
238.156	94.62
238.39	90.62
238.624	94.62
238.858	87.62
239.091	87.62
239.325	114.62
239.559	114.62
239.793	84.62
240.027	96.62
240.26	94.62
240.494	127.62
240.728	109.62
240.961	113.62
241.195	94.62
241.429	104.62
241.662	106.62
241.896	111.62
242.13	101.62
242.363	100.62
242.597	116.62
242.83	106.62
243.064	88.62
243.298	107.62
243.531	109.62
243.765	104.62
243.998	107.62
244.232	103.62
244.465	105.62
244.699	107.62
244.932	112.62
245.166	119.62
245.399	98.62
245.633	111.62
245.866	109.62
246.099	115.62
246.333	108.62
246.566	103.62
246.8	104.62
247.033	100.62
247.266	108.62
247.5	123.62
247.733	118.62
247.966	126.62
248.2	120.62
248.433	121.62
248.666	127.62
248.899	130.62
249.133	127.62
249.366	134.62
249.599	115.62
249.832	120.62
250.066	128.62
250.299	135.62
250.532	125.62
250.765	131.62
250.998	157.62
251.231	138.62
251.465	132.62
251.698	126.62
251.931	133.62
252.164	123.62
252.397	114.62
252.63	131.62
252.863	139.62
253.096	137.62
253.329	145.62
253.562	140.62
253.795	122.62
254.028	124.62
254.261	143.62
254.494	148.62
254.727	164.62
254.96	167.62
255.193	174.62
255.426	165.62
255.659	162.62
255.892	156.62
256.124	144.62
256.357	152.62
256.59	133.62
256.823	130.62
257.056	131.62
257.289	123.62
257.521	130.62
257.754	128.62
257.987	131.62
258.22	134.62
258.452	126.62
258.685	133.62
258.918	136.62
259.151	134.62
259.383	143.62
259.616	125.62
259.849	148.62
260.081	145.62
260.314	153.62
260.547	160.62
260.779	146.62
261.012	156.62
261.244	143.62
261.477	142.62
261.71	145.62
261.942	150.62
262.175	157.62
262.407	126.62
262.64	136.62
262.872	143.62
263.105	135.62
263.337	125.62
263.57	132.62
263.802	140.62
264.035	147.62
264.267	141.62
264.499	129.62
264.732	123.62
264.964	130.62
265.197	125.62
265.429	126.62
265.661	125.62
265.894	128.62
266.126	144.62
266.358	142.62
266.591	134.62
266.823	131.62
267.055	148.62
267.287	142.62
267.52	132.62
267.752	135.62
267.984	153.62
268.216	147.62
268.448	139.62
268.681	141.62
268.913	148.62
269.145	161.62
269.377	169.62
269.609	174.62
269.841	154.62
270.073	152.62
270.306	191.62
270.538	190.62
270.77	189.62
271.002	176.62
271.234	169.62
271.466	181.62
271.698	181.62
271.93	182.62
272.162	182.62
272.394	196.62
272.626	167.62
272.858	156.62
273.09	165.62
273.322	162.62
273.553	149.62
273.785	150.62
274.017	170.62
274.249	153.62
274.481	157.62
274.713	135.62
274.945	149.62
275.176	152.62
275.408	146.62
275.64	169.62
275.872	153.62
276.104	160.62
276.335	148.62
276.567	172.62
276.799	167.62
277.031	183.62
277.262	195.62
277.494	198.62
277.726	183.62
277.957	161.62
278.189	173.62
278.421	165.62
278.652	174.62
278.884	153.62
279.115	168.62
279.347	152.62
279.579	146.62
279.81	146.62
280.042	154.62
280.273	164.62
280.505	159.62
280.736	155.62
280.968	141.62
281.199	159.62
281.431	139.62
281.662	154.62
281.894	158.62
282.125	153.62
282.356	184.62
282.588	191.62
282.819	178.62
283.051	180.62
283.282	167.62
283.513	155.62
283.745	166.62
283.976	168.62
284.207	156.62
284.439	166.62
284.67	169.62
284.901	164.62
285.132	168.62
285.364	160.62
285.595	162.62
285.826	165.62
286.057	176.62
286.288	163.62
286.52	160.62
286.751	172.62
286.982	170.62
287.213	160.62
287.444	152.62
287.675	170.62
287.906	173.62
288.138	175.62
288.369	184.62
288.6	166.62
288.831	168.62
289.062	187.62
289.293	162.62
289.524	162.62
289.755	176.62
289.986	170.62
290.217	158.62
290.448	169.62
290.679	172.62
290.91	159.62
291.141	170.62
291.371	169.62
291.602	185.62
291.833	167.62
292.064	173.62
292.295	174.62
292.526	166.62
292.757	157.62
292.987	167.62
293.218	167.62
293.449	178.62
293.68	188.62
293.91	184.62
294.141	174.62
294.372	162.62
294.603	172.62
294.833	154.62
295.064	173.62
295.295	140.62
295.525	170.62
295.756	158.62
295.987	173.62
296.217	199.62
296.448	210.62
296.679	188.62
296.909	181.62
297.14	178.62
297.37	166.62
297.601	170.62
297.831	193.62
298.062	173.62
298.292	170.62
298.523	173.62
298.753	172.62
298.984	182.62
299.214	189.62
299.445	180.62
299.675	174.62
299.905	189.62
300.136	185.62
300.366	179.62
300.597	194.62
300.827	178.62
301.057	189.62
301.288	184.62
301.518	194.62
301.748	168.62
301.979	197.62
302.209	182.62
302.439	198.62
302.669	182.62
302.9	174.62
303.13	178.62
303.36	178.62
303.59	184.62
303.82	184.62
304.051	191.62
304.281	183.62
304.511	179.62
304.741	179.62
304.971	191.62
305.201	184.62
305.431	196.62
305.661	200.62
305.891	184.62
306.121	195.62
306.352	205.62
306.582	178.62
306.812	182.62
307.042	179.62
307.272	180.62
307.502	195.62
307.731	200.62
307.961	178.62
308.191	166.62
308.421	182.62
308.651	189.62
308.881	176.62
309.111	187.62
309.341	185.62
309.571	196.62
309.8	198.62
310.03	197.62
310.26	209.62
310.49	221.62
310.72	211.62
310.949	208.62
311.179	207.62
311.409	206.62
311.639	212.62
311.868	202.62
312.098	203.62
312.328	206.62
312.557	228.62
312.787	212.62
313.017	226.62
313.246	199.62
313.476	206.62
313.706	208.62
313.935	194.62
314.165	212.62
314.394	218.62
314.624	203.62
314.853	202.62
315.083	198.62
315.312	197.62
315.542	186.62
315.771	205.62
316.001	187.62
316.23	206.62
316.46	194.62
316.689	208.62
316.919	220.62
317.148	221.62
317.377	203.62
317.607	213.62
317.836	202.62
318.065	197.62
318.295	186.62
318.524	198.62
318.753	207.62
318.983	205.62
319.212	208.62
319.441	211.62
319.67	211.62
319.9	208.62
320.129	205.62
320.358	200.62
320.587	205.62
320.816	206.62
321.046	223.62
321.275	225.62
321.504	215.62
321.733	197.62
321.962	208.62
322.191	229.62
322.42	239.62
322.649	247.62
322.878	259.62
323.108	243.62
323.337	259.62
323.566	255.62
323.795	275.62
324.024	296.62
324.253	345.62
324.482	520.62
324.71	746.62
324.939	986.62
325.168	820.62
325.397	413.62
325.626	299.62
325.855	267.62
326.084	258.62
326.313	238.62
326.542	244.62
326.77	274.62
326.999	355.62
327.228	463.62
327.457	655.62
327.686	746.62
327.914	504.62
328.143	334.62
328.372	308.62
328.6	312.62
328.829	293.62
329.058	295.62
329.287	301.62
329.515	284.62
329.744	279.62
329.972	259.62
330.201	271.62
330.43	301.62
330.658	303.62
330.887	330.62
331.115	327.62
331.344	252.62
331.572	256.62
331.801	277.62
332.03	256.62
332.258	264.62
332.486	255.62
332.715	231.62
332.943	240.62
333.172	217.62
333.4	225.62
333.629	235.62
333.857	243.62
334.085	281.62
334.314	291.62
334.542	271.62
334.771	296.62
334.999	257.62
335.227	242.62
335.455	246.62
335.684	228.62
335.912	242.62
336.14	229.62
336.369	231.62
336.597	239.62
336.825	226.62
337.053	226.62
337.281	240.62
337.51	207.62
337.738	217.62
337.966	242.62
338.194	225.62
338.422	234.62
338.65	221.62
338.878	226.62
339.106	231.62
339.334	230.62
339.562	222.62
339.79	234.62
340.018	230.62
340.246	207.62
340.474	215.62
340.702	213.62
340.93	219.62
341.158	234.62
341.386	231.62
341.614	222.62
341.842	215.62
342.07	203.62
342.298	216.62
342.526	225.62
342.754	209.62
342.981	205.62
343.209	226.62
343.437	231.62
343.665	217.62
343.893	227.62
344.12	242.62
344.348	240.62
344.576	236.62
344.804	225.62
345.031	249.62
345.259	239.62
345.487	239.62
345.714	237.62
345.942	220.62
346.17	221.62
346.397	216.62
346.625	222.62
346.853	214.62
347.08	207.62
347.308	221.62
347.535	228.62
347.763	218.62
347.99	235.62
348.218	229.62
348.445	237.62
348.673	229.62
348.9	208.62
349.128	210.62
349.355	214.62
349.583	220.62
349.81	208.62
350.037	216.62
350.265	196.62
350.492	193.62
350.72	213.62
350.947	215.62
351.174	217.62
351.402	207.62
351.629	241.62
351.856	219.62
352.083	217.62
352.311	228.62
352.538	235.62
352.765	216.62
352.992	220.62
353.22	218.62
353.447	208.62
353.674	202.62
353.901	210.62
354.128	204.62
354.355	200.62
354.583	197.62
354.81	196.62
355.037	205.62
355.264	195.62
355.491	217.62
355.718	198.62
355.945	206.62
356.172	196.62
356.399	205.62
356.626	200.62
356.853	198.62
357.08	195.62
357.307	205.62
357.534	212.62
357.761	226.62
357.988	207.62
358.215	200.62
358.441	200.62
358.668	185.62
358.895	199.62
359.122	204.62
359.349	211.62
359.576	202.62
359.802	234.62
360.029	230.62
360.256	239.62
360.483	231.62
360.709	220.62
360.936	230.62
361.163	214.62
361.39	237.62
361.616	212.62
361.843	208.62
362.07	220.62
362.296	235.62
362.523	221.62
362.749	214.62
362.976	211.62
363.203	216.62
363.429	209.62
363.656	199.62
363.882	213.62
364.109	205.62
364.335	197.62
364.562	187.62
364.788	195.62
365.015	198.62
365.241	199.62
365.468	219.62
365.694	204.62
365.92	206.62
366.147	213.62
366.373	220.62
366.599	197.62
366.826	199.62
367.052	199.62
367.278	212.62
367.505	216.62
367.731	208.62
367.957	198.62
368.184	202.62
368.41	197.62
368.636	215.62
368.862	213.62
369.089	220.62
369.315	215.62
369.541	212.62
369.767	209.62
369.993	222.62
370.219	194.62
370.445	214.62
370.672	208.62
370.898	199.62
371.124	208.62
371.35	195.62
371.576	200.62
371.802	186.62
372.028	192.62
372.254	196.62
372.48	208.62
372.706	194.62
372.932	211.62
373.158	196.62
373.384	213.62
373.61	204.62
373.835	218.62
374.061	213.62
374.287	195.62
374.513	207.62
374.739	192.62
374.965	205.62
375.191	214.62
375.416	210.62
375.642	203.62
375.868	212.62
376.094	190.62
376.319	206.62
376.545	194.62
376.771	203.62
376.997	214.62
377.222	212.62
377.448	208.62
377.674	213.62
377.899	207.62
378.125	196.62
378.35	198.62
378.576	194.62
378.802	185.62
379.027	201.62
379.253	203.62
379.478	186.62
379.704	210.62
379.929	202.62
380.155	204.62
380.38	191.62
380.606	204.62
380.831	218.62
381.057	211.62
381.282	194.62
381.507	212.62
381.733	208.62
381.958	208.62
382.184	186.62
382.409	208.62
382.634	203.62
382.86	197.62
383.085	204.62
383.31	216.62
383.535	218.62
383.761	204.62
383.986	214.62
384.211	210.62
384.436	215.62
384.662	214.62
384.887	218.62
385.112	205.62
385.337	207.62
385.562	220.62
385.787	214.62
386.013	242.62
386.238	230.62
386.463	216.62
386.688	210.62
386.913	220.62
387.138	210.62
387.363	230.62
387.588	217.62
387.813	216.62
388.038	214.62
388.263	209.62
388.488	216.62
388.713	220.62
388.938	215.62
389.163	225.62
389.387	216.62
389.612	219.62
389.837	223.62
390.062	207.62
390.287	214.62
390.512	221.62
390.736	210.62
390.961	219.62
391.186	214.62
391.411	216.62
391.636	227.62
391.86	230.62
392.085	221.62
392.31	221.62
392.534	229.62
392.759	228.62
392.984	206.62
393.208	229.62
393.433	218.62
393.658	244.62
393.882	230.62
394.107	215.62
394.331	223.62
394.556	218.62
394.78	201.62
395.005	229.62
395.229	236.62
395.454	222.62
395.678	213.62
395.903	238.62
396.127	235.62
396.352	232.62
396.576	246.62
396.801	218.62
397.025	233.62
397.249	239.62
397.474	227.62
397.698	225.62
397.922	237.62
398.147	231.62
398.371	240.62
398.595	230.62
398.82	235.62
399.044	240.62
399.268	260.62
399.492	273.62
399.717	289.62
399.941	294.62
400.165	293.62
400.389	300.62
400.613	269.62
400.837	267.62
401.062	250.62
401.286	267.62
401.51	244.62
401.734	246.62
401.958	242.62
402.182	247.62
402.406	240.62
402.63	271.62
402.854	265.62
403.078	270.62
403.302	240.62
403.526	269.62
403.75	263.62
403.974	256.62
404.198	263.62
404.422	252.62
404.645	246.62
404.869	254.62
405.093	274.62
405.317	311.62
405.541	310.62
405.765	278.62
405.988	279.62
406.212	277.62
406.436	296.62
406.66	291.62
406.883	279.62
407.107	291.62
407.331	313.62
407.555	333.62
407.778	317.62
408.002	322.62
408.226	289.62
408.449	286.62
408.673	284.62
408.896	289.62
409.12	287.62
409.344	276.62
409.567	269.62
409.791	263.62
410.014	255.62
410.238	236.62
410.461	267.62
410.685	259.62
410.908	264.62
411.132	267.62
411.355	308.62
411.578	272.62
411.802	247.62
412.025	242.62
412.249	244.62
412.472	270.62
412.695	291.62
412.919	276.62
413.142	256.62
413.365	253.62
413.589	248.62
413.812	233.62
414.035	244.62
414.258	245.62
414.482	251.62
414.705	237.62
414.928	231.62
415.151	258.62
415.374	231.62
415.597	256.62
415.821	249.62
416.044	235.62
416.267	240.62
416.49	231.62
416.713	242.62
416.936	260.62
417.159	244.62
417.382	240.62
417.605	252.62
417.828	238.62
418.051	262.62
418.274	266.62
418.497	255.62
418.72	241.62
418.943	245.62
419.166	268.62
419.389	261.62
419.611	246.62
419.834	269.62
420.057	257.62
420.28	258.62
420.503	262.62
420.726	255.62
420.948	267.62
421.171	276.62
421.394	290.62
421.617	258.62
421.839	261.62
422.062	266.62
422.285	270.62
422.507	283.62
422.73	310.62
422.953	306.62
423.175	276.62
423.398	273.62
423.621	247.62
423.843	273.62
424.066	278.62
424.288	266.62
424.511	280.62
424.733	290.62
424.956	339.62
425.178	306.62
425.401	331.62
425.623	333.62
425.846	276.62
426.068	273.62
426.291	265.62
426.513	269.62
426.735	268.62
426.958	280.62
427.18	311.62
427.402	362.62
427.625	420.62
427.847	372.62
428.069	306.62
428.292	290.62
428.514	261.62
428.736	247.62
428.958	242.62
429.181	245.62
429.403	258.62
429.625	273.62
429.847	278.62
430.069	302.62
430.292	286.62
430.514	250.62
430.736	242.62
430.958	259.62
431.18	256.62
431.402	229.62
431.624	244.62
431.846	227.62
432.068	260.62
432.29	256.62
432.512	253.62
432.734	230.62
432.956	246.62
433.178	245.62
433.4	230.62
433.622	248.62
433.844	247.62
434.066	233.62
434.287	242.62
434.509	256.62
434.731	259.62
434.953	252.62
435.175	268.62
435.397	260.62
435.618	250.62
435.84	286.62
436.062	343.62
436.284	357.62
436.505	302.62
436.727	279.62
436.949	245.62
437.17	263.62
437.392	249.62
437.614	247.62
437.835	269.62
438.057	311.62
438.278	362.62
438.5	357.62
438.721	379.62
438.943	360.62
439.165	294.62
439.386	282.62
439.608	260.62
439.829	272.62
440.05	296.62
440.272	315.62
440.493	297.62
440.715	262.62
440.936	246.62
441.158	270.62
441.379	247.62
441.6	275.62
441.822	279.62
442.043	298.62
442.264	328.62
442.486	356.62
442.707	298.62
442.928	272.62
443.149	296.62
443.371	310.62
443.592	331.62
443.813	355.62
444.034	363.62
444.255	309.62
444.476	282.62
444.698	262.62
444.919	275.62
445.14	372.62
445.361	317.62
445.582	296.62
445.803	343.62
446.024	385.62
446.245	365.62
446.466	334.62
446.687	285.62
446.908	265.62
447.129	276.62
447.35	250.62
447.571	258.62
447.792	239.62
448.013	224.62
448.234	258.62
448.455	298.62
448.675	327.62
448.896	362.62
449.117	316.62
449.338	303.62
449.559	365.62
449.779	386.62
450	314.62
450.221	264.62
450.442	268.62
450.662	248.62
450.883	263.62
451.104	277.62
451.324	250.62
451.545	242.62
451.766	234.62
451.986	213.62
452.207	221.62
452.428	223.62
452.648	230.62
452.869	222.62
453.089	243.62
453.31	246.62
453.53	256.62
453.751	229.62
453.971	243.62
454.192	237.62
454.412	233.62
454.633	226.62
454.853	215.62
455.073	223.62
455.294	250.62
455.514	280.62
455.734	264.62
455.955	232.62
456.175	217.62
456.395	219.62
456.616	214.62
456.836	221.62
457.056	212.62
457.276	212.62
457.497	224.62
457.717	205.62
457.937	224.62
458.157	235.62
458.377	232.62
458.598	233.62
458.818	283.62
459.038	317.62
459.258	300.62
459.478	263.62
459.698	237.62
459.918	250.62
460.138	234.62
460.358	244.62
460.578	260.62
460.798	237.62
461.018	266.62
461.238	242.62
461.458	246.62
461.678	256.62
461.898	238.62
462.118	244.62
462.338	251.62
462.558	244.62
462.777	247.62
462.997	270.62
463.217	246.62
463.437	268.62
463.657	272.62
463.876	261.62
464.096	288.62
464.316	250.62
464.536	267.62
464.755	255.62
464.975	256.62
465.195	287.62
465.414	364.62
465.634	301.62
465.854	262.62
466.073	287.62
466.293	227.62
466.512	248.62
466.732	238.62
466.951	239.62
467.171	261.62
467.391	237.62
467.61	249.62
467.829	262.62
468.049	243.62
468.268	233.62
468.488	218.62
468.707	226.62
468.927	227.62
469.146	219.62
469.365	231.62
469.585	237.62
469.804	235.62
470.023	238.62
470.243	236.62
470.462	234.62
470.681	264.62
470.901	246.62
471.12	232.62
471.339	240.62
471.558	259.62
471.777	230.62
471.997	233.62
472.216	233.62
472.435	273.62
472.654	243.62
472.873	247.62
473.092	248.62
473.311	252.62
473.53	235.62
473.749	256.62
473.968	264.62
474.187	325.62
474.406	326.62
474.625	266.62
474.844	255.62
475.063	233.62
475.282	216.62
475.501	230.62
475.72	238.62
475.939	251.62
476.158	246.62
476.377	237.62
476.596	263.62
476.814	262.62
477.033	263.62
477.252	266.62
477.471	262.62
477.69	257.62
477.908	267.62
478.127	255.62
478.346	251.62
478.564	274.62
478.783	246.62
479.002	267.62
479.22	275.62
479.439	281.62
479.658	307.62
479.876	288.62
480.095	281.62
480.313	326.62
480.532	314.62
480.751	293.62
480.969	278.62
481.188	352.62
481.406	377.62
481.624	306.62
481.843	284.62
482.061	276.62
482.28	292.62
482.498	285.62
482.717	276.62
482.935	285.62
483.153	270.62
483.372	293.62
483.59	274.62
483.808	258.62
484.027	259.62
484.245	285.62
484.463	252.62
484.681	285.62
484.9	282.62
485.118	286.62
485.336	285.62
485.554	280.62
485.772	287.62
485.99	283.62
486.209	278.62
486.427	287.62
486.645	314.62
486.863	320.62
487.081	294.62
487.299	296.62
487.517	298.62
487.735	283.62
487.953	267.62
488.171	286.62
488.389	296.62
488.607	279.62
488.825	300.62
489.043	280.62
489.261	283.62
489.479	302.62
489.696	305.62
489.914	302.62
490.132	298.62
490.35	297.62
490.568	330.62
490.786	315.62
491.003	322.62
491.221	340.62
491.439	337.62
491.657	356.62
491.874	358.62
492.092	356.62
492.31	355.62
492.527	362.62
492.745	351.62
492.963	355.62
493.18	345.62
493.398	350.62
493.615	360.62
493.833	344.62
494.05	351.62
494.268	362.62
494.485	347.62
494.703	360.62
494.92	357.62
495.138	342.62
495.355	365.62
495.573	349.62
495.79	330.62
496.008	342.62
496.225	338.62
496.442	346.62
496.66	338.62
496.877	334.62
497.094	341.62
497.312	339.62
497.529	349.62
497.746	354.62
497.963	361.62
498.181	343.62
498.398	344.62
498.615	371.62
498.832	359.62
499.049	366.62
499.267	365.62
499.484	400.62
499.701	409.62
499.918	419.62
500.135	449.62
500.352	445.62
500.569	448.62
500.786	453.62
501.003	455.62
501.22	442.62
501.437	420.62
501.654	413.62
501.871	423.62
502.088	414.62
502.305	367.62
502.522	357.62
