Data from 1966.PennyLincolnUp.Lamp.En5.5.200Scan.071719.P1._HRD10591_14-13-13-914.txt Node
Date: Thu Jul 18 14:13:13 EDT 2019
User: cochatt
Spectrometer: HR+D1059
Trigger mode: 1
Integration Time (sec): 1.000000E-1
Scans to average: 1
Electric dark correction enabled: true
Nonlinearity correction enabled: false
Boxcar width: 0
XAxis mode: Wavelengths
Number of Pixels in Spectrum: 2048
>>>>>Begin Spectral Data<<<<<
223.165	-11.5
223.4	-11.5
223.635	-11.5
223.869	-14.5
224.104	-13.5
224.338	-18.5
224.573	-11.5
224.808	-15.5
225.042	-19.5
225.277	-7.5
225.511	0.5
225.746	10.5
225.98	20.5
226.215	20.5
226.449	8.5
226.683	16.5
226.918	10.5
227.152	24.5
227.387	41.5
227.621	29.5
227.856	45.5
228.09	44.5
228.324	39.5
228.559	46.5
228.793	58.5
229.027	77.5
229.262	80.5
229.496	85.5
229.73	90.5
229.964	105.5
230.199	84.5
230.433	79.5
230.667	85.5
230.901	95.5
231.136	97.5
231.37	91.5
231.604	105.5
231.838	86.5
232.072	86.5
232.306	88.5
232.541	94.5
232.775	96.5
233.009	92.5
233.243	89.5
233.477	86.5
233.711	86.5
233.945	95.5
234.179	86.5
234.413	98.5
234.647	94.5
234.881	94.5
235.115	77.5
235.349	84.5
235.583	92.5
235.817	105.5
236.051	100.5
236.285	100.5
236.519	95.5
236.753	90.5
236.987	99.5
237.221	141.5
237.455	142.5
237.689	109.5
237.922	91.5
238.156	106.5
238.39	89.5
238.624	92.5
238.858	90.5
239.091	82.5
239.325	94.5
239.559	96.5
239.793	102.5
240.027	100.5
240.26	112.5
240.494	106.5
240.728	103.5
240.961	91.5
241.195	108.5
241.429	89.5
241.662	109.5
241.896	107.5
242.13	110.5
242.363	92.5
242.597	110.5
242.83	98.5
243.064	100.5
243.298	75.5
243.531	99.5
243.765	106.5
243.998	112.5
244.232	106.5
244.465	112.5
244.699	108.5
244.932	104.5
245.166	105.5
245.399	102.5
245.633	112.5
245.866	97.5
246.099	86.5
246.333	105.5
246.566	99.5
246.8	114.5
247.033	109.5
247.266	106.5
247.5	107.5
247.733	129.5
247.966	109.5
248.2	123.5
248.433	121.5
248.666	108.5
248.899	114.5
249.133	128.5
249.366	135.5
249.599	107.5
249.832	114.5
250.066	98.5
250.299	113.5
250.532	116.5
250.765	133.5
250.998	149.5
251.231	134.5
251.465	131.5
251.698	128.5
251.931	118.5
252.164	129.5
252.397	113.5
252.63	122.5
252.863	136.5
253.096	133.5
253.329	139.5
253.562	142.5
253.795	130.5
254.028	121.5
254.261	132.5
254.494	127.5
254.727	162.5
254.96	178.5
255.193	146.5
255.426	133.5
255.659	126.5
255.892	139.5
256.124	137.5
256.357	139.5
256.59	116.5
256.823	124.5
257.056	126.5
257.289	129.5
257.521	126.5
257.754	128.5
257.987	116.5
258.22	134.5
258.452	129.5
258.685	130.5
258.918	133.5
259.151	120.5
259.383	148.5
259.616	140.5
259.849	132.5
260.081	142.5
260.314	153.5
260.547	131.5
260.779	154.5
261.012	142.5
261.244	138.5
261.477	131.5
261.71	124.5
261.942	141.5
262.175	134.5
262.407	146.5
262.64	124.5
262.872	115.5
263.105	113.5
263.337	117.5
263.57	128.5
263.802	128.5
264.035	113.5
264.267	140.5
264.499	136.5
264.732	135.5
264.964	135.5
265.197	135.5
265.429	138.5
265.661	123.5
265.894	130.5
266.126	128.5
266.358	122.5
266.591	126.5
266.823	148.5
267.055	137.5
267.287	128.5
267.52	146.5
267.752	137.5
267.984	132.5
268.216	154.5
268.448	149.5
268.681	136.5
268.913	154.5
269.145	141.5
269.377	158.5
269.609	141.5
269.841	148.5
270.073	155.5
270.306	160.5
270.538	178.5
270.77	173.5
271.002	161.5
271.234	179.5
271.466	164.5
271.698	191.5
271.93	187.5
272.162	171.5
272.394	178.5
272.626	142.5
272.858	152.5
273.09	164.5
273.322	170.5
273.553	160.5
273.785	170.5
274.017	153.5
274.249	137.5
274.481	142.5
274.713	146.5
274.945	156.5
275.176	146.5
275.408	150.5
275.64	149.5
275.872	168.5
276.104	163.5
276.335	149.5
276.567	157.5
276.799	172.5
277.031	169.5
277.262	171.5
277.494	168.5
277.726	170.5
277.957	153.5
278.189	154.5
278.421	159.5
278.652	154.5
278.884	131.5
279.115	168.5
279.347	150.5
279.579	153.5
279.81	148.5
280.042	145.5
280.273	152.5
280.505	164.5
280.736	151.5
280.968	156.5
281.199	155.5
281.431	159.5
281.662	145.5
281.894	152.5
282.125	147.5
282.356	180.5
282.588	183.5
282.819	168.5
283.051	163.5
283.282	140.5
283.513	160.5
283.745	130.5
283.976	164.5
284.207	151.5
284.439	161.5
284.67	146.5
284.901	165.5
285.132	156.5
285.364	152.5
285.595	142.5
285.826	153.5
286.057	164.5
286.288	165.5
286.52	149.5
286.751	161.5
286.982	162.5
287.213	150.5
287.444	167.5
287.675	158.5
287.906	189.5
288.138	151.5
288.369	172.5
288.6	180.5
288.831	164.5
289.062	142.5
289.293	165.5
289.524	173.5
289.755	166.5
289.986	162.5
290.217	167.5
290.448	143.5
290.679	155.5
290.91	166.5
291.141	148.5
291.371	153.5
291.602	172.5
291.833	160.5
292.064	161.5
292.295	164.5
292.526	158.5
292.757	160.5
292.987	162.5
293.218	168.5
293.449	173.5
293.68	156.5
293.91	162.5
294.141	176.5
294.372	150.5
294.603	173.5
294.833	170.5
295.064	163.5
295.295	171.5
295.525	167.5
295.756	161.5
295.987	176.5
296.217	182.5
296.448	186.5
296.679	186.5
296.909	185.5
297.14	154.5
297.37	173.5
297.601	167.5
297.831	152.5
298.062	169.5
298.292	168.5
298.523	168.5
298.753	170.5
298.984	158.5
299.214	162.5
299.445	177.5
299.675	168.5
299.905	158.5
300.136	184.5
300.366	171.5
300.597	180.5
300.827	172.5
301.057	185.5
301.288	192.5
301.518	172.5
301.748	183.5
301.979	172.5
302.209	182.5
302.439	189.5
302.669	171.5
302.9	179.5
303.13	192.5
303.36	173.5
303.59	173.5
303.82	169.5
304.051	168.5
304.281	176.5
304.511	180.5
304.741	184.5
304.971	178.5
305.201	187.5
305.431	203.5
305.661	185.5
305.891	162.5
306.121	160.5
306.352	171.5
306.582	177.5
306.812	183.5
307.042	192.5
307.272	163.5
307.502	181.5
307.731	188.5
307.961	184.5
308.191	176.5
308.421	163.5
308.651	181.5
308.881	183.5
309.111	176.5
309.341	186.5
309.571	178.5
309.8	192.5
310.03	182.5
310.26	205.5
310.49	202.5
310.72	198.5
310.949	192.5
311.179	206.5
311.409	203.5
311.639	188.5
311.868	203.5
312.098	194.5
312.328	195.5
312.557	207.5
312.787	230.5
313.017	210.5
313.246	204.5
313.476	193.5
313.706	183.5
313.935	197.5
314.165	205.5
314.394	214.5
314.624	197.5
314.853	204.5
315.083	188.5
315.312	191.5
315.542	192.5
315.771	187.5
316.001	193.5
316.23	191.5
316.46	181.5
316.689	208.5
316.919	186.5
317.148	198.5
317.377	210.5
317.607	190.5
317.836	184.5
318.065	195.5
318.295	188.5
318.524	192.5
318.753	182.5
318.983	203.5
319.212	191.5
319.441	191.5
319.67	200.5
319.9	177.5
320.129	198.5
320.358	193.5
320.587	191.5
320.816	199.5
321.046	218.5
321.275	222.5
321.504	198.5
321.733	208.5
321.962	206.5
322.191	200.5
322.42	210.5
322.649	232.5
322.878	221.5
323.108	234.5
323.337	222.5
323.566	229.5
323.795	247.5
324.024	284.5
324.253	324.5
324.482	500.5
324.71	724.5
324.939	960.5
325.168	772.5
325.397	407.5
325.626	294.5
325.855	266.5
326.084	247.5
326.313	237.5
326.542	262.5
326.77	286.5
326.999	317.5
327.228	451.5
327.457	642.5
327.686	693.5
327.914	480.5
328.143	329.5
328.372	300.5
328.6	294.5
328.829	272.5
329.058	268.5
329.287	286.5
329.515	249.5
329.744	238.5
329.972	252.5
330.201	282.5
330.43	285.5
330.658	309.5
330.887	308.5
331.115	290.5
331.344	256.5
331.572	235.5
331.801	261.5
332.03	240.5
332.258	240.5
332.486	227.5
332.715	219.5
332.943	218.5
333.172	222.5
333.4	220.5
333.629	234.5
333.857	241.5
334.085	249.5
334.314	267.5
334.542	298.5
334.771	294.5
334.999	269.5
335.227	241.5
335.455	217.5
335.684	221.5
335.912	221.5
336.14	215.5
336.369	215.5
336.597	227.5
336.825	236.5
337.053	230.5
337.281	242.5
337.51	236.5
337.738	222.5
337.966	228.5
338.194	227.5
338.422	235.5
338.65	205.5
338.878	214.5
339.106	208.5
339.334	210.5
339.562	208.5
339.79	199.5
340.018	220.5
340.246	197.5
340.474	215.5
340.702	216.5
340.93	215.5
341.158	217.5
341.386	220.5
341.614	230.5
341.842	214.5
342.07	210.5
342.298	209.5
342.526	206.5
342.754	201.5
342.981	207.5
343.209	192.5
343.437	210.5
343.665	204.5
343.893	217.5
344.12	235.5
344.348	225.5
344.576	218.5
344.804	207.5
345.031	226.5
345.259	218.5
345.487	224.5
345.714	224.5
345.942	215.5
346.17	210.5
346.397	204.5
346.625	207.5
346.853	206.5
347.08	215.5
347.308	203.5
347.535	222.5
347.763	209.5
347.99	215.5
348.218	218.5
348.445	220.5
348.673	202.5
348.9	202.5
349.128	193.5
349.355	198.5
349.583	179.5
349.81	201.5
350.037	208.5
350.265	185.5
350.492	212.5
350.72	207.5
350.947	212.5
351.174	208.5
351.402	212.5
351.629	204.5
351.856	208.5
352.083	203.5
352.311	230.5
352.538	236.5
352.765	221.5
352.992	207.5
353.22	220.5
353.447	209.5
353.674	211.5
353.901	209.5
354.128	203.5
354.355	196.5
354.583	199.5
354.81	199.5
355.037	196.5
355.264	196.5
355.491	181.5
355.718	184.5
355.945	184.5
356.172	205.5
356.399	204.5
356.626	196.5
356.853	203.5
357.08	184.5
357.307	174.5
357.534	192.5
357.761	192.5
357.988	209.5
358.215	202.5
358.441	198.5
358.668	174.5
358.895	192.5
359.122	203.5
359.349	212.5
359.576	220.5
359.802	217.5
360.029	227.5
360.256	239.5
360.483	227.5
360.709	205.5
360.936	218.5
361.163	203.5
361.39	216.5
361.616	204.5
361.843	210.5
362.07	217.5
362.296	200.5
362.523	204.5
362.749	203.5
362.976	199.5
363.203	194.5
363.429	193.5
363.656	207.5
363.882	196.5
364.109	197.5
364.335	193.5
364.562	208.5
364.788	195.5
365.015	186.5
365.241	196.5
365.468	185.5
365.694	190.5
365.92	213.5
366.147	204.5
366.373	201.5
366.599	196.5
366.826	192.5
367.052	194.5
367.278	199.5
367.505	193.5
367.731	202.5
367.957	204.5
368.184	197.5
368.41	220.5
368.636	225.5
368.862	213.5
369.089	205.5
369.315	186.5
369.541	225.5
369.767	188.5
369.993	180.5
370.219	197.5
370.445	209.5
370.672	192.5
370.898	184.5
371.124	188.5
371.35	194.5
371.576	196.5
371.802	193.5
372.028	203.5
372.254	185.5
372.48	179.5
372.706	205.5
372.932	195.5
373.158	204.5
373.384	195.5
373.61	193.5
373.835	197.5
374.061	202.5
374.287	197.5
374.513	195.5
374.739	202.5
374.965	202.5
375.191	206.5
375.416	200.5
375.642	206.5
375.868	195.5
376.094	188.5
376.319	178.5
376.545	193.5
376.771	196.5
376.997	196.5
377.222	206.5
377.448	211.5
377.674	186.5
377.899	211.5
378.125	205.5
378.35	223.5
378.576	188.5
378.802	200.5
379.027	194.5
379.253	174.5
379.478	195.5
379.704	203.5
379.929	197.5
380.155	204.5
380.38	210.5
380.606	201.5
380.831	202.5
381.057	199.5
381.282	196.5
381.507	198.5
381.733	194.5
381.958	185.5
382.184	208.5
382.409	206.5
382.634	200.5
382.86	211.5
383.085	224.5
383.31	183.5
383.535	180.5
383.761	194.5
383.986	193.5
384.211	202.5
384.436	203.5
384.662	213.5
384.887	219.5
385.112	202.5
385.337	215.5
385.562	210.5
385.787	198.5
386.013	235.5
386.238	211.5
386.463	221.5
386.688	216.5
386.913	212.5
387.138	213.5
387.363	207.5
387.588	227.5
387.813	213.5
388.038	219.5
388.263	214.5
388.488	204.5
388.713	220.5
388.938	209.5
389.163	212.5
389.387	224.5
389.612	213.5
389.837	203.5
390.062	201.5
390.287	206.5
390.512	200.5
390.736	220.5
390.961	215.5
391.186	196.5
391.411	217.5
391.636	209.5
391.86	214.5
392.085	218.5
392.31	210.5
392.534	212.5
392.759	225.5
392.984	221.5
393.208	218.5
393.433	216.5
393.658	218.5
393.882	199.5
394.107	206.5
394.331	212.5
394.556	174.5
394.78	206.5
395.005	219.5
395.229	198.5
395.454	218.5
395.678	218.5
395.903	222.5
396.127	228.5
396.352	233.5
396.576	221.5
396.801	226.5
397.025	232.5
397.249	234.5
397.474	229.5
397.698	229.5
397.922	222.5
398.147	224.5
398.371	242.5
398.595	245.5
398.82	220.5
399.044	242.5
399.268	248.5
399.492	281.5
399.717	276.5
399.941	265.5
400.165	286.5
400.389	275.5
400.613	262.5
400.837	261.5
401.062	241.5
401.286	247.5
401.51	237.5
401.734	242.5
401.958	257.5
402.182	225.5
402.406	262.5
402.63	259.5
402.854	248.5
403.078	232.5
403.302	251.5
403.526	230.5
403.75	244.5
403.974	247.5
404.198	261.5
404.422	251.5
404.645	236.5
404.869	245.5
405.093	262.5
405.317	280.5
405.541	304.5
405.765	296.5
405.988	277.5
406.212	274.5
406.436	284.5
406.66	282.5
406.883	267.5
407.107	282.5
407.331	278.5
407.555	306.5
407.778	310.5
408.002	285.5
408.226	241.5
408.449	267.5
408.673	250.5
408.896	274.5
409.12	297.5
409.344	298.5
409.567	265.5
409.791	256.5
410.014	260.5
410.238	240.5
410.461	242.5
410.685	260.5
410.908	265.5
411.132	268.5
411.355	271.5
411.578	258.5
411.802	252.5
412.025	244.5
412.249	250.5
412.472	263.5
412.695	264.5
412.919	277.5
413.142	249.5
413.365	236.5
413.589	248.5
413.812	233.5
414.035	242.5
414.258	230.5
414.482	229.5
414.705	232.5
414.928	252.5
415.151	233.5
415.374	241.5
415.597	234.5
415.821	252.5
416.044	254.5
416.267	246.5
416.49	227.5
416.713	240.5
416.936	228.5
417.159	224.5
417.382	233.5
417.605	240.5
417.828	234.5
418.051	256.5
418.274	242.5
418.497	241.5
418.72	249.5
418.943	253.5
419.166	247.5
419.389	258.5
419.611	242.5
419.834	254.5
420.057	261.5
420.28	259.5
420.503	237.5
420.726	259.5
420.948	259.5
421.171	275.5
421.394	278.5
421.617	256.5
421.839	256.5
422.062	245.5
422.285	241.5
422.507	285.5
422.73	294.5
422.953	286.5
423.175	249.5
423.398	271.5
423.621	260.5
423.843	282.5
424.066	265.5
424.288	257.5
424.511	259.5
424.733	302.5
424.956	330.5
425.178	302.5
425.401	294.5
425.623	302.5
425.846	277.5
426.068	242.5
426.291	265.5
426.513	233.5
426.735	252.5
426.958	274.5
427.18	322.5
427.402	376.5
427.625	390.5
427.847	340.5
428.069	308.5
428.292	285.5
428.514	253.5
428.736	236.5
428.958	246.5
429.181	237.5
429.403	236.5
429.625	245.5
429.847	259.5
430.069	278.5
430.292	283.5
430.514	262.5
430.736	241.5
430.958	249.5
431.18	229.5
431.402	225.5
431.624	230.5
431.846	238.5
432.068	235.5
432.29	234.5
432.512	250.5
432.734	230.5
432.956	231.5
433.178	237.5
433.4	243.5
433.622	228.5
433.844	225.5
434.066	236.5
434.287	210.5
434.509	248.5
434.731	249.5
434.953	252.5
435.175	254.5
435.397	262.5
435.618	280.5
435.84	274.5
436.062	325.5
436.284	321.5
436.505	288.5
436.727	265.5
436.949	259.5
437.17	245.5
437.392	247.5
437.614	257.5
437.835	270.5
438.057	314.5
438.278	355.5
438.5	342.5
438.721	388.5
438.943	366.5
439.165	278.5
439.386	252.5
439.608	247.5
439.829	271.5
440.05	284.5
440.272	308.5
440.493	291.5
440.715	244.5
440.936	254.5
441.158	256.5
441.379	256.5
441.6	266.5
441.822	277.5
442.043	274.5
442.264	311.5
442.486	334.5
442.707	289.5
442.928	273.5
443.149	280.5
443.371	292.5
443.592	304.5
443.813	347.5
444.034	374.5
444.255	306.5
444.476	274.5
444.698	266.5
444.919	285.5
445.14	355.5
445.361	315.5
445.582	286.5
445.803	310.5
446.024	349.5
446.245	345.5
446.466	311.5
446.687	291.5
446.908	246.5
447.129	244.5
447.35	243.5
447.571	257.5
447.792	236.5
448.013	242.5
448.234	251.5
448.455	283.5
448.675	328.5
448.896	363.5
449.117	292.5
449.338	267.5
449.559	335.5
449.779	373.5
450	293.5
450.221	244.5
450.442	251.5
450.662	245.5
450.883	228.5
451.104	249.5
451.324	253.5
451.545	250.5
451.766	240.5
451.986	218.5
452.207	219.5
452.428	214.5
452.648	225.5
452.869	216.5
453.089	228.5
453.31	225.5
453.53	219.5
453.751	219.5
453.971	218.5
454.192	239.5
454.412	243.5
454.633	244.5
454.853	221.5
455.073	224.5
455.294	226.5
455.514	274.5
455.734	253.5
455.955	220.5
456.175	224.5
456.395	204.5
456.616	207.5
456.836	208.5
457.056	227.5
457.276	189.5
457.497	207.5
457.717	206.5
457.937	213.5
458.157	205.5
458.377	213.5
458.598	219.5
458.818	264.5
459.038	291.5
459.258	291.5
459.478	268.5
459.698	243.5
459.918	240.5
460.138	223.5
460.358	237.5
460.578	237.5
460.798	242.5
461.018	234.5
461.238	243.5
461.458	226.5
461.678	243.5
461.898	235.5
462.118	227.5
462.338	237.5
462.558	257.5
462.777	254.5
462.997	248.5
463.217	235.5
463.437	273.5
463.657	247.5
463.876	234.5
464.096	258.5
464.316	252.5
464.536	248.5
464.755	244.5
464.975	271.5
465.195	281.5
465.414	328.5
465.634	296.5
465.854	239.5
466.073	234.5
466.293	227.5
466.512	230.5
466.732	233.5
466.951	225.5
467.171	221.5
467.391	233.5
467.61	228.5
467.829	236.5
468.049	243.5
468.268	251.5
468.488	228.5
468.707	237.5
468.927	246.5
469.146	231.5
469.365	215.5
469.585	235.5
469.804	226.5
470.023	234.5
470.243	226.5
470.462	253.5
470.681	242.5
470.901	232.5
471.12	218.5
471.339	233.5
471.558	240.5
471.777	238.5
471.997	254.5
472.216	249.5
472.435	270.5
472.654	258.5
472.873	248.5
473.092	214.5
473.311	234.5
473.53	232.5
473.749	246.5
473.968	244.5
474.187	313.5
474.406	308.5
474.625	259.5
474.844	242.5
475.063	218.5
475.282	229.5
475.501	215.5
475.72	247.5
475.939	241.5
476.158	235.5
476.377	238.5
476.596	237.5
476.814	249.5
477.033	242.5
477.252	229.5
477.471	231.5
477.69	239.5
477.908	236.5
478.127	248.5
478.346	241.5
478.564	263.5
478.783	260.5
479.002	244.5
479.22	254.5
479.439	266.5
479.658	261.5
479.876	249.5
480.095	264.5
480.313	285.5
480.532	281.5
480.751	274.5
480.969	280.5
481.188	325.5
481.406	360.5
481.624	288.5
481.843	262.5
482.061	258.5
482.28	280.5
482.498	265.5
482.717	272.5
482.935	271.5
483.153	259.5
483.372	270.5
483.59	263.5
483.808	261.5
484.027	254.5
484.245	278.5
484.463	245.5
484.681	258.5
484.9	280.5
485.118	293.5
485.336	271.5
485.554	282.5
485.772	286.5
485.99	274.5
486.209	281.5
486.427	263.5
486.645	281.5
486.863	291.5
487.081	275.5
487.299	284.5
487.517	289.5
487.735	280.5
487.953	266.5
488.171	280.5
488.389	286.5
488.607	292.5
488.825	285.5
489.043	286.5
489.261	278.5
489.479	286.5
489.696	293.5
489.914	295.5
490.132	294.5
490.35	306.5
490.568	301.5
490.786	303.5
491.003	308.5
491.221	311.5
491.439	317.5
491.657	324.5
491.874	326.5
492.092	321.5
492.31	344.5
492.527	319.5
492.745	343.5
492.963	331.5
493.18	348.5
493.398	315.5
493.615	331.5
493.833	328.5
494.05	328.5
494.268	344.5
494.485	322.5
494.703	333.5
494.92	344.5
495.138	333.5
495.355	326.5
495.573	340.5
495.79	322.5
496.008	347.5
496.225	331.5
496.442	333.5
496.66	329.5
496.877	336.5
497.094	305.5
497.312	339.5
497.529	331.5
497.746	323.5
497.963	357.5
498.181	355.5
498.398	376.5
498.615	368.5
498.832	362.5
499.049	363.5
499.267	386.5
499.484	378.5
499.701	385.5
499.918	385.5
500.135	434.5
500.352	421.5
500.569	442.5
500.786	452.5
501.003	423.5
501.22	411.5
501.437	419.5
501.654	387.5
501.871	407.5
502.088	388.5
502.305	362.5
502.522	364.5
502.739	342.5
502.956	339.5
503.172	329.5
503.389	329.5
503.606	321.5
503.823	341.5
504.04	337.5
504.256	323.5
504.473	313.5
504.69	338.5
504.907	328.5
505.123	316.5
505.34	323.5
505.557	308.5
505.773	307.5
505.99	322.5
506.207	324.5
506.423	321.5
506.64	293.5
506.856	321.5
507.073	312.5
507.289	308.5
507.506	297.5
507.722	325.5
507.939	319.5
508.155	308.5
508.372	286.5
508.588	290.5
508.805	301.5
509.021	302.5
509.238	306.5
509.454	293.5
509.67	300.5
509.887	297.5
510.103	308.5
510.319	304.5
510.536	377.5
510.752	708.5
510.968	518.5
511.184	306.5
511.401	282.5
511.617	290.5
511.833	270.5
512.049	262.5
512.265	273.5
512.481	284.5
512.698	278.5
512.914	284.5
513.13	280.5
513.346	280.5
513.562	276.5
513.778	292.5
513.994	284.5
514.21	285.5
514.426	300.5
514.642	330.5
514.858	331.5
515.074	348.5
515.29	444.5
515.506	756.5
515.721	585.5
515.937	365.5
516.153	325.5
516.369	318.5
516.585	284.5
516.801	283.5
517.016	299.5
517.232	302.5
517.448	282.5
517.664	297.5
517.879	282.5
518.095	292.5
518.311	281.5
518.527	285.5
518.742	284.5
518.958	287.5
519.173	290.5
519.389	271.5
519.605	290.5
519.82	264.5
520.036	281.5
520.251	298.5
520.467	310.5
520.682	321.5
