Data from 1966.PennyLincolnUp.Lamp.En5.5.200Scan.071719.P1._HRD10591_14-12-18-912.txt Node
Date: Thu Jul 18 14:12:18 EDT 2019
User: cochatt
Spectrometer: HR+D1059
Trigger mode: 1
Integration Time (sec): 1.000000E-1
Scans to average: 1
Electric dark correction enabled: true
Nonlinearity correction enabled: false
Boxcar width: 0
XAxis mode: Wavelengths
Number of Pixels in Spectrum: 2048
>>>>>Begin Spectral Data<<<<<
223.165	-28.94
223.4	-28.94
223.635	-28.94
223.869	-14.94
224.104	-19.94
224.338	-18.94
224.573	-6.94
224.808	-6.94
225.042	-7.94
225.277	-3.94
225.511	-2.94
225.746	20.06
225.98	11.06
226.215	8.06
226.449	6.06
226.683	10.06
226.918	25.06
227.152	31.06
227.387	29.06
227.621	43.06
227.856	37.06
228.09	49.06
228.324	40.06
228.559	57.06
228.793	51.06
229.027	70.06
229.262	67.06
229.496	65.06
229.73	85.06
229.964	99.06
230.199	97.06
230.433	85.06
230.667	94.06
230.901	83.06
231.136	83.06
231.37	88.06
231.604	77.06
231.838	69.06
232.072	83.06
232.306	91.06
232.541	95.06
232.775	83.06
233.009	83.06
233.243	96.06
233.477	87.06
233.711	101.06
233.945	96.06
234.179	95.06
234.413	89.06
234.647	86.06
234.881	90.06
235.115	86.06
235.349	96.06
235.583	78.06
235.817	103.06
236.051	103.06
236.285	103.06
236.519	107.06
236.753	100.06
236.987	96.06
237.221	115.06
237.455	129.06
237.689	97.06
237.922	78.06
238.156	99.06
238.39	101.06
238.624	99.06
238.858	94.06
239.091	89.06
239.325	85.06
239.559	86.06
239.793	107.06
240.027	93.06
240.26	88.06
240.494	106.06
240.728	95.06
240.961	98.06
241.195	95.06
241.429	92.06
241.662	88.06
241.896	98.06
242.13	92.06
242.363	99.06
242.597	106.06
242.83	106.06
243.064	90.06
243.298	85.06
243.531	99.06
243.765	106.06
243.998	99.06
244.232	110.06
244.465	94.06
244.699	106.06
244.932	99.06
245.166	108.06
245.399	98.06
245.633	93.06
245.866	100.06
246.099	106.06
246.333	112.06
246.566	95.06
246.8	88.06
247.033	105.06
247.266	106.06
247.5	99.06
247.733	113.06
247.966	104.06
248.2	118.06
248.433	119.06
248.666	114.06
248.899	117.06
249.133	122.06
249.366	120.06
249.599	123.06
249.832	107.06
250.066	113.06
250.299	115.06
250.532	142.06
250.765	117.06
250.998	130.06
251.231	128.06
251.465	122.06
251.698	114.06
251.931	114.06
252.164	116.06
252.397	109.06
252.63	119.06
252.863	129.06
253.096	127.06
253.329	128.06
253.562	129.06
253.795	118.06
254.028	126.06
254.261	126.06
254.494	132.06
254.727	136.06
254.96	142.06
255.193	133.06
255.426	127.06
255.659	118.06
255.892	125.06
256.124	133.06
256.357	118.06
256.59	133.06
256.823	117.06
257.056	113.06
257.289	117.06
257.521	124.06
257.754	121.06
257.987	133.06
258.22	135.06
258.452	110.06
258.685	127.06
258.918	117.06
259.151	123.06
259.383	118.06
259.616	122.06
259.849	118.06
260.081	150.06
260.314	141.06
260.547	131.06
260.779	125.06
261.012	135.06
261.244	136.06
261.477	133.06
261.71	125.06
261.942	133.06
262.175	127.06
262.407	141.06
262.64	137.06
262.872	121.06
263.105	124.06
263.337	125.06
263.57	128.06
263.802	125.06
264.035	125.06
264.267	127.06
264.499	129.06
264.732	126.06
264.964	126.06
265.197	124.06
265.429	119.06
265.661	119.06
265.894	139.06
266.126	125.06
266.358	132.06
266.591	137.06
266.823	129.06
267.055	121.06
267.287	128.06
267.52	125.06
267.752	147.06
267.984	125.06
268.216	127.06
268.448	127.06
268.681	137.06
268.913	140.06
269.145	145.06
269.377	157.06
269.609	150.06
269.841	153.06
270.073	145.06
270.306	148.06
270.538	169.06
270.77	152.06
271.002	156.06
271.234	160.06
271.466	164.06
271.698	172.06
271.93	169.06
272.162	168.06
272.394	152.06
272.626	153.06
272.858	148.06
273.09	135.06
273.322	144.06
273.553	153.06
273.785	141.06
274.017	135.06
274.249	158.06
274.481	146.06
274.713	147.06
274.945	149.06
275.176	138.06
275.408	133.06
275.64	149.06
275.872	143.06
276.104	147.06
276.335	153.06
276.567	130.06
276.799	150.06
277.031	174.06
277.262	159.06
277.494	163.06
277.726	165.06
277.957	146.06
278.189	144.06
278.421	146.06
278.652	142.06
278.884	143.06
279.115	156.06
279.347	135.06
279.579	145.06
279.81	141.06
280.042	142.06
280.273	139.06
280.505	148.06
280.736	139.06
280.968	149.06
281.199	139.06
281.431	149.06
281.662	143.06
281.894	145.06
282.125	159.06
282.356	147.06
282.588	160.06
282.819	163.06
283.051	142.06
283.282	157.06
283.513	153.06
283.745	154.06
283.976	156.06
284.207	149.06
284.439	147.06
284.67	159.06
284.901	157.06
285.132	152.06
285.364	170.06
285.595	170.06
285.826	160.06
286.057	164.06
286.288	163.06
286.52	146.06
286.751	157.06
286.982	161.06
287.213	155.06
287.444	139.06
287.675	157.06
287.906	163.06
288.138	169.06
288.369	169.06
288.6	172.06
288.831	161.06
289.062	157.06
289.293	161.06
289.524	158.06
289.755	161.06
289.986	162.06
290.217	152.06
290.448	152.06
290.679	151.06
290.91	158.06
291.141	140.06
291.371	157.06
291.602	143.06
291.833	143.06
292.064	158.06
292.295	137.06
292.526	161.06
292.757	161.06
292.987	168.06
293.218	160.06
293.449	161.06
293.68	171.06
293.91	163.06
294.141	162.06
294.372	168.06
294.603	158.06
294.833	163.06
295.064	148.06
295.295	169.06
295.525	161.06
295.756	163.06
295.987	175.06
296.217	161.06
296.448	185.06
296.679	152.06
296.909	174.06
297.14	165.06
297.37	158.06
297.601	161.06
297.831	156.06
298.062	147.06
298.292	153.06
298.523	166.06
298.753	167.06
298.984	163.06
299.214	173.06
299.445	180.06
299.675	154.06
299.905	157.06
300.136	147.06
300.366	165.06
300.597	164.06
300.827	183.06
301.057	178.06
301.288	172.06
301.518	178.06
301.748	173.06
301.979	178.06
302.209	168.06
302.439	153.06
302.669	159.06
302.9	164.06
303.13	159.06
303.36	163.06
303.59	170.06
303.82	185.06
304.051	189.06
304.281	169.06
304.511	169.06
304.741	177.06
304.971	157.06
305.201	185.06
305.431	161.06
305.661	171.06
305.891	165.06
306.121	169.06
306.352	181.06
306.582	189.06
306.812	161.06
307.042	178.06
307.272	166.06
307.502	167.06
307.731	183.06
307.961	176.06
308.191	175.06
308.421	170.06
308.651	173.06
308.881	170.06
309.111	181.06
309.341	171.06
309.571	179.06
309.8	184.06
310.03	185.06
310.26	181.06
310.49	194.06
310.72	202.06
310.949	193.06
311.179	199.06
311.409	219.06
311.639	190.06
311.868	197.06
312.098	193.06
312.328	186.06
312.557	197.06
312.787	221.06
313.017	211.06
313.246	195.06
313.476	172.06
313.706	187.06
313.935	214.06
314.165	201.06
314.394	219.06
314.624	205.06
314.853	201.06
315.083	207.06
315.312	200.06
315.542	183.06
315.771	193.06
316.001	181.06
316.23	190.06
316.46	188.06
316.689	185.06
316.919	209.06
317.148	196.06
317.377	188.06
317.607	196.06
317.836	204.06
318.065	193.06
318.295	199.06
318.524	191.06
318.753	201.06
318.983	204.06
319.212	194.06
319.441	189.06
319.67	206.06
319.9	187.06
320.129	191.06
320.358	175.06
320.587	191.06
320.816	196.06
321.046	197.06
321.275	210.06
321.504	189.06
321.733	192.06
321.962	189.06
322.191	206.06
322.42	218.06
322.649	211.06
322.878	206.06
323.108	236.06
323.337	229.06
323.566	244.06
323.795	241.06
324.024	270.06
324.253	339.06
324.482	464.06
324.71	699.06
324.939	965.06
325.168	781.06
325.397	399.06
325.626	275.06
325.855	231.06
326.084	241.06
326.313	225.06
326.542	236.06
326.77	265.06
326.999	302.06
327.228	425.06
327.457	629.06
327.686	731.06
327.914	437.06
328.143	319.06
328.372	289.06
328.6	277.06
328.829	267.06
329.058	269.06
329.287	268.06
329.515	258.06
329.744	237.06
329.972	238.06
330.201	261.06
330.43	275.06
330.658	301.06
330.887	315.06
331.115	289.06
331.344	245.06
331.572	249.06
331.801	225.06
332.03	236.06
332.258	226.06
332.486	226.06
332.715	227.06
332.943	215.06
333.172	225.06
333.4	230.06
333.629	211.06
333.857	234.06
334.085	255.06
334.314	249.06
334.542	281.06
334.771	278.06
334.999	253.06
335.227	226.06
335.455	235.06
335.684	226.06
335.912	213.06
336.14	217.06
336.369	222.06
336.597	217.06
336.825	217.06
337.053	205.06
337.281	224.06
337.51	213.06
337.738	210.06
337.966	220.06
338.194	218.06
338.422	215.06
338.65	220.06
338.878	221.06
339.106	203.06
339.334	197.06
339.562	213.06
339.79	223.06
340.018	211.06
340.246	217.06
340.474	189.06
340.702	215.06
340.93	207.06
341.158	189.06
341.386	213.06
341.614	202.06
341.842	198.06
342.07	203.06
342.298	203.06
342.526	206.06
342.754	202.06
342.981	215.06
343.209	200.06
343.437	201.06
343.665	195.06
343.893	199.06
344.12	210.06
344.348	202.06
344.576	196.06
344.804	218.06
345.031	215.06
345.259	215.06
345.487	204.06
345.714	211.06
345.942	235.06
346.17	194.06
346.397	199.06
346.625	206.06
346.853	199.06
347.08	189.06
347.308	194.06
347.535	206.06
347.763	226.06
347.99	206.06
348.218	222.06
348.445	207.06
348.673	224.06
348.9	222.06
349.128	206.06
349.355	189.06
349.583	198.06
349.81	190.06
350.037	201.06
350.265	193.06
350.492	209.06
350.72	198.06
350.947	223.06
351.174	199.06
351.402	211.06
351.629	214.06
351.856	207.06
352.083	213.06
352.311	215.06
352.538	210.06
352.765	206.06
352.992	197.06
353.22	203.06
353.447	200.06
353.674	205.06
353.901	197.06
354.128	202.06
354.355	199.06
354.583	187.06
354.81	194.06
355.037	197.06
355.264	205.06
355.491	184.06
355.718	180.06
355.945	165.06
356.172	182.06
356.399	188.06
356.626	181.06
356.853	181.06
357.08	197.06
357.307	196.06
357.534	193.06
357.761	184.06
357.988	184.06
358.215	188.06
358.441	195.06
358.668	187.06
358.895	201.06
359.122	198.06
359.349	181.06
359.576	200.06
359.802	214.06
360.029	239.06
360.256	232.06
360.483	235.06
360.709	191.06
360.936	211.06
361.163	200.06
361.39	221.06
361.616	218.06
361.843	203.06
362.07	204.06
362.296	221.06
362.523	196.06
362.749	226.06
362.976	191.06
363.203	206.06
363.429	184.06
363.656	179.06
363.882	202.06
364.109	202.06
364.335	205.06
364.562	185.06
364.788	188.06
365.015	193.06
365.241	196.06
365.468	200.06
365.694	195.06
365.92	191.06
366.147	194.06
366.373	185.06
366.599	189.06
366.826	190.06
367.052	195.06
367.278	174.06
367.505	203.06
367.731	196.06
367.957	201.06
368.184	201.06
368.41	182.06
368.636	216.06
368.862	223.06
369.089	189.06
369.315	203.06
369.541	199.06
369.767	197.06
369.993	194.06
370.219	191.06
370.445	194.06
370.672	195.06
370.898	202.06
371.124	175.06
371.35	192.06
371.576	183.06
371.802	189.06
372.028	198.06
372.254	201.06
372.48	187.06
372.706	186.06
372.932	200.06
373.158	190.06
373.384	207.06
373.61	196.06
373.835	201.06
374.061	190.06
374.287	196.06
374.513	199.06
374.739	186.06
374.965	199.06
375.191	189.06
375.416	210.06
375.642	200.06
375.868	190.06
376.094	189.06
376.319	208.06
376.545	192.06
376.771	185.06
376.997	197.06
377.222	191.06
377.448	181.06
377.674	197.06
377.899	185.06
378.125	199.06
378.35	187.06
378.576	199.06
378.802	188.06
379.027	196.06
379.253	185.06
379.478	193.06
379.704	187.06
379.929	192.06
380.155	189.06
380.38	194.06
380.606	198.06
380.831	189.06
381.057	193.06
381.282	194.06
381.507	184.06
381.733	206.06
381.958	204.06
382.184	195.06
382.409	197.06
382.634	194.06
382.86	201.06
383.085	195.06
383.31	194.06
383.535	209.06
383.761	224.06
383.986	193.06
384.211	189.06
384.436	202.06
384.662	209.06
384.887	201.06
385.112	211.06
385.337	204.06
385.562	210.06
385.787	209.06
386.013	212.06
386.238	217.06
386.463	221.06
386.688	212.06
386.913	213.06
387.138	194.06
387.363	221.06
387.588	213.06
387.813	191.06
388.038	227.06
388.263	223.06
388.488	218.06
388.713	229.06
388.938	210.06
389.163	201.06
389.387	217.06
389.612	193.06
389.837	222.06
390.062	212.06
390.287	212.06
390.512	210.06
390.736	195.06
390.961	194.06
391.186	203.06
391.411	200.06
391.636	207.06
391.86	218.06
392.085	229.06
392.31	217.06
392.534	213.06
392.759	213.06
392.984	213.06
393.208	228.06
393.433	261.06
393.658	259.06
393.882	203.06
394.107	209.06
394.331	199.06
394.556	228.06
394.78	205.06
395.005	210.06
395.229	199.06
395.454	228.06
395.678	218.06
395.903	228.06
396.127	223.06
396.352	242.06
396.576	219.06
396.801	213.06
397.025	256.06
397.249	249.06
397.474	230.06
397.698	228.06
397.922	214.06
398.147	244.06
398.371	223.06
398.595	242.06
398.82	232.06
399.044	227.06
399.268	253.06
399.492	259.06
399.717	263.06
399.941	266.06
400.165	288.06
400.389	288.06
400.613	258.06
400.837	258.06
401.062	232.06
401.286	233.06
401.51	245.06
401.734	230.06
401.958	234.06
402.182	261.06
402.406	231.06
402.63	257.06
402.854	257.06
403.078	235.06
403.302	245.06
403.526	222.06
403.75	259.06
403.974	233.06
404.198	249.06
404.422	248.06
404.645	250.06
404.869	246.06
405.093	259.06
405.317	277.06
405.541	286.06
405.765	255.06
405.988	252.06
406.212	260.06
406.436	279.06
406.66	300.06
406.883	277.06
407.107	277.06
407.331	284.06
407.555	285.06
407.778	303.06
408.002	303.06
408.226	268.06
408.449	246.06
408.673	264.06
408.896	279.06
409.12	293.06
409.344	278.06
409.567	244.06
409.791	246.06
410.014	234.06
410.238	249.06
410.461	250.06
410.685	236.06
410.908	252.06
411.132	250.06
411.355	272.06
411.578	251.06
411.802	257.06
412.025	244.06
412.249	244.06
412.472	257.06
412.695	272.06
412.919	254.06
413.142	251.06
413.365	243.06
413.589	230.06
413.812	253.06
414.035	253.06
414.258	227.06
414.482	229.06
414.705	221.06
414.928	223.06
415.151	247.06
415.374	227.06
415.597	237.06
415.821	231.06
416.044	223.06
416.267	247.06
416.49	227.06
416.713	257.06
416.936	238.06
417.159	219.06
417.382	249.06
417.605	243.06
417.828	247.06
418.051	258.06
418.274	235.06
418.497	247.06
418.72	237.06
418.943	238.06
419.166	241.06
419.389	242.06
419.611	234.06
419.834	234.06
420.057	267.06
420.28	241.06
420.503	251.06
420.726	242.06
420.948	233.06
421.171	267.06
421.394	281.06
421.617	251.06
421.839	243.06
422.062	253.06
422.285	241.06
422.507	278.06
422.73	327.06
422.953	311.06
423.175	253.06
423.398	244.06
423.621	247.06
423.843	236.06
424.066	277.06
424.288	272.06
424.511	262.06
424.733	285.06
424.956	310.06
425.178	295.06
425.401	305.06
425.623	309.06
425.846	266.06
426.068	246.06
426.291	244.06
426.513	260.06
426.735	245.06
426.958	275.06
427.18	312.06
427.402	351.06
427.625	387.06
427.847	361.06
428.069	313.06
428.292	246.06
428.514	261.06
428.736	261.06
428.958	237.06
429.181	233.06
429.403	240.06
429.625	236.06
429.847	259.06
430.069	289.06
430.292	288.06
430.514	262.06
430.736	240.06
430.958	255.06
431.18	248.06
431.402	222.06
431.624	227.06
431.846	234.06
432.068	232.06
432.29	229.06
432.512	231.06
432.734	220.06
432.956	230.06
433.178	244.06
433.4	229.06
433.622	226.06
433.844	228.06
434.066	234.06
434.287	229.06
434.509	245.06
434.731	233.06
434.953	252.06
435.175	259.06
435.397	266.06
435.618	278.06
435.84	277.06
436.062	302.06
436.284	336.06
436.505	268.06
436.727	270.06
436.949	236.06
437.17	228.06
437.392	238.06
437.614	244.06
437.835	263.06
438.057	283.06
438.278	346.06
438.5	314.06
438.721	356.06
438.943	328.06
439.165	277.06
439.386	263.06
439.608	266.06
439.829	254.06
440.05	278.06
440.272	276.06
440.493	286.06
440.715	253.06
440.936	254.06
441.158	241.06
441.379	235.06
441.6	246.06
441.822	247.06
442.043	288.06
442.264	301.06
442.486	319.06
442.707	296.06
442.928	267.06
443.149	274.06
443.371	257.06
443.592	283.06
443.813	329.06
444.034	351.06
444.255	286.06
444.476	280.06
444.698	260.06
444.919	259.06
445.14	352.06
445.361	317.06
445.582	271.06
445.803	319.06
446.024	349.06
446.245	345.06
446.466	319.06
446.687	276.06
446.908	264.06
447.129	253.06
447.35	255.06
447.571	235.06
447.792	213.06
448.013	229.06
448.234	233.06
448.455	274.06
448.675	321.06
448.896	335.06
449.117	302.06
449.338	280.06
449.559	332.06
449.779	352.06
450	297.06
450.221	243.06
450.442	238.06
450.662	230.06
450.883	235.06
451.104	259.06
451.324	250.06
451.545	227.06
451.766	206.06
451.986	217.06
452.207	218.06
452.428	219.06
452.648	216.06
452.869	230.06
453.089	227.06
453.31	229.06
453.53	219.06
453.751	221.06
453.971	224.06
454.192	231.06
454.412	228.06
454.633	208.06
454.853	201.06
455.073	207.06
455.294	222.06
455.514	238.06
455.734	250.06
455.955	204.06
456.175	210.06
456.395	193.06
456.616	216.06
456.836	215.06
457.056	207.06
457.276	214.06
457.497	210.06
457.717	212.06
457.937	210.06
458.157	215.06
458.377	215.06
458.598	220.06
458.818	259.06
459.038	292.06
459.258	299.06
459.478	259.06
459.698	245.06
459.918	244.06
460.138	214.06
460.358	224.06
460.578	229.06
460.798	245.06
461.018	243.06
461.238	230.06
461.458	218.06
461.678	214.06
461.898	237.06
462.118	237.06
462.338	248.06
462.558	241.06
462.777	227.06
462.997	251.06
463.217	259.06
463.437	259.06
463.657	245.06
463.876	262.06
464.096	255.06
464.316	245.06
464.536	253.06
464.755	248.06
464.975	247.06
465.195	292.06
465.414	328.06
465.634	265.06
465.854	243.06
466.073	228.06
466.293	228.06
466.512	230.06
466.732	239.06
466.951	233.06
467.171	217.06
467.391	246.06
467.61	237.06
467.829	221.06
468.049	223.06
468.268	231.06
468.488	235.06
468.707	225.06
468.927	215.06
469.146	235.06
469.365	229.06
469.585	219.06
469.804	222.06
470.023	235.06
470.243	236.06
470.462	246.06
470.681	254.06
470.901	245.06
471.12	227.06
471.339	204.06
471.558	225.06
471.777	225.06
471.997	222.06
472.216	245.06
472.435	267.06
472.654	262.06
472.873	234.06
473.092	243.06
473.311	219.06
473.53	235.06
473.749	236.06
473.968	254.06
474.187	284.06
474.406	283.06
474.625	253.06
474.844	231.06
475.063	229.06
475.282	238.06
475.501	235.06
475.72	222.06
475.939	219.06
476.158	228.06
476.377	217.06
476.596	259.06
476.814	226.06
477.033	243.06
477.252	236.06
477.471	249.06
477.69	236.06
477.908	249.06
478.127	251.06
478.346	243.06
478.564	245.06
478.783	261.06
479.002	251.06
479.22	266.06
479.439	251.06
479.658	253.06
479.876	276.06
480.095	292.06
480.313	292.06
480.532	274.06
480.751	271.06
480.969	305.06
481.188	334.06
481.406	354.06
481.624	298.06
481.843	282.06
482.061	275.06
482.28	275.06
482.498	268.06
482.717	257.06
482.935	269.06
483.153	272.06
483.372	267.06
483.59	264.06
483.808	272.06
484.027	265.06
484.245	257.06
484.463	260.06
484.681	268.06
484.9	280.06
485.118	282.06
485.336	260.06
485.554	285.06
485.772	256.06
485.99	265.06
486.209	271.06
486.427	284.06
486.645	284.06
486.863	278.06
487.081	268.06
487.299	276.06
487.517	287.06
487.735	272.06
487.953	285.06
488.171	262.06
488.389	288.06
488.607	287.06
488.825	284.06
489.043	279.06
489.261	293.06
489.479	278.06
489.696	273.06
489.914	269.06
490.132	286.06
490.35	276.06
490.568	281.06
490.786	287.06
491.003	302.06
491.221	312.06
491.439	312.06
491.657	324.06
491.874	313.06
492.092	329.06
492.31	311.06
492.527	322.06
492.745	334.06
492.963	326.06
493.18	307.06
493.398	323.06
493.615	319.06
493.833	321.06
494.05	335.06
494.268	333.06
494.485	326.06
494.703	326.06
494.92	298.06
495.138	316.06
495.355	331.06
495.573	339.06
495.79	313.06
496.008	326.06
496.225	319.06
496.442	317.06
496.66	309.06
496.877	316.06
497.094	326.06
497.312	316.06
497.529	311.06
497.746	313.06
497.963	338.06
498.181	348.06
498.398	345.06
498.615	364.06
498.832	372.06
499.049	341.06
499.267	360.06
499.484	378.06
499.701	383.06
499.918	377.06
500.135	435.06
500.352	429.06
500.569	451.06
500.786	417.06
501.003	439.06
501.22	429.06
501.437	404.06
501.654	382.06
501.871	404.06
502.088	377.06
502.305	377.06
502.522	354.06
502.739	324.06
