Data from 1966.PennyLincolnUp.Lamp.En5.5.200Scan.071719.P1.Scan2.head_HRD10591_14-18-59-232.txt Node
Date: Thu Jul 18 14:18:59 EDT 2019
User: cochatt
Spectrometer: HR+D1059
Trigger mode: 1
Integration Time (sec): 1.000000E-1
Scans to average: 1
Electric dark correction enabled: true
Nonlinearity correction enabled: false
Boxcar width: 0
XAxis mode: Wavelengths
Number of Pixels in Spectrum: 2048
>>>>>Begin Spectral Data<<<<<
223.165	-6.94
223.4	-6.94
223.635	-6.94
223.869	-20.94
224.104	-23.94
224.338	-9.94
224.573	-14.94
224.808	0.06
225.042	-1.94
225.277	-5.94
225.511	-14.94
225.746	-2.94
225.98	9.06
226.215	9.06
226.449	10.06
226.683	22.06
226.918	28.06
227.152	24.06
227.387	34.06
227.621	42.06
227.856	42.06
228.09	40.06
228.324	45.06
228.559	52.06
228.793	69.06
229.027	101.06
229.262	107.06
229.496	115.06
229.73	136.06
229.964	157.06
230.199	131.06
230.433	109.06
230.667	98.06
230.901	111.06
231.136	117.06
231.37	115.06
231.604	107.06
231.838	107.06
232.072	119.06
232.306	106.06
232.541	123.06
232.775	124.06
233.009	126.06
233.243	99.06
233.477	110.06
233.711	120.06
233.945	98.06
234.179	112.06
234.413	120.06
234.647	123.06
234.881	104.06
235.115	130.06
235.349	125.06
235.583	121.06
235.817	114.06
236.051	134.06
236.285	134.06
236.519	135.06
236.753	151.06
236.987	155.06
237.221	186.06
237.455	240.06
237.689	194.06
237.922	137.06
238.156	132.06
238.39	130.06
238.624	121.06
238.858	127.06
239.091	128.06
239.325	121.06
239.559	118.06
239.793	113.06
240.027	125.06
240.26	138.06
240.494	151.06
240.728	154.06
240.961	158.06
241.195	145.06
241.429	137.06
241.662	122.06
241.896	130.06
242.13	137.06
242.363	121.06
242.597	140.06
242.83	146.06
243.064	147.06
243.298	157.06
243.531	139.06
243.765	152.06
243.998	138.06
244.232	146.06
244.465	153.06
244.699	141.06
244.932	153.06
245.166	161.06
245.399	157.06
245.633	145.06
245.866	151.06
246.099	135.06
246.333	163.06
246.566	159.06
246.8	154.06
247.033	160.06
247.266	166.06
247.5	166.06
247.733	171.06
247.966	171.06
248.2	176.06
248.433	165.06
248.666	168.06
248.899	199.06
249.133	199.06
249.366	222.06
249.599	197.06
249.832	200.06
250.066	188.06
250.299	176.06
250.532	196.06
250.765	199.06
250.998	210.06
251.231	219.06
251.465	232.06
251.698	211.06
251.931	205.06
252.164	206.06
252.397	195.06
252.63	180.06
252.863	208.06
253.096	208.06
253.329	231.06
253.562	224.06
253.795	219.06
254.028	207.06
254.261	216.06
254.494	243.06
254.727	275.06
254.96	286.06
255.193	288.06
255.426	252.06
255.659	232.06
255.892	234.06
256.124	234.06
256.357	253.06
256.59	262.06
256.823	208.06
257.056	224.06
257.289	217.06
257.521	216.06
257.754	218.06
257.987	217.06
258.22	229.06
258.452	223.06
258.685	212.06
258.918	201.06
259.151	223.06
259.383	232.06
259.616	222.06
259.849	233.06
260.081	243.06
260.314	257.06
260.547	243.06
260.779	254.06
261.012	253.06
261.244	214.06
261.477	218.06
261.71	237.06
261.942	229.06
262.175	241.06
262.407	241.06
262.64	222.06
262.872	216.06
263.105	213.06
263.337	237.06
263.57	215.06
263.802	219.06
264.035	226.06
264.267	211.06
264.499	210.06
264.732	223.06
264.964	228.06
265.197	232.06
265.429	216.06
265.661	215.06
265.894	220.06
266.126	205.06
266.358	236.06
266.591	238.06
266.823	221.06
267.055	228.06
267.287	241.06
267.52	235.06
267.752	242.06
267.984	229.06
268.216	226.06
268.448	244.06
268.681	243.06
268.913	255.06
269.145	272.06
269.377	282.06
269.609	256.06
269.841	288.06
270.073	276.06
270.306	301.06
270.538	322.06
270.77	294.06
271.002	311.06
271.234	298.06
271.466	312.06
271.698	316.06
271.93	324.06
272.162	303.06
272.394	328.06
272.626	322.06
272.858	306.06
273.09	279.06
273.322	270.06
273.553	256.06
273.785	261.06
274.017	261.06
274.249	264.06
274.481	288.06
274.713	289.06
274.945	266.06
275.176	275.06
275.408	289.06
275.64	274.06
275.872	281.06
276.104	270.06
276.335	273.06
276.567	273.06
276.799	275.06
277.031	310.06
277.262	339.06
277.494	321.06
277.726	314.06
277.957	300.06
278.189	272.06
278.421	290.06
278.652	295.06
278.884	271.06
279.115	261.06
279.347	276.06
279.579	266.06
279.81	282.06
280.042	263.06
280.273	276.06
280.505	273.06
280.736	270.06
280.968	274.06
281.199	281.06
281.431	276.06
281.662	288.06
281.894	266.06
282.125	280.06
282.356	297.06
282.588	340.06
282.819	277.06
283.051	281.06
283.282	266.06
283.513	280.06
283.745	287.06
283.976	293.06
284.207	291.06
284.439	272.06
284.67	280.06
284.901	293.06
285.132	288.06
285.364	277.06
285.595	286.06
285.826	292.06
286.057	299.06
286.288	304.06
286.52	314.06
286.751	299.06
286.982	299.06
287.213	291.06
287.444	290.06
287.675	296.06
287.906	278.06
288.138	313.06
288.369	323.06
288.6	314.06
288.831	321.06
289.062	318.06
289.293	293.06
289.524	283.06
289.755	316.06
289.986	317.06
290.217	277.06
290.448	293.06
290.679	293.06
290.91	322.06
291.141	304.06
291.371	313.06
291.602	288.06
291.833	300.06
292.064	288.06
292.295	291.06
292.526	294.06
292.757	289.06
292.987	272.06
293.218	293.06
293.449	293.06
293.68	310.06
293.91	308.06
294.141	309.06
294.372	295.06
294.603	309.06
294.833	299.06
295.064	289.06
295.295	288.06
295.525	278.06
295.756	318.06
295.987	285.06
296.217	334.06
296.448	341.06
296.679	323.06
296.909	294.06
297.14	300.06
297.37	310.06
297.601	314.06
297.831	293.06
298.062	315.06
298.292	301.06
298.523	314.06
298.753	323.06
298.984	320.06
299.214	318.06
299.445	328.06
299.675	323.06
299.905	316.06
300.136	341.06
300.366	312.06
300.597	312.06
300.827	329.06
301.057	347.06
301.288	343.06
301.518	333.06
301.748	344.06
301.979	325.06
302.209	335.06
302.439	344.06
302.669	353.06
302.9	350.06
303.13	333.06
303.36	343.06
303.59	337.06
303.82	339.06
304.051	326.06
304.281	327.06
304.511	337.06
304.741	341.06
304.971	331.06
305.201	350.06
305.431	344.06
305.661	327.06
305.891	338.06
306.121	354.06
306.352	338.06
306.582	338.06
306.812	357.06
307.042	332.06
307.272	346.06
307.502	353.06
307.731	351.06
307.961	344.06
308.191	338.06
308.421	352.06
308.651	332.06
308.881	357.06
309.111	333.06
309.341	350.06
309.571	373.06
309.8	370.06
310.03	373.06
310.26	397.06
310.49	387.06
310.72	405.06
310.949	409.06
311.179	401.06
311.409	397.06
311.639	393.06
311.868	392.06
312.098	387.06
312.328	384.06
312.557	408.06
312.787	423.06
313.017	393.06
313.246	399.06
313.476	382.06
313.706	379.06
313.935	398.06
314.165	417.06
314.394	424.06
314.624	406.06
314.853	397.06
315.083	389.06
315.312	389.06
315.542	394.06
315.771	367.06
316.001	382.06
316.23	402.06
316.46	391.06
316.689	389.06
316.919	398.06
317.148	398.06
317.377	382.06
317.607	388.06
317.836	396.06
318.065	394.06
318.295	394.06
318.524	397.06
318.753	371.06
318.983	411.06
319.212	402.06
319.441	413.06
319.67	408.06
319.9	394.06
320.129	390.06
320.358	378.06
320.587	385.06
320.816	412.06
321.046	424.06
321.275	422.06
321.504	401.06
321.733	418.06
321.962	420.06
322.191	421.06
322.42	438.06
322.649	437.06
322.878	450.06
323.108	465.06
323.337	492.06
323.566	527.06
323.795	527.06
324.024	548.06
324.253	690.06
324.482	974.06
324.71	1530.06
324.939	2288.06
325.168	1970.06
325.397	978.06
325.626	646.06
325.855	547.06
326.084	515.06
326.313	511.06
326.542	508.06
326.77	566.06
326.999	646.06
327.228	909.06
327.457	1343.06
327.686	1700.06
327.914	1116.06
328.143	730.06
328.372	642.06
328.6	623.06
328.829	576.06
329.058	605.06
329.287	579.06
329.515	551.06
329.744	518.06
329.972	535.06
330.201	552.06
330.43	614.06
330.658	597.06
330.887	635.06
331.115	634.06
331.344	533.06
331.572	499.06
331.801	499.06
332.03	489.06
332.258	506.06
332.486	484.06
332.715	496.06
332.943	477.06
333.172	498.06
333.4	474.06
333.629	499.06
333.857	493.06
334.085	526.06
334.314	526.06
334.542	568.06
334.771	589.06
334.999	549.06
335.227	478.06
335.455	483.06
335.684	478.06
335.912	483.06
336.14	463.06
336.369	464.06
336.597	476.06
336.825	484.06
337.053	464.06
337.281	455.06
337.51	459.06
337.738	468.06
337.966	462.06
338.194	485.06
338.422	457.06
338.65	448.06
338.878	453.06
339.106	437.06
339.334	450.06
339.562	463.06
339.79	451.06
340.018	434.06
340.246	468.06
340.474	446.06
340.702	448.06
340.93	448.06
341.158	453.06
341.386	433.06
341.614	477.06
341.842	469.06
342.07	461.06
342.298	449.06
342.526	448.06
342.754	450.06
342.981	428.06
343.209	440.06
343.437	451.06
343.665	460.06
343.893	463.06
344.12	462.06
344.348	469.06
344.576	463.06
344.804	472.06
345.031	483.06
345.259	476.06
345.487	457.06
345.714	453.06
345.942	457.06
346.17	463.06
346.397	468.06
346.625	463.06
346.853	468.06
347.08	427.06
347.308	438.06
347.535	465.06
347.763	446.06
347.99	453.06
348.218	451.06
348.445	465.06
348.673	449.06
348.9	448.06
349.128	435.06
349.355	435.06
349.583	420.06
349.81	414.06
350.037	448.06
350.265	441.06
350.492	439.06
350.72	429.06
350.947	439.06
351.174	456.06
351.402	455.06
351.629	442.06
351.856	450.06
352.083	445.06
352.311	465.06
352.538	470.06
352.765	455.06
352.992	439.06
353.22	441.06
353.447	449.06
353.674	457.06
353.901	416.06
354.128	413.06
354.355	419.06
354.583	446.06
354.81	443.06
355.037	422.06
355.264	400.06
355.491	429.06
355.718	427.06
355.945	416.06
356.172	415.06
356.399	411.06
356.626	407.06
356.853	425.06
357.08	404.06
357.307	414.06
357.534	399.06
357.761	422.06
357.988	423.06
358.215	417.06
358.441	408.06
358.668	434.06
358.895	414.06
359.122	420.06
359.349	432.06
359.576	434.06
359.802	452.06
360.029	507.06
360.256	500.06
360.483	466.06
360.709	460.06
360.936	453.06
361.163	445.06
361.39	450.06
361.616	449.06
361.843	460.06
362.07	456.06
362.296	442.06
362.523	437.06
362.749	458.06
362.976	463.06
363.203	474.06
363.429	419.06
363.656	424.06
363.882	427.06
364.109	450.06
364.335	437.06
364.562	423.06
364.788	442.06
365.015	424.06
365.241	444.06
365.468	411.06
365.694	425.06
365.92	439.06
366.147	438.06
366.373	423.06
366.599	427.06
366.826	422.06
367.052	452.06
367.278	422.06
367.505	435.06
367.731	434.06
367.957	426.06
368.184	440.06
368.41	453.06
368.636	472.06
368.862	438.06
369.089	435.06
369.315	424.06
369.541	442.06
369.767	432.06
369.993	460.06
370.219	432.06
370.445	425.06
370.672	441.06
370.898	434.06
371.124	435.06
371.35	447.06
371.576	449.06
371.802	441.06
372.028	457.06
372.254	426.06
372.48	443.06
372.706	454.06
372.932	420.06
373.158	438.06
373.384	440.06
373.61	450.06
373.835	451.06
374.061	430.06
374.287	437.06
374.513	450.06
374.739	442.06
374.965	445.06
375.191	441.06
375.416	435.06
375.642	430.06
375.868	451.06
376.094	440.06
376.319	443.06
376.545	438.06
376.771	454.06
376.997	443.06
377.222	432.06
377.448	426.06
377.674	451.06
377.899	436.06
378.125	431.06
378.35	435.06
378.576	435.06
378.802	431.06
379.027	432.06
379.253	438.06
379.478	427.06
379.704	430.06
379.929	444.06
380.155	432.06
380.38	457.06
380.606	468.06
380.831	447.06
381.057	451.06
381.282	460.06
381.507	437.06
381.733	449.06
381.958	451.06
382.184	448.06
382.409	436.06
382.634	462.06
382.86	449.06
383.085	449.06
383.31	446.06
383.535	463.06
383.761	464.06
383.986	465.06
384.211	449.06
384.436	485.06
384.662	475.06
384.887	467.06
385.112	458.06
385.337	476.06
385.562	474.06
385.787	481.06
386.013	513.06
386.238	510.06
386.463	490.06
386.688	500.06
386.913	477.06
387.138	496.06
387.363	502.06
387.588	493.06
387.813	491.06
388.038	471.06
388.263	497.06
388.488	507.06
388.713	496.06
388.938	506.06
389.163	470.06
389.387	485.06
389.612	496.06
389.837	488.06
390.062	466.06
390.287	485.06
390.512	488.06
390.736	482.06
390.961	497.06
391.186	498.06
391.411	486.06
391.636	508.06
391.86	514.06
392.085	509.06
392.31	520.06
392.534	506.06
392.759	504.06
392.984	491.06
393.208	498.06
393.433	506.06
393.658	502.06
393.882	499.06
394.107	480.06
394.331	498.06
394.556	498.06
394.78	504.06
395.005	493.06
395.229	488.06
395.454	514.06
395.678	506.06
395.903	532.06
396.127	560.06
396.352	558.06
396.576	526.06
396.801	537.06
397.025	517.06
397.249	533.06
397.474	539.06
397.698	536.06
397.922	548.06
398.147	566.06
398.371	554.06
398.595	538.06
398.82	561.06
399.044	585.06
399.268	604.06
399.492	629.06
399.717	652.06
399.941	689.06
400.165	721.06
400.389	716.06
400.613	656.06
400.837	606.06
401.062	596.06
401.286	572.06
401.51	550.06
401.734	565.06
401.958	583.06
402.182	580.06
402.406	603.06
402.63	585.06
402.854	601.06
403.078	582.06
403.302	603.06
403.526	588.06
403.75	585.06
403.974	590.06
404.198	588.06
404.422	615.06
404.645	604.06
404.869	604.06
405.093	671.06
405.317	673.06
405.541	724.06
405.765	676.06
405.988	633.06
406.212	621.06
406.436	642.06
406.66	651.06
406.883	648.06
407.107	708.06
407.331	693.06
407.555	801.06
407.778	786.06
408.002	731.06
408.226	642.06
408.449	637.06
408.673	650.06
408.896	688.06
409.12	728.06
409.344	701.06
409.567	617.06
409.791	603.06
410.014	601.06
410.238	594.06
410.461	586.06
410.685	602.06
410.908	643.06
411.132	658.06
411.355	698.06
411.578	662.06
411.802	596.06
412.025	598.06
412.249	611.06
412.472	636.06
412.695	675.06
412.919	666.06
413.142	610.06
413.365	583.06
413.589	589.06
413.812	581.06
414.035	549.06
414.258	582.06
414.482	550.06
414.705	574.06
414.928	565.06
415.151	549.06
415.374	576.06
415.597	554.06
415.821	563.06
416.044	567.06
416.267	593.06
416.49	549.06
416.713	554.06
416.936	556.06
417.159	553.06
417.382	557.06
417.605	556.06
417.828	562.06
418.051	617.06
418.274	571.06
418.497	585.06
418.72	573.06
418.943	549.06
419.166	572.06
419.389	605.06
419.611	628.06
419.834	622.06
420.057	581.06
420.28	618.06
420.503	602.06
420.726	590.06
420.948	597.06
421.171	644.06
421.394	677.06
421.617	632.06
421.839	602.06
422.062	613.06
422.285	605.06
422.507	666.06
422.73	768.06
422.953	734.06
423.175	674.06
423.398	620.06
423.621	599.06
423.843	644.06
424.066	638.06
424.288	617.06
424.511	658.06
424.733	719.06
424.956	829.06
425.178	788.06
425.401	772.06
425.623	771.06
425.846	708.06
426.068	626.06
426.291	635.06
426.513	618.06
426.735	626.06
426.958	680.06
427.18	778.06
427.402	925.06
427.625	1022.06
427.847	885.06
428.069	782.06
428.292	681.06
428.514	638.06
428.736	614.06
428.958	595.06
429.181	582.06
429.403	582.06
429.625	591.06
429.847	641.06
430.069	702.06
430.292	696.06
430.514	624.06
430.736	601.06
430.958	584.06
431.18	586.06
431.402	542.06
431.624	542.06
431.846	550.06
432.068	566.06
432.29	568.06
432.512	569.06
432.734	574.06
432.956	576.06
433.178	563.06
433.4	583.06
433.622	576.06
433.844	571.06
434.066	555.06
434.287	557.06
434.509	564.06
434.731	586.06
434.953	571.06
435.175	614.06
435.397	625.06
435.618	648.06
435.84	670.06
436.062	797.06
436.284	871.06
436.505	730.06
436.727	651.06
436.949	618.06
437.17	598.06
437.392	597.06
437.614	594.06
437.835	646.06
438.057	753.06
438.278	896.06
438.5	873.06
438.721	913.06
438.943	903.06
439.165	717.06
439.386	668.06
439.608	659.06
439.829	645.06
440.05	676.06
440.272	728.06
440.493	678.06
440.715	634.06
440.936	608.06
441.158	610.06
441.379	602.06
441.6	603.06
441.822	617.06
442.043	670.06
442.264	779.06
442.486	817.06
442.707	708.06
442.928	662.06
443.149	651.06
443.371	684.06
443.592	734.06
443.813	846.06
444.034	911.06
444.255	740.06
444.476	674.06
444.698	661.06
444.919	654.06
445.14	728.06
445.361	671.06
445.582	705.06
445.803	772.06
446.024	882.06
446.245	881.06
446.466	797.06
446.687	681.06
446.908	644.06
447.129	615.06
447.35	572.06
447.571	554.06
447.792	572.06
448.013	589.06
448.234	601.06
448.455	666.06
448.675	800.06
448.896	935.06
449.117	750.06
449.338	717.06
449.559	851.06
449.779	975.06
450	757.06
450.221	646.06
450.442	608.06
450.662	558.06
450.883	579.06
451.104	608.06
451.324	578.06
451.545	548.06
451.766	543.06
451.986	512.06
452.207	540.06
452.428	504.06
452.648	539.06
452.869	532.06
453.089	542.06
453.31	563.06
453.53	536.06
453.751	544.06
453.971	518.06
454.192	519.06
454.412	529.06
454.633	516.06
454.853	521.06
455.073	515.06
455.294	552.06
455.514	635.06
455.734	634.06
455.955	536.06
456.175	519.06
456.395	502.06
456.616	491.06
456.836	475.06
457.056	505.06
457.276	477.06
457.497	482.06
457.717	491.06
457.937	513.06
458.157	500.06
458.377	503.06
458.598	541.06
458.818	587.06
459.038	662.06
459.258	700.06
459.478	600.06
459.698	556.06
459.918	560.06
460.138	541.06
460.358	548.06
460.578	573.06
460.798	585.06
461.018	588.06
461.238	592.06
461.458	571.06
461.678	565.06
461.898	567.06
462.118	572.06
462.338	583.06
462.558	595.06
462.777	578.06
462.997	616.06
463.217	645.06
463.437	656.06
463.657	628.06
463.876	606.06
464.096	634.06
464.316	632.06
464.536	617.06
464.755	607.06
464.975	617.06
465.195	614.06
465.414	710.06
465.634	636.06
465.854	597.06
466.073	584.06
466.293	556.06
466.512	556.06
466.732	551.06
466.951	531.06
467.171	528.06
467.391	552.06
467.61	548.06
467.829	564.06
468.049	549.06
468.268	569.06
468.488	522.06
468.707	527.06
468.927	532.06
469.146	504.06
469.365	542.06
469.585	540.06
469.804	538.06
470.023	551.06
470.243	564.06
470.462	560.06
470.681	568.06
470.901	554.06
471.12	550.06
471.339	529.06
471.558	558.06
471.777	545.06
471.997	555.06
472.216	564.06
472.435	600.06
472.654	597.06
472.873	557.06
473.092	569.06
473.311	548.06
473.53	546.06
473.749	540.06
473.968	620.06
474.187	713.06
474.406	739.06
474.625	611.06
474.844	549.06
475.063	568.06
475.282	551.06
475.501	550.06
475.72	564.06
475.939	563.06
476.158	568.06
476.377	583.06
476.596	550.06
476.814	626.06
477.033	572.06
477.252	576.06
477.471	596.06
477.69	578.06
477.908	609.06
478.127	594.06
478.346	606.06
478.564	614.06
478.783	616.06
479.002	633.06
479.22	628.06
479.439	655.06
479.658	643.06
479.876	668.06
480.095	678.06
480.313	663.06
480.532	685.06
480.751	690.06
480.969	679.06
481.188	745.06
481.406	801.06
481.624	736.06
481.843	688.06
482.061	651.06
482.28	652.06
482.498	655.06
482.717	663.06
482.935	655.06
483.153	650.06
483.372	633.06
483.59	653.06
483.808	640.06
484.027	646.06
484.245	642.06
484.463	649.06
484.681	665.06
484.9	665.06
485.118	672.06
485.336	663.06
485.554	677.06
485.772	660.06
485.99	676.06
486.209	692.06
486.427	665.06
486.645	698.06
486.863	709.06
487.081	701.06
487.299	716.06
487.517	725.06
487.735	706.06
487.953	682.06
488.171	689.06
488.389	708.06
488.607	700.06
488.825	694.06
489.043	705.06
489.261	709.06
489.479	702.06
489.696	689.06
489.914	724.06
490.132	707.06
490.35	724.06
490.568	704.06
490.786	744.06
491.003	748.06
491.221	781.06
491.439	783.06
491.657	790.06
491.874	794.06
492.092	804.06
492.31	792.06
492.527	809.06
492.745	819.06
492.963	793.06
493.18	816.06
493.398	811.06
493.615	832.06
493.833	822.06
494.05	818.06
494.268	816.06
494.485	837.06
494.703	845.06
494.92	841.06
495.138	833.06
495.355	805.06
495.573	827.06
495.79	801.06
496.008	820.06
496.225	843.06
496.442	808.06
496.66	842.06
496.877	826.06
497.094	860.06
497.312	852.06
497.529	854.06
497.746	866.06
497.963	898.06
498.181	898.06
498.398	908.06
498.615	920.06
498.832	929.06
499.049	957.06
499.267	986.06
499.484	989.06
499.701	1068.06
499.918	1112.06
500.135	1149.06
500.352	1217.06
500.569	1204.06
500.786	1204.06
501.003	1184.06
501.22	1173.06
501.437	1124.06
501.654	1113.06
