Data from 1966.PennyLincolnUp.Lamp.En5.5.200Scan.071719.P1._HRD10591_14-14-38-914.txt Node
Date: Thu Jul 18 14:14:38 EDT 2019
User: cochatt
Spectrometer: HR+D1059
Trigger mode: 1
Integration Time (sec): 1.000000E-1
Scans to average: 1
Electric dark correction enabled: true
Nonlinearity correction enabled: false
Boxcar width: 0
XAxis mode: Wavelengths
Number of Pixels in Spectrum: 2048
>>>>>Begin Spectral Data<<<<<
223.165	-10.25
223.4	-10.25
223.635	-10.25
223.869	-15.25
224.104	-13.25
224.338	-19.25
224.573	-11.25
224.808	-11.25
225.042	6.75
225.277	-13.25
225.511	-11.25
225.746	13.75
225.98	-11.25
226.215	13.75
226.449	8.75
226.683	25.75
226.918	20.75
227.152	26.75
227.387	21.75
227.621	41.75
227.856	37.75
228.09	29.75
228.324	49.75
228.559	48.75
228.793	53.75
229.027	72.75
229.262	73.75
229.496	86.75
229.73	97.75
229.964	100.75
230.199	100.75
230.433	86.75
230.667	91.75
230.901	87.75
231.136	91.75
231.37	83.75
231.604	77.75
231.838	92.75
232.072	87.75
232.306	107.75
232.541	99.75
232.775	96.75
233.009	85.75
233.243	89.75
233.477	84.75
233.711	98.75
233.945	95.75
234.179	84.75
234.413	96.75
234.647	79.75
234.881	89.75
235.115	96.75
235.349	97.75
235.583	97.75
235.817	109.75
236.051	101.75
236.285	108.75
236.519	97.75
236.753	90.75
236.987	99.75
237.221	142.75
237.455	152.75
237.689	126.75
237.922	110.75
238.156	92.75
238.39	84.75
238.624	117.75
238.858	103.75
239.091	88.75
239.325	101.75
239.559	77.75
239.793	84.75
240.027	107.75
240.26	100.75
240.494	113.75
240.728	105.75
240.961	111.75
241.195	105.75
241.429	100.75
241.662	99.75
241.896	99.75
242.13	101.75
242.363	101.75
242.597	109.75
242.83	109.75
243.064	105.75
243.298	94.75
243.531	91.75
243.765	101.75
243.998	97.75
244.232	103.75
244.465	97.75
244.699	107.75
244.932	104.75
245.166	92.75
245.399	103.75
245.633	97.75
245.866	101.75
246.099	116.75
246.333	102.75
246.566	102.75
246.8	105.75
247.033	109.75
247.266	113.75
247.5	115.75
247.733	104.75
247.966	112.75
248.2	115.75
248.433	118.75
248.666	108.75
248.899	130.75
249.133	130.75
249.366	137.75
249.599	120.75
249.832	140.75
250.066	119.75
250.299	118.75
250.532	123.75
250.765	148.75
250.998	150.75
251.231	143.75
251.465	137.75
251.698	123.75
251.931	118.75
252.164	123.75
252.397	121.75
252.63	134.75
252.863	140.75
253.096	151.75
253.329	140.75
253.562	140.75
253.795	143.75
254.028	141.75
254.261	137.75
254.494	146.75
254.727	167.75
254.96	171.75
255.193	167.75
255.426	151.75
255.659	146.75
255.892	135.75
256.124	143.75
256.357	142.75
256.59	126.75
256.823	130.75
257.056	112.75
257.289	118.75
257.521	138.75
257.754	137.75
257.987	137.75
258.22	141.75
258.452	131.75
258.685	134.75
258.918	121.75
259.151	133.75
259.383	143.75
259.616	140.75
259.849	132.75
260.081	160.75
260.314	162.75
260.547	143.75
260.779	154.75
261.012	164.75
261.244	147.75
261.477	152.75
261.71	116.75
261.942	139.75
262.175	146.75
262.407	125.75
262.64	146.75
262.872	136.75
263.105	128.75
263.337	140.75
263.57	137.75
263.802	141.75
264.035	145.75
264.267	138.75
264.499	143.75
264.732	136.75
264.964	139.75
265.197	138.75
265.429	148.75
265.661	136.75
265.894	142.75
266.126	141.75
266.358	114.75
266.591	140.75
266.823	148.75
267.055	116.75
267.287	142.75
267.52	146.75
267.752	139.75
267.984	143.75
268.216	150.75
268.448	149.75
268.681	156.75
268.913	157.75
269.145	149.75
269.377	173.75
269.609	169.75
269.841	159.75
270.073	171.75
270.306	177.75
270.538	190.75
270.77	185.75
271.002	165.75
271.234	177.75
271.466	185.75
271.698	168.75
271.93	180.75
272.162	193.75
272.394	184.75
272.626	177.75
272.858	174.75
273.09	164.75
273.322	180.75
273.553	162.75
273.785	137.75
274.017	165.75
274.249	160.75
274.481	150.75
274.713	163.75
274.945	154.75
275.176	156.75
275.408	164.75
275.64	157.75
275.872	161.75
276.104	164.75
276.335	164.75
276.567	152.75
276.799	187.75
277.031	181.75
277.262	205.75
277.494	199.75
277.726	187.75
277.957	172.75
278.189	169.75
278.421	168.75
278.652	176.75
278.884	149.75
279.115	156.75
279.347	166.75
279.579	157.75
279.81	153.75
280.042	139.75
280.273	172.75
280.505	164.75
280.736	166.75
280.968	153.75
281.199	172.75
281.431	170.75
281.662	155.75
281.894	160.75
282.125	176.75
282.356	163.75
282.588	168.75
282.819	182.75
283.051	168.75
283.282	156.75
283.513	173.75
283.745	167.75
283.976	163.75
284.207	156.75
284.439	176.75
284.67	164.75
284.901	165.75
285.132	156.75
285.364	168.75
285.595	155.75
285.826	156.75
286.057	172.75
286.288	167.75
286.52	168.75
286.751	169.75
286.982	154.75
287.213	167.75
287.444	168.75
287.675	176.75
287.906	190.75
288.138	183.75
288.369	195.75
288.6	184.75
288.831	167.75
289.062	182.75
289.293	168.75
289.524	176.75
289.755	172.75
289.986	170.75
290.217	172.75
290.448	178.75
290.679	170.75
290.91	181.75
291.141	152.75
291.371	165.75
291.602	152.75
291.833	168.75
292.064	165.75
292.295	164.75
292.526	176.75
292.757	173.75
292.987	171.75
293.218	168.75
293.449	186.75
293.68	169.75
293.91	179.75
294.141	166.75
294.372	178.75
294.603	167.75
294.833	194.75
295.064	173.75
295.295	163.75
295.525	162.75
295.756	181.75
295.987	181.75
296.217	205.75
296.448	210.75
296.679	196.75
296.909	161.75
297.14	165.75
297.37	170.75
297.601	186.75
297.831	175.75
298.062	173.75
298.292	173.75
298.523	173.75
298.753	169.75
298.984	174.75
299.214	198.75
299.445	185.75
299.675	178.75
299.905	167.75
300.136	178.75
300.366	169.75
300.597	181.75
300.827	173.75
301.057	179.75
301.288	193.75
301.518	181.75
301.748	183.75
301.979	191.75
302.209	176.75
302.439	199.75
302.669	189.75
302.9	203.75
303.13	177.75
303.36	198.75
303.59	205.75
303.82	195.75
304.051	208.75
304.281	197.75
304.511	194.75
304.741	188.75
304.971	182.75
305.201	185.75
305.431	167.75
305.661	183.75
305.891	196.75
306.121	183.75
306.352	195.75
306.582	202.75
306.812	180.75
307.042	188.75
307.272	195.75
307.502	181.75
307.731	183.75
307.961	178.75
308.191	196.75
308.421	192.75
308.651	188.75
308.881	189.75
309.111	183.75
309.341	182.75
309.571	193.75
309.8	201.75
310.03	213.75
310.26	216.75
310.49	218.75
310.72	210.75
310.949	233.75
311.179	230.75
311.409	220.75
311.639	210.75
311.868	208.75
312.098	212.75
312.328	221.75
312.557	233.75
312.787	242.75
313.017	224.75
313.246	208.75
313.476	225.75
313.706	195.75
313.935	218.75
314.165	231.75
314.394	213.75
314.624	226.75
314.853	217.75
315.083	206.75
315.312	212.75
315.542	226.75
315.771	221.75
316.001	218.75
316.23	196.75
316.46	196.75
316.689	199.75
316.919	210.75
317.148	218.75
317.377	218.75
317.607	217.75
317.836	220.75
318.065	208.75
318.295	205.75
318.524	206.75
318.753	206.75
318.983	210.75
319.212	208.75
319.441	225.75
319.67	209.75
319.9	197.75
320.129	217.75
320.358	215.75
320.587	216.75
320.816	206.75
321.046	214.75
321.275	221.75
321.504	207.75
321.733	226.75
321.962	228.75
322.191	219.75
322.42	249.75
322.649	241.75
322.878	253.75
323.108	239.75
323.337	248.75
323.566	268.75
323.795	292.75
324.024	324.75
324.253	382.75
324.482	548.75
324.71	792.75
324.939	1074.75
325.168	885.75
325.397	435.75
325.626	316.75
325.855	258.75
326.084	249.75
326.313	257.75
326.542	262.75
326.77	293.75
326.999	361.75
327.228	483.75
327.457	700.75
327.686	813.75
327.914	522.75
328.143	358.75
328.372	322.75
328.6	318.75
328.829	322.75
329.058	317.75
329.287	318.75
329.515	289.75
329.744	282.75
329.972	278.75
330.201	298.75
330.43	334.75
330.658	348.75
330.887	340.75
331.115	321.75
331.344	288.75
331.572	261.75
331.801	276.75
332.03	268.75
332.258	262.75
332.486	240.75
332.715	229.75
332.943	248.75
333.172	245.75
333.4	249.75
333.629	260.75
333.857	263.75
334.085	277.75
334.314	300.75
334.542	313.75
334.771	321.75
334.999	288.75
335.227	252.75
335.455	233.75
335.684	251.75
335.912	249.75
336.14	240.75
336.369	219.75
336.597	256.75
336.825	260.75
337.053	243.75
337.281	242.75
337.51	229.75
337.738	229.75
337.966	258.75
338.194	225.75
338.422	247.75
338.65	217.75
338.878	224.75
339.106	226.75
339.334	228.75
339.562	233.75
339.79	242.75
340.018	228.75
340.246	234.75
340.474	223.75
340.702	246.75
340.93	219.75
341.158	228.75
341.386	234.75
341.614	231.75
341.842	231.75
342.07	231.75
342.298	217.75
342.526	220.75
342.754	236.75
342.981	218.75
343.209	216.75
343.437	234.75
343.665	227.75
343.893	221.75
344.12	228.75
344.348	233.75
344.576	225.75
344.804	231.75
345.031	243.75
345.259	268.75
345.487	249.75
345.714	232.75
345.942	222.75
346.17	216.75
346.397	213.75
346.625	228.75
346.853	219.75
347.08	201.75
347.308	218.75
347.535	250.75
347.763	229.75
347.99	225.75
348.218	236.75
348.445	232.75
348.673	218.75
348.9	232.75
349.128	212.75
349.355	224.75
349.583	204.75
349.81	214.75
350.037	209.75
350.265	220.75
350.492	220.75
350.72	212.75
350.947	229.75
351.174	236.75
351.402	226.75
351.629	235.75
351.856	232.75
352.083	229.75
352.311	241.75
352.538	227.75
352.765	234.75
352.992	232.75
353.22	226.75
353.447	220.75
353.674	235.75
353.901	216.75
354.128	215.75
354.355	219.75
354.583	207.75
354.81	209.75
355.037	204.75
355.264	216.75
355.491	205.75
355.718	221.75
355.945	226.75
356.172	211.75
356.399	208.75
356.626	195.75
356.853	210.75
357.08	219.75
357.307	196.75
357.534	205.75
357.761	205.75
357.988	198.75
358.215	198.75
358.441	199.75
358.668	211.75
358.895	213.75
359.122	226.75
359.349	210.75
359.576	226.75
359.802	244.75
360.029	262.75
360.256	257.75
360.483	267.75
360.709	238.75
360.936	219.75
361.163	222.75
361.39	229.75
361.616	213.75
361.843	225.75
362.07	209.75
362.296	229.75
362.523	218.75
362.749	211.75
362.976	204.75
363.203	207.75
363.429	230.75
363.656	221.75
363.882	210.75
364.109	210.75
364.335	217.75
364.562	214.75
364.788	218.75
365.015	195.75
365.241	226.75
365.468	218.75
365.694	229.75
365.92	226.75
366.147	219.75
366.373	227.75
366.599	206.75
366.826	212.75
367.052	216.75
367.278	208.75
367.505	214.75
367.731	218.75
367.957	218.75
368.184	200.75
368.41	227.75
368.636	220.75
368.862	226.75
369.089	203.75
369.315	209.75
369.541	210.75
369.767	216.75
369.993	205.75
370.219	206.75
370.445	219.75
370.672	218.75
370.898	211.75
371.124	212.75
371.35	231.75
371.576	213.75
371.802	218.75
372.028	215.75
372.254	204.75
372.48	205.75
372.706	201.75
372.932	201.75
373.158	216.75
373.384	204.75
373.61	217.75
373.835	201.75
374.061	204.75
374.287	216.75
374.513	208.75
374.739	213.75
374.965	201.75
375.191	212.75
375.416	227.75
375.642	213.75
375.868	202.75
376.094	214.75
376.319	204.75
376.545	216.75
376.771	209.75
376.997	211.75
377.222	212.75
377.448	222.75
377.674	236.75
377.899	209.75
378.125	215.75
378.35	203.75
378.576	217.75
378.802	199.75
379.027	198.75
379.253	225.75
379.478	191.75
379.704	207.75
379.929	213.75
380.155	217.75
380.38	202.75
380.606	220.75
380.831	210.75
381.057	218.75
381.282	201.75
381.507	202.75
381.733	211.75
381.958	218.75
382.184	209.75
382.409	222.75
382.634	220.75
382.86	220.75
383.085	226.75
383.31	231.75
383.535	222.75
383.761	215.75
383.986	217.75
384.211	204.75
384.436	221.75
384.662	219.75
384.887	226.75
385.112	200.75
385.337	232.75
385.562	223.75
385.787	214.75
386.013	202.75
386.238	240.75
386.463	228.75
386.688	233.75
386.913	224.75
387.138	216.75
387.363	222.75
387.588	228.75
387.813	237.75
388.038	233.75
388.263	251.75
388.488	234.75
388.713	227.75
388.938	229.75
389.163	223.75
389.387	215.75
389.612	209.75
389.837	233.75
390.062	229.75
390.287	232.75
390.512	216.75
390.736	199.75
390.961	220.75
391.186	228.75
391.411	223.75
391.636	215.75
391.86	234.75
392.085	229.75
392.31	236.75
392.534	216.75
392.759	226.75
392.984	240.75
393.208	240.75
393.433	221.75
393.658	224.75
393.882	233.75
394.107	213.75
394.331	213.75
394.556	207.75
394.78	218.75
395.005	242.75
395.229	209.75
395.454	221.75
395.678	219.75
395.903	237.75
396.127	220.75
396.352	240.75
396.576	245.75
396.801	246.75
397.025	236.75
397.249	240.75
397.474	226.75
397.698	228.75
397.922	250.75
398.147	251.75
398.371	240.75
398.595	257.75
398.82	246.75
399.044	252.75
399.268	260.75
399.492	264.75
399.717	310.75
399.941	298.75
400.165	281.75
400.389	300.75
400.613	270.75
400.837	268.75
401.062	258.75
401.286	248.75
401.51	259.75
401.734	244.75
401.958	266.75
402.182	277.75
402.406	260.75
402.63	278.75
402.854	276.75
403.078	260.75
403.302	248.75
403.526	267.75
403.75	282.75
403.974	274.75
404.198	253.75
404.422	274.75
404.645	262.75
404.869	277.75
405.093	276.75
405.317	282.75
405.541	316.75
405.765	298.75
405.988	291.75
406.212	298.75
406.436	308.75
406.66	313.75
406.883	292.75
407.107	295.75
407.331	309.75
407.555	338.75
407.778	329.75
408.002	316.75
408.226	292.75
408.449	276.75
408.673	292.75
408.896	293.75
409.12	310.75
409.344	321.75
409.567	283.75
409.791	271.75
410.014	278.75
410.238	268.75
410.461	268.75
410.685	272.75
410.908	274.75
411.132	301.75
411.355	310.75
411.578	276.75
411.802	252.75
412.025	259.75
412.249	269.75
412.472	288.75
412.695	297.75
412.919	291.75
413.142	286.75
413.365	249.75
413.589	264.75
413.812	283.75
414.035	252.75
414.258	249.75
414.482	258.75
414.705	263.75
414.928	251.75
415.151	243.75
415.374	248.75
415.597	251.75
415.821	263.75
416.044	255.75
416.267	262.75
416.49	226.75
416.713	226.75
416.936	250.75
417.159	254.75
417.382	260.75
417.605	270.75
417.828	254.75
418.051	271.75
418.274	269.75
418.497	251.75
418.72	244.75
418.943	244.75
419.166	263.75
419.389	285.75
419.611	285.75
419.834	267.75
420.057	280.75
420.28	284.75
420.503	276.75
420.726	269.75
420.948	275.75
421.171	289.75
421.394	294.75
421.617	283.75
421.839	258.75
422.062	258.75
422.285	266.75
422.507	319.75
422.73	324.75
422.953	336.75
423.175	276.75
423.398	273.75
423.621	273.75
423.843	297.75
424.066	286.75
424.288	278.75
424.511	292.75
424.733	322.75
424.956	359.75
425.178	339.75
425.401	339.75
425.623	346.75
425.846	288.75
426.068	298.75
426.291	270.75
426.513	257.75
426.735	272.75
426.958	303.75
427.18	339.75
427.402	392.75
427.625	451.75
427.847	385.75
428.069	357.75
428.292	293.75
428.514	273.75
428.736	253.75
428.958	267.75
429.181	236.75
429.403	250.75
429.625	273.75
429.847	274.75
430.069	315.75
430.292	281.75
430.514	262.75
430.736	249.75
430.958	264.75
431.18	249.75
431.402	253.75
431.624	253.75
431.846	240.75
432.068	260.75
432.29	260.75
432.512	250.75
432.734	267.75
432.956	267.75
433.178	246.75
433.4	275.75
433.622	263.75
433.844	241.75
434.066	249.75
434.287	253.75
434.509	260.75
434.731	279.75
434.953	275.75
435.175	265.75
435.397	269.75
435.618	285.75
435.84	321.75
436.062	346.75
436.284	369.75
436.505	296.75
436.727	276.75
436.949	268.75
437.17	257.75
437.392	242.75
437.614	265.75
437.835	298.75
438.057	358.75
438.278	363.75
438.5	351.75
438.721	399.75
438.943	374.75
439.165	314.75
439.386	271.75
439.608	288.75
439.829	280.75
440.05	295.75
440.272	329.75
440.493	295.75
440.715	268.75
440.936	282.75
441.158	274.75
441.379	266.75
441.6	262.75
441.822	293.75
442.043	293.75
442.264	331.75
442.486	328.75
442.707	309.75
442.928	288.75
443.149	298.75
443.371	308.75
443.592	313.75
443.813	362.75
444.034	374.75
444.255	301.75
444.476	305.75
444.698	282.75
444.919	279.75
445.14	380.75
445.361	316.75
445.582	315.75
445.803	346.75
446.024	379.75
446.245	387.75
446.466	358.75
446.687	310.75
446.908	280.75
447.129	249.75
447.35	251.75
447.571	248.75
447.792	257.75
448.013	262.75
448.234	270.75
448.455	278.75
448.675	369.75
448.896	390.75
449.117	344.75
449.338	312.75
449.559	362.75
449.779	390.75
450	309.75
450.221	278.75
450.442	252.75
450.662	233.75
450.883	264.75
451.104	262.75
451.324	262.75
451.545	259.75
451.766	260.75
451.986	250.75
452.207	255.75
452.428	253.75
452.648	241.75
452.869	248.75
453.089	241.75
453.31	241.75
453.53	249.75
453.751	229.75
453.971	247.75
454.192	248.75
454.412	245.75
454.633	225.75
454.853	237.75
455.073	234.75
455.294	254.75
455.514	291.75
455.734	268.75
455.955	230.75
456.175	225.75
456.395	227.75
456.616	211.75
456.836	211.75
457.056	216.75
457.276	227.75
457.497	221.75
457.717	227.75
457.937	232.75
458.157	229.75
458.377	234.75
458.598	257.75
458.818	299.75
459.038	329.75
459.258	335.75
459.478	267.75
459.698	249.75
459.918	239.75
460.138	237.75
460.358	262.75
460.578	268.75
460.798	246.75
461.018	259.75
461.238	252.75
461.458	236.75
461.678	248.75
461.898	256.75
462.118	241.75
462.338	252.75
462.558	260.75
462.777	239.75
462.997	271.75
463.217	280.75
463.437	283.75
463.657	277.75
463.876	265.75
464.096	257.75
464.316	262.75
464.536	259.75
464.755	269.75
464.975	281.75
465.195	321.75
465.414	357.75
465.634	291.75
465.854	264.75
466.073	258.75
466.293	227.75
466.512	236.75
466.732	235.75
466.951	241.75
467.171	240.75
467.391	238.75
467.61	277.75
467.829	253.75
468.049	258.75
468.268	253.75
468.488	249.75
468.707	233.75
468.927	238.75
469.146	222.75
469.365	233.75
469.585	242.75
469.804	240.75
470.023	245.75
470.243	250.75
470.462	249.75
470.681	269.75
470.901	272.75
471.12	249.75
471.339	242.75
471.558	249.75
471.777	243.75
471.997	256.75
472.216	257.75
472.435	290.75
472.654	259.75
472.873	246.75
473.092	245.75
473.311	250.75
473.53	256.75
473.749	248.75
473.968	247.75
474.187	323.75
474.406	324.75
474.625	264.75
474.844	252.75
475.063	257.75
475.282	245.75
475.501	256.75
475.72	258.75
475.939	256.75
476.158	251.75
476.377	240.75
476.596	253.75
476.814	247.75
477.033	266.75
477.252	270.75
477.471	251.75
477.69	256.75
477.908	273.75
478.127	284.75
478.346	266.75
478.564	260.75
478.783	263.75
479.002	269.75
479.22	290.75
479.439	287.75
479.658	292.75
479.876	276.75
480.095	295.75
480.313	314.75
480.532	297.75
480.751	309.75
480.969	314.75
481.188	368.75
481.406	396.75
481.624	322.75
481.843	299.75
482.061	293.75
482.28	284.75
482.498	289.75
482.717	281.75
482.935	268.75
483.153	282.75
483.372	289.75
483.59	305.75
483.808	289.75
484.027	283.75
484.245	273.75
484.463	284.75
484.681	290.75
484.9	287.75
485.118	289.75
485.336	287.75
485.554	291.75
485.772	295.75
485.99	300.75
486.209	279.75
486.427	275.75
486.645	316.75
486.863	306.75
487.081	315.75
487.299	314.75
487.517	312.75
487.735	275.75
487.953	298.75
488.171	306.75
488.389	314.75
488.607	309.75
488.825	305.75
489.043	297.75
489.261	300.75
489.479	299.75
489.696	306.75
489.914	297.75
490.132	331.75
490.35	327.75
490.568	317.75
490.786	332.75
491.003	348.75
491.221	329.75
491.439	340.75
491.657	372.75
491.874	354.75
492.092	337.75
492.31	376.75
492.527	355.75
492.745	337.75
492.963	362.75
493.18	358.75
493.398	350.75
493.615	374.75
493.833	370.75
494.05	372.75
494.268	348.75
494.485	358.75
494.703	353.75
494.92	357.75
495.138	353.75
495.355	339.75
495.573	345.75
495.79	338.75
496.008	358.75
496.225	355.75
496.442	365.75
496.66	361.75
496.877	359.75
497.094	343.75
497.312	338.75
497.529	363.75
497.746	357.75
497.963	379.75
498.181	375.75
498.398	374.75
498.615	380.75
498.832	388.75
499.049	389.75
499.267	387.75
499.484	403.75
499.701	417.75
499.918	434.75
500.135	438.75
500.352	471.75
500.569	482.75
500.786	476.75
501.003	471.75
501.22	451.75
501.437	444.75
501.654	437.75
501.871	455.75
502.088	424.75
502.305	383.75
502.522	396.75
