Data from 1966.PennyLincolnUp.Lamp.En5.5.200Scan.071719.P1.Scan2.head_HRD10591_14-19-18-257.txt Node
Date: Thu Jul 18 14:19:18 EDT 2019
User: cochatt
Spectrometer: HR+D1059
Trigger mode: 1
Integration Time (sec): 1.000000E-1
Scans to average: 1
Electric dark correction enabled: true
Nonlinearity correction enabled: false
Boxcar width: 0
XAxis mode: Wavelengths
Number of Pixels in Spectrum: 2048
>>>>>Begin Spectral Data<<<<<
223.165	-12.38
223.4	-12.38
223.635	-12.38
223.869	-17.38
224.104	-19.38
224.338	-19.38
224.573	-10.38
224.808	-10.38
225.042	-16.38
225.277	2.62
225.511	-1.38
225.746	12.62
225.98	2.62
226.215	3.62
226.449	8.62
226.683	26.62
226.918	31.62
227.152	18.62
227.387	23.62
227.621	24.62
227.856	43.62
228.09	40.62
228.324	44.62
228.559	52.62
228.793	57.62
229.027	78.62
229.262	95.62
229.496	108.62
229.73	132.62
229.964	161.62
230.199	136.62
230.433	112.62
230.667	116.62
230.901	106.62
231.136	118.62
231.37	111.62
231.604	112.62
231.838	97.62
232.072	110.62
232.306	116.62
232.541	114.62
232.775	106.62
233.009	127.62
233.243	120.62
233.477	120.62
233.711	116.62
233.945	116.62
234.179	95.62
234.413	96.62
234.647	126.62
234.881	103.62
235.115	113.62
235.349	112.62
235.583	112.62
235.817	130.62
236.051	123.62
236.285	121.62
236.519	125.62
236.753	138.62
236.987	136.62
237.221	190.62
237.455	224.62
237.689	190.62
237.922	146.62
238.156	142.62
238.39	134.62
238.624	113.62
238.858	128.62
239.091	142.62
239.325	119.62
239.559	120.62
239.793	129.62
240.027	140.62
240.26	132.62
240.494	160.62
240.728	152.62
240.961	139.62
241.195	134.62
241.429	141.62
241.662	143.62
241.896	136.62
242.13	128.62
242.363	122.62
242.597	122.62
242.83	141.62
243.064	130.62
243.298	123.62
243.531	134.62
243.765	138.62
243.998	152.62
244.232	141.62
244.465	148.62
244.699	150.62
244.932	128.62
245.166	153.62
245.399	142.62
245.633	153.62
245.866	165.62
246.099	151.62
246.333	130.62
246.566	162.62
246.8	156.62
247.033	162.62
247.266	171.62
247.5	152.62
247.733	178.62
247.966	168.62
248.2	174.62
248.433	168.62
248.666	180.62
248.899	198.62
249.133	208.62
249.366	207.62
249.599	206.62
249.832	182.62
250.066	185.62
250.299	181.62
250.532	189.62
250.765	200.62
250.998	215.62
251.231	224.62
251.465	209.62
251.698	222.62
251.931	215.62
252.164	189.62
252.397	198.62
252.63	203.62
252.863	196.62
253.096	206.62
253.329	228.62
253.562	233.62
253.795	218.62
254.028	226.62
254.261	221.62
254.494	239.62
254.727	282.62
254.96	281.62
255.193	292.62
255.426	258.62
255.659	217.62
255.892	256.62
256.124	234.62
256.357	223.62
256.59	229.62
256.823	203.62
257.056	209.62
257.289	211.62
257.521	223.62
257.754	216.62
257.987	213.62
258.22	222.62
258.452	216.62
258.685	224.62
258.918	215.62
259.151	213.62
259.383	227.62
259.616	224.62
259.849	226.62
260.081	223.62
260.314	269.62
260.547	267.62
260.779	238.62
261.012	241.62
261.244	245.62
261.477	227.62
261.71	242.62
261.942	227.62
262.175	233.62
262.407	229.62
262.64	232.62
262.872	225.62
263.105	219.62
263.337	229.62
263.57	215.62
263.802	227.62
264.035	210.62
264.267	215.62
264.499	214.62
264.732	231.62
264.964	226.62
265.197	226.62
265.429	202.62
265.661	227.62
265.894	217.62
266.126	212.62
266.358	226.62
266.591	228.62
266.823	228.62
267.055	227.62
267.287	242.62
267.52	250.62
267.752	239.62
267.984	241.62
268.216	231.62
268.448	244.62
268.681	243.62
268.913	258.62
269.145	281.62
269.377	278.62
269.609	287.62
269.841	289.62
270.073	278.62
270.306	300.62
270.538	323.62
270.77	335.62
271.002	295.62
271.234	291.62
271.466	307.62
271.698	304.62
271.93	308.62
272.162	330.62
272.394	337.62
272.626	305.62
272.858	279.62
273.09	300.62
273.322	280.62
273.553	281.62
273.785	281.62
274.017	266.62
274.249	283.62
274.481	258.62
274.713	268.62
274.945	282.62
275.176	266.62
275.408	276.62
275.64	274.62
275.872	267.62
276.104	282.62
276.335	285.62
276.567	274.62
276.799	294.62
277.031	321.62
277.262	342.62
277.494	336.62
277.726	300.62
277.957	300.62
278.189	286.62
278.421	272.62
278.652	280.62
278.884	273.62
279.115	266.62
279.347	281.62
279.579	274.62
279.81	291.62
280.042	284.62
280.273	287.62
280.505	280.62
280.736	271.62
280.968	290.62
281.199	305.62
281.431	284.62
281.662	268.62
281.894	259.62
282.125	279.62
282.356	298.62
282.588	320.62
282.819	318.62
283.051	304.62
283.282	292.62
283.513	299.62
283.745	290.62
283.976	295.62
284.207	295.62
284.439	287.62
284.67	295.62
284.901	267.62
285.132	283.62
285.364	294.62
285.595	296.62
285.826	266.62
286.057	287.62
286.288	294.62
286.52	271.62
286.751	301.62
286.982	286.62
287.213	286.62
287.444	295.62
287.675	300.62
287.906	314.62
288.138	322.62
288.369	292.62
288.6	304.62
288.831	306.62
289.062	304.62
289.293	309.62
289.524	293.62
289.755	291.62
289.986	302.62
290.217	310.62
290.448	308.62
290.679	279.62
290.91	290.62
291.141	290.62
291.371	303.62
291.602	283.62
291.833	297.62
292.064	294.62
292.295	298.62
292.526	297.62
292.757	317.62
292.987	311.62
293.218	302.62
293.449	293.62
293.68	288.62
293.91	293.62
294.141	295.62
294.372	312.62
294.603	289.62
294.833	299.62
295.064	309.62
295.295	312.62
295.525	329.62
295.756	331.62
295.987	315.62
296.217	324.62
296.448	327.62
296.679	313.62
296.909	308.62
297.14	316.62
297.37	304.62
297.601	304.62
297.831	305.62
298.062	305.62
298.292	314.62
298.523	322.62
298.753	313.62
298.984	315.62
299.214	333.62
299.445	328.62
299.675	322.62
299.905	331.62
300.136	333.62
300.366	298.62
300.597	320.62
300.827	347.62
301.057	315.62
301.288	331.62
301.518	330.62
301.748	326.62
301.979	332.62
302.209	339.62
302.439	339.62
302.669	362.62
302.9	323.62
303.13	341.62
303.36	333.62
303.59	346.62
303.82	351.62
304.051	346.62
304.281	335.62
304.511	322.62
304.741	326.62
304.971	337.62
305.201	325.62
305.431	330.62
305.661	319.62
305.891	337.62
306.121	359.62
306.352	344.62
306.582	360.62
306.812	349.62
307.042	352.62
307.272	350.62
307.502	334.62
307.731	362.62
307.961	350.62
308.191	342.62
308.421	350.62
308.651	341.62
308.881	331.62
309.111	373.62
309.341	359.62
309.571	362.62
309.8	373.62
310.03	377.62
310.26	382.62
310.49	383.62
310.72	379.62
310.949	419.62
311.179	399.62
311.409	402.62
311.639	389.62
311.868	379.62
312.098	392.62
312.328	386.62
312.557	411.62
312.787	423.62
313.017	416.62
313.246	421.62
313.476	398.62
313.706	388.62
313.935	423.62
314.165	415.62
314.394	419.62
314.624	395.62
314.853	403.62
315.083	402.62
315.312	408.62
315.542	381.62
315.771	374.62
316.001	380.62
316.23	368.62
316.46	398.62
316.689	395.62
316.919	384.62
317.148	404.62
317.377	404.62
317.607	408.62
317.836	401.62
318.065	393.62
318.295	407.62
318.524	412.62
318.753	385.62
318.983	403.62
319.212	395.62
319.441	401.62
319.67	415.62
319.9	382.62
320.129	381.62
320.358	382.62
320.587	403.62
320.816	410.62
321.046	409.62
321.275	412.62
321.504	413.62
321.733	433.62
321.962	432.62
322.191	447.62
322.42	447.62
322.649	459.62
322.878	448.62
323.108	458.62
323.337	500.62
323.566	513.62
323.795	560.62
324.024	572.62
324.253	697.62
324.482	992.62
324.71	1529.62
324.939	2323.62
325.168	2031.62
325.397	1023.62
325.626	677.62
325.855	577.62
326.084	542.62
326.313	532.62
326.542	504.62
326.77	570.62
326.999	664.62
327.228	907.62
327.457	1353.62
327.686	1762.62
327.914	1124.62
328.143	709.62
328.372	644.62
328.6	603.62
328.829	581.62
329.058	615.62
329.287	590.62
329.515	565.62
329.744	536.62
329.972	524.62
330.201	552.62
330.43	590.62
330.658	620.62
330.887	635.62
331.115	653.62
331.344	564.62
331.572	534.62
331.801	521.62
332.03	494.62
332.258	493.62
332.486	488.62
332.715	461.62
332.943	478.62
333.172	494.62
333.4	498.62
333.629	499.62
333.857	536.62
334.085	545.62
334.314	562.62
334.542	596.62
334.771	595.62
334.999	542.62
335.227	510.62
335.455	514.62
335.684	503.62
335.912	480.62
336.14	482.62
336.369	489.62
336.597	497.62
336.825	483.62
337.053	502.62
337.281	485.62
337.51	470.62
337.738	480.62
337.966	465.62
338.194	450.62
338.422	473.62
338.65	471.62
338.878	458.62
339.106	441.62
339.334	457.62
339.562	451.62
339.79	440.62
340.018	463.62
340.246	474.62
340.474	458.62
340.702	453.62
340.93	460.62
341.158	462.62
341.386	472.62
341.614	459.62
341.842	463.62
342.07	451.62
342.298	437.62
342.526	456.62
342.754	451.62
342.981	433.62
343.209	438.62
343.437	444.62
343.665	455.62
343.893	479.62
344.12	474.62
344.348	481.62
344.576	491.62
344.804	481.62
345.031	478.62
345.259	492.62
345.487	482.62
345.714	465.62
345.942	441.62
346.17	438.62
346.397	442.62
346.625	438.62
346.853	439.62
347.08	447.62
347.308	445.62
347.535	460.62
347.763	446.62
347.99	462.62
348.218	479.62
348.445	448.62
348.673	440.62
348.9	435.62
349.128	435.62
349.355	447.62
349.583	421.62
349.81	428.62
350.037	438.62
350.265	443.62
350.492	425.62
350.72	426.62
350.947	433.62
351.174	439.62
351.402	451.62
351.629	449.62
351.856	441.62
352.083	442.62
352.311	455.62
352.538	481.62
352.765	466.62
352.992	437.62
353.22	459.62
353.447	444.62
353.674	437.62
353.901	450.62
354.128	420.62
354.355	439.62
354.583	408.62
354.81	417.62
355.037	420.62
355.264	414.62
355.491	414.62
355.718	431.62
355.945	418.62
356.172	425.62
356.399	424.62
356.626	433.62
356.853	430.62
357.08	421.62
357.307	410.62
357.534	404.62
357.761	414.62
357.988	424.62
358.215	436.62
358.441	434.62
358.668	423.62
358.895	417.62
359.122	436.62
359.349	435.62
359.576	444.62
359.802	468.62
360.029	484.62
360.256	491.62
360.483	487.62
360.709	449.62
360.936	464.62
361.163	452.62
361.39	456.62
361.616	451.62
361.843	439.62
362.07	443.62
362.296	471.62
362.523	457.62
362.749	456.62
362.976	444.62
363.203	458.62
363.429	427.62
363.656	423.62
363.882	458.62
364.109	431.62
364.335	428.62
364.562	436.62
364.788	424.62
365.015	461.62
365.241	423.62
365.468	418.62
365.694	442.62
365.92	447.62
366.147	424.62
366.373	433.62
366.599	427.62
366.826	430.62
367.052	421.62
367.278	428.62
367.505	419.62
367.731	438.62
367.957	448.62
368.184	440.62
368.41	444.62
368.636	449.62
368.862	456.62
369.089	456.62
369.315	466.62
369.541	446.62
369.767	439.62
369.993	442.62
370.219	438.62
370.445	419.62
370.672	435.62
370.898	425.62
371.124	436.62
371.35	468.62
371.576	432.62
371.802	432.62
372.028	425.62
372.254	436.62
372.48	425.62
372.706	431.62
372.932	445.62
373.158	467.62
373.384	444.62
373.61	443.62
373.835	430.62
374.061	452.62
374.287	445.62
374.513	467.62
374.739	439.62
374.965	464.62
375.191	444.62
375.416	446.62
375.642	449.62
375.868	447.62
376.094	443.62
376.319	437.62
376.545	449.62
376.771	438.62
376.997	453.62
377.222	423.62
377.448	425.62
377.674	439.62
377.899	430.62
378.125	435.62
378.35	440.62
378.576	420.62
378.802	438.62
379.027	416.62
379.253	453.62
379.478	447.62
379.704	438.62
379.929	438.62
380.155	428.62
380.38	447.62
380.606	448.62
380.831	430.62
381.057	437.62
381.282	440.62
381.507	452.62
381.733	457.62
381.958	456.62
382.184	466.62
382.409	448.62
382.634	461.62
382.86	468.62
383.085	451.62
383.31	465.62
383.535	452.62
383.761	469.62
383.986	476.62
384.211	472.62
384.436	471.62
384.662	466.62
384.887	468.62
385.112	463.62
385.337	479.62
385.562	482.62
385.787	482.62
386.013	480.62
386.238	500.62
386.463	472.62
386.688	479.62
386.913	480.62
387.138	511.62
387.363	482.62
387.588	497.62
387.813	495.62
388.038	469.62
388.263	494.62
388.488	490.62
388.713	506.62
388.938	493.62
389.163	497.62
389.387	491.62
389.612	477.62
389.837	502.62
390.062	498.62
390.287	486.62
390.512	492.62
390.736	505.62
390.961	512.62
391.186	488.62
391.411	496.62
391.636	503.62
391.86	522.62
392.085	535.62
392.31	522.62
392.534	515.62
392.759	488.62
392.984	483.62
393.208	495.62
393.433	499.62
393.658	531.62
393.882	502.62
394.107	525.62
394.331	486.62
394.556	496.62
394.78	520.62
395.005	499.62
395.229	512.62
395.454	498.62
395.678	552.62
395.903	533.62
396.127	551.62
396.352	566.62
396.576	520.62
396.801	512.62
397.025	517.62
397.249	510.62
397.474	557.62
397.698	537.62
397.922	545.62
398.147	552.62
398.371	578.62
398.595	555.62
398.82	574.62
399.044	590.62
399.268	609.62
399.492	602.62
399.717	675.62
399.941	680.62
400.165	719.62
400.389	740.62
400.613	657.62
400.837	612.62
401.062	606.62
401.286	608.62
401.51	586.62
401.734	574.62
401.958	564.62
402.182	585.62
402.406	590.62
402.63	597.62
402.854	604.62
403.078	592.62
403.302	590.62
403.526	593.62
403.75	595.62
403.974	594.62
404.198	594.62
404.422	599.62
404.645	604.62
404.869	613.62
405.093	653.62
405.317	703.62
405.541	723.62
405.765	670.62
405.988	663.62
406.212	656.62
406.436	644.62
406.66	668.62
406.883	640.62
407.107	677.62
407.331	733.62
407.555	792.62
407.778	805.62
408.002	744.62
408.226	650.62
408.449	674.62
408.673	649.62
408.896	690.62
409.12	758.62
409.344	697.62
409.567	636.62
409.791	629.62
410.014	611.62
410.238	601.62
410.461	602.62
410.685	599.62
410.908	643.62
411.132	664.62
411.355	680.62
411.578	669.62
411.802	640.62
412.025	610.62
412.249	602.62
412.472	641.62
412.695	693.62
412.919	690.62
413.142	631.62
413.365	611.62
413.589	568.62
413.812	571.62
414.035	583.62
414.258	586.62
414.482	577.62
414.705	592.62
414.928	554.62
415.151	582.62
415.374	567.62
415.597	543.62
415.821	574.62
416.044	576.62
416.267	573.62
416.49	577.62
416.713	559.62
416.936	575.62
417.159	563.62
417.382	561.62
417.605	585.62
417.828	610.62
418.051	603.62
418.274	582.62
418.497	577.62
418.72	593.62
418.943	591.62
419.166	597.62
419.389	598.62
419.611	617.62
419.834	610.62
420.057	579.62
420.28	592.62
420.503	593.62
420.726	596.62
420.948	594.62
421.171	652.62
421.394	664.62
421.617	607.62
421.839	600.62
422.062	572.62
422.285	620.62
422.507	666.62
422.73	771.62
422.953	756.62
423.175	650.62
423.398	608.62
423.621	614.62
423.843	662.62
424.066	630.62
424.288	657.62
424.511	662.62
424.733	726.62
424.956	786.62
425.178	788.62
425.401	754.62
425.623	811.62
425.846	695.62
426.068	660.62
426.291	628.62
426.513	623.62
426.735	650.62
426.958	697.62
427.18	778.62
427.402	927.62
427.625	1030.62
427.847	905.62
428.069	799.62
428.292	690.62
428.514	636.62
428.736	627.62
428.958	601.62
429.181	592.62
429.403	592.62
429.625	599.62
429.847	650.62
430.069	704.62
430.292	702.62
430.514	613.62
430.736	596.62
430.958	566.62
431.18	564.62
431.402	566.62
431.624	550.62
431.846	567.62
432.068	552.62
432.29	578.62
432.512	588.62
432.734	578.62
432.956	574.62
433.178	585.62
433.4	588.62
433.622	575.62
433.844	576.62
434.066	564.62
434.287	553.62
434.509	561.62
434.731	594.62
434.953	592.62
435.175	602.62
435.397	623.62
435.618	631.62
435.84	658.62
436.062	798.62
436.284	860.62
436.505	754.62
436.727	632.62
436.949	614.62
437.17	599.62
437.392	590.62
437.614	618.62
437.835	629.62
438.057	757.62
438.278	858.62
438.5	858.62
438.721	929.62
438.943	912.62
439.165	708.62
439.386	658.62
439.608	651.62
439.829	631.62
440.05	680.62
440.272	722.62
440.493	693.62
440.715	641.62
440.936	600.62
441.158	604.62
441.379	607.62
441.6	603.62
441.822	635.62
442.043	696.62
442.264	784.62
442.486	829.62
442.707	722.62
442.928	649.62
443.149	652.62
443.371	688.62
443.592	725.62
443.813	826.62
444.034	899.62
444.255	738.62
444.476	674.62
444.698	647.62
444.919	644.62
445.14	745.62
445.361	703.62
445.582	683.62
445.803	781.62
446.024	898.62
446.245	907.62
446.466	811.62
446.687	671.62
446.908	653.62
447.129	608.62
447.35	592.62
447.571	606.62
447.792	606.62
448.013	584.62
448.234	610.62
448.455	670.62
448.675	784.62
448.896	932.62
449.117	777.62
449.338	739.62
449.559	867.62
449.779	954.62
450	780.62
450.221	638.62
450.442	607.62
450.662	582.62
450.883	566.62
451.104	589.62
451.324	549.62
451.545	560.62
451.766	550.62
451.986	523.62
452.207	537.62
452.428	523.62
452.648	540.62
452.869	519.62
453.089	531.62
453.31	552.62
453.53	512.62
453.751	515.62
453.971	530.62
454.192	546.62
454.412	524.62
454.633	513.62
454.853	517.62
455.073	508.62
455.294	514.62
455.514	657.62
455.734	630.62
455.955	522.62
456.175	510.62
456.395	528.62
456.616	491.62
456.836	498.62
457.056	476.62
457.276	507.62
457.497	486.62
457.717	507.62
457.937	512.62
458.157	514.62
458.377	529.62
458.598	563.62
458.818	582.62
459.038	689.62
459.258	727.62
459.478	608.62
459.698	582.62
459.918	552.62
460.138	546.62
460.358	585.62
460.578	582.62
460.798	594.62
461.018	601.62
461.238	571.62
461.458	572.62
461.678	586.62
461.898	544.62
462.118	571.62
462.338	579.62
462.558	595.62
462.777	604.62
462.997	618.62
463.217	620.62
463.437	634.62
463.657	611.62
463.876	611.62
464.096	634.62
464.316	611.62
464.536	650.62
464.755	610.62
464.975	625.62
465.195	646.62
465.414	724.62
465.634	641.62
465.854	628.62
466.073	607.62
466.293	564.62
466.512	545.62
466.732	536.62
466.951	556.62
467.171	543.62
467.391	578.62
467.61	547.62
467.829	554.62
468.049	566.62
468.268	578.62
468.488	551.62
468.707	535.62
468.927	542.62
469.146	534.62
469.365	531.62
469.585	534.62
469.804	526.62
470.023	568.62
470.243	566.62
470.462	576.62
470.681	559.62
470.901	576.62
471.12	578.62
471.339	561.62
471.558	584.62
471.777	547.62
471.997	549.62
472.216	553.62
472.435	595.62
472.654	584.62
472.873	548.62
473.092	547.62
473.311	530.62
473.53	556.62
473.749	549.62
473.968	588.62
474.187	729.62
474.406	726.62
474.625	626.62
474.844	568.62
475.063	568.62
475.282	555.62
475.501	566.62
475.72	576.62
475.939	572.62
476.158	559.62
476.377	553.62
476.596	555.62
476.814	575.62
477.033	568.62
477.252	605.62
477.471	554.62
477.69	588.62
477.908	610.62
478.127	605.62
478.346	612.62
478.564	609.62
478.783	626.62
479.002	627.62
479.22	626.62
479.439	647.62
479.658	676.62
479.876	683.62
480.095	677.62
480.313	712.62
480.532	709.62
480.751	686.62
480.969	661.62
481.188	747.62
481.406	786.62
481.624	724.62
481.843	667.62
482.061	668.62
482.28	675.62
482.498	657.62
482.717	633.62
482.935	643.62
483.153	648.62
483.372	657.62
483.59	633.62
483.808	639.62
484.027	630.62
484.245	634.62
484.463	674.62
484.681	666.62
484.9	647.62
485.118	662.62
485.336	657.62
485.554	666.62
485.772	660.62
485.99	666.62
486.209	654.62
486.427	695.62
486.645	686.62
486.863	696.62
487.081	703.62
487.299	682.62
487.517	684.62
487.735	701.62
487.953	726.62
488.171	690.62
488.389	704.62
488.607	682.62
488.825	698.62
489.043	692.62
489.261	716.62
489.479	712.62
489.696	696.62
489.914	696.62
490.132	744.62
490.35	729.62
490.568	745.62
490.786	751.62
491.003	762.62
491.221	796.62
491.439	779.62
491.657	793.62
491.874	789.62
492.092	804.62
492.31	804.62
492.527	794.62
492.745	805.62
492.963	820.62
493.18	823.62
493.398	821.62
493.615	848.62
493.833	841.62
494.05	812.62
494.268	831.62
494.485	824.62
494.703	809.62
494.92	814.62
495.138	822.62
495.355	821.62
495.573	828.62
495.79	864.62
496.008	830.62
496.225	846.62
496.442	847.62
496.66	846.62
496.877	855.62
497.094	846.62
497.312	862.62
497.529	880.62
497.746	875.62
497.963	875.62
498.181	920.62
498.398	891.62
498.615	924.62
498.832	951.62
499.049	948.62
499.267	972.62
499.484	1041.62
499.701	1062.62
499.918	1095.62
500.135	1175.62
500.352	1195.62
500.569	1224.62
500.786	1230.62
501.003	1225.62
501.22	1203.62
501.437	1123.62
501.654	1040.62
