Data from 1966.PennyLincolnUp.Lamp.En5.5.200Scan.071719.P1._HRD10591_14-14-00-914.txt Node
Date: Thu Jul 18 14:14:00 EDT 2019
User: cochatt
Spectrometer: HR+D1059
Trigger mode: 1
Integration Time (sec): 1.000000E-1
Scans to average: 1
Electric dark correction enabled: true
Nonlinearity correction enabled: false
Boxcar width: 0
XAxis mode: Wavelengths
Number of Pixels in Spectrum: 2048
>>>>>Begin Spectral Data<<<<<
223.165	-28.06
223.4	-28.06
223.635	-28.06
223.869	-7.06
224.104	-19.06
224.338	-12.06
224.573	-22.06
224.808	-10.06
225.042	4.94
225.277	2.94
225.511	-23.06
225.746	2.94
225.98	11.94
226.215	4.94
226.449	0.94
226.683	22.94
226.918	28.94
227.152	40.94
227.387	23.94
227.621	32.94
227.856	47.94
228.09	49.94
228.324	42.94
228.559	56.94
228.793	55.94
229.027	77.94
229.262	76.94
229.496	76.94
229.73	93.94
229.964	100.94
230.199	93.94
230.433	87.94
230.667	85.94
230.901	87.94
231.136	92.94
231.37	89.94
231.604	88.94
231.838	86.94
232.072	82.94
232.306	95.94
232.541	84.94
232.775	92.94
233.009	74.94
233.243	84.94
233.477	94.94
233.711	97.94
233.945	98.94
234.179	92.94
234.413	110.94
234.647	101.94
234.881	105.94
235.115	104.94
235.349	92.94
235.583	93.94
235.817	97.94
236.051	98.94
236.285	97.94
236.519	76.94
236.753	96.94
236.987	105.94
237.221	132.94
237.455	156.94
237.689	121.94
237.922	91.94
238.156	96.94
238.39	87.94
238.624	96.94
238.858	98.94
239.091	100.94
239.325	93.94
239.559	101.94
239.793	94.94
240.027	102.94
240.26	94.94
240.494	101.94
240.728	97.94
240.961	101.94
241.195	101.94
241.429	89.94
241.662	99.94
241.896	101.94
242.13	105.94
242.363	92.94
242.597	104.94
242.83	95.94
243.064	101.94
243.298	110.94
243.531	100.94
243.765	91.94
243.998	121.94
244.232	114.94
244.465	97.94
244.699	103.94
244.932	101.94
245.166	105.94
245.399	98.94
245.633	105.94
245.866	96.94
246.099	118.94
246.333	103.94
246.566	107.94
246.8	127.94
247.033	111.94
247.266	108.94
247.5	104.94
247.733	117.94
247.966	114.94
248.2	120.94
248.433	119.94
248.666	131.94
248.899	130.94
249.133	129.94
249.366	137.94
249.599	140.94
249.832	121.94
250.066	120.94
250.299	126.94
250.532	119.94
250.765	126.94
250.998	154.94
251.231	143.94
251.465	128.94
251.698	120.94
251.931	138.94
252.164	125.94
252.397	121.94
252.63	121.94
252.863	133.94
253.096	154.94
253.329	128.94
253.562	133.94
253.795	131.94
254.028	129.94
254.261	142.94
254.494	139.94
254.727	158.94
254.96	170.94
255.193	170.94
255.426	159.94
255.659	129.94
255.892	139.94
256.124	142.94
256.357	154.94
256.59	142.94
256.823	133.94
257.056	118.94
257.289	139.94
257.521	133.94
257.754	128.94
257.987	114.94
258.22	134.94
258.452	125.94
258.685	119.94
258.918	124.94
259.151	134.94
259.383	125.94
259.616	128.94
259.849	133.94
260.081	148.94
260.314	152.94
260.547	152.94
260.779	146.94
261.012	136.94
261.244	145.94
261.477	144.94
261.71	134.94
261.942	140.94
262.175	153.94
262.407	148.94
262.64	137.94
262.872	147.94
263.105	130.94
263.337	133.94
263.57	128.94
263.802	128.94
264.035	142.94
264.267	135.94
264.499	124.94
264.732	132.94
264.964	131.94
265.197	126.94
265.429	132.94
265.661	112.94
265.894	131.94
266.126	135.94
266.358	127.94
266.591	143.94
266.823	146.94
267.055	151.94
267.287	132.94
267.52	115.94
267.752	128.94
267.984	143.94
268.216	134.94
268.448	148.94
268.681	160.94
268.913	157.94
269.145	154.94
269.377	172.94
269.609	165.94
269.841	163.94
270.073	153.94
270.306	177.94
270.538	172.94
270.77	178.94
271.002	164.94
271.234	163.94
271.466	187.94
271.698	168.94
271.93	186.94
272.162	192.94
272.394	180.94
272.626	165.94
272.858	180.94
273.09	146.94
273.322	166.94
273.553	151.94
273.785	157.94
274.017	153.94
274.249	165.94
274.481	145.94
274.713	147.94
274.945	158.94
275.176	146.94
275.408	165.94
275.64	158.94
275.872	172.94
276.104	138.94
276.335	146.94
276.567	149.94
276.799	173.94
277.031	157.94
277.262	196.94
277.494	180.94
277.726	176.94
277.957	190.94
278.189	164.94
278.421	141.94
278.652	155.94
278.884	160.94
279.115	146.94
279.347	161.94
279.579	176.94
279.81	152.94
280.042	144.94
280.273	160.94
280.505	162.94
280.736	148.94
280.968	152.94
281.199	153.94
281.431	163.94
281.662	160.94
281.894	143.94
282.125	166.94
282.356	165.94
282.588	169.94
282.819	176.94
283.051	159.94
283.282	156.94
283.513	148.94
283.745	172.94
283.976	173.94
284.207	154.94
284.439	160.94
284.67	160.94
284.901	166.94
285.132	165.94
285.364	172.94
285.595	164.94
285.826	163.94
286.057	167.94
286.288	150.94
286.52	165.94
286.751	168.94
286.982	158.94
287.213	152.94
287.444	148.94
287.675	161.94
287.906	172.94
288.138	163.94
288.369	165.94
288.6	161.94
288.831	173.94
289.062	168.94
289.293	152.94
289.524	178.94
289.755	161.94
289.986	156.94
290.217	153.94
290.448	167.94
290.679	163.94
290.91	173.94
291.141	173.94
291.371	159.94
291.602	165.94
291.833	160.94
292.064	165.94
292.295	169.94
292.526	156.94
292.757	166.94
292.987	167.94
293.218	154.94
293.449	181.94
293.68	172.94
293.91	174.94
294.141	165.94
294.372	164.94
294.603	164.94
294.833	174.94
295.064	152.94
295.295	179.94
295.525	181.94
295.756	171.94
295.987	187.94
296.217	193.94
296.448	208.94
296.679	172.94
296.909	168.94
297.14	173.94
297.37	167.94
297.601	167.94
297.831	177.94
298.062	180.94
298.292	183.94
298.523	169.94
298.753	180.94
298.984	171.94
299.214	171.94
299.445	168.94
299.675	180.94
299.905	176.94
300.136	175.94
300.366	183.94
300.597	164.94
300.827	182.94
301.057	173.94
301.288	184.94
301.518	184.94
301.748	174.94
301.979	172.94
302.209	190.94
302.439	189.94
302.669	181.94
302.9	177.94
303.13	173.94
303.36	193.94
303.59	193.94
303.82	185.94
304.051	186.94
304.281	195.94
304.511	171.94
304.741	179.94
304.971	171.94
305.201	192.94
305.431	169.94
305.661	178.94
305.891	182.94
306.121	185.94
306.352	178.94
306.582	172.94
306.812	170.94
307.042	172.94
307.272	184.94
307.502	187.94
307.731	176.94
307.961	177.94
308.191	173.94
308.421	176.94
308.651	171.94
308.881	189.94
309.111	185.94
309.341	191.94
309.571	177.94
309.8	205.94
310.03	198.94
310.26	215.94
310.49	195.94
310.72	204.94
310.949	216.94
311.179	188.94
311.409	188.94
311.639	200.94
311.868	192.94
312.098	203.94
312.328	210.94
312.557	212.94
312.787	232.94
313.017	218.94
313.246	209.94
313.476	205.94
313.706	203.94
313.935	213.94
314.165	213.94
314.394	217.94
314.624	216.94
314.853	209.94
315.083	202.94
315.312	206.94
315.542	175.94
315.771	198.94
316.001	196.94
316.23	193.94
316.46	196.94
316.689	205.94
316.919	199.94
317.148	220.94
317.377	216.94
317.607	202.94
317.836	203.94
318.065	189.94
318.295	190.94
318.524	189.94
318.753	192.94
318.983	202.94
319.212	192.94
319.441	182.94
319.67	205.94
319.9	208.94
320.129	181.94
320.358	210.94
320.587	213.94
320.816	216.94
321.046	216.94
321.275	222.94
321.504	200.94
321.733	220.94
321.962	234.94
322.191	203.94
322.42	224.94
322.649	242.94
322.878	234.94
323.108	219.94
323.337	236.94
323.566	238.94
323.795	265.94
324.024	294.94
324.253	365.94
324.482	520.94
324.71	736.94
324.939	1008.94
325.168	800.94
325.397	419.94
325.626	299.94
325.855	260.94
326.084	256.94
326.313	232.94
326.542	264.94
326.77	280.94
326.999	337.94
327.228	460.94
327.457	690.94
327.686	757.94
327.914	484.94
328.143	349.94
328.372	305.94
328.6	312.94
328.829	290.94
329.058	300.94
329.287	310.94
329.515	287.94
329.744	261.94
329.972	280.94
330.201	290.94
330.43	314.94
330.658	314.94
330.887	314.94
331.115	313.94
331.344	267.94
331.572	256.94
331.801	261.94
332.03	255.94
332.258	244.94
332.486	229.94
332.715	215.94
332.943	222.94
333.172	236.94
333.4	235.94
333.629	243.94
333.857	240.94
334.085	263.94
334.314	278.94
334.542	287.94
334.771	310.94
334.999	276.94
335.227	250.94
335.455	232.94
335.684	234.94
335.912	218.94
336.14	209.94
336.369	233.94
336.597	231.94
336.825	233.94
337.053	233.94
337.281	219.94
337.51	233.94
337.738	227.94
337.966	224.94
338.194	219.94
338.422	222.94
338.65	214.94
338.878	220.94
339.106	229.94
339.334	224.94
339.562	215.94
339.79	217.94
340.018	217.94
340.246	230.94
340.474	209.94
340.702	213.94
340.93	221.94
341.158	215.94
341.386	210.94
341.614	206.94
341.842	226.94
342.07	232.94
342.298	228.94
342.526	228.94
342.754	214.94
342.981	214.94
343.209	214.94
343.437	221.94
343.665	231.94
343.893	219.94
344.12	222.94
344.348	212.94
344.576	221.94
344.804	230.94
345.031	227.94
345.259	240.94
345.487	231.94
345.714	232.94
345.942	205.94
346.17	205.94
346.397	213.94
346.625	226.94
346.853	230.94
347.08	207.94
347.308	203.94
347.535	216.94
347.763	226.94
347.99	210.94
348.218	216.94
348.445	228.94
348.673	233.94
348.9	217.94
349.128	223.94
349.355	209.94
349.583	211.94
349.81	209.94
350.037	211.94
350.265	215.94
350.492	179.94
350.72	219.94
350.947	209.94
351.174	214.94
351.402	188.94
351.629	214.94
351.856	216.94
352.083	229.94
352.311	232.94
352.538	220.94
352.765	228.94
352.992	226.94
353.22	214.94
353.447	214.94
353.674	204.94
353.901	182.94
354.128	195.94
354.355	201.94
354.583	198.94
354.81	193.94
355.037	192.94
355.264	200.94
355.491	200.94
355.718	201.94
355.945	200.94
356.172	194.94
356.399	190.94
356.626	193.94
356.853	201.94
357.08	205.94
357.307	202.94
357.534	188.94
357.761	198.94
357.988	206.94
358.215	203.94
358.441	197.94
358.668	191.94
358.895	189.94
359.122	189.94
359.349	221.94
359.576	233.94
359.802	237.94
360.029	241.94
360.256	243.94
360.483	237.94
360.709	210.94
360.936	213.94
361.163	222.94
361.39	224.94
361.616	199.94
361.843	212.94
362.07	218.94
362.296	202.94
362.523	224.94
362.749	229.94
362.976	225.94
363.203	220.94
363.429	217.94
363.656	203.94
363.882	200.94
364.109	213.94
364.335	210.94
364.562	191.94
364.788	208.94
365.015	215.94
365.241	198.94
365.468	214.94
365.694	217.94
365.92	229.94
366.147	207.94
366.373	229.94
366.599	197.94
366.826	199.94
367.052	196.94
367.278	195.94
367.505	208.94
367.731	198.94
367.957	203.94
368.184	208.94
368.41	195.94
368.636	212.94
368.862	215.94
369.089	202.94
369.315	192.94
369.541	198.94
369.767	205.94
369.993	214.94
370.219	208.94
370.445	193.94
370.672	205.94
370.898	210.94
371.124	188.94
371.35	180.94
371.576	203.94
371.802	200.94
372.028	201.94
372.254	184.94
372.48	212.94
372.706	211.94
372.932	205.94
373.158	209.94
373.384	200.94
373.61	202.94
373.835	183.94
374.061	194.94
374.287	200.94
374.513	195.94
374.739	196.94
374.965	214.94
375.191	199.94
375.416	216.94
375.642	197.94
375.868	196.94
376.094	196.94
376.319	210.94
376.545	213.94
376.771	208.94
376.997	201.94
377.222	212.94
377.448	212.94
377.674	207.94
377.899	184.94
378.125	194.94
378.35	172.94
378.576	207.94
378.802	202.94
379.027	184.94
379.253	196.94
379.478	197.94
379.704	196.94
379.929	198.94
380.155	199.94
380.38	203.94
380.606	190.94
380.831	189.94
381.057	213.94
381.282	192.94
381.507	194.94
381.733	217.94
381.958	189.94
382.184	189.94
382.409	189.94
382.634	210.94
382.86	197.94
383.085	208.94
383.31	225.94
383.535	199.94
383.761	210.94
383.986	209.94
384.211	201.94
384.436	211.94
384.662	209.94
384.887	205.94
385.112	200.94
385.337	195.94
385.562	220.94
385.787	206.94
386.013	220.94
386.238	217.94
386.463	217.94
386.688	211.94
386.913	214.94
387.138	210.94
387.363	200.94
387.588	218.94
387.813	225.94
388.038	200.94
388.263	222.94
388.488	217.94
388.713	193.94
388.938	210.94
389.163	204.94
389.387	203.94
389.612	214.94
389.837	210.94
390.062	217.94
390.287	214.94
390.512	210.94
390.736	220.94
390.961	220.94
391.186	208.94
391.411	186.94
391.636	220.94
391.86	226.94
392.085	212.94
392.31	216.94
392.534	220.94
392.759	217.94
392.984	218.94
393.208	229.94
393.433	207.94
393.658	216.94
393.882	202.94
394.107	216.94
394.331	208.94
394.556	225.94
394.78	237.94
395.005	206.94
395.229	220.94
395.454	216.94
395.678	211.94
395.903	216.94
396.127	242.94
396.352	235.94
396.576	223.94
396.801	226.94
397.025	216.94
397.249	227.94
397.474	224.94
397.698	211.94
397.922	241.94
398.147	241.94
398.371	238.94
398.595	242.94
398.82	258.94
399.044	230.94
399.268	262.94
399.492	270.94
399.717	284.94
399.941	288.94
400.165	295.94
400.389	287.94
400.613	263.94
400.837	251.94
401.062	246.94
401.286	246.94
401.51	251.94
401.734	234.94
401.958	228.94
402.182	245.94
402.406	270.94
402.63	243.94
402.854	247.94
403.078	245.94
403.302	253.94
403.526	262.94
403.75	258.94
403.974	248.94
404.198	269.94
404.422	260.94
404.645	246.94
404.869	253.94
405.093	278.94
405.317	286.94
405.541	297.94
405.765	269.94
405.988	270.94
406.212	282.94
406.436	282.94
406.66	294.94
406.883	297.94
407.107	273.94
407.331	286.94
407.555	309.94
407.778	319.94
408.002	294.94
408.226	280.94
408.449	281.94
408.673	264.94
408.896	290.94
409.12	290.94
409.344	280.94
409.567	256.94
409.791	248.94
410.014	257.94
410.238	240.94
410.461	244.94
410.685	259.94
410.908	252.94
411.132	263.94
411.355	284.94
411.578	280.94
411.802	244.94
412.025	243.94
412.249	257.94
412.472	264.94
412.695	299.94
412.919	272.94
413.142	263.94
413.365	265.94
413.589	255.94
413.812	224.94
414.035	236.94
414.258	240.94
414.482	242.94
414.705	244.94
414.928	230.94
415.151	237.94
415.374	229.94
415.597	221.94
415.821	236.94
416.044	228.94
416.267	242.94
416.49	256.94
416.713	241.94
416.936	231.94
417.159	237.94
417.382	253.94
417.605	236.94
417.828	258.94
418.051	246.94
418.274	256.94
418.497	245.94
418.72	247.94
418.943	237.94
419.166	247.94
419.389	252.94
419.611	256.94
419.834	254.94
420.057	240.94
420.28	261.94
420.503	232.94
420.726	244.94
420.948	272.94
421.171	279.94
421.394	286.94
421.617	252.94
421.839	255.94
422.062	233.94
422.285	268.94
422.507	288.94
422.73	318.94
422.953	305.94
423.175	270.94
423.398	278.94
423.621	248.94
423.843	259.94
424.066	259.94
424.288	277.94
424.511	273.94
424.733	289.94
424.956	321.94
425.178	314.94
425.401	326.94
425.623	332.94
425.846	308.94
426.068	259.94
426.291	270.94
426.513	242.94
426.735	249.94
426.958	282.94
427.18	323.94
427.402	365.94
427.625	394.94
427.847	341.94
428.069	312.94
428.292	279.94
428.514	270.94
428.736	253.94
428.958	254.94
429.181	240.94
429.403	252.94
429.625	252.94
429.847	253.94
430.069	290.94
430.292	291.94
430.514	268.94
430.736	246.94
430.958	238.94
431.18	230.94
431.402	250.94
431.624	244.94
431.846	233.94
432.068	230.94
432.29	240.94
432.512	229.94
432.734	252.94
432.956	251.94
433.178	264.94
433.4	235.94
433.622	237.94
433.844	241.94
434.066	247.94
434.287	232.94
434.509	230.94
434.731	240.94
434.953	240.94
435.175	251.94
435.397	272.94
435.618	251.94
435.84	284.94
436.062	322.94
436.284	324.94
436.505	310.94
436.727	255.94
436.949	253.94
437.17	261.94
437.392	262.94
437.614	269.94
437.835	264.94
438.057	323.94
438.278	349.94
438.5	363.94
438.721	365.94
438.943	357.94
439.165	290.94
439.386	269.94
439.608	267.94
439.829	277.94
440.05	278.94
440.272	305.94
440.493	293.94
440.715	268.94
440.936	256.94
441.158	235.94
441.379	236.94
441.6	262.94
441.822	276.94
442.043	302.94
442.264	322.94
442.486	335.94
442.707	297.94
442.928	271.94
443.149	273.94
443.371	281.94
443.592	306.94
443.813	339.94
444.034	357.94
444.255	289.94
444.476	279.94
444.698	280.94
444.919	271.94
445.14	358.94
445.361	327.94
445.582	302.94
445.803	312.94
446.024	365.94
446.245	333.94
446.466	311.94
446.687	271.94
446.908	269.94
447.129	243.94
447.35	265.94
447.571	252.94
447.792	248.94
448.013	254.94
448.234	266.94
448.455	281.94
448.675	323.94
448.896	376.94
449.117	306.94
449.338	310.94
449.559	334.94
449.779	386.94
450	294.94
450.221	267.94
450.442	256.94
450.662	246.94
450.883	253.94
451.104	266.94
451.324	242.94
451.545	220.94
451.766	225.94
451.986	218.94
452.207	221.94
452.428	215.94
452.648	229.94
452.869	234.94
453.089	234.94
453.31	247.94
453.53	233.94
453.751	225.94
453.971	232.94
454.192	245.94
454.412	230.94
454.633	225.94
454.853	235.94
455.073	230.94
455.294	252.94
455.514	284.94
455.734	252.94
455.955	224.94
456.175	224.94
456.395	219.94
456.616	207.94
456.836	217.94
457.056	216.94
457.276	209.94
457.497	194.94
457.717	206.94
457.937	210.94
458.157	220.94
458.377	219.94
458.598	250.94
458.818	286.94
459.038	299.94
459.258	317.94
459.478	255.94
459.698	237.94
459.918	234.94
460.138	219.94
460.358	236.94
460.578	235.94
460.798	262.94
461.018	249.94
461.238	240.94
461.458	245.94
461.678	242.94
461.898	232.94
462.118	235.94
462.338	229.94
462.558	253.94
462.777	255.94
462.997	260.94
463.217	262.94
463.437	234.94
463.657	255.94
463.876	270.94
464.096	255.94
464.316	260.94
464.536	268.94
464.755	261.94
464.975	273.94
465.195	304.94
465.414	344.94
465.634	289.94
465.854	266.94
466.073	270.94
466.293	241.94
466.512	230.94
466.732	235.94
466.951	213.94
467.171	231.94
467.391	230.94
467.61	240.94
467.829	255.94
468.049	258.94
468.268	252.94
468.488	232.94
468.707	237.94
468.927	243.94
469.146	226.94
469.365	208.94
469.585	229.94
469.804	241.94
470.023	242.94
470.243	238.94
470.462	254.94
470.681	265.94
470.901	235.94
471.12	237.94
471.339	232.94
471.558	235.94
471.777	242.94
471.997	240.94
472.216	245.94
472.435	283.94
472.654	274.94
472.873	215.94
473.092	225.94
473.311	227.94
473.53	234.94
473.749	231.94
473.968	258.94
474.187	316.94
474.406	311.94
474.625	247.94
474.844	233.94
475.063	248.94
475.282	249.94
475.501	210.94
475.72	250.94
475.939	246.94
476.158	252.94
476.377	250.94
476.596	247.94
476.814	253.94
477.033	245.94
477.252	240.94
477.471	228.94
477.69	237.94
477.908	228.94
478.127	264.94
478.346	260.94
478.564	256.94
478.783	257.94
479.002	285.94
479.22	258.94
479.439	283.94
479.658	268.94
479.876	305.94
480.095	274.94
480.313	287.94
480.532	268.94
480.751	271.94
480.969	304.94
481.188	364.94
481.406	386.94
481.624	312.94
481.843	284.94
482.061	270.94
482.28	276.94
482.498	269.94
482.717	283.94
482.935	261.94
483.153	257.94
483.372	281.94
483.59	263.94
483.808	264.94
484.027	277.94
484.245	266.94
484.463	284.94
484.681	283.94
484.9	266.94
485.118	292.94
485.336	261.94
485.554	297.94
485.772	277.94
485.99	277.94
486.209	277.94
486.427	274.94
486.645	272.94
486.863	288.94
487.081	288.94
487.299	288.94
487.517	294.94
487.735	280.94
487.953	271.94
488.171	282.94
488.389	303.94
488.607	288.94
488.825	287.94
489.043	285.94
489.261	295.94
489.479	310.94
489.696	288.94
489.914	292.94
490.132	290.94
490.35	290.94
490.568	300.94
490.786	297.94
491.003	323.94
491.221	320.94
491.439	316.94
491.657	345.94
491.874	350.94
492.092	333.94
492.31	341.94
492.527	331.94
492.745	331.94
492.963	339.94
493.18	354.94
493.398	346.94
493.615	343.94
493.833	341.94
494.05	337.94
494.268	345.94
494.485	337.94
494.703	339.94
494.92	349.94
495.138	332.94
495.355	348.94
495.573	354.94
495.79	342.94
496.008	352.94
496.225	324.94
496.442	329.94
496.66	330.94
496.877	335.94
497.094	342.94
497.312	344.94
497.529	345.94
497.746	359.94
497.963	335.94
498.181	363.94
498.398	336.94
498.615	362.94
498.832	366.94
499.049	363.94
499.267	371.94
499.484	368.94
499.701	406.94
499.918	420.94
500.135	441.94
500.352	412.94
500.569	444.94
500.786	462.94
501.003	439.94
501.22	447.94
501.437	418.94
501.654	433.94
501.871	423.94
502.088	413.94
502.305	388.94
502.522	368.94
502.739	367.94
