Data from 1966.PennyLincolnUp.Lamp.En5.5.200Scan.071719.P1.Scan2.head_HRD10591_14-17-51-141.txt Node
Date: Thu Jul 18 14:17:51 EDT 2019
User: cochatt
Spectrometer: HR+D1059
Trigger mode: 1
Integration Time (sec): 1.000000E-1
Scans to average: 1
Electric dark correction enabled: true
Nonlinearity correction enabled: false
Boxcar width: 0
XAxis mode: Wavelengths
Number of Pixels in Spectrum: 2048
>>>>>Begin Spectral Data<<<<<
223.165	-16.38
223.4	-16.38
223.635	-16.38
223.869	-1.38
224.104	-11.38
224.338	2.62
224.573	-21.38
224.808	-7.38
225.042	-5.38
225.277	-7.38
225.511	-19.38
225.746	-2.38
225.98	13.62
226.215	14.62
226.449	10.62
226.683	12.62
226.918	25.62
227.152	12.62
227.387	43.62
227.621	41.62
227.856	42.62
228.09	55.62
228.324	42.62
228.559	56.62
228.793	59.62
229.027	99.62
229.262	110.62
229.496	121.62
229.73	122.62
229.964	148.62
230.199	134.62
230.433	110.62
230.667	94.62
230.901	122.62
231.136	101.62
231.37	120.62
231.604	114.62
231.838	92.62
232.072	117.62
232.306	122.62
232.541	119.62
232.775	122.62
233.009	113.62
233.243	107.62
233.477	119.62
233.711	102.62
233.945	116.62
234.179	118.62
234.413	117.62
234.647	121.62
234.881	132.62
235.115	123.62
235.349	114.62
235.583	129.62
235.817	117.62
236.051	121.62
236.285	122.62
236.519	121.62
236.753	122.62
236.987	128.62
237.221	175.62
237.455	244.62
237.689	183.62
237.922	132.62
238.156	129.62
238.39	117.62
238.624	122.62
238.858	118.62
239.091	123.62
239.325	118.62
239.559	142.62
239.793	134.62
240.027	134.62
240.26	138.62
240.494	146.62
240.728	164.62
240.961	142.62
241.195	143.62
241.429	148.62
241.662	126.62
241.896	123.62
242.13	128.62
242.363	121.62
242.597	135.62
242.83	137.62
243.064	136.62
243.298	150.62
243.531	137.62
243.765	147.62
243.998	138.62
244.232	135.62
244.465	150.62
244.699	133.62
244.932	149.62
245.166	144.62
245.399	136.62
245.633	127.62
245.866	136.62
246.099	137.62
246.333	160.62
246.566	149.62
246.8	160.62
247.033	154.62
247.266	138.62
247.5	163.62
247.733	171.62
247.966	177.62
248.2	160.62
248.433	157.62
248.666	157.62
248.899	168.62
249.133	198.62
249.366	189.62
249.599	189.62
249.832	205.62
250.066	177.62
250.299	182.62
250.532	205.62
250.765	195.62
250.998	222.62
251.231	222.62
251.465	207.62
251.698	197.62
251.931	210.62
252.164	203.62
252.397	179.62
252.63	187.62
252.863	180.62
253.096	204.62
253.329	209.62
253.562	213.62
253.795	207.62
254.028	231.62
254.261	209.62
254.494	235.62
254.727	245.62
254.96	259.62
255.193	259.62
255.426	235.62
255.659	212.62
255.892	241.62
256.124	237.62
256.357	226.62
256.59	230.62
256.823	223.62
257.056	223.62
257.289	214.62
257.521	207.62
257.754	211.62
257.987	217.62
258.22	210.62
258.452	204.62
258.685	216.62
258.918	205.62
259.151	202.62
259.383	209.62
259.616	223.62
259.849	211.62
260.081	225.62
260.314	226.62
260.547	238.62
260.779	227.62
261.012	213.62
261.244	229.62
261.477	214.62
261.71	213.62
261.942	224.62
262.175	233.62
262.407	230.62
262.64	227.62
262.872	199.62
263.105	203.62
263.337	206.62
263.57	203.62
263.802	210.62
264.035	203.62
264.267	206.62
264.499	204.62
264.732	207.62
264.964	215.62
265.197	216.62
265.429	213.62
265.661	207.62
265.894	218.62
266.126	219.62
266.358	228.62
266.591	220.62
266.823	223.62
267.055	216.62
267.287	225.62
267.52	230.62
267.752	226.62
267.984	222.62
268.216	226.62
268.448	217.62
268.681	233.62
268.913	223.62
269.145	260.62
269.377	287.62
269.609	268.62
269.841	266.62
270.073	263.62
270.306	305.62
270.538	314.62
270.77	312.62
271.002	287.62
271.234	298.62
271.466	293.62
271.698	298.62
271.93	333.62
272.162	300.62
272.394	309.62
272.626	286.62
272.858	294.62
273.09	281.62
273.322	278.62
273.553	281.62
273.785	257.62
274.017	256.62
274.249	246.62
274.481	264.62
274.713	259.62
274.945	267.62
275.176	269.62
275.408	274.62
275.64	257.62
275.872	271.62
276.104	257.62
276.335	265.62
276.567	270.62
276.799	299.62
277.031	312.62
277.262	301.62
277.494	280.62
277.726	281.62
277.957	295.62
278.189	290.62
278.421	261.62
278.652	255.62
278.884	257.62
279.115	257.62
279.347	250.62
279.579	272.62
279.81	264.62
280.042	274.62
280.273	271.62
280.505	285.62
280.736	257.62
280.968	272.62
281.199	278.62
281.431	269.62
281.662	261.62
281.894	281.62
282.125	258.62
282.356	287.62
282.588	301.62
282.819	286.62
283.051	280.62
283.282	280.62
283.513	277.62
283.745	273.62
283.976	270.62
284.207	291.62
284.439	279.62
284.67	278.62
284.901	292.62
285.132	273.62
285.364	282.62
285.595	278.62
285.826	276.62
286.057	262.62
286.288	273.62
286.52	273.62
286.751	288.62
286.982	294.62
287.213	301.62
287.444	291.62
287.675	259.62
287.906	279.62
288.138	307.62
288.369	306.62
288.6	295.62
288.831	294.62
289.062	312.62
289.293	292.62
289.524	289.62
289.755	281.62
289.986	297.62
290.217	291.62
290.448	289.62
290.679	288.62
290.91	298.62
291.141	312.62
291.371	267.62
291.602	289.62
291.833	284.62
292.064	292.62
292.295	287.62
292.526	292.62
292.757	306.62
292.987	283.62
293.218	313.62
293.449	275.62
293.68	277.62
293.91	299.62
294.141	288.62
294.372	287.62
294.603	285.62
294.833	301.62
295.064	285.62
295.295	305.62
295.525	298.62
295.756	314.62
295.987	299.62
296.217	313.62
296.448	333.62
296.679	306.62
296.909	275.62
297.14	294.62
297.37	300.62
297.601	302.62
297.831	295.62
298.062	279.62
298.292	310.62
298.523	317.62
298.753	324.62
298.984	312.62
299.214	302.62
299.445	286.62
299.675	325.62
299.905	300.62
300.136	312.62
300.366	316.62
300.597	309.62
300.827	298.62
301.057	324.62
301.288	303.62
301.518	311.62
301.748	333.62
301.979	329.62
302.209	316.62
302.439	328.62
302.669	323.62
302.9	321.62
303.13	334.62
303.36	328.62
303.59	331.62
303.82	335.62
304.051	329.62
304.281	321.62
304.511	330.62
304.741	323.62
304.971	347.62
305.201	340.62
305.431	321.62
305.661	330.62
305.891	307.62
306.121	335.62
306.352	325.62
306.582	361.62
306.812	331.62
307.042	322.62
307.272	325.62
307.502	324.62
307.731	328.62
307.961	317.62
308.191	334.62
308.421	322.62
308.651	339.62
308.881	329.62
309.111	349.62
309.341	339.62
309.571	342.62
309.8	359.62
310.03	378.62
310.26	371.62
310.49	371.62
310.72	363.62
310.949	373.62
311.179	391.62
311.409	374.62
311.639	363.62
311.868	391.62
312.098	369.62
312.328	384.62
312.557	391.62
312.787	382.62
313.017	386.62
313.246	377.62
313.476	368.62
313.706	388.62
313.935	369.62
314.165	396.62
314.394	386.62
314.624	385.62
314.853	400.62
315.083	398.62
315.312	365.62
315.542	366.62
315.771	378.62
316.001	357.62
316.23	377.62
316.46	364.62
316.689	375.62
316.919	383.62
317.148	383.62
317.377	386.62
317.607	370.62
317.836	372.62
318.065	350.62
318.295	357.62
318.524	365.62
318.753	378.62
318.983	385.62
319.212	377.62
319.441	381.62
319.67	404.62
319.9	378.62
320.129	383.62
320.358	381.62
320.587	355.62
320.816	389.62
321.046	384.62
321.275	376.62
321.504	386.62
321.733	399.62
321.962	406.62
322.191	393.62
322.42	415.62
322.649	443.62
322.878	436.62
323.108	449.62
323.337	458.62
323.566	485.62
323.795	497.62
324.024	536.62
324.253	655.62
324.482	898.62
324.71	1396.62
324.939	2049.62
325.168	1818.62
325.397	922.62
325.626	614.62
325.855	526.62
326.084	497.62
326.313	484.62
326.542	487.62
326.77	523.62
326.999	612.62
327.228	837.62
327.457	1262.62
327.686	1592.62
327.914	1053.62
328.143	684.62
328.372	588.62
328.6	558.62
328.829	559.62
329.058	547.62
329.287	572.62
329.515	532.62
329.744	525.62
329.972	503.62
330.201	510.62
330.43	548.62
330.658	567.62
330.887	605.62
331.115	582.62
331.344	508.62
331.572	472.62
331.801	477.62
332.03	462.62
332.258	483.62
332.486	462.62
332.715	449.62
332.943	471.62
333.172	456.62
333.4	480.62
333.629	467.62
333.857	485.62
334.085	517.62
334.314	524.62
334.542	529.62
334.771	567.62
334.999	551.62
335.227	496.62
335.455	470.62
335.684	471.62
335.912	484.62
336.14	467.62
336.369	442.62
336.597	440.62
336.825	476.62
337.053	447.62
337.281	435.62
337.51	455.62
337.738	442.62
337.966	427.62
338.194	460.62
338.422	444.62
338.65	445.62
338.878	439.62
339.106	409.62
339.334	433.62
339.562	433.62
339.79	426.62
340.018	426.62
340.246	431.62
340.474	438.62
340.702	440.62
340.93	426.62
341.158	441.62
341.386	437.62
341.614	462.62
341.842	447.62
342.07	405.62
342.298	423.62
342.526	429.62
342.754	428.62
342.981	404.62
343.209	435.62
343.437	405.62
343.665	445.62
343.893	439.62
344.12	445.62
344.348	431.62
344.576	463.62
344.804	458.62
345.031	469.62
345.259	458.62
345.487	445.62
345.714	447.62
345.942	441.62
346.17	411.62
346.397	438.62
346.625	421.62
346.853	425.62
347.08	407.62
347.308	428.62
347.535	417.62
347.763	440.62
347.99	428.62
348.218	427.62
348.445	424.62
348.673	420.62
348.9	438.62
349.128	438.62
349.355	409.62
349.583	439.62
349.81	416.62
350.037	410.62
350.265	413.62
350.492	403.62
350.72	418.62
350.947	421.62
351.174	421.62
351.402	408.62
351.629	437.62
351.856	451.62
352.083	444.62
352.311	445.62
352.538	437.62
352.765	444.62
352.992	429.62
353.22	409.62
353.447	418.62
353.674	418.62
353.901	398.62
354.128	404.62
354.355	415.62
354.583	424.62
354.81	391.62
355.037	402.62
355.264	384.62
355.491	403.62
355.718	409.62
355.945	395.62
356.172	395.62
356.399	400.62
356.626	409.62
356.853	418.62
357.08	403.62
357.307	411.62
357.534	408.62
357.761	415.62
357.988	394.62
358.215	397.62
358.441	397.62
358.668	409.62
358.895	411.62
359.122	425.62
359.349	427.62
359.576	409.62
359.802	463.62
360.029	478.62
360.256	483.62
360.483	445.62
360.709	449.62
360.936	442.62
361.163	417.62
361.39	438.62
361.616	443.62
361.843	447.62
362.07	423.62
362.296	427.62
362.523	437.62
362.749	437.62
362.976	429.62
363.203	420.62
363.429	414.62
363.656	429.62
363.882	429.62
364.109	412.62
364.335	408.62
364.562	427.62
364.788	417.62
365.015	414.62
365.241	410.62
365.468	421.62
365.694	433.62
365.92	428.62
366.147	412.62
366.373	405.62
366.599	414.62
366.826	405.62
367.052	406.62
367.278	413.62
367.505	417.62
367.731	409.62
367.957	425.62
368.184	431.62
368.41	443.62
368.636	438.62
368.862	437.62
369.089	424.62
369.315	422.62
369.541	426.62
369.767	438.62
369.993	398.62
370.219	417.62
370.445	439.62
370.672	412.62
370.898	437.62
371.124	429.62
371.35	428.62
371.576	445.62
371.802	429.62
372.028	433.62
372.254	416.62
372.48	405.62
372.706	421.62
372.932	441.62
373.158	429.62
373.384	431.62
373.61	434.62
373.835	430.62
374.061	421.62
374.287	417.62
374.513	429.62
374.739	437.62
374.965	438.62
375.191	418.62
375.416	433.62
375.642	438.62
375.868	430.62
376.094	395.62
376.319	443.62
376.545	419.62
376.771	403.62
376.997	427.62
377.222	410.62
377.448	426.62
377.674	410.62
377.899	427.62
378.125	407.62
378.35	422.62
378.576	415.62
378.802	391.62
379.027	454.62
379.253	412.62
379.478	421.62
379.704	419.62
379.929	439.62
380.155	437.62
380.38	420.62
380.606	421.62
380.831	429.62
381.057	416.62
381.282	424.62
381.507	438.62
381.733	440.62
381.958	405.62
382.184	414.62
382.409	433.62
382.634	430.62
382.86	433.62
383.085	439.62
383.31	450.62
383.535	439.62
383.761	446.62
383.986	452.62
384.211	445.62
384.436	452.62
384.662	444.62
384.887	470.62
385.112	448.62
385.337	454.62
385.562	473.62
385.787	467.62
386.013	473.62
386.238	486.62
386.463	474.62
386.688	477.62
386.913	451.62
387.138	469.62
387.363	473.62
387.588	467.62
387.813	481.62
388.038	475.62
388.263	458.62
388.488	485.62
388.713	486.62
388.938	494.62
389.163	471.62
389.387	478.62
389.612	449.62
389.837	482.62
390.062	465.62
390.287	486.62
390.512	461.62
390.736	467.62
390.961	470.62
391.186	488.62
391.411	486.62
391.636	487.62
391.86	497.62
392.085	517.62
392.31	500.62
392.534	501.62
392.759	493.62
392.984	481.62
393.208	474.62
393.433	523.62
393.658	498.62
393.882	494.62
394.107	488.62
394.331	493.62
394.556	492.62
394.78	485.62
395.005	490.62
395.229	476.62
395.454	491.62
395.678	519.62
395.903	533.62
396.127	537.62
396.352	546.62
396.576	493.62
396.801	474.62
397.025	523.62
397.249	501.62
397.474	523.62
397.698	521.62
397.922	524.62
398.147	541.62
398.371	555.62
398.595	552.62
398.82	547.62
399.044	561.62
399.268	563.62
399.492	598.62
399.717	658.62
399.941	675.62
400.165	670.62
400.389	678.62
400.613	636.62
400.837	596.62
401.062	571.62
401.286	568.62
401.51	567.62
401.734	545.62
401.958	557.62
402.182	547.62
402.406	549.62
402.63	581.62
402.854	557.62
403.078	565.62
403.302	587.62
403.526	568.62
403.75	589.62
403.974	559.62
404.198	578.62
404.422	563.62
404.645	574.62
404.869	609.62
405.093	636.62
405.317	669.62
405.541	705.62
405.765	627.62
405.988	602.62
406.212	616.62
406.436	613.62
406.66	648.62
406.883	628.62
407.107	665.62
407.331	696.62
407.555	789.62
407.778	763.62
408.002	706.62
408.226	646.62
408.449	644.62
408.673	642.62
408.896	640.62
409.12	699.62
409.344	654.62
409.567	622.62
409.791	618.62
410.014	581.62
410.238	575.62
410.461	592.62
410.685	574.62
410.908	576.62
411.132	623.62
411.355	655.62
411.578	635.62
411.802	602.62
412.025	585.62
412.249	596.62
412.472	633.62
412.695	660.62
412.919	646.62
413.142	577.62
413.365	577.62
413.589	561.62
413.812	556.62
414.035	537.62
414.258	556.62
414.482	549.62
414.705	538.62
414.928	587.62
415.151	568.62
415.374	552.62
415.597	545.62
415.821	537.62
416.044	524.62
416.267	545.62
416.49	554.62
416.713	549.62
416.936	531.62
417.159	549.62
417.382	534.62
417.605	549.62
417.828	551.62
418.051	570.62
418.274	567.62
418.497	538.62
418.72	541.62
418.943	548.62
419.166	563.62
419.389	621.62
419.611	592.62
419.834	599.62
420.057	591.62
420.28	586.62
420.503	573.62
420.726	560.62
420.948	603.62
421.171	605.62
421.394	674.62
421.617	588.62
421.839	581.62
422.062	596.62
422.285	589.62
422.507	611.62
422.73	713.62
422.953	673.62
423.175	635.62
423.398	594.62
423.621	599.62
423.843	639.62
424.066	638.62
424.288	602.62
424.511	629.62
424.733	681.62
424.956	757.62
425.178	727.62
425.401	731.62
425.623	732.62
425.846	670.62
426.068	611.62
426.291	603.62
426.513	617.62
426.735	613.62
426.958	648.62
427.18	741.62
427.402	885.62
427.625	948.62
427.847	820.62
428.069	708.62
428.292	626.62
428.514	604.62
428.736	581.62
428.958	582.62
429.181	563.62
429.403	557.62
429.625	565.62
429.847	593.62
430.069	670.62
430.292	650.62
430.514	592.62
430.736	573.62
430.958	581.62
431.18	550.62
431.402	556.62
431.624	541.62
431.846	503.62
432.068	533.62
432.29	543.62
432.512	550.62
432.734	549.62
432.956	553.62
433.178	539.62
433.4	561.62
433.622	534.62
433.844	542.62
434.066	550.62
434.287	540.62
434.509	550.62
434.731	528.62
434.953	558.62
435.175	549.62
435.397	599.62
435.618	607.62
435.84	667.62
436.062	759.62
436.284	855.62
436.505	679.62
436.727	630.62
436.949	607.62
437.17	581.62
437.392	589.62
437.614	567.62
437.835	600.62
438.057	702.62
438.278	808.62
438.5	828.62
438.721	894.62
438.943	853.62
439.165	675.62
439.386	639.62
439.608	628.62
439.829	619.62
440.05	622.62
440.272	705.62
440.493	656.62
440.715	586.62
440.936	589.62
441.158	581.62
441.379	566.62
441.6	601.62
441.822	597.62
442.043	658.62
442.264	734.62
442.486	758.62
442.707	649.62
442.928	630.62
443.149	610.62
443.371	666.62
443.592	679.62
443.813	804.62
444.034	847.62
444.255	726.62
444.476	646.62
444.698	646.62
444.919	615.62
445.14	711.62
445.361	651.62
445.582	663.62
445.803	743.62
446.024	855.62
446.245	823.62
446.466	758.62
446.687	651.62
446.908	614.62
447.129	585.62
447.35	581.62
447.571	569.62
447.792	563.62
448.013	564.62
448.234	587.62
448.455	642.62
448.675	742.62
448.896	866.62
449.117	746.62
449.338	695.62
449.559	811.62
449.779	934.62
450	735.62
450.221	620.62
450.442	571.62
450.662	572.62
450.883	551.62
451.104	556.62
451.324	541.62
451.545	533.62
451.766	522.62
451.986	497.62
452.207	517.62
452.428	501.62
452.648	496.62
452.869	499.62
453.089	497.62
453.31	519.62
453.53	504.62
453.751	509.62
453.971	533.62
454.192	515.62
454.412	527.62
454.633	494.62
454.853	497.62
455.073	507.62
455.294	533.62
455.514	586.62
455.734	595.62
455.955	517.62
456.175	505.62
456.395	487.62
456.616	468.62
456.836	483.62
457.056	473.62
457.276	459.62
457.497	490.62
457.717	463.62
457.937	474.62
458.157	481.62
458.377	479.62
458.598	532.62
458.818	577.62
459.038	660.62
459.258	668.62
459.478	598.62
459.698	543.62
459.918	545.62
460.138	556.62
460.358	546.62
460.578	534.62
460.798	549.62
461.018	550.62
461.238	546.62
461.458	550.62
461.678	548.62
461.898	550.62
462.118	526.62
462.338	569.62
462.558	599.62
462.777	578.62
462.997	599.62
463.217	620.62
463.437	611.62
463.657	601.62
463.876	580.62
464.096	596.62
464.316	586.62
464.536	627.62
464.755	607.62
464.975	583.62
465.195	634.62
465.414	683.62
465.634	629.62
465.854	571.62
466.073	559.62
466.293	556.62
466.512	543.62
466.732	527.62
466.951	525.62
467.171	514.62
467.391	537.62
467.61	537.62
467.829	557.62
468.049	534.62
468.268	515.62
468.488	499.62
468.707	497.62
468.927	500.62
469.146	487.62
469.365	544.62
469.585	537.62
469.804	514.62
470.023	541.62
470.243	527.62
470.462	526.62
470.681	567.62
470.901	559.62
471.12	559.62
471.339	535.62
471.558	518.62
471.777	528.62
471.997	525.62
472.216	535.62
472.435	560.62
472.654	545.62
472.873	533.62
473.092	519.62
473.311	549.62
473.53	517.62
473.749	547.62
473.968	568.62
474.187	650.62
474.406	689.62
474.625	573.62
474.844	548.62
475.063	547.62
475.282	534.62
475.501	520.62
475.72	533.62
475.939	557.62
476.158	540.62
476.377	538.62
476.596	537.62
476.814	547.62
477.033	548.62
477.252	565.62
477.471	552.62
477.69	561.62
477.908	564.62
478.127	605.62
478.346	587.62
478.564	580.62
478.783	588.62
479.002	629.62
479.22	614.62
479.439	627.62
479.658	625.62
479.876	626.62
480.095	647.62
480.313	677.62
480.532	680.62
480.751	659.62
480.969	661.62
481.188	706.62
481.406	743.62
481.624	689.62
481.843	640.62
482.061	638.62
482.28	653.62
482.498	615.62
482.717	613.62
482.935	626.62
483.153	627.62
483.372	618.62
483.59	645.62
483.808	641.62
484.027	604.62
484.245	622.62
484.463	626.62
484.681	641.62
484.9	628.62
485.118	640.62
485.336	644.62
485.554	639.62
485.772	627.62
485.99	653.62
486.209	633.62
486.427	650.62
486.645	660.62
486.863	665.62
487.081	667.62
487.299	666.62
487.517	684.62
487.735	666.62
487.953	687.62
488.171	641.62
488.389	659.62
488.607	679.62
488.825	657.62
489.043	666.62
489.261	646.62
489.479	655.62
489.696	681.62
489.914	689.62
490.132	700.62
490.35	691.62
490.568	679.62
490.786	691.62
491.003	723.62
491.221	746.62
491.439	739.62
491.657	749.62
491.874	757.62
492.092	766.62
492.31	769.62
492.527	753.62
492.745	772.62
492.963	787.62
493.18	758.62
493.398	792.62
493.615	761.62
493.833	798.62
494.05	777.62
494.268	781.62
494.485	782.62
494.703	793.62
494.92	803.62
495.138	775.62
495.355	785.62
495.573	783.62
495.79	768.62
496.008	782.62
496.225	801.62
496.442	806.62
496.66	809.62
496.877	791.62
497.094	813.62
497.312	821.62
497.529	835.62
497.746	839.62
497.963	831.62
498.181	862.62
498.398	878.62
498.615	866.62
498.832	905.62
499.049	929.62
499.267	941.62
499.484	1003.62
499.701	984.62
499.918	1050.62
500.135	1101.62
500.352	1157.62
500.569	1157.62
500.786	1166.62
501.003	1186.62
501.22	1131.62
501.437	1059.62
501.654	1042.62
