Data from 1966.PennyLincolnUp.Lamp.En5.5.200Scan.071719.P1.Scan2.head_HRD10591_14-17-26-108.txt Node
Date: Thu Jul 18 14:17:26 EDT 2019
User: cochatt
Spectrometer: HR+D1059
Trigger mode: 1
Integration Time (sec): 1.000000E-1
Scans to average: 1
Electric dark correction enabled: true
Nonlinearity correction enabled: false
Boxcar width: 0
XAxis mode: Wavelengths
Number of Pixels in Spectrum: 2048
>>>>>Begin Spectral Data<<<<<
223.165	-24.56
223.4	-24.56
223.635	-24.56
223.869	-17.56
224.104	-9.56
224.338	-23.56
224.573	-4.56
224.808	-1.56
225.042	-7.56
225.277	-7.56
225.511	-7.56
225.746	5.44
225.98	-3.56
226.215	18.44
226.449	9.44
226.683	22.44
226.918	17.44
227.152	34.44
227.387	31.44
227.621	39.44
227.856	23.44
228.09	35.44
228.324	44.44
228.559	47.44
228.793	74.44
229.027	86.44
229.262	97.44
229.496	104.44
229.73	141.44
229.964	155.44
230.199	128.44
230.433	119.44
230.667	102.44
230.901	114.44
231.136	108.44
231.37	98.44
231.604	114.44
231.838	98.44
232.072	89.44
232.306	115.44
232.541	112.44
232.775	123.44
233.009	100.44
233.243	114.44
233.477	123.44
233.711	110.44
233.945	120.44
234.179	105.44
234.413	109.44
234.647	112.44
234.881	95.44
235.115	105.44
235.349	103.44
235.583	115.44
235.817	120.44
236.051	133.44
236.285	130.44
236.519	122.44
236.753	123.44
236.987	125.44
237.221	184.44
237.455	228.44
237.689	174.44
237.922	129.44
238.156	128.44
238.39	128.44
238.624	124.44
238.858	142.44
239.091	118.44
239.325	121.44
239.559	122.44
239.793	128.44
240.027	133.44
240.26	138.44
240.494	145.44
240.728	163.44
240.961	139.44
241.195	130.44
241.429	153.44
241.662	123.44
241.896	131.44
242.13	131.44
242.363	139.44
242.597	124.44
242.83	145.44
243.064	131.44
243.298	142.44
243.531	116.44
243.765	130.44
243.998	150.44
244.232	128.44
244.465	139.44
244.699	140.44
244.932	145.44
245.166	145.44
245.399	145.44
245.633	138.44
245.866	135.44
246.099	140.44
246.333	151.44
246.566	153.44
246.8	156.44
247.033	164.44
247.266	154.44
247.5	175.44
247.733	169.44
247.966	174.44
248.2	169.44
248.433	150.44
248.666	161.44
248.899	182.44
249.133	178.44
249.366	202.44
249.599	193.44
249.832	167.44
250.066	161.44
250.299	179.44
250.532	189.44
250.765	196.44
250.998	207.44
251.231	211.44
251.465	201.44
251.698	198.44
251.931	203.44
252.164	185.44
252.397	202.44
252.63	196.44
252.863	204.44
253.096	194.44
253.329	218.44
253.562	241.44
253.795	224.44
254.028	209.44
254.261	218.44
254.494	217.44
254.727	251.44
254.96	259.44
255.193	244.44
255.426	243.44
255.659	223.44
255.892	221.44
256.124	238.44
256.357	242.44
256.59	208.44
256.823	225.44
257.056	215.44
257.289	218.44
257.521	221.44
257.754	210.44
257.987	223.44
258.22	218.44
258.452	219.44
258.685	202.44
258.918	193.44
259.151	195.44
259.383	207.44
259.616	217.44
259.849	219.44
260.081	224.44
260.314	225.44
260.547	261.44
260.779	232.44
261.012	234.44
261.244	222.44
261.477	236.44
261.71	224.44
261.942	214.44
262.175	228.44
262.407	223.44
262.64	225.44
262.872	207.44
263.105	215.44
263.337	221.44
263.57	222.44
263.802	226.44
264.035	225.44
264.267	218.44
264.499	206.44
264.732	212.44
264.964	217.44
265.197	219.44
265.429	219.44
265.661	194.44
265.894	225.44
266.126	214.44
266.358	210.44
266.591	229.44
266.823	213.44
267.055	210.44
267.287	224.44
267.52	215.44
267.752	212.44
267.984	201.44
268.216	235.44
268.448	238.44
268.681	238.44
268.913	232.44
269.145	252.44
269.377	260.44
269.609	277.44
269.841	270.44
270.073	277.44
270.306	272.44
270.538	296.44
270.77	283.44
271.002	295.44
271.234	271.44
271.466	283.44
271.698	281.44
271.93	289.44
272.162	311.44
272.394	314.44
272.626	301.44
272.858	280.44
273.09	268.44
273.322	276.44
273.553	267.44
273.785	249.44
274.017	261.44
274.249	249.44
274.481	243.44
274.713	256.44
274.945	256.44
275.176	239.44
275.408	276.44
275.64	266.44
275.872	254.44
276.104	262.44
276.335	282.44
276.567	271.44
276.799	292.44
277.031	298.44
277.262	299.44
277.494	336.44
277.726	292.44
277.957	295.44
278.189	278.44
278.421	283.44
278.652	268.44
278.884	244.44
279.115	258.44
279.347	277.44
279.579	272.44
279.81	269.44
280.042	265.44
280.273	273.44
280.505	239.44
280.736	265.44
280.968	282.44
281.199	276.44
281.431	262.44
281.662	262.44
281.894	269.44
282.125	267.44
282.356	293.44
282.588	299.44
282.819	296.44
283.051	278.44
283.282	267.44
283.513	277.44
283.745	282.44
283.976	264.44
284.207	294.44
284.439	294.44
284.67	278.44
284.901	266.44
285.132	267.44
285.364	270.44
285.595	272.44
285.826	287.44
286.057	274.44
286.288	270.44
286.52	282.44
286.751	286.44
286.982	261.44
287.213	269.44
287.444	279.44
287.675	292.44
287.906	314.44
288.138	276.44
288.369	303.44
288.6	301.44
288.831	296.44
289.062	296.44
289.293	287.44
289.524	297.44
289.755	286.44
289.986	275.44
290.217	282.44
290.448	284.44
290.679	283.44
290.91	281.44
291.141	280.44
291.371	306.44
291.602	278.44
291.833	292.44
292.064	298.44
292.295	292.44
292.526	296.44
292.757	313.44
292.987	298.44
293.218	278.44
293.449	286.44
293.68	291.44
293.91	283.44
294.141	283.44
294.372	296.44
294.603	290.44
294.833	285.44
295.064	281.44
295.295	273.44
295.525	296.44
295.756	307.44
295.987	318.44
296.217	330.44
296.448	337.44
296.679	294.44
296.909	310.44
297.14	315.44
297.37	314.44
297.601	274.44
297.831	286.44
298.062	271.44
298.292	296.44
298.523	294.44
298.753	304.44
298.984	298.44
299.214	302.44
299.445	316.44
299.675	299.44
299.905	304.44
300.136	313.44
300.366	324.44
300.597	325.44
300.827	326.44
301.057	317.44
301.288	338.44
301.518	325.44
301.748	300.44
301.979	331.44
302.209	330.44
302.439	340.44
302.669	327.44
302.9	330.44
303.13	327.44
303.36	332.44
303.59	325.44
303.82	327.44
304.051	345.44
304.281	311.44
304.511	325.44
304.741	320.44
304.971	345.44
305.201	335.44
305.431	331.44
305.661	343.44
305.891	324.44
306.121	326.44
306.352	344.44
306.582	322.44
306.812	321.44
307.042	346.44
307.272	326.44
307.502	338.44
307.731	325.44
307.961	351.44
308.191	335.44
308.421	338.44
308.651	337.44
308.881	330.44
309.111	334.44
309.341	333.44
309.571	338.44
309.8	347.44
310.03	375.44
310.26	366.44
310.49	363.44
310.72	397.44
310.949	396.44
311.179	377.44
311.409	372.44
311.639	374.44
311.868	380.44
312.098	387.44
312.328	370.44
312.557	384.44
312.787	385.44
313.017	406.44
313.246	394.44
313.476	369.44
313.706	371.44
313.935	358.44
314.165	381.44
314.394	388.44
314.624	392.44
314.853	346.44
315.083	378.44
315.312	376.44
315.542	382.44
315.771	375.44
316.001	356.44
316.23	371.44
316.46	374.44
316.689	386.44
316.919	376.44
317.148	378.44
317.377	404.44
317.607	377.44
317.836	382.44
318.065	386.44
318.295	393.44
318.524	368.44
318.753	378.44
318.983	373.44
319.212	391.44
319.441	395.44
319.67	382.44
319.9	371.44
320.129	374.44
320.358	391.44
320.587	404.44
320.816	386.44
321.046	405.44
321.275	410.44
321.504	391.44
321.733	391.44
321.962	395.44
322.191	395.44
322.42	420.44
322.649	441.44
322.878	450.44
323.108	435.44
323.337	463.44
323.566	477.44
323.795	495.44
324.024	532.44
324.253	634.44
324.482	881.44
324.71	1406.44
324.939	2074.44
325.168	1740.44
325.397	912.44
325.626	597.44
325.855	530.44
326.084	474.44
326.313	464.44
326.542	477.44
326.77	516.44
326.999	605.44
327.228	831.44
327.457	1253.44
327.686	1578.44
327.914	1040.44
328.143	684.44
328.372	584.44
328.6	562.44
328.829	527.44
329.058	519.44
329.287	570.44
329.515	550.44
329.744	487.44
329.972	483.44
330.201	529.44
330.43	540.44
330.658	560.44
330.887	590.44
331.115	558.44
331.344	498.44
331.572	486.44
331.801	468.44
332.03	502.44
332.258	468.44
332.486	449.44
332.715	458.44
332.943	442.44
333.172	463.44
333.4	468.44
333.629	481.44
333.857	496.44
334.085	494.44
334.314	480.44
334.542	516.44
334.771	539.44
334.999	512.44
335.227	490.44
335.455	467.44
335.684	460.44
335.912	456.44
336.14	454.44
336.369	446.44
336.597	454.44
336.825	459.44
337.053	441.44
337.281	456.44
337.51	427.44
337.738	457.44
337.966	446.44
338.194	448.44
338.422	459.44
338.65	458.44
338.878	461.44
339.106	445.44
339.334	440.44
339.562	432.44
339.79	423.44
340.018	423.44
340.246	439.44
340.474	440.44
340.702	449.44
340.93	459.44
341.158	413.44
341.386	433.44
341.614	442.44
341.842	441.44
342.07	442.44
342.298	441.44
342.526	441.44
342.754	433.44
342.981	424.44
343.209	422.44
343.437	446.44
343.665	432.44
343.893	436.44
344.12	456.44
344.348	444.44
344.576	455.44
344.804	467.44
345.031	445.44
345.259	465.44
345.487	433.44
345.714	448.44
345.942	430.44
346.17	419.44
346.397	429.44
346.625	434.44
346.853	419.44
347.08	419.44
347.308	412.44
347.535	436.44
347.763	444.44
347.99	427.44
348.218	435.44
348.445	442.44
348.673	423.44
348.9	424.44
349.128	432.44
349.355	404.44
349.583	420.44
349.81	419.44
350.037	412.44
350.265	410.44
350.492	400.44
350.72	420.44
350.947	426.44
351.174	450.44
351.402	437.44
351.629	430.44
351.856	440.44
352.083	441.44
352.311	448.44
352.538	448.44
352.765	456.44
352.992	427.44
353.22	422.44
353.447	423.44
353.674	436.44
353.901	427.44
354.128	407.44
354.355	413.44
354.583	406.44
354.81	415.44
355.037	411.44
355.264	420.44
355.491	389.44
355.718	394.44
355.945	396.44
356.172	405.44
356.399	391.44
356.626	401.44
356.853	403.44
357.08	415.44
357.307	401.44
357.534	409.44
357.761	411.44
357.988	414.44
358.215	410.44
358.441	412.44
358.668	419.44
358.895	418.44
359.122	399.44
359.349	424.44
359.576	417.44
359.802	440.44
360.029	442.44
360.256	491.44
360.483	450.44
360.709	424.44
360.936	424.44
361.163	441.44
361.39	457.44
361.616	444.44
361.843	443.44
362.07	427.44
362.296	436.44
362.523	410.44
362.749	432.44
362.976	437.44
363.203	424.44
363.429	421.44
363.656	427.44
363.882	416.44
364.109	419.44
364.335	426.44
364.562	410.44
364.788	428.44
365.015	423.44
365.241	424.44
365.468	416.44
365.694	425.44
365.92	407.44
366.147	417.44
366.373	410.44
366.599	423.44
366.826	415.44
367.052	403.44
367.278	401.44
367.505	402.44
367.731	415.44
367.957	426.44
368.184	433.44
368.41	434.44
368.636	449.44
368.862	427.44
369.089	431.44
369.315	428.44
369.541	425.44
369.767	414.44
369.993	438.44
370.219	414.44
370.445	410.44
370.672	410.44
370.898	426.44
371.124	403.44
371.35	418.44
371.576	430.44
371.802	443.44
372.028	425.44
372.254	410.44
372.48	423.44
372.706	427.44
372.932	430.44
373.158	430.44
373.384	426.44
373.61	438.44
373.835	430.44
374.061	387.44
374.287	434.44
374.513	418.44
374.739	448.44
374.965	433.44
375.191	442.44
375.416	430.44
375.642	436.44
375.868	443.44
376.094	432.44
376.319	421.44
376.545	440.44
376.771	436.44
376.997	426.44
377.222	444.44
377.448	406.44
377.674	440.44
377.899	441.44
378.125	422.44
378.35	400.44
378.576	420.44
378.802	433.44
379.027	439.44
379.253	438.44
379.478	402.44
379.704	415.44
379.929	423.44
380.155	397.44
380.38	428.44
380.606	431.44
380.831	439.44
381.057	453.44
381.282	419.44
381.507	434.44
381.733	438.44
381.958	424.44
382.184	446.44
382.409	445.44
382.634	433.44
382.86	438.44
383.085	464.44
383.31	458.44
383.535	446.44
383.761	461.44
383.986	446.44
384.211	454.44
384.436	456.44
384.662	452.44
384.887	471.44
385.112	472.44
385.337	463.44
385.562	483.44
385.787	492.44
386.013	495.44
386.238	473.44
386.463	467.44
386.688	478.44
386.913	482.44
387.138	468.44
387.363	491.44
387.588	464.44
387.813	480.44
388.038	457.44
388.263	478.44
388.488	484.44
388.713	471.44
388.938	478.44
389.163	502.44
389.387	476.44
389.612	487.44
389.837	481.44
390.062	447.44
390.287	465.44
390.512	497.44
390.736	479.44
390.961	483.44
391.186	476.44
391.411	482.44
391.636	499.44
391.86	506.44
392.085	499.44
392.31	511.44
392.534	510.44
392.759	487.44
392.984	496.44
393.208	485.44
393.433	488.44
393.658	516.44
393.882	489.44
394.107	473.44
394.331	483.44
394.556	486.44
394.78	505.44
395.005	482.44
395.229	486.44
395.454	502.44
395.678	489.44
395.903	508.44
396.127	521.44
396.352	509.44
396.576	504.44
396.801	509.44
397.025	499.44
397.249	524.44
397.474	536.44
397.698	511.44
397.922	548.44
398.147	538.44
398.371	543.44
398.595	546.44
398.82	562.44
399.044	563.44
399.268	585.44
399.492	624.44
399.717	631.44
399.941	670.44
400.165	696.44
400.389	686.44
400.613	643.44
400.837	592.44
401.062	568.44
401.286	586.44
401.51	556.44
401.734	541.44
401.958	579.44
402.182	558.44
402.406	577.44
402.63	575.44
402.854	580.44
403.078	551.44
403.302	583.44
403.526	594.44
403.75	602.44
403.974	582.44
404.198	570.44
404.422	599.44
404.645	605.44
404.869	592.44
405.093	605.44
405.317	643.44
405.541	667.44
405.765	647.44
405.988	622.44
406.212	624.44
406.436	617.44
406.66	654.44
406.883	622.44
407.107	651.44
407.331	684.44
407.555	764.44
407.778	777.44
408.002	673.44
408.226	651.44
408.449	658.44
408.673	616.44
408.896	669.44
409.12	688.44
409.344	665.44
409.567	634.44
409.791	607.44
410.014	578.44
410.238	576.44
410.461	578.44
410.685	586.44
410.908	611.44
411.132	628.44
411.355	676.44
411.578	653.44
411.802	606.44
412.025	567.44
412.249	581.44
412.472	603.44
412.695	649.44
412.919	642.44
413.142	607.44
413.365	589.44
413.589	566.44
413.812	548.44
414.035	529.44
414.258	548.44
414.482	538.44
414.705	571.44
414.928	555.44
415.151	554.44
415.374	546.44
415.597	543.44
415.821	548.44
416.044	541.44
416.267	551.44
416.49	561.44
416.713	552.44
416.936	546.44
417.159	536.44
417.382	538.44
417.605	539.44
417.828	576.44
418.051	566.44
418.274	572.44
418.497	574.44
418.72	545.44
418.943	546.44
419.166	592.44
419.389	598.44
419.611	587.44
419.834	576.44
420.057	566.44
420.28	595.44
420.503	596.44
420.726	565.44
420.948	570.44
421.171	630.44
421.394	633.44
421.617	603.44
421.839	568.44
422.062	572.44
422.285	581.44
422.507	642.44
422.73	736.44
422.953	702.44
423.175	636.44
423.398	597.44
423.621	584.44
423.843	628.44
424.066	619.44
424.288	601.44
424.511	641.44
424.733	675.44
424.956	769.44
425.178	742.44
425.401	728.44
425.623	771.44
425.846	667.44
426.068	619.44
426.291	611.44
426.513	610.44
426.735	609.44
426.958	686.44
427.18	747.44
427.402	892.44
427.625	950.44
427.847	828.44
428.069	742.44
428.292	675.44
428.514	589.44
428.736	591.44
428.958	586.44
429.181	558.44
429.403	549.44
429.625	585.44
429.847	594.44
430.069	680.44
430.292	683.44
430.514	595.44
430.736	574.44
430.958	554.44
431.18	546.44
431.402	539.44
431.624	547.44
431.846	543.44
432.068	538.44
432.29	537.44
432.512	556.44
432.734	542.44
432.956	532.44
433.178	546.44
433.4	540.44
433.622	548.44
433.844	542.44
434.066	552.44
434.287	547.44
434.509	551.44
434.731	545.44
434.953	560.44
435.175	592.44
435.397	592.44
435.618	607.44
435.84	656.44
436.062	775.44
436.284	824.44
436.505	701.44
436.727	597.44
436.949	575.44
437.17	575.44
437.392	561.44
437.614	560.44
437.835	595.44
438.057	679.44
438.278	811.44
438.5	802.44
438.721	891.44
438.943	867.44
439.165	697.44
439.386	641.44
439.608	632.44
439.829	612.44
440.05	639.44
440.272	670.44
440.493	662.44
440.715	592.44
440.936	592.44
441.158	590.44
441.379	568.44
441.6	594.44
441.822	611.44
442.043	651.44
442.264	727.44
442.486	770.44
442.707	693.44
442.928	622.44
443.149	633.44
443.371	650.44
443.592	712.44
443.813	806.44
444.034	866.44
444.255	705.44
444.476	651.44
444.698	626.44
444.919	630.44
445.14	701.44
445.361	674.44
445.582	660.44
445.803	735.44
446.024	818.44
446.245	833.44
446.466	766.44
446.687	646.44
446.908	609.44
447.129	578.44
447.35	565.44
447.571	576.44
447.792	561.44
448.013	562.44
448.234	567.44
448.455	641.44
448.675	785.44
448.896	892.44
449.117	762.44
449.338	677.44
449.559	834.44
449.779	936.44
450	758.44
450.221	610.44
450.442	562.44
450.662	538.44
450.883	565.44
451.104	571.44
451.324	531.44
451.545	545.44
451.766	529.44
451.986	513.44
452.207	505.44
452.428	496.44
452.648	500.44
452.869	503.44
453.089	516.44
453.31	515.44
453.53	494.44
453.751	499.44
453.971	514.44
454.192	518.44
454.412	511.44
454.633	487.44
454.853	499.44
455.073	487.44
455.294	494.44
455.514	585.44
455.734	594.44
455.955	513.44
456.175	487.44
456.395	484.44
456.616	474.44
456.836	496.44
457.056	480.44
457.276	465.44
457.497	483.44
457.717	486.44
457.937	484.44
458.157	516.44
458.377	503.44
458.598	511.44
458.818	581.44
459.038	630.44
459.258	678.44
459.478	576.44
459.698	536.44
459.918	546.44
460.138	527.44
460.358	545.44
460.578	563.44
460.798	574.44
461.018	558.44
461.238	573.44
461.458	542.44
461.678	553.44
461.898	550.44
462.118	568.44
462.338	567.44
462.558	600.44
462.777	596.44
462.997	593.44
463.217	615.44
463.437	597.44
463.657	597.44
463.876	601.44
464.096	617.44
464.316	588.44
464.536	604.44
464.755	616.44
464.975	597.44
465.195	613.44
465.414	668.44
465.634	634.44
465.854	587.44
466.073	571.44
466.293	531.44
466.512	544.44
466.732	504.44
466.951	539.44
467.171	540.44
467.391	518.44
467.61	538.44
467.829	532.44
468.049	536.44
468.268	514.44
468.488	528.44
468.707	502.44
468.927	512.44
469.146	513.44
469.365	518.44
469.585	487.44
469.804	508.44
470.023	514.44
470.243	536.44
470.462	537.44
470.681	536.44
470.901	554.44
471.12	541.44
471.339	535.44
471.558	536.44
471.777	544.44
471.997	524.44
472.216	534.44
472.435	575.44
472.654	564.44
472.873	527.44
473.092	526.44
473.311	555.44
473.53	546.44
473.749	547.44
473.968	579.44
474.187	669.44
474.406	720.44
474.625	594.44
474.844	557.44
475.063	538.44
475.282	516.44
475.501	528.44
475.72	546.44
475.939	555.44
476.158	550.44
476.377	546.44
476.596	551.44
476.814	556.44
477.033	564.44
477.252	563.44
477.471	570.44
477.69	566.44
477.908	587.44
478.127	593.44
478.346	582.44
478.564	578.44
478.783	593.44
479.002	595.44
479.22	609.44
479.439	600.44
479.658	651.44
479.876	645.44
480.095	644.44
480.313	652.44
480.532	650.44
480.751	663.44
480.969	667.44
481.188	712.44
481.406	739.44
481.624	688.44
481.843	659.44
482.061	635.44
482.28	634.44
482.498	611.44
482.717	634.44
482.935	606.44
483.153	652.44
483.372	624.44
483.59	619.44
483.808	626.44
484.027	636.44
484.245	609.44
484.463	634.44
484.681	644.44
484.9	643.44
485.118	648.44
485.336	643.44
485.554	656.44
485.772	650.44
485.99	651.44
486.209	671.44
486.427	647.44
486.645	646.44
486.863	680.44
487.081	670.44
487.299	679.44
487.517	671.44
487.735	674.44
487.953	676.44
488.171	674.44
488.389	674.44
488.607	664.44
488.825	679.44
489.043	702.44
489.261	675.44
489.479	689.44
489.696	672.44
489.914	674.44
490.132	693.44
490.35	703.44
490.568	718.44
490.786	728.44
491.003	724.44
491.221	716.44
491.439	735.44
491.657	755.44
491.874	760.44
492.092	775.44
492.31	771.44
492.527	752.44
492.745	779.44
492.963	779.44
493.18	763.44
493.398	798.44
493.615	768.44
493.833	793.44
494.05	788.44
494.268	797.44
494.485	793.44
494.703	804.44
494.92	770.44
495.138	784.44
495.355	803.44
495.573	808.44
495.79	773.44
496.008	792.44
496.225	787.44
496.442	788.44
496.66	793.44
496.877	800.44
497.094	819.44
497.312	819.44
497.529	833.44
497.746	851.44
497.963	846.44
498.181	883.44
498.398	832.44
498.615	876.44
498.832	889.44
499.049	920.44
499.267	958.44
499.484	986.44
499.701	1033.44
499.918	1091.44
500.135	1132.44
500.352	1163.44
500.569	1182.44
500.786	1178.44
501.003	1169.44
501.22	1124.44
501.437	1105.44
501.654	1080.44
