Data from 1966.PennyLincolnUp.Lamp.En5.5.200Scan.071719.P1._HRD10591_14-13-04-913.txt Node
Date: Thu Jul 18 14:13:04 EDT 2019
User: cochatt
Spectrometer: HR+D1059
Trigger mode: 1
Integration Time (sec): 1.000000E-1
Scans to average: 1
Electric dark correction enabled: true
Nonlinearity correction enabled: false
Boxcar width: 0
XAxis mode: Wavelengths
Number of Pixels in Spectrum: 2048
>>>>>Begin Spectral Data<<<<<
223.165	-19.38
223.4	-19.38
223.635	-19.38
223.869	-12.38
224.104	-20.38
224.338	-24.38
224.573	-3.38
224.808	3.62
225.042	0.62
225.277	-4.38
225.511	-3.38
225.746	-1.38
225.98	-9.38
226.215	18.62
226.449	24.62
226.683	10.62
226.918	20.62
227.152	19.62
227.387	36.62
227.621	39.62
227.856	48.62
228.09	49.62
228.324	40.62
228.559	47.62
228.793	44.62
229.027	80.62
229.262	85.62
229.496	87.62
229.73	85.62
229.964	99.62
230.199	98.62
230.433	91.62
230.667	88.62
230.901	85.62
231.136	88.62
231.37	84.62
231.604	86.62
231.838	101.62
232.072	93.62
232.306	95.62
232.541	90.62
232.775	89.62
233.009	92.62
233.243	101.62
233.477	95.62
233.711	91.62
233.945	82.62
234.179	103.62
234.413	85.62
234.647	95.62
234.881	88.62
235.115	81.62
235.349	80.62
235.583	81.62
235.817	93.62
236.051	88.62
236.285	99.62
236.519	90.62
236.753	93.62
236.987	99.62
237.221	123.62
237.455	123.62
237.689	115.62
237.922	95.62
238.156	98.62
238.39	94.62
238.624	89.62
238.858	99.62
239.091	82.62
239.325	100.62
239.559	104.62
239.793	107.62
240.027	97.62
240.26	114.62
240.494	106.62
240.728	103.62
240.961	114.62
241.195	121.62
241.429	103.62
241.662	103.62
241.896	99.62
242.13	86.62
242.363	87.62
242.597	97.62
242.83	105.62
243.064	96.62
243.298	94.62
243.531	94.62
243.765	95.62
243.998	96.62
244.232	101.62
244.465	89.62
244.699	97.62
244.932	124.62
245.166	111.62
245.399	98.62
245.633	108.62
245.866	111.62
246.099	98.62
246.333	123.62
246.566	104.62
246.8	91.62
247.033	105.62
247.266	107.62
247.5	102.62
247.733	111.62
247.966	118.62
248.2	120.62
248.433	111.62
248.666	124.62
248.899	117.62
249.133	124.62
249.366	147.62
249.599	128.62
249.832	108.62
250.066	109.62
250.299	105.62
250.532	116.62
250.765	124.62
250.998	137.62
251.231	134.62
251.465	141.62
251.698	137.62
251.931	116.62
252.164	125.62
252.397	122.62
252.63	116.62
252.863	112.62
253.096	124.62
253.329	135.62
253.562	137.62
253.795	133.62
254.028	130.62
254.261	129.62
254.494	146.62
254.727	143.62
254.96	172.62
255.193	142.62
255.426	141.62
255.659	137.62
255.892	143.62
256.124	125.62
256.357	148.62
256.59	133.62
256.823	147.62
257.056	131.62
257.289	116.62
257.521	134.62
257.754	127.62
257.987	131.62
258.22	132.62
258.452	131.62
258.685	124.62
258.918	135.62
259.151	129.62
259.383	137.62
259.616	138.62
259.849	139.62
260.081	137.62
260.314	160.62
260.547	151.62
260.779	141.62
261.012	137.62
261.244	118.62
261.477	145.62
261.71	136.62
261.942	143.62
262.175	145.62
262.407	155.62
262.64	145.62
262.872	130.62
263.105	118.62
263.337	133.62
263.57	123.62
263.802	131.62
264.035	130.62
264.267	134.62
264.499	121.62
264.732	138.62
264.964	123.62
265.197	140.62
265.429	133.62
265.661	139.62
265.894	131.62
266.126	134.62
266.358	137.62
266.591	126.62
266.823	154.62
267.055	145.62
267.287	137.62
267.52	131.62
267.752	139.62
267.984	138.62
268.216	124.62
268.448	141.62
268.681	129.62
268.913	143.62
269.145	153.62
269.377	149.62
269.609	158.62
269.841	146.62
270.073	148.62
270.306	168.62
270.538	192.62
270.77	171.62
271.002	169.62
271.234	152.62
271.466	145.62
271.698	156.62
271.93	193.62
272.162	180.62
272.394	166.62
272.626	152.62
272.858	163.62
273.09	155.62
273.322	156.62
273.553	161.62
273.785	137.62
274.017	144.62
274.249	148.62
274.481	155.62
274.713	156.62
274.945	137.62
275.176	151.62
275.408	136.62
275.64	151.62
275.872	140.62
276.104	142.62
276.335	152.62
276.567	156.62
276.799	165.62
277.031	178.62
277.262	179.62
277.494	182.62
277.726	167.62
277.957	155.62
278.189	156.62
278.421	160.62
278.652	163.62
278.884	144.62
279.115	156.62
279.347	154.62
279.579	153.62
279.81	153.62
280.042	149.62
280.273	139.62
280.505	159.62
280.736	140.62
280.968	162.62
281.199	146.62
281.431	145.62
281.662	131.62
281.894	158.62
282.125	162.62
282.356	179.62
282.588	175.62
282.819	164.62
283.051	162.62
283.282	141.62
283.513	128.62
283.745	161.62
283.976	146.62
284.207	173.62
284.439	159.62
284.67	149.62
284.901	155.62
285.132	147.62
285.364	153.62
285.595	164.62
285.826	140.62
286.057	150.62
286.288	159.62
286.52	163.62
286.751	146.62
286.982	163.62
287.213	168.62
287.444	182.62
287.675	159.62
287.906	172.62
288.138	172.62
288.369	170.62
288.6	161.62
288.831	151.62
289.062	168.62
289.293	177.62
289.524	162.62
289.755	157.62
289.986	162.62
290.217	171.62
290.448	163.62
290.679	156.62
290.91	153.62
291.141	154.62
291.371	173.62
291.602	165.62
291.833	171.62
292.064	174.62
292.295	160.62
292.526	145.62
292.757	171.62
292.987	164.62
293.218	148.62
293.449	162.62
293.68	179.62
293.91	169.62
294.141	161.62
294.372	181.62
294.603	168.62
294.833	157.62
295.064	153.62
295.295	164.62
295.525	161.62
295.756	165.62
295.987	172.62
296.217	195.62
296.448	184.62
296.679	173.62
296.909	175.62
297.14	173.62
297.37	175.62
297.601	175.62
297.831	166.62
298.062	174.62
298.292	168.62
298.523	164.62
298.753	157.62
298.984	158.62
299.214	179.62
299.445	180.62
299.675	159.62
299.905	179.62
300.136	157.62
300.366	172.62
300.597	163.62
300.827	167.62
301.057	176.62
301.288	178.62
301.518	177.62
301.748	171.62
301.979	185.62
302.209	159.62
302.439	189.62
302.669	176.62
302.9	185.62
303.13	179.62
303.36	173.62
303.59	169.62
303.82	177.62
304.051	185.62
304.281	169.62
304.511	171.62
304.741	172.62
304.971	184.62
305.201	169.62
305.431	178.62
305.661	169.62
305.891	169.62
306.121	189.62
306.352	183.62
306.582	170.62
306.812	183.62
307.042	188.62
307.272	189.62
307.502	178.62
307.731	183.62
307.961	181.62
308.191	180.62
308.421	176.62
308.651	176.62
308.881	183.62
309.111	196.62
309.341	169.62
309.571	181.62
309.8	183.62
310.03	189.62
310.26	205.62
310.49	189.62
310.72	187.62
310.949	176.62
311.179	209.62
311.409	193.62
311.639	187.62
311.868	185.62
312.098	196.62
312.328	206.62
312.557	213.62
312.787	226.62
313.017	201.62
313.246	188.62
313.476	194.62
313.706	202.62
313.935	184.62
314.165	203.62
314.394	200.62
314.624	194.62
314.853	215.62
315.083	204.62
315.312	194.62
315.542	209.62
315.771	194.62
316.001	185.62
316.23	202.62
316.46	199.62
316.689	197.62
316.919	172.62
317.148	205.62
317.377	219.62
317.607	205.62
317.836	206.62
318.065	193.62
318.295	192.62
318.524	178.62
318.753	193.62
318.983	190.62
319.212	201.62
319.441	210.62
319.67	196.62
319.9	181.62
320.129	180.62
320.358	187.62
320.587	194.62
320.816	191.62
321.046	217.62
321.275	223.62
321.504	226.62
321.733	220.62
321.962	211.62
322.191	224.62
322.42	217.62
322.649	214.62
322.878	228.62
323.108	235.62
323.337	246.62
323.566	258.62
323.795	262.62
324.024	279.62
324.253	339.62
324.482	475.62
324.71	731.62
324.939	966.62
325.168	811.62
325.397	421.62
325.626	290.62
325.855	257.62
326.084	245.62
326.313	248.62
326.542	245.62
326.77	261.62
326.999	342.62
327.228	451.62
327.457	639.62
327.686	736.62
327.914	474.62
328.143	333.62
328.372	304.62
328.6	283.62
328.829	279.62
329.058	292.62
329.287	286.62
329.515	259.62
329.744	250.62
329.972	259.62
330.201	279.62
330.43	298.62
330.658	296.62
330.887	308.62
331.115	311.62
331.344	253.62
331.572	232.62
331.801	251.62
332.03	236.62
332.258	246.62
332.486	217.62
332.715	219.62
332.943	226.62
333.172	222.62
333.4	235.62
333.629	253.62
333.857	255.62
334.085	230.62
334.314	262.62
334.542	292.62
334.771	305.62
334.999	249.62
335.227	223.62
335.455	216.62
335.684	222.62
335.912	225.62
336.14	241.62
336.369	232.62
336.597	235.62
336.825	215.62
337.053	232.62
337.281	215.62
337.51	211.62
337.738	217.62
337.966	227.62
338.194	244.62
338.422	233.62
338.65	219.62
338.878	210.62
339.106	205.62
339.334	219.62
339.562	223.62
339.79	204.62
340.018	219.62
340.246	228.62
340.474	217.62
340.702	237.62
340.93	217.62
341.158	203.62
341.386	209.62
341.614	219.62
341.842	225.62
342.07	226.62
342.298	199.62
342.526	203.62
342.754	216.62
342.981	229.62
343.209	206.62
343.437	210.62
343.665	209.62
343.893	221.62
344.12	229.62
344.348	223.62
344.576	248.62
344.804	234.62
345.031	214.62
345.259	245.62
345.487	220.62
345.714	209.62
345.942	218.62
346.17	198.62
346.397	196.62
346.625	199.62
346.853	205.62
347.08	214.62
347.308	221.62
347.535	226.62
347.763	206.62
347.99	222.62
348.218	209.62
348.445	209.62
348.673	221.62
348.9	205.62
349.128	207.62
349.355	209.62
349.583	201.62
349.81	200.62
350.037	195.62
350.265	198.62
350.492	204.62
350.72	203.62
350.947	217.62
351.174	209.62
351.402	194.62
351.629	208.62
351.856	231.62
352.083	220.62
352.311	217.62
352.538	213.62
352.765	215.62
352.992	200.62
353.22	200.62
353.447	217.62
353.674	222.62
353.901	195.62
354.128	204.62
354.355	207.62
354.583	195.62
354.81	187.62
355.037	201.62
355.264	199.62
355.491	184.62
355.718	190.62
355.945	187.62
356.172	189.62
356.399	197.62
356.626	199.62
356.853	188.62
357.08	187.62
357.307	196.62
357.534	201.62
357.761	181.62
357.988	201.62
358.215	199.62
358.441	185.62
358.668	187.62
358.895	203.62
359.122	202.62
359.349	210.62
359.576	202.62
359.802	215.62
360.029	247.62
360.256	231.62
360.483	238.62
360.709	206.62
360.936	212.62
361.163	211.62
361.39	214.62
361.616	219.62
361.843	202.62
362.07	209.62
362.296	208.62
362.523	218.62
362.749	207.62
362.976	204.62
363.203	201.62
363.429	196.62
363.656	208.62
363.882	202.62
364.109	196.62
364.335	188.62
364.562	186.62
364.788	184.62
365.015	209.62
365.241	209.62
365.468	211.62
365.694	200.62
365.92	202.62
366.147	200.62
366.373	188.62
366.599	199.62
366.826	212.62
367.052	202.62
367.278	210.62
367.505	210.62
367.731	207.62
367.957	192.62
368.184	193.62
368.41	212.62
368.636	213.62
368.862	206.62
369.089	219.62
369.315	188.62
369.541	193.62
369.767	184.62
369.993	192.62
370.219	196.62
370.445	194.62
370.672	200.62
370.898	200.62
371.124	188.62
371.35	227.62
371.576	196.62
371.802	209.62
372.028	201.62
372.254	205.62
372.48	207.62
372.706	196.62
372.932	201.62
373.158	207.62
373.384	195.62
373.61	196.62
373.835	203.62
374.061	205.62
374.287	199.62
374.513	208.62
374.739	215.62
374.965	203.62
375.191	213.62
375.416	217.62
375.642	203.62
375.868	208.62
376.094	197.62
376.319	193.62
376.545	208.62
376.771	186.62
376.997	197.62
377.222	181.62
377.448	192.62
377.674	198.62
377.899	201.62
378.125	212.62
378.35	185.62
378.576	191.62
378.802	191.62
379.027	206.62
379.253	189.62
379.478	183.62
379.704	196.62
379.929	207.62
380.155	195.62
380.38	193.62
380.606	206.62
380.831	184.62
381.057	184.62
381.282	187.62
381.507	199.62
381.733	200.62
381.958	197.62
382.184	193.62
382.409	211.62
382.634	210.62
382.86	196.62
383.085	212.62
383.31	209.62
383.535	196.62
383.761	208.62
383.986	214.62
384.211	201.62
384.436	215.62
384.662	195.62
384.887	212.62
385.112	199.62
385.337	188.62
385.562	198.62
385.787	223.62
386.013	225.62
386.238	233.62
386.463	217.62
386.688	218.62
386.913	220.62
387.138	221.62
387.363	225.62
387.588	232.62
387.813	223.62
388.038	209.62
388.263	212.62
388.488	204.62
388.713	204.62
388.938	221.62
389.163	204.62
389.387	218.62
389.612	223.62
389.837	192.62
390.062	187.62
390.287	205.62
390.512	220.62
390.736	216.62
390.961	214.62
391.186	201.62
391.411	218.62
391.636	220.62
391.86	205.62
392.085	208.62
392.31	219.62
392.534	211.62
392.759	205.62
392.984	204.62
393.208	223.62
393.433	216.62
393.658	224.62
393.882	196.62
394.107	198.62
394.331	209.62
394.556	211.62
394.78	223.62
395.005	218.62
395.229	202.62
395.454	223.62
395.678	217.62
395.903	237.62
396.127	229.62
396.352	218.62
396.576	209.62
396.801	213.62
397.025	230.62
397.249	217.62
397.474	245.62
397.698	227.62
397.922	229.62
398.147	236.62
398.371	236.62
398.595	233.62
398.82	230.62
399.044	233.62
399.268	262.62
399.492	267.62
399.717	272.62
399.941	264.62
400.165	290.62
400.389	280.62
400.613	262.62
400.837	244.62
401.062	244.62
401.286	251.62
401.51	239.62
401.734	254.62
401.958	252.62
402.182	261.62
402.406	247.62
402.63	233.62
402.854	241.62
403.078	230.62
403.302	239.62
403.526	246.62
403.75	247.62
403.974	235.62
404.198	262.62
404.422	247.62
404.645	241.62
404.869	251.62
405.093	263.62
405.317	263.62
405.541	314.62
405.765	284.62
405.988	264.62
406.212	273.62
406.436	292.62
406.66	295.62
406.883	280.62
407.107	280.62
407.331	281.62
407.555	323.62
407.778	308.62
408.002	293.62
408.226	292.62
408.449	269.62
408.673	249.62
408.896	282.62
409.12	296.62
409.344	298.62
409.567	247.62
409.791	247.62
410.014	263.62
410.238	245.62
410.461	249.62
410.685	269.62
410.908	265.62
411.132	272.62
411.355	281.62
411.578	294.62
411.802	247.62
412.025	243.62
412.249	263.62
412.472	260.62
412.695	280.62
412.919	267.62
413.142	259.62
413.365	250.62
413.589	251.62
413.812	241.62
414.035	230.62
414.258	250.62
414.482	231.62
414.705	232.62
414.928	254.62
415.151	223.62
415.374	247.62
415.597	224.62
415.821	221.62
416.044	235.62
416.267	245.62
416.49	215.62
416.713	243.62
416.936	251.62
417.159	220.62
417.382	234.62
417.605	233.62
417.828	250.62
418.051	250.62
418.274	273.62
418.497	260.62
418.72	227.62
418.943	231.62
419.166	242.62
419.389	252.62
419.611	248.62
419.834	244.62
420.057	264.62
420.28	265.62
420.503	256.62
420.726	252.62
420.948	245.62
421.171	276.62
421.394	273.62
421.617	255.62
421.839	239.62
422.062	241.62
422.285	267.62
422.507	285.62
422.73	309.62
422.953	319.62
423.175	264.62
423.398	253.62
423.621	263.62
423.843	273.62
424.066	270.62
424.288	263.62
424.511	263.62
424.733	292.62
424.956	307.62
425.178	315.62
425.401	329.62
425.623	324.62
425.846	277.62
426.068	273.62
426.291	256.62
426.513	269.62
426.735	242.62
426.958	268.62
427.18	325.62
427.402	349.62
427.625	408.62
427.847	355.62
428.069	294.62
428.292	275.62
428.514	246.62
428.736	257.62
428.958	270.62
429.181	256.62
429.403	225.62
429.625	249.62
429.847	250.62
430.069	275.62
430.292	285.62
430.514	262.62
430.736	244.62
430.958	251.62
431.18	243.62
431.402	236.62
431.624	224.62
431.846	234.62
432.068	239.62
432.29	246.62
432.512	247.62
432.734	242.62
432.956	219.62
433.178	258.62
433.4	247.62
433.622	243.62
433.844	246.62
434.066	223.62
434.287	224.62
434.509	231.62
434.731	240.62
434.953	247.62
435.175	254.62
435.397	255.62
435.618	272.62
435.84	281.62
436.062	341.62
436.284	323.62
436.505	286.62
436.727	268.62
436.949	251.62
437.17	249.62
437.392	245.62
437.614	237.62
437.835	291.62
438.057	322.62
438.278	365.62
438.5	322.62
438.721	377.62
438.943	343.62
439.165	290.62
439.386	262.62
439.608	266.62
439.829	268.62
440.05	280.62
440.272	276.62
440.493	289.62
440.715	259.62
440.936	265.62
441.158	241.62
441.379	242.62
441.6	267.62
441.822	277.62
442.043	289.62
442.264	327.62
442.486	330.62
442.707	287.62
442.928	278.62
443.149	260.62
443.371	300.62
443.592	297.62
443.813	329.62
444.034	357.62
444.255	291.62
444.476	266.62
444.698	262.62
444.919	269.62
445.14	352.62
445.361	319.62
445.582	299.62
445.803	326.62
446.024	330.62
446.245	361.62
446.466	320.62
446.687	286.62
446.908	284.62
447.129	262.62
447.35	236.62
447.571	241.62
447.792	247.62
448.013	268.62
448.234	257.62
448.455	289.62
448.675	329.62
448.896	372.62
449.117	305.62
449.338	304.62
449.559	317.62
449.779	375.62
450	300.62
450.221	280.62
450.442	253.62
450.662	249.62
450.883	241.62
451.104	257.62
451.324	241.62
451.545	242.62
451.766	223.62
451.986	219.62
452.207	207.62
452.428	225.62
452.648	228.62
452.869	240.62
453.089	234.62
453.31	232.62
453.53	225.62
453.751	227.62
453.971	231.62
454.192	244.62
454.412	231.62
454.633	233.62
454.853	220.62
455.073	243.62
455.294	266.62
455.514	264.62
455.734	260.62
455.955	215.62
456.175	217.62
456.395	204.62
456.616	212.62
456.836	213.62
457.056	212.62
457.276	196.62
457.497	212.62
457.717	205.62
457.937	217.62
458.157	205.62
458.377	208.62
458.598	219.62
458.818	273.62
459.038	314.62
459.258	303.62
459.478	246.62
459.698	231.62
459.918	225.62
460.138	229.62
460.358	243.62
460.578	242.62
460.798	240.62
461.018	256.62
461.238	239.62
461.458	244.62
461.678	245.62
461.898	251.62
462.118	221.62
462.338	248.62
462.558	238.62
462.777	230.62
462.997	259.62
463.217	261.62
463.437	265.62
463.657	245.62
463.876	250.62
464.096	247.62
464.316	255.62
464.536	256.62
464.755	239.62
464.975	277.62
465.195	269.62
465.414	321.62
465.634	289.62
465.854	247.62
466.073	242.62
466.293	236.62
466.512	233.62
466.732	205.62
466.951	226.62
467.171	230.62
467.391	231.62
467.61	224.62
467.829	259.62
468.049	243.62
468.268	239.62
468.488	208.62
468.707	211.62
468.927	197.62
469.146	220.62
469.365	223.62
469.585	217.62
469.804	217.62
470.023	224.62
470.243	239.62
470.462	239.62
470.681	252.62
470.901	237.62
471.12	227.62
471.339	229.62
471.558	240.62
471.777	237.62
471.997	220.62
472.216	223.62
472.435	267.62
472.654	267.62
472.873	233.62
473.092	227.62
473.311	220.62
473.53	236.62
473.749	240.62
473.968	252.62
474.187	303.62
474.406	296.62
474.625	242.62
474.844	248.62
475.063	220.62
475.282	230.62
475.501	233.62
475.72	234.62
475.939	235.62
476.158	232.62
476.377	244.62
476.596	243.62
476.814	241.62
477.033	255.62
477.252	255.62
477.471	265.62
477.69	240.62
477.908	255.62
478.127	263.62
478.346	245.62
478.564	253.62
478.783	242.62
479.002	272.62
479.22	257.62
479.439	260.62
479.658	268.62
479.876	280.62
480.095	268.62
480.313	294.62
480.532	287.62
480.751	263.62
480.969	299.62
481.188	348.62
481.406	364.62
481.624	283.62
481.843	276.62
482.061	279.62
482.28	269.62
482.498	277.62
482.717	259.62
482.935	259.62
483.153	276.62
483.372	263.62
483.59	271.62
483.808	269.62
484.027	256.62
484.245	283.62
484.463	259.62
484.681	275.62
484.9	284.62
485.118	274.62
485.336	265.62
485.554	268.62
485.772	264.62
485.99	277.62
486.209	277.62
486.427	261.62
486.645	278.62
486.863	281.62
487.081	301.62
487.299	278.62
487.517	292.62
487.735	311.62
487.953	274.62
488.171	284.62
488.389	287.62
488.607	285.62
488.825	276.62
489.043	294.62
489.261	280.62
489.479	308.62
489.696	285.62
489.914	290.62
490.132	282.62
490.35	295.62
490.568	307.62
490.786	305.62
491.003	314.62
491.221	321.62
491.439	315.62
491.657	318.62
491.874	337.62
492.092	338.62
492.31	330.62
492.527	328.62
492.745	340.62
492.963	339.62
493.18	322.62
493.398	342.62
493.615	323.62
493.833	342.62
494.05	347.62
494.268	337.62
494.485	323.62
494.703	339.62
494.92	326.62
495.138	312.62
495.355	317.62
495.573	344.62
495.79	329.62
496.008	321.62
496.225	345.62
496.442	347.62
496.66	333.62
496.877	341.62
497.094	325.62
497.312	322.62
497.529	339.62
497.746	330.62
497.963	335.62
498.181	338.62
498.398	352.62
498.615	358.62
498.832	371.62
499.049	355.62
499.267	379.62
499.484	391.62
499.701	377.62
499.918	393.62
500.135	412.62
500.352	422.62
500.569	427.62
500.786	433.62
501.003	444.62
501.22	437.62
501.437	426.62
501.654	398.62
501.871	407.62
502.088	375.62
502.305	369.62
502.522	356.62
502.739	361.62
