Data from 1966.PennyLincolnUp.Lamp.En5.5.200Scan.071719.P1._HRD10591_14-14-48-915.txt Node
Date: Thu Jul 18 14:14:48 EDT 2019
User: cochatt
Spectrometer: HR+D1059
Trigger mode: 1
Integration Time (sec): 1.000000E-1
Scans to average: 1
Electric dark correction enabled: true
Nonlinearity correction enabled: false
Boxcar width: 0
XAxis mode: Wavelengths
Number of Pixels in Spectrum: 2048
>>>>>Begin Spectral Data<<<<<
223.165	-4.62
223.4	-4.62
223.635	-4.62
223.869	-19.62
224.104	-20.62
224.338	-12.62
224.573	-12.62
224.808	-11.62
225.042	-28.62
225.277	-7.62
225.511	-7.62
225.746	5.38
225.98	14.38
226.215	19.38
226.449	7.38
226.683	9.38
226.918	34.38
227.152	35.38
227.387	34.38
227.621	34.38
227.856	28.38
228.09	58.38
228.324	38.38
228.559	52.38
228.793	48.38
229.027	65.38
229.262	62.38
229.496	88.38
229.73	110.38
229.964	109.38
230.199	101.38
230.433	84.38
230.667	85.38
230.901	80.38
231.136	99.38
231.37	99.38
231.604	91.38
231.838	98.38
232.072	92.38
232.306	102.38
232.541	101.38
232.775	94.38
233.009	92.38
233.243	72.38
233.477	105.38
233.711	106.38
233.945	109.38
234.179	90.38
234.413	107.38
234.647	87.38
234.881	88.38
235.115	92.38
235.349	106.38
235.583	104.38
235.817	94.38
236.051	93.38
236.285	106.38
236.519	88.38
236.753	96.38
236.987	100.38
237.221	112.38
237.455	146.38
237.689	124.38
237.922	96.38
238.156	81.38
238.39	88.38
238.624	103.38
238.858	101.38
239.091	97.38
239.325	95.38
239.559	90.38
239.793	112.38
240.027	112.38
240.26	121.38
240.494	112.38
240.728	119.38
240.961	93.38
241.195	97.38
241.429	89.38
241.662	100.38
241.896	98.38
242.13	107.38
242.363	97.38
242.597	89.38
242.83	100.38
243.064	102.38
243.298	98.38
243.531	106.38
243.765	113.38
243.998	81.38
244.232	82.38
244.465	93.38
244.699	107.38
244.932	106.38
245.166	116.38
245.399	112.38
245.633	93.38
245.866	117.38
246.099	110.38
246.333	92.38
246.566	85.38
246.8	101.38
247.033	103.38
247.266	119.38
247.5	120.38
247.733	111.38
247.966	118.38
248.2	103.38
248.433	113.38
248.666	121.38
248.899	129.38
249.133	134.38
249.366	135.38
249.599	140.38
249.832	125.38
250.066	116.38
250.299	136.38
250.532	150.38
250.765	148.38
250.998	137.38
251.231	128.38
251.465	129.38
251.698	141.38
251.931	130.38
252.164	131.38
252.397	128.38
252.63	129.38
252.863	137.38
253.096	133.38
253.329	120.38
253.562	134.38
253.795	126.38
254.028	148.38
254.261	134.38
254.494	143.38
254.727	150.38
254.96	165.38
255.193	166.38
255.426	149.38
255.659	135.38
255.892	148.38
256.124	162.38
256.357	149.38
256.59	153.38
256.823	128.38
257.056	133.38
257.289	124.38
257.521	129.38
257.754	122.38
257.987	133.38
258.22	138.38
258.452	131.38
258.685	140.38
258.918	136.38
259.151	130.38
259.383	136.38
259.616	151.38
259.849	142.38
260.081	129.38
260.314	147.38
260.547	152.38
260.779	136.38
261.012	143.38
261.244	156.38
261.477	148.38
261.71	136.38
261.942	134.38
262.175	152.38
262.407	128.38
262.64	142.38
262.872	146.38
263.105	128.38
263.337	126.38
263.57	134.38
263.802	133.38
264.035	128.38
264.267	117.38
264.499	128.38
264.732	134.38
264.964	130.38
265.197	135.38
265.429	124.38
265.661	136.38
265.894	122.38
266.126	144.38
266.358	134.38
266.591	132.38
266.823	142.38
267.055	142.38
267.287	163.38
267.52	138.38
267.752	143.38
267.984	141.38
268.216	145.38
268.448	152.38
268.681	161.38
268.913	152.38
269.145	160.38
269.377	164.38
269.609	181.38
269.841	177.38
270.073	167.38
270.306	169.38
270.538	196.38
270.77	180.38
271.002	175.38
271.234	174.38
271.466	170.38
271.698	188.38
271.93	186.38
272.162	164.38
272.394	182.38
272.626	173.38
272.858	188.38
273.09	178.38
273.322	148.38
273.553	155.38
273.785	153.38
274.017	142.38
274.249	166.38
274.481	170.38
274.713	165.38
274.945	161.38
275.176	153.38
275.408	160.38
275.64	168.38
275.872	161.38
276.104	156.38
276.335	169.38
276.567	167.38
276.799	186.38
277.031	182.38
277.262	193.38
277.494	190.38
277.726	168.38
277.957	150.38
278.189	168.38
278.421	163.38
278.652	161.38
278.884	150.38
279.115	150.38
279.347	165.38
279.579	162.38
279.81	155.38
280.042	174.38
280.273	180.38
280.505	172.38
280.736	152.38
280.968	168.38
281.199	152.38
281.431	160.38
281.662	163.38
281.894	158.38
282.125	157.38
282.356	174.38
282.588	171.38
282.819	178.38
283.051	168.38
283.282	146.38
283.513	144.38
283.745	149.38
283.976	164.38
284.207	166.38
284.439	176.38
284.67	161.38
284.901	186.38
285.132	163.38
285.364	148.38
285.595	166.38
285.826	175.38
286.057	164.38
286.288	182.38
286.52	165.38
286.751	157.38
286.982	164.38
287.213	162.38
287.444	166.38
287.675	170.38
287.906	178.38
288.138	175.38
288.369	180.38
288.6	162.38
288.831	161.38
289.062	161.38
289.293	166.38
289.524	160.38
289.755	153.38
289.986	164.38
290.217	155.38
290.448	179.38
290.679	175.38
290.91	170.38
291.141	155.38
291.371	164.38
291.602	161.38
291.833	165.38
292.064	164.38
292.295	157.38
292.526	155.38
292.757	184.38
292.987	169.38
293.218	173.38
293.449	159.38
293.68	165.38
293.91	169.38
294.141	182.38
294.372	172.38
294.603	163.38
294.833	177.38
295.064	170.38
295.295	170.38
295.525	178.38
295.756	168.38
295.987	187.38
296.217	170.38
296.448	199.38
296.679	178.38
296.909	171.38
297.14	165.38
297.37	182.38
297.601	182.38
297.831	174.38
298.062	187.38
298.292	164.38
298.523	177.38
298.753	188.38
298.984	172.38
299.214	184.38
299.445	173.38
299.675	170.38
299.905	176.38
300.136	177.38
300.366	165.38
300.597	186.38
300.827	162.38
301.057	188.38
301.288	178.38
301.518	205.38
301.748	170.38
301.979	174.38
302.209	183.38
302.439	180.38
302.669	171.38
302.9	200.38
303.13	184.38
303.36	181.38
303.59	170.38
303.82	183.38
304.051	194.38
304.281	197.38
304.511	195.38
304.741	188.38
304.971	189.38
305.201	182.38
305.431	183.38
305.661	170.38
305.891	173.38
306.121	171.38
306.352	177.38
306.582	173.38
306.812	183.38
307.042	192.38
307.272	188.38
307.502	189.38
307.731	171.38
307.961	174.38
308.191	173.38
308.421	194.38
308.651	181.38
308.881	192.38
309.111	185.38
309.341	201.38
309.571	204.38
309.8	191.38
310.03	204.38
310.26	215.38
310.49	195.38
310.72	204.38
310.949	223.38
311.179	230.38
311.409	209.38
311.639	212.38
311.868	210.38
312.098	212.38
312.328	201.38
312.557	227.38
312.787	226.38
313.017	229.38
313.246	226.38
313.476	217.38
313.706	212.38
313.935	209.38
314.165	225.38
314.394	230.38
314.624	220.38
314.853	205.38
315.083	203.38
315.312	206.38
315.542	199.38
315.771	188.38
316.001	209.38
316.23	212.38
316.46	198.38
316.689	213.38
316.919	223.38
317.148	221.38
317.377	212.38
317.607	222.38
317.836	208.38
318.065	205.38
318.295	208.38
318.524	209.38
318.753	198.38
318.983	209.38
319.212	203.38
319.441	218.38
319.67	200.38
319.9	192.38
320.129	198.38
320.358	220.38
320.587	224.38
320.816	216.38
321.046	219.38
321.275	206.38
321.504	229.38
321.733	221.38
321.962	224.38
322.191	242.38
322.42	227.38
322.649	240.38
322.878	227.38
323.108	248.38
323.337	265.38
323.566	285.38
323.795	288.38
324.024	297.38
324.253	370.38
324.482	538.38
324.71	790.38
324.939	1046.38
325.168	873.38
325.397	436.38
325.626	318.38
325.855	278.38
326.084	240.38
326.313	257.38
326.542	278.38
326.77	270.38
326.999	341.38
327.228	481.38
327.457	728.38
327.686	804.38
327.914	535.38
328.143	340.38
328.372	340.38
328.6	309.38
328.829	286.38
329.058	306.38
329.287	334.38
329.515	296.38
329.744	259.38
329.972	281.38
330.201	288.38
330.43	323.38
330.658	338.38
330.887	335.38
331.115	333.38
331.344	276.38
331.572	258.38
331.801	276.38
332.03	264.38
332.258	253.38
332.486	236.38
332.715	233.38
332.943	226.38
333.172	259.38
333.4	259.38
333.629	260.38
333.857	257.38
334.085	267.38
334.314	276.38
334.542	300.38
334.771	314.38
334.999	296.38
335.227	269.38
335.455	230.38
335.684	256.38
335.912	249.38
336.14	235.38
336.369	221.38
336.597	246.38
336.825	236.38
337.053	251.38
337.281	233.38
337.51	228.38
337.738	233.38
337.966	233.38
338.194	248.38
338.422	243.38
338.65	232.38
338.878	235.38
339.106	226.38
339.334	206.38
339.562	236.38
339.79	236.38
340.018	225.38
340.246	231.38
340.474	224.38
340.702	214.38
340.93	231.38
341.158	241.38
341.386	233.38
341.614	230.38
341.842	219.38
342.07	240.38
342.298	221.38
342.526	223.38
342.754	208.38
342.981	220.38
343.209	216.38
343.437	225.38
343.665	242.38
343.893	225.38
344.12	245.38
344.348	227.38
344.576	229.38
344.804	228.38
345.031	239.38
345.259	236.38
345.487	260.38
345.714	237.38
345.942	225.38
346.17	222.38
346.397	210.38
346.625	227.38
346.853	213.38
347.08	217.38
347.308	225.38
347.535	214.38
347.763	228.38
347.99	235.38
348.218	230.38
348.445	227.38
348.673	229.38
348.9	228.38
349.128	208.38
349.355	222.38
349.583	212.38
349.81	219.38
350.037	220.38
350.265	192.38
350.492	228.38
350.72	206.38
350.947	235.38
351.174	225.38
351.402	243.38
351.629	232.38
351.856	216.38
352.083	214.38
352.311	236.38
352.538	235.38
352.765	231.38
352.992	222.38
353.22	218.38
353.447	227.38
353.674	231.38
353.901	214.38
354.128	210.38
354.355	224.38
354.583	210.38
354.81	206.38
355.037	206.38
355.264	197.38
355.491	193.38
355.718	201.38
355.945	209.38
356.172	213.38
356.399	188.38
356.626	210.38
356.853	195.38
357.08	204.38
357.307	222.38
357.534	195.38
357.761	206.38
357.988	189.38
358.215	211.38
358.441	211.38
358.668	208.38
358.895	213.38
359.122	222.38
359.349	229.38
359.576	225.38
359.802	227.38
360.029	257.38
360.256	260.38
360.483	246.38
360.709	219.38
360.936	227.38
361.163	227.38
361.39	247.38
361.616	227.38
361.843	221.38
362.07	208.38
362.296	230.38
362.523	227.38
362.749	223.38
362.976	214.38
363.203	244.38
363.429	207.38
363.656	231.38
363.882	203.38
364.109	206.38
364.335	200.38
364.562	202.38
364.788	205.38
365.015	207.38
365.241	203.38
365.468	215.38
365.694	221.38
365.92	216.38
366.147	218.38
366.373	202.38
366.599	207.38
366.826	184.38
367.052	214.38
367.278	203.38
367.505	214.38
367.731	228.38
367.957	216.38
368.184	208.38
368.41	212.38
368.636	229.38
368.862	218.38
369.089	229.38
369.315	205.38
369.541	210.38
369.767	215.38
369.993	219.38
370.219	208.38
370.445	201.38
370.672	207.38
370.898	216.38
371.124	200.38
371.35	204.38
371.576	211.38
371.802	214.38
372.028	206.38
372.254	217.38
372.48	210.38
372.706	200.38
372.932	214.38
373.158	205.38
373.384	218.38
373.61	202.38
373.835	211.38
374.061	203.38
374.287	211.38
374.513	222.38
374.739	212.38
374.965	227.38
375.191	218.38
375.416	227.38
375.642	208.38
375.868	227.38
376.094	208.38
376.319	190.38
376.545	200.38
376.771	205.38
376.997	206.38
377.222	211.38
377.448	202.38
377.674	205.38
377.899	210.38
378.125	190.38
378.35	197.38
378.576	202.38
378.802	213.38
379.027	207.38
379.253	198.38
379.478	194.38
379.704	203.38
379.929	205.38
380.155	197.38
380.38	200.38
380.606	217.38
380.831	212.38
381.057	207.38
381.282	206.38
381.507	204.38
381.733	222.38
381.958	216.38
382.184	206.38
382.409	201.38
382.634	227.38
382.86	205.38
383.085	233.38
383.31	206.38
383.535	218.38
383.761	217.38
383.986	218.38
384.211	220.38
384.436	195.38
384.662	200.38
384.887	186.38
385.112	229.38
385.337	218.38
385.562	216.38
385.787	226.38
386.013	226.38
386.238	232.38
386.463	221.38
386.688	210.38
386.913	230.38
387.138	208.38
387.363	208.38
387.588	202.38
387.813	204.38
388.038	217.38
388.263	229.38
388.488	222.38
388.713	217.38
388.938	208.38
389.163	234.38
389.387	207.38
389.612	220.38
389.837	201.38
390.062	226.38
390.287	205.38
390.512	220.38
390.736	217.38
390.961	222.38
391.186	221.38
391.411	227.38
391.636	213.38
391.86	215.38
392.085	226.38
392.31	225.38
392.534	218.38
392.759	244.38
392.984	228.38
393.208	226.38
393.433	237.38
393.658	228.38
393.882	215.38
394.107	213.38
394.331	228.38
394.556	226.38
394.78	214.38
395.005	231.38
395.229	205.38
395.454	223.38
395.678	216.38
395.903	227.38
396.127	237.38
396.352	245.38
396.576	242.38
396.801	233.38
397.025	219.38
397.249	217.38
397.474	218.38
397.698	226.38
397.922	228.38
398.147	246.38
398.371	241.38
398.595	259.38
398.82	242.38
399.044	233.38
399.268	252.38
399.492	272.38
399.717	300.38
399.941	305.38
400.165	296.38
400.389	312.38
400.613	278.38
400.837	252.38
401.062	250.38
401.286	252.38
401.51	242.38
401.734	235.38
401.958	257.38
402.182	260.38
402.406	244.38
402.63	282.38
402.854	263.38
403.078	257.38
403.302	260.38
403.526	262.38
403.75	261.38
403.974	247.38
404.198	262.38
404.422	274.38
404.645	271.38
404.869	258.38
405.093	270.38
405.317	291.38
405.541	301.38
405.765	279.38
405.988	265.38
406.212	279.38
406.436	299.38
406.66	300.38
406.883	287.38
407.107	297.38
407.331	316.38
407.555	332.38
407.778	341.38
408.002	294.38
408.226	278.38
408.449	265.38
408.673	249.38
408.896	302.38
409.12	308.38
409.344	283.38
409.567	274.38
409.791	247.38
410.014	260.38
410.238	257.38
410.461	266.38
410.685	249.38
410.908	253.38
411.132	285.38
411.355	300.38
411.578	283.38
411.802	248.38
412.025	237.38
412.249	256.38
412.472	269.38
412.695	305.38
412.919	279.38
413.142	282.38
413.365	250.38
413.589	269.38
413.812	243.38
414.035	257.38
414.258	245.38
414.482	258.38
414.705	275.38
414.928	232.38
415.151	235.38
415.374	230.38
415.597	253.38
415.821	237.38
416.044	246.38
416.267	245.38
416.49	244.38
416.713	241.38
416.936	252.38
417.159	233.38
417.382	252.38
417.605	250.38
417.828	268.38
418.051	270.38
418.274	252.38
418.497	228.38
418.72	254.38
418.943	243.38
419.166	250.38
419.389	292.38
419.611	255.38
419.834	256.38
420.057	281.38
420.28	262.38
420.503	246.38
420.726	252.38
420.948	262.38
421.171	285.38
421.394	296.38
421.617	267.38
421.839	245.38
422.062	280.38
422.285	260.38
422.507	288.38
422.73	322.38
422.953	328.38
423.175	275.38
423.398	267.38
423.621	264.38
423.843	275.38
424.066	272.38
424.288	275.38
424.511	290.38
424.733	299.38
424.956	351.38
425.178	329.38
425.401	322.38
425.623	324.38
425.846	285.38
426.068	276.38
426.291	272.38
426.513	266.38
426.735	280.38
426.958	278.38
427.18	334.38
427.402	393.38
427.625	426.38
427.847	372.38
428.069	332.38
428.292	280.38
428.514	253.38
428.736	273.38
428.958	272.38
429.181	249.38
429.403	251.38
429.625	260.38
429.847	263.38
430.069	306.38
430.292	294.38
430.514	259.38
430.736	257.38
430.958	233.38
431.18	240.38
431.402	240.38
431.624	248.38
431.846	242.38
432.068	236.38
432.29	226.38
432.512	259.38
432.734	251.38
432.956	257.38
433.178	254.38
433.4	246.38
433.622	225.38
433.844	249.38
434.066	256.38
434.287	230.38
434.509	244.38
434.731	244.38
434.953	236.38
435.175	260.38
435.397	278.38
435.618	260.38
435.84	282.38
436.062	340.38
436.284	361.38
436.505	302.38
436.727	281.38
436.949	266.38
437.17	260.38
437.392	251.38
437.614	246.38
437.835	276.38
438.057	333.38
438.278	373.38
438.5	358.38
438.721	400.38
438.943	359.38
439.165	284.38
439.386	295.38
439.608	300.38
439.829	281.38
440.05	297.38
440.272	306.38
440.493	275.38
440.715	292.38
440.936	274.38
441.158	240.38
441.379	268.38
441.6	267.38
441.822	281.38
442.043	284.38
442.264	339.38
442.486	348.38
442.707	289.38
442.928	280.38
443.149	290.38
443.371	293.38
443.592	321.38
443.813	359.38
444.034	362.38
444.255	306.38
444.476	294.38
444.698	291.38
444.919	285.38
445.14	346.38
445.361	310.38
445.582	299.38
445.803	331.38
446.024	379.38
446.245	370.38
446.466	339.38
446.687	284.38
446.908	279.38
447.129	276.38
447.35	255.38
447.571	261.38
447.792	236.38
448.013	262.38
448.234	265.38
448.455	295.38
448.675	337.38
448.896	381.38
449.117	319.38
449.338	317.38
449.559	341.38
449.779	388.38
450	317.38
450.221	267.38
450.442	252.38
450.662	270.38
450.883	247.38
451.104	281.38
451.324	268.38
451.545	237.38
451.766	250.38
451.986	239.38
452.207	240.38
452.428	234.38
452.648	248.38
452.869	224.38
453.089	259.38
453.31	250.38
453.53	244.38
453.751	212.38
453.971	238.38
454.192	254.38
454.412	260.38
454.633	227.38
454.853	230.38
455.073	230.38
455.294	242.38
455.514	267.38
455.734	266.38
455.955	244.38
456.175	208.38
456.395	204.38
456.616	209.38
456.836	196.38
457.056	210.38
457.276	201.38
457.497	225.38
457.717	217.38
457.937	224.38
458.157	233.38
458.377	226.38
458.598	264.38
458.818	283.38
459.038	331.38
459.258	317.38
459.478	270.38
459.698	252.38
459.918	254.38
460.138	256.38
460.358	235.38
460.578	257.38
460.798	234.38
461.018	262.38
461.238	252.38
461.458	247.38
461.678	229.38
461.898	234.38
462.118	234.38
462.338	250.38
462.558	257.38
462.777	257.38
462.997	258.38
463.217	256.38
463.437	274.38
463.657	257.38
463.876	259.38
464.096	260.38
464.316	244.38
464.536	248.38
464.755	270.38
464.975	273.38
465.195	322.38
465.414	347.38
465.634	289.38
465.854	264.38
466.073	241.38
466.293	254.38
466.512	236.38
466.732	243.38
466.951	234.38
467.171	216.38
467.391	232.38
467.61	248.38
467.829	272.38
468.049	251.38
468.268	237.38
468.488	240.38
468.707	225.38
468.927	235.38
469.146	228.38
469.365	251.38
469.585	252.38
469.804	240.38
470.023	246.38
470.243	236.38
470.462	248.38
470.681	264.38
470.901	267.38
471.12	269.38
471.339	253.38
471.558	248.38
471.777	247.38
471.997	229.38
472.216	242.38
472.435	296.38
472.654	276.38
472.873	237.38
473.092	233.38
473.311	234.38
473.53	237.38
473.749	237.38
473.968	266.38
474.187	328.38
474.406	311.38
474.625	257.38
474.844	250.38
475.063	235.38
475.282	229.38
475.501	233.38
475.72	235.38
475.939	247.38
476.158	264.38
476.377	244.38
476.596	236.38
476.814	238.38
477.033	259.38
477.252	264.38
477.471	260.38
477.69	261.38
477.908	262.38
478.127	258.38
478.346	256.38
478.564	273.38
478.783	266.38
479.002	277.38
479.22	260.38
479.439	269.38
479.658	274.38
479.876	291.38
480.095	304.38
480.313	311.38
480.532	285.38
480.751	297.38
480.969	300.38
481.188	370.38
481.406	406.38
481.624	322.38
481.843	287.38
482.061	276.38
482.28	278.38
482.498	272.38
482.717	281.38
482.935	276.38
483.153	280.38
483.372	287.38
483.59	286.38
483.808	280.38
484.027	299.38
484.245	282.38
484.463	293.38
484.681	274.38
484.9	293.38
485.118	284.38
485.336	284.38
485.554	275.38
485.772	276.38
485.99	274.38
486.209	273.38
486.427	292.38
486.645	272.38
486.863	294.38
487.081	308.38
487.299	296.38
487.517	271.38
487.735	298.38
487.953	293.38
488.171	296.38
488.389	296.38
488.607	300.38
488.825	291.38
489.043	281.38
489.261	303.38
489.479	309.38
489.696	291.38
489.914	322.38
490.132	302.38
490.35	284.38
490.568	297.38
490.786	332.38
491.003	324.38
491.221	331.38
491.439	326.38
491.657	350.38
491.874	357.38
492.092	338.38
492.31	349.38
492.527	347.38
492.745	342.38
492.963	360.38
493.18	373.38
493.398	368.38
493.615	360.38
493.833	362.38
494.05	332.38
494.268	352.38
494.485	346.38
494.703	355.38
494.92	362.38
495.138	350.38
495.355	346.38
495.573	352.38
495.79	342.38
496.008	363.38
496.225	342.38
496.442	344.38
496.66	349.38
496.877	357.38
497.094	357.38
497.312	347.38
497.529	343.38
497.746	349.38
497.963	361.38
498.181	357.38
498.398	368.38
498.615	350.38
498.832	370.38
499.049	360.38
499.267	370.38
499.484	390.38
499.701	412.38
499.918	416.38
500.135	427.38
500.352	455.38
500.569	458.38
500.786	477.38
501.003	448.38
501.22	445.38
501.437	419.38
501.654	420.38
501.871	435.38
502.088	404.38
502.305	395.38
502.522	381.38
