Data from 1966.PennyLincolnUp.Lamp.En5.5.200Scan.071719.P1.Scan2.head_HRD10591_14-18-21-181.txt Node
Date: Thu Jul 18 14:18:21 EDT 2019
User: cochatt
Spectrometer: HR+D1059
Trigger mode: 1
Integration Time (sec): 1.000000E-1
Scans to average: 1
Electric dark correction enabled: true
Nonlinearity correction enabled: false
Boxcar width: 0
XAxis mode: Wavelengths
Number of Pixels in Spectrum: 2048
>>>>>Begin Spectral Data<<<<<
223.165	-15.12
223.4	-15.12
223.635	-15.12
223.869	-12.12
224.104	-19.12
224.338	-28.12
224.573	-16.12
224.808	-18.12
225.042	4.88
225.277	1.88
225.511	-8.12
225.746	0.88
225.98	-5.12
226.215	-3.12
226.449	22.88
226.683	12.88
226.918	38.88
227.152	42.88
227.387	34.88
227.621	29.88
227.856	49.88
228.09	44.88
228.324	51.88
228.559	55.88
228.793	80.88
229.027	100.88
229.262	119.88
229.496	103.88
229.73	127.88
229.964	167.88
230.199	133.88
230.433	120.88
230.667	121.88
230.901	117.88
231.136	101.88
231.37	118.88
231.604	123.88
231.838	115.88
232.072	106.88
232.306	103.88
232.541	116.88
232.775	110.88
233.009	117.88
233.243	122.88
233.477	118.88
233.711	108.88
233.945	119.88
234.179	117.88
234.413	112.88
234.647	119.88
234.881	93.88
235.115	129.88
235.349	131.88
235.583	131.88
235.817	125.88
236.051	127.88
236.285	137.88
236.519	147.88
236.753	145.88
236.987	141.88
237.221	186.88
237.455	248.88
237.689	184.88
237.922	151.88
238.156	135.88
238.39	129.88
238.624	148.88
238.858	127.88
239.091	110.88
239.325	121.88
239.559	135.88
239.793	143.88
240.027	126.88
240.26	144.88
240.494	162.88
240.728	163.88
240.961	152.88
241.195	157.88
241.429	138.88
241.662	131.88
241.896	129.88
242.13	139.88
242.363	140.88
242.597	143.88
242.83	135.88
243.064	141.88
243.298	150.88
243.531	139.88
243.765	149.88
243.998	142.88
244.232	137.88
244.465	144.88
244.699	152.88
244.932	154.88
245.166	150.88
245.399	151.88
245.633	152.88
245.866	161.88
246.099	156.88
246.333	157.88
246.566	173.88
246.8	163.88
247.033	164.88
247.266	161.88
247.5	163.88
247.733	192.88
247.966	180.88
248.2	176.88
248.433	179.88
248.666	174.88
248.899	205.88
249.133	197.88
249.366	204.88
249.599	212.88
249.832	192.88
250.066	181.88
250.299	160.88
250.532	195.88
250.765	197.88
250.998	228.88
251.231	227.88
251.465	209.88
251.698	194.88
251.931	204.88
252.164	220.88
252.397	212.88
252.63	221.88
252.863	221.88
253.096	231.88
253.329	237.88
253.562	232.88
253.795	235.88
254.028	231.88
254.261	232.88
254.494	225.88
254.727	288.88
254.96	270.88
255.193	280.88
255.426	255.88
255.659	250.88
255.892	228.88
256.124	239.88
256.357	237.88
256.59	239.88
256.823	218.88
257.056	213.88
257.289	207.88
257.521	215.88
257.754	219.88
257.987	228.88
258.22	205.88
258.452	223.88
258.685	217.88
258.918	216.88
259.151	216.88
259.383	221.88
259.616	221.88
259.849	228.88
260.081	246.88
260.314	269.88
260.547	257.88
260.779	235.88
261.012	239.88
261.244	236.88
261.477	257.88
261.71	225.88
261.942	233.88
262.175	250.88
262.407	244.88
262.64	227.88
262.872	227.88
263.105	217.88
263.337	214.88
263.57	228.88
263.802	208.88
264.035	219.88
264.267	224.88
264.499	209.88
264.732	213.88
264.964	223.88
265.197	217.88
265.429	224.88
265.661	227.88
265.894	237.88
266.126	209.88
266.358	221.88
266.591	247.88
266.823	237.88
267.055	232.88
267.287	216.88
267.52	237.88
267.752	236.88
267.984	225.88
268.216	253.88
268.448	251.88
268.681	250.88
268.913	271.88
269.145	271.88
269.377	309.88
269.609	293.88
269.841	271.88
270.073	281.88
270.306	302.88
270.538	317.88
270.77	328.88
271.002	299.88
271.234	295.88
271.466	312.88
271.698	318.88
271.93	327.88
272.162	322.88
272.394	312.88
272.626	294.88
272.858	294.88
273.09	296.88
273.322	290.88
273.553	277.88
273.785	277.88
274.017	252.88
274.249	279.88
274.481	263.88
274.713	268.88
274.945	283.88
275.176	280.88
275.408	297.88
275.64	276.88
275.872	275.88
276.104	283.88
276.335	264.88
276.567	264.88
276.799	304.88
277.031	310.88
277.262	333.88
277.494	311.88
277.726	314.88
277.957	293.88
278.189	294.88
278.421	287.88
278.652	276.88
278.884	286.88
279.115	284.88
279.347	275.88
279.579	261.88
279.81	280.88
280.042	289.88
280.273	279.88
280.505	279.88
280.736	276.88
280.968	267.88
281.199	272.88
281.431	265.88
281.662	282.88
281.894	272.88
282.125	277.88
282.356	282.88
282.588	279.88
282.819	323.88
283.051	282.88
283.282	283.88
283.513	264.88
283.745	289.88
283.976	281.88
284.207	289.88
284.439	280.88
284.67	312.88
284.901	277.88
285.132	291.88
285.364	274.88
285.595	279.88
285.826	273.88
286.057	286.88
286.288	307.88
286.52	291.88
286.751	294.88
286.982	292.88
287.213	300.88
287.444	287.88
287.675	285.88
287.906	294.88
288.138	321.88
288.369	331.88
288.6	316.88
288.831	321.88
289.062	307.88
289.293	303.88
289.524	305.88
289.755	295.88
289.986	292.88
290.217	300.88
290.448	304.88
290.679	309.88
290.91	292.88
291.141	296.88
291.371	303.88
291.602	303.88
291.833	299.88
292.064	299.88
292.295	307.88
292.526	326.88
292.757	285.88
292.987	299.88
293.218	297.88
293.449	294.88
293.68	300.88
293.91	315.88
294.141	296.88
294.372	276.88
294.603	298.88
294.833	293.88
295.064	315.88
295.295	313.88
295.525	309.88
295.756	308.88
295.987	312.88
296.217	313.88
296.448	332.88
296.679	314.88
296.909	320.88
297.14	300.88
297.37	312.88
297.601	314.88
297.831	302.88
298.062	311.88
298.292	317.88
298.523	325.88
298.753	335.88
298.984	321.88
299.214	311.88
299.445	302.88
299.675	338.88
299.905	315.88
300.136	356.88
300.366	328.88
300.597	315.88
300.827	346.88
301.057	324.88
301.288	341.88
301.518	336.88
301.748	329.88
301.979	349.88
302.209	339.88
302.439	341.88
302.669	350.88
302.9	335.88
303.13	349.88
303.36	351.88
303.59	340.88
303.82	340.88
304.051	355.88
304.281	339.88
304.511	331.88
304.741	334.88
304.971	338.88
305.201	344.88
305.431	336.88
305.661	345.88
305.891	334.88
306.121	338.88
306.352	326.88
306.582	356.88
306.812	343.88
307.042	350.88
307.272	338.88
307.502	337.88
307.731	327.88
307.961	348.88
308.191	351.88
308.421	354.88
308.651	343.88
308.881	357.88
309.111	368.88
309.341	362.88
309.571	348.88
309.8	370.88
310.03	372.88
310.26	389.88
310.49	392.88
310.72	389.88
310.949	415.88
311.179	408.88
311.409	395.88
311.639	385.88
311.868	398.88
312.098	399.88
312.328	384.88
312.557	411.88
312.787	415.88
313.017	417.88
313.246	398.88
313.476	380.88
313.706	378.88
313.935	397.88
314.165	413.88
314.394	414.88
314.624	399.88
314.853	384.88
315.083	396.88
315.312	388.88
315.542	383.88
315.771	382.88
316.001	404.88
316.23	380.88
316.46	378.88
316.689	387.88
316.919	415.88
317.148	407.88
317.377	401.88
317.607	401.88
317.836	405.88
318.065	383.88
318.295	401.88
318.524	407.88
318.753	383.88
318.983	389.88
319.212	396.88
319.441	400.88
319.67	408.88
319.9	391.88
320.129	381.88
320.358	383.88
320.587	397.88
320.816	400.88
321.046	413.88
321.275	405.88
321.504	411.88
321.733	415.88
321.962	428.88
322.191	427.88
322.42	446.88
322.649	460.88
322.878	460.88
323.108	483.88
323.337	483.88
323.566	513.88
323.795	533.88
324.024	556.88
324.253	666.88
324.482	979.88
324.71	1525.88
324.939	2286.88
325.168	1983.88
325.397	985.88
325.626	660.88
325.855	555.88
326.084	536.88
326.313	504.88
326.542	517.88
326.77	559.88
326.999	644.88
327.228	880.88
327.457	1357.88
327.686	1733.88
327.914	1110.88
328.143	721.88
328.372	628.88
328.6	612.88
328.829	581.88
329.058	596.88
329.287	593.88
329.515	558.88
329.744	539.88
329.972	551.88
330.201	562.88
330.43	592.88
330.658	614.88
330.887	632.88
331.115	624.88
331.344	518.88
331.572	523.88
331.801	504.88
332.03	493.88
332.258	521.88
332.486	500.88
332.715	485.88
332.943	485.88
333.172	482.88
333.4	476.88
333.629	488.88
333.857	499.88
334.085	520.88
334.314	559.88
334.542	543.88
334.771	582.88
334.999	526.88
335.227	504.88
335.455	481.88
335.684	474.88
335.912	487.88
336.14	485.88
336.369	462.88
336.597	476.88
336.825	477.88
337.053	464.88
337.281	477.88
337.51	452.88
337.738	465.88
337.966	471.88
338.194	471.88
338.422	464.88
338.65	456.88
338.878	456.88
339.106	455.88
339.334	467.88
339.562	468.88
339.79	438.88
340.018	461.88
340.246	451.88
340.474	458.88
340.702	439.88
340.93	458.88
341.158	457.88
341.386	470.88
341.614	467.88
341.842	463.88
342.07	451.88
342.298	443.88
342.526	447.88
342.754	428.88
342.981	429.88
343.209	444.88
343.437	450.88
343.665	440.88
343.893	471.88
344.12	455.88
344.348	461.88
344.576	472.88
344.804	477.88
345.031	480.88
345.259	472.88
345.487	485.88
345.714	461.88
345.942	447.88
346.17	448.88
346.397	455.88
346.625	451.88
346.853	444.88
347.08	440.88
347.308	461.88
347.535	467.88
347.763	458.88
347.99	455.88
348.218	458.88
348.445	465.88
348.673	470.88
348.9	442.88
349.128	441.88
349.355	441.88
349.583	421.88
349.81	460.88
350.037	436.88
350.265	428.88
350.492	421.88
350.72	455.88
350.947	437.88
351.174	443.88
351.402	462.88
351.629	442.88
351.856	456.88
352.083	444.88
352.311	445.88
352.538	456.88
352.765	472.88
352.992	457.88
353.22	440.88
353.447	438.88
353.674	426.88
353.901	422.88
354.128	424.88
354.355	416.88
354.583	425.88
354.81	419.88
355.037	423.88
355.264	407.88
355.491	411.88
355.718	405.88
355.945	399.88
356.172	413.88
356.399	410.88
356.626	416.88
356.853	423.88
357.08	417.88
357.307	417.88
357.534	415.88
357.761	425.88
357.988	396.88
358.215	417.88
358.441	432.88
358.668	427.88
358.895	408.88
359.122	445.88
359.349	447.88
359.576	452.88
359.802	460.88
360.029	509.88
360.256	506.88
360.483	485.88
360.709	445.88
360.936	464.88
361.163	455.88
361.39	452.88
361.616	472.88
361.843	439.88
362.07	456.88
362.296	471.88
362.523	452.88
362.749	437.88
362.976	438.88
363.203	428.88
363.429	448.88
363.656	445.88
363.882	446.88
364.109	431.88
364.335	458.88
364.562	420.88
364.788	435.88
365.015	432.88
365.241	417.88
365.468	437.88
365.694	455.88
365.92	444.88
366.147	431.88
366.373	447.88
366.599	435.88
366.826	418.88
367.052	421.88
367.278	451.88
367.505	436.88
367.731	465.88
367.957	449.88
368.184	441.88
368.41	440.88
368.636	439.88
368.862	465.88
369.089	437.88
369.315	431.88
369.541	446.88
369.767	442.88
369.993	427.88
370.219	450.88
370.445	455.88
370.672	425.88
370.898	447.88
371.124	439.88
371.35	435.88
371.576	423.88
371.802	441.88
372.028	425.88
372.254	412.88
372.48	432.88
372.706	454.88
372.932	455.88
373.158	431.88
373.384	466.88
373.61	435.88
373.835	449.88
374.061	450.88
374.287	460.88
374.513	441.88
374.739	443.88
374.965	460.88
375.191	454.88
375.416	455.88
375.642	458.88
375.868	460.88
376.094	441.88
376.319	455.88
376.545	455.88
376.771	458.88
376.997	452.88
377.222	451.88
377.448	451.88
377.674	431.88
377.899	442.88
378.125	439.88
378.35	449.88
378.576	434.88
378.802	447.88
379.027	452.88
379.253	473.88
379.478	429.88
379.704	423.88
379.929	443.88
380.155	438.88
380.38	448.88
380.606	443.88
380.831	465.88
381.057	460.88
381.282	430.88
381.507	452.88
381.733	442.88
381.958	444.88
382.184	436.88
382.409	446.88
382.634	459.88
382.86	440.88
383.085	451.88
383.31	445.88
383.535	475.88
383.761	473.88
383.986	481.88
384.211	457.88
384.436	487.88
384.662	472.88
384.887	491.88
385.112	465.88
385.337	459.88
385.562	477.88
385.787	491.88
386.013	504.88
386.238	503.88
386.463	491.88
386.688	491.88
386.913	483.88
387.138	480.88
387.363	502.88
387.588	487.88
387.813	490.88
388.038	501.88
388.263	488.88
388.488	510.88
388.713	512.88
388.938	464.88
389.163	494.88
389.387	489.88
389.612	478.88
389.837	495.88
390.062	492.88
390.287	486.88
390.512	491.88
390.736	487.88
390.961	491.88
391.186	486.88
391.411	509.88
391.636	510.88
391.86	503.88
392.085	502.88
392.31	512.88
392.534	509.88
392.759	514.88
392.984	512.88
393.208	518.88
393.433	531.88
393.658	488.88
393.882	499.88
394.107	500.88
394.331	478.88
394.556	511.88
394.78	495.88
395.005	505.88
395.229	521.88
395.454	497.88
395.678	510.88
395.903	513.88
396.127	544.88
396.352	539.88
396.576	520.88
396.801	536.88
397.025	512.88
397.249	519.88
397.474	541.88
397.698	525.88
397.922	560.88
398.147	544.88
398.371	553.88
398.595	572.88
398.82	549.88
399.044	570.88
399.268	586.88
399.492	612.88
399.717	676.88
399.941	696.88
400.165	695.88
400.389	745.88
400.613	669.88
400.837	631.88
401.062	580.88
401.286	571.88
401.51	574.88
401.734	569.88
401.958	564.88
402.182	579.88
402.406	568.88
402.63	600.88
402.854	593.88
403.078	584.88
403.302	580.88
403.526	618.88
403.75	617.88
403.974	607.88
404.198	600.88
404.422	577.88
404.645	621.88
404.869	606.88
405.093	630.88
405.317	694.88
405.541	717.88
405.765	665.88
405.988	643.88
406.212	642.88
406.436	635.88
406.66	666.88
406.883	622.88
407.107	684.88
407.331	700.88
407.555	804.88
407.778	799.88
408.002	732.88
408.226	680.88
408.449	661.88
408.673	676.88
408.896	681.88
409.12	744.88
409.344	702.88
409.567	621.88
409.791	615.88
410.014	597.88
410.238	613.88
410.461	605.88
410.685	597.88
410.908	640.88
411.132	656.88
411.355	679.88
411.578	677.88
411.802	623.88
412.025	587.88
412.249	603.88
412.472	629.88
412.695	683.88
412.919	674.88
413.142	618.88
413.365	599.88
413.589	595.88
413.812	560.88
414.035	561.88
414.258	568.88
414.482	565.88
414.705	567.88
414.928	566.88
415.151	579.88
415.374	575.88
415.597	612.88
415.821	571.88
416.044	579.88
416.267	571.88
416.49	567.88
416.713	558.88
416.936	543.88
417.159	559.88
417.382	555.88
417.605	582.88
417.828	578.88
418.051	580.88
418.274	573.88
418.497	558.88
418.72	568.88
418.943	570.88
419.166	588.88
419.389	600.88
419.611	611.88
419.834	615.88
420.057	590.88
420.28	588.88
420.503	594.88
420.726	623.88
420.948	621.88
421.171	641.88
421.394	687.88
421.617	617.88
421.839	594.88
422.062	604.88
422.285	603.88
422.507	671.88
422.73	761.88
422.953	746.88
423.175	639.88
423.398	610.88
423.621	597.88
423.843	651.88
424.066	651.88
424.288	623.88
424.511	679.88
424.733	721.88
424.956	814.88
425.178	763.88
425.401	755.88
425.623	798.88
425.846	679.88
426.068	625.88
426.291	636.88
426.513	613.88
426.735	663.88
426.958	673.88
427.18	789.88
427.402	906.88
427.625	1022.88
427.847	895.88
428.069	773.88
428.292	673.88
428.514	623.88
428.736	602.88
428.958	592.88
429.181	571.88
429.403	576.88
429.625	617.88
429.847	615.88
430.069	716.88
430.292	688.88
430.514	619.88
430.736	577.88
430.958	593.88
431.18	565.88
431.402	554.88
431.624	548.88
431.846	551.88
432.068	558.88
432.29	580.88
432.512	573.88
432.734	574.88
432.956	580.88
433.178	578.88
433.4	584.88
433.622	564.88
433.844	570.88
434.066	551.88
434.287	545.88
434.509	559.88
434.731	584.88
434.953	591.88
435.175	624.88
435.397	611.88
435.618	637.88
435.84	679.88
436.062	789.88
436.284	865.88
436.505	705.88
436.727	658.88
436.949	612.88
437.17	584.88
437.392	569.88
437.614	597.88
437.835	644.88
438.057	740.88
438.278	858.88
438.5	849.88
438.721	945.88
438.943	931.88
439.165	715.88
439.386	672.88
439.608	637.88
439.829	633.88
440.05	656.88
440.272	725.88
440.493	678.88
440.715	618.88
440.936	604.88
441.158	605.88
441.379	599.88
441.6	587.88
441.822	623.88
442.043	676.88
442.264	767.88
442.486	835.88
442.707	671.88
442.928	663.88
443.149	668.88
443.371	680.88
443.592	721.88
443.813	831.88
444.034	919.88
444.255	757.88
444.476	677.88
444.698	657.88
444.919	648.88
445.14	757.88
445.361	727.88
445.582	693.88
445.803	758.88
446.024	886.88
446.245	876.88
446.466	819.88
446.687	698.88
446.908	638.88
447.129	601.88
447.35	593.88
447.571	589.88
447.792	605.88
448.013	601.88
448.234	608.88
448.455	667.88
448.675	791.88
448.896	908.88
449.117	775.88
449.338	739.88
449.559	880.88
449.779	960.88
450	783.88
450.221	640.88
450.442	585.88
450.662	586.88
450.883	560.88
451.104	592.88
451.324	582.88
451.545	555.88
451.766	545.88
451.986	525.88
452.207	552.88
452.428	503.88
452.648	515.88
452.869	511.88
453.089	520.88
453.31	545.88
453.53	528.88
453.751	507.88
453.971	523.88
454.192	545.88
454.412	528.88
454.633	495.88
454.853	517.88
455.073	515.88
455.294	552.88
455.514	604.88
455.734	592.88
455.955	531.88
456.175	533.88
456.395	502.88
456.616	493.88
456.836	488.88
457.056	488.88
457.276	494.88
457.497	513.88
457.717	500.88
457.937	502.88
458.157	533.88
458.377	492.88
458.598	552.88
458.818	606.88
459.038	680.88
459.258	715.88
459.478	603.88
459.698	581.88
459.918	563.88
460.138	563.88
460.358	572.88
460.578	582.88
460.798	571.88
461.018	611.88
461.238	583.88
461.458	583.88
461.678	584.88
461.898	564.88
462.118	607.88
462.338	586.88
462.558	606.88
462.777	627.88
462.997	608.88
463.217	629.88
463.437	633.88
463.657	627.88
463.876	624.88
464.096	607.88
464.316	626.88
464.536	613.88
464.755	617.88
464.975	637.88
465.195	671.88
465.414	707.88
465.634	651.88
465.854	606.88
466.073	582.88
466.293	574.88
466.512	558.88
466.732	546.88
466.951	536.88
467.171	542.88
467.391	534.88
467.61	555.88
467.829	537.88
468.049	561.88
468.268	544.88
468.488	535.88
468.707	528.88
468.927	540.88
469.146	534.88
469.365	529.88
469.585	517.88
469.804	563.88
470.023	552.88
470.243	556.88
470.462	545.88
470.681	554.88
470.901	547.88
471.12	543.88
471.339	545.88
471.558	544.88
471.777	547.88
471.997	535.88
472.216	554.88
472.435	585.88
472.654	576.88
472.873	561.88
473.092	561.88
473.311	557.88
473.53	551.88
473.749	570.88
473.968	616.88
474.187	746.88
474.406	747.88
474.625	612.88
474.844	571.88
475.063	555.88
475.282	555.88
475.501	547.88
475.72	567.88
475.939	556.88
476.158	559.88
476.377	581.88
476.596	565.88
476.814	564.88
477.033	583.88
477.252	597.88
477.471	586.88
477.69	593.88
477.908	584.88
478.127	603.88
478.346	608.88
478.564	621.88
478.783	618.88
479.002	624.88
479.22	633.88
479.439	656.88
479.658	674.88
479.876	644.88
480.095	651.88
480.313	710.88
480.532	706.88
480.751	667.88
480.969	682.88
481.188	722.88
481.406	804.88
481.624	725.88
481.843	691.88
482.061	681.88
482.28	673.88
482.498	658.88
482.717	631.88
482.935	655.88
483.153	660.88
483.372	651.88
483.59	619.88
483.808	625.88
484.027	663.88
484.245	660.88
484.463	647.88
484.681	672.88
484.9	668.88
485.118	669.88
485.336	675.88
485.554	672.88
485.772	669.88
485.99	674.88
486.209	660.88
486.427	670.88
486.645	679.88
486.863	714.88
487.081	717.88
487.299	700.88
487.517	700.88
487.735	700.88
487.953	684.88
488.171	705.88
488.389	685.88
488.607	697.88
488.825	695.88
489.043	704.88
489.261	705.88
489.479	695.88
489.696	703.88
489.914	733.88
490.132	716.88
490.35	717.88
490.568	725.88
490.786	737.88
491.003	745.88
491.221	748.88
491.439	783.88
491.657	801.88
491.874	796.88
492.092	785.88
492.31	770.88
492.527	800.88
492.745	795.88
492.963	800.88
493.18	810.88
493.398	817.88
493.615	838.88
493.833	801.88
494.05	813.88
494.268	816.88
494.485	803.88
494.703	816.88
494.92	830.88
495.138	829.88
495.355	819.88
495.573	830.88
495.79	836.88
496.008	843.88
496.225	831.88
496.442	841.88
496.66	856.88
496.877	837.88
497.094	829.88
497.312	848.88
497.529	839.88
497.746	852.88
497.963	880.88
498.181	924.88
498.398	912.88
498.615	917.88
498.832	923.88
499.049	964.88
499.267	963.88
499.484	1010.88
499.701	1055.88
499.918	1104.88
500.135	1132.88
500.352	1198.88
500.569	1212.88
500.786	1189.88
501.003	1159.88
501.22	1166.88
501.437	1128.88
501.654	1098.88
