Data from 1966.PennyLincolnUp.Lamp.En5.5.200Scan.071719.P1.Scan2.head_HRD10591_14-19-23-263.txt Node
Date: Thu Jul 18 14:19:23 EDT 2019
User: cochatt
Spectrometer: HR+D1059
Trigger mode: 1
Integration Time (sec): 1.000000E-1
Scans to average: 1
Electric dark correction enabled: true
Nonlinearity correction enabled: false
Boxcar width: 0
XAxis mode: Wavelengths
Number of Pixels in Spectrum: 2048
>>>>>Begin Spectral Data<<<<<
223.165	-6.81
223.4	-6.81
223.635	-6.81
223.869	-24.81
224.104	-18.81
224.338	1.19
224.573	-18.81
224.808	-10.81
225.042	-1.81
225.277	-17.81
225.511	-9.81
225.746	-3.81
225.98	3.19
226.215	4.19
226.449	32.19
226.683	13.19
226.918	33.19
227.152	26.19
227.387	30.19
227.621	36.19
227.856	35.19
228.09	35.19
228.324	50.19
228.559	50.19
228.793	62.19
229.027	104.19
229.262	108.19
229.496	118.19
229.73	138.19
229.964	167.19
230.199	136.19
230.433	126.19
230.667	114.19
230.901	128.19
231.136	103.19
231.37	105.19
231.604	112.19
231.838	103.19
232.072	118.19
232.306	110.19
232.541	128.19
232.775	113.19
233.009	110.19
233.243	111.19
233.477	115.19
233.711	116.19
233.945	121.19
234.179	128.19
234.413	110.19
234.647	114.19
234.881	124.19
235.115	116.19
235.349	114.19
235.583	131.19
235.817	130.19
236.051	143.19
236.285	137.19
236.519	124.19
236.753	102.19
236.987	121.19
237.221	186.19
237.455	245.19
237.689	192.19
237.922	140.19
238.156	144.19
238.39	138.19
238.624	127.19
238.858	131.19
239.091	119.19
239.325	122.19
239.559	123.19
239.793	126.19
240.027	136.19
240.26	152.19
240.494	171.19
240.728	164.19
240.961	163.19
241.195	148.19
241.429	149.19
241.662	139.19
241.896	138.19
242.13	141.19
242.363	126.19
242.597	147.19
242.83	124.19
243.064	140.19
243.298	153.19
243.531	144.19
243.765	136.19
243.998	134.19
244.232	139.19
244.465	145.19
244.699	137.19
244.932	141.19
245.166	158.19
245.399	137.19
245.633	141.19
245.866	136.19
246.099	154.19
246.333	154.19
246.566	149.19
246.8	140.19
247.033	152.19
247.266	139.19
247.5	170.19
247.733	169.19
247.966	173.19
248.2	170.19
248.433	180.19
248.666	172.19
248.899	179.19
249.133	201.19
249.366	203.19
249.599	209.19
249.832	176.19
250.066	174.19
250.299	191.19
250.532	203.19
250.765	196.19
250.998	253.19
251.231	240.19
251.465	224.19
251.698	204.19
251.931	196.19
252.164	209.19
252.397	196.19
252.63	198.19
252.863	204.19
253.096	212.19
253.329	227.19
253.562	246.19
253.795	218.19
254.028	221.19
254.261	228.19
254.494	237.19
254.727	247.19
254.96	292.19
255.193	267.19
255.426	273.19
255.659	242.19
255.892	232.19
256.124	227.19
256.357	244.19
256.59	243.19
256.823	230.19
257.056	215.19
257.289	213.19
257.521	217.19
257.754	210.19
257.987	208.19
258.22	205.19
258.452	217.19
258.685	207.19
258.918	226.19
259.151	222.19
259.383	227.19
259.616	236.19
259.849	224.19
260.081	231.19
260.314	254.19
260.547	253.19
260.779	236.19
261.012	245.19
261.244	232.19
261.477	234.19
261.71	235.19
261.942	225.19
262.175	237.19
262.407	252.19
262.64	224.19
262.872	229.19
263.105	227.19
263.337	206.19
263.57	229.19
263.802	217.19
264.035	235.19
264.267	215.19
264.499	225.19
264.732	213.19
264.964	219.19
265.197	216.19
265.429	236.19
265.661	219.19
265.894	223.19
266.126	230.19
266.358	216.19
266.591	238.19
266.823	215.19
267.055	240.19
267.287	237.19
267.52	236.19
267.752	224.19
267.984	225.19
268.216	221.19
268.448	245.19
268.681	246.19
268.913	255.19
269.145	266.19
269.377	290.19
269.609	298.19
269.841	282.19
270.073	291.19
270.306	288.19
270.538	321.19
270.77	334.19
271.002	305.19
271.234	298.19
271.466	289.19
271.698	318.19
271.93	321.19
272.162	327.19
272.394	336.19
272.626	290.19
272.858	304.19
273.09	307.19
273.322	280.19
273.553	278.19
273.785	276.19
274.017	249.19
274.249	281.19
274.481	274.19
274.713	254.19
274.945	285.19
275.176	261.19
275.408	275.19
275.64	271.19
275.872	258.19
276.104	257.19
276.335	279.19
276.567	282.19
276.799	300.19
277.031	300.19
277.262	339.19
277.494	317.19
277.726	317.19
277.957	294.19
278.189	274.19
278.421	282.19
278.652	277.19
278.884	273.19
279.115	280.19
279.347	282.19
279.579	282.19
279.81	267.19
280.042	289.19
280.273	278.19
280.505	264.19
280.736	275.19
280.968	274.19
281.199	272.19
281.431	277.19
281.662	284.19
281.894	283.19
282.125	282.19
282.356	300.19
282.588	317.19
282.819	306.19
283.051	289.19
283.282	295.19
283.513	285.19
283.745	290.19
283.976	289.19
284.207	304.19
284.439	289.19
284.67	292.19
284.901	276.19
285.132	285.19
285.364	291.19
285.595	286.19
285.826	260.19
286.057	272.19
286.288	288.19
286.52	286.19
286.751	306.19
286.982	295.19
287.213	284.19
287.444	300.19
287.675	295.19
287.906	317.19
288.138	315.19
288.369	315.19
288.6	316.19
288.831	295.19
289.062	302.19
289.293	313.19
289.524	305.19
289.755	299.19
289.986	290.19
290.217	287.19
290.448	314.19
290.679	306.19
290.91	297.19
291.141	296.19
291.371	290.19
291.602	313.19
291.833	305.19
292.064	305.19
292.295	305.19
292.526	322.19
292.757	306.19
292.987	293.19
293.218	294.19
293.449	314.19
293.68	299.19
293.91	300.19
294.141	309.19
294.372	302.19
294.603	305.19
294.833	308.19
295.064	315.19
295.295	307.19
295.525	298.19
295.756	303.19
295.987	310.19
296.217	339.19
296.448	337.19
296.679	320.19
296.909	309.19
297.14	321.19
297.37	315.19
297.601	309.19
297.831	315.19
298.062	317.19
298.292	302.19
298.523	316.19
298.753	312.19
298.984	327.19
299.214	333.19
299.445	328.19
299.675	341.19
299.905	350.19
300.136	340.19
300.366	324.19
300.597	310.19
300.827	325.19
301.057	327.19
301.288	356.19
301.518	338.19
301.748	326.19
301.979	333.19
302.209	325.19
302.439	357.19
302.669	342.19
302.9	355.19
303.13	330.19
303.36	360.19
303.59	350.19
303.82	340.19
304.051	375.19
304.281	336.19
304.511	345.19
304.741	334.19
304.971	327.19
305.201	321.19
305.431	346.19
305.661	364.19
305.891	352.19
306.121	338.19
306.352	338.19
306.582	346.19
306.812	349.19
307.042	336.19
307.272	333.19
307.502	341.19
307.731	342.19
307.961	346.19
308.191	361.19
308.421	353.19
308.651	355.19
308.881	343.19
309.111	353.19
309.341	371.19
309.571	368.19
309.8	373.19
310.03	388.19
310.26	380.19
310.49	396.19
310.72	402.19
310.949	405.19
311.179	394.19
311.409	396.19
311.639	388.19
311.868	401.19
312.098	400.19
312.328	411.19
312.557	406.19
312.787	414.19
313.017	413.19
313.246	412.19
313.476	370.19
313.706	384.19
313.935	382.19
314.165	402.19
314.394	413.19
314.624	418.19
314.853	425.19
315.083	407.19
315.312	383.19
315.542	389.19
315.771	383.19
316.001	371.19
316.23	395.19
316.46	405.19
316.689	358.19
316.919	391.19
317.148	410.19
317.377	424.19
317.607	408.19
317.836	408.19
318.065	399.19
318.295	385.19
318.524	400.19
318.753	393.19
318.983	384.19
319.212	402.19
319.441	410.19
319.67	402.19
319.9	400.19
320.129	414.19
320.358	396.19
320.587	401.19
320.816	404.19
321.046	432.19
321.275	405.19
321.504	420.19
321.733	411.19
321.962	424.19
322.191	424.19
322.42	449.19
322.649	446.19
322.878	459.19
323.108	470.19
323.337	486.19
323.566	494.19
323.795	526.19
324.024	581.19
324.253	700.19
324.482	977.19
324.71	1526.19
324.939	2361.19
325.168	2034.19
325.397	1013.19
325.626	667.19
325.855	570.19
326.084	522.19
326.313	514.19
326.542	513.19
326.77	562.19
326.999	652.19
327.228	910.19
327.457	1436.19
327.686	1746.19
327.914	1105.19
328.143	754.19
328.372	659.19
328.6	592.19
328.829	602.19
329.058	566.19
329.287	600.19
329.515	548.19
329.744	542.19
329.972	543.19
330.201	563.19
330.43	617.19
330.658	634.19
330.887	641.19
331.115	622.19
331.344	550.19
331.572	512.19
331.801	512.19
332.03	519.19
332.258	514.19
332.486	479.19
332.715	478.19
332.943	472.19
333.172	491.19
333.4	480.19
333.629	499.19
333.857	497.19
334.085	518.19
334.314	543.19
334.542	548.19
334.771	583.19
334.999	542.19
335.227	502.19
335.455	483.19
335.684	487.19
335.912	461.19
336.14	465.19
336.369	464.19
336.597	492.19
336.825	470.19
337.053	474.19
337.281	459.19
337.51	462.19
337.738	478.19
337.966	478.19
338.194	470.19
338.422	440.19
338.65	457.19
338.878	454.19
339.106	463.19
339.334	475.19
339.562	446.19
339.79	459.19
340.018	461.19
340.246	437.19
340.474	474.19
340.702	460.19
340.93	460.19
341.158	440.19
341.386	440.19
341.614	452.19
341.842	460.19
342.07	437.19
342.298	456.19
342.526	458.19
342.754	437.19
342.981	420.19
343.209	423.19
343.437	458.19
343.665	457.19
343.893	476.19
344.12	488.19
344.348	462.19
344.576	474.19
344.804	485.19
345.031	500.19
345.259	466.19
345.487	461.19
345.714	445.19
345.942	474.19
346.17	432.19
346.397	461.19
346.625	465.19
346.853	432.19
347.08	459.19
347.308	476.19
347.535	443.19
347.763	457.19
347.99	454.19
348.218	441.19
348.445	465.19
348.673	461.19
348.9	457.19
349.128	434.19
349.355	442.19
349.583	427.19
349.81	424.19
350.037	427.19
350.265	424.19
350.492	423.19
350.72	417.19
350.947	435.19
351.174	447.19
351.402	452.19
351.629	461.19
351.856	460.19
352.083	444.19
352.311	466.19
352.538	457.19
352.765	461.19
352.992	460.19
353.22	444.19
353.447	453.19
353.674	439.19
353.901	420.19
354.128	416.19
354.355	434.19
354.583	421.19
354.81	419.19
355.037	426.19
355.264	410.19
355.491	398.19
355.718	409.19
355.945	428.19
356.172	424.19
356.399	403.19
356.626	428.19
356.853	409.19
357.08	400.19
357.307	421.19
357.534	407.19
357.761	433.19
357.988	411.19
358.215	441.19
358.441	422.19
358.668	415.19
358.895	422.19
359.122	420.19
359.349	446.19
359.576	448.19
359.802	452.19
360.029	489.19
360.256	514.19
360.483	486.19
360.709	458.19
360.936	461.19
361.163	439.19
361.39	459.19
361.616	455.19
361.843	450.19
362.07	458.19
362.296	445.19
362.523	442.19
362.749	434.19
362.976	434.19
363.203	442.19
363.429	441.19
363.656	434.19
363.882	449.19
364.109	442.19
364.335	432.19
364.562	407.19
364.788	428.19
365.015	448.19
365.241	448.19
365.468	438.19
365.694	442.19
365.92	442.19
366.147	437.19
366.373	454.19
366.599	432.19
366.826	416.19
367.052	451.19
367.278	442.19
367.505	421.19
367.731	458.19
367.957	436.19
368.184	439.19
368.41	443.19
368.636	442.19
368.862	466.19
369.089	445.19
369.315	450.19
369.541	432.19
369.767	460.19
369.993	431.19
370.219	446.19
370.445	438.19
370.672	429.19
370.898	430.19
371.124	446.19
371.35	426.19
371.576	444.19
371.802	440.19
372.028	444.19
372.254	421.19
372.48	406.19
372.706	433.19
372.932	427.19
373.158	432.19
373.384	442.19
373.61	443.19
373.835	427.19
374.061	447.19
374.287	459.19
374.513	437.19
374.739	445.19
374.965	473.19
375.191	454.19
375.416	443.19
375.642	467.19
375.868	485.19
376.094	458.19
376.319	446.19
376.545	440.19
376.771	426.19
376.997	428.19
377.222	438.19
377.448	444.19
377.674	437.19
377.899	434.19
378.125	433.19
378.35	453.19
378.576	441.19
378.802	438.19
379.027	423.19
379.253	435.19
379.478	443.19
379.704	454.19
379.929	441.19
380.155	426.19
380.38	438.19
380.606	432.19
380.831	442.19
381.057	441.19
381.282	458.19
381.507	457.19
381.733	433.19
381.958	454.19
382.184	412.19
382.409	444.19
382.634	454.19
382.86	453.19
383.085	454.19
383.31	446.19
383.535	441.19
383.761	470.19
383.986	459.19
384.211	466.19
384.436	461.19
384.662	476.19
384.887	468.19
385.112	466.19
385.337	484.19
385.562	490.19
385.787	494.19
386.013	493.19
386.238	511.19
386.463	490.19
386.688	484.19
386.913	493.19
387.138	466.19
387.363	463.19
387.588	469.19
387.813	501.19
388.038	493.19
388.263	481.19
388.488	485.19
388.713	501.19
388.938	470.19
389.163	489.19
389.387	494.19
389.612	469.19
389.837	468.19
390.062	473.19
390.287	477.19
390.512	496.19
390.736	493.19
390.961	491.19
391.186	495.19
391.411	513.19
391.636	507.19
391.86	520.19
392.085	487.19
392.31	522.19
392.534	483.19
392.759	491.19
392.984	497.19
393.208	486.19
393.433	497.19
393.658	509.19
393.882	481.19
394.107	524.19
394.331	507.19
394.556	492.19
394.78	499.19
395.005	510.19
395.229	507.19
395.454	518.19
395.678	503.19
395.903	527.19
396.127	539.19
396.352	541.19
396.576	523.19
396.801	520.19
397.025	516.19
397.249	550.19
397.474	526.19
397.698	522.19
397.922	557.19
398.147	538.19
398.371	556.19
398.595	569.19
398.82	566.19
399.044	575.19
399.268	586.19
399.492	628.19
399.717	654.19
399.941	676.19
400.165	693.19
400.389	710.19
400.613	634.19
400.837	627.19
401.062	570.19
401.286	570.19
401.51	596.19
401.734	574.19
401.958	582.19
402.182	560.19
402.406	576.19
402.63	603.19
402.854	605.19
403.078	581.19
403.302	596.19
403.526	609.19
403.75	593.19
403.974	600.19
404.198	593.19
404.422	590.19
404.645	616.19
404.869	625.19
405.093	645.19
405.317	700.19
405.541	735.19
405.765	690.19
405.988	640.19
406.212	647.19
406.436	663.19
406.66	669.19
406.883	656.19
407.107	686.19
407.331	709.19
407.555	803.19
407.778	791.19
408.002	734.19
408.226	662.19
408.449	678.19
408.673	659.19
408.896	697.19
409.12	714.19
409.344	723.19
409.567	636.19
409.791	628.19
410.014	588.19
410.238	615.19
410.461	608.19
410.685	597.19
410.908	617.19
411.132	632.19
411.355	672.19
411.578	668.19
411.802	621.19
412.025	606.19
412.249	619.19
412.472	624.19
412.695	665.19
412.919	650.19
413.142	596.19
413.365	602.19
413.589	582.19
413.812	585.19
414.035	557.19
414.258	580.19
414.482	579.19
414.705	569.19
414.928	574.19
415.151	583.19
415.374	565.19
415.597	542.19
415.821	570.19
416.044	583.19
416.267	548.19
416.49	560.19
416.713	542.19
416.936	557.19
417.159	564.19
417.382	572.19
417.605	575.19
417.828	582.19
418.051	590.19
418.274	580.19
418.497	562.19
418.72	553.19
418.943	568.19
419.166	581.19
419.389	617.19
419.611	617.19
419.834	603.19
420.057	618.19
420.28	590.19
420.503	592.19
420.726	592.19
420.948	602.19
421.171	653.19
421.394	679.19
421.617	624.19
421.839	589.19
422.062	600.19
422.285	606.19
422.507	681.19
422.73	773.19
422.953	729.19
423.175	654.19
423.398	629.19
423.621	632.19
423.843	641.19
424.066	639.19
424.288	628.19
424.511	655.19
424.733	709.19
424.956	806.19
425.178	750.19
425.401	773.19
425.623	789.19
425.846	660.19
426.068	628.19
426.291	633.19
426.513	626.19
426.735	628.19
426.958	660.19
427.18	781.19
427.402	934.19
427.625	1035.19
427.847	890.19
428.069	764.19
428.292	706.19
428.514	613.19
428.736	616.19
428.958	614.19
429.181	577.19
429.403	578.19
429.625	597.19
429.847	619.19
430.069	709.19
430.292	708.19
430.514	623.19
430.736	584.19
430.958	589.19
431.18	572.19
431.402	558.19
431.624	542.19
431.846	567.19
432.068	563.19
432.29	571.19
432.512	571.19
432.734	586.19
432.956	572.19
433.178	572.19
433.4	562.19
433.622	564.19
433.844	547.19
434.066	556.19
434.287	555.19
434.509	569.19
434.731	564.19
434.953	580.19
435.175	604.19
435.397	621.19
435.618	612.19
435.84	674.19
436.062	802.19
436.284	889.19
436.505	718.19
436.727	658.19
436.949	613.19
437.17	584.19
437.392	568.19
437.614	609.19
437.835	649.19
438.057	736.19
438.278	870.19
438.5	835.19
438.721	967.19
438.943	871.19
439.165	719.19
439.386	648.19
439.608	651.19
439.829	629.19
440.05	683.19
440.272	767.19
440.493	665.19
440.715	612.19
440.936	614.19
441.158	586.19
441.379	603.19
441.6	610.19
441.822	649.19
442.043	650.19
442.264	778.19
442.486	829.19
442.707	723.19
442.928	663.19
443.149	664.19
443.371	682.19
443.592	737.19
443.813	838.19
444.034	906.19
444.255	748.19
444.476	658.19
444.698	640.19
444.919	647.19
445.14	747.19
445.361	692.19
445.582	680.19
445.803	789.19
446.024	861.19
446.245	874.19
446.466	835.19
446.687	683.19
446.908	662.19
447.129	609.19
447.35	600.19
447.571	592.19
447.792	595.19
448.013	560.19
448.234	600.19
448.455	666.19
448.675	818.19
448.896	947.19
449.117	770.19
449.338	756.19
449.559	854.19
449.779	960.19
450	774.19
450.221	652.19
450.442	589.19
450.662	574.19
450.883	602.19
451.104	595.19
451.324	576.19
451.545	552.19
451.766	548.19
451.986	516.19
452.207	524.19
452.428	516.19
452.648	518.19
452.869	513.19
453.089	539.19
453.31	530.19
453.53	516.19
453.751	528.19
453.971	508.19
454.192	557.19
454.412	538.19
454.633	530.19
454.853	521.19
455.073	509.19
455.294	556.19
455.514	620.19
455.734	611.19
455.955	493.19
456.175	504.19
456.395	498.19
456.616	500.19
456.836	485.19
457.056	490.19
457.276	483.19
457.497	498.19
457.717	530.19
457.937	514.19
458.157	519.19
458.377	528.19
458.598	540.19
458.818	594.19
459.038	690.19
459.258	697.19
459.478	608.19
459.698	582.19
459.918	557.19
460.138	588.19
460.358	572.19
460.578	559.19
460.798	578.19
461.018	600.19
461.238	548.19
461.458	557.19
461.678	573.19
461.898	603.19
462.118	557.19
462.338	580.19
462.558	608.19
462.777	617.19
462.997	616.19
463.217	624.19
463.437	658.19
463.657	642.19
463.876	620.19
464.096	604.19
464.316	610.19
464.536	617.19
464.755	627.19
464.975	628.19
465.195	665.19
465.414	726.19
465.634	652.19
465.854	603.19
466.073	586.19
466.293	562.19
466.512	551.19
466.732	532.19
466.951	548.19
467.171	551.19
467.391	556.19
467.61	552.19
467.829	564.19
468.049	569.19
468.268	557.19
468.488	517.19
468.707	532.19
468.927	536.19
469.146	518.19
469.365	526.19
469.585	538.19
469.804	539.19
470.023	546.19
470.243	537.19
470.462	558.19
470.681	564.19
470.901	579.19
471.12	580.19
471.339	548.19
471.558	548.19
471.777	548.19
471.997	525.19
472.216	559.19
472.435	604.19
472.654	563.19
472.873	541.19
473.092	557.19
473.311	553.19
473.53	554.19
473.749	562.19
473.968	592.19
474.187	711.19
474.406	711.19
474.625	584.19
474.844	592.19
475.063	584.19
475.282	581.19
475.501	562.19
475.72	578.19
475.939	569.19
476.158	581.19
476.377	562.19
476.596	564.19
476.814	578.19
477.033	594.19
477.252	579.19
477.471	576.19
477.69	593.19
477.908	592.19
478.127	585.19
478.346	589.19
478.564	628.19
478.783	640.19
479.002	647.19
479.22	637.19
479.439	644.19
479.658	659.19
479.876	641.19
480.095	678.19
480.313	690.19
480.532	677.19
480.751	673.19
480.969	677.19
481.188	755.19
481.406	829.19
481.624	715.19
481.843	680.19
482.061	687.19
482.28	648.19
482.498	628.19
482.717	653.19
482.935	639.19
483.153	648.19
483.372	627.19
483.59	672.19
483.808	642.19
484.027	653.19
484.245	637.19
484.463	641.19
484.681	670.19
484.9	667.19
485.118	676.19
485.336	669.19
485.554	665.19
485.772	677.19
485.99	655.19
486.209	688.19
486.427	660.19
486.645	694.19
486.863	694.19
487.081	698.19
487.299	698.19
487.517	669.19
487.735	704.19
487.953	688.19
488.171	710.19
488.389	707.19
488.607	694.19
488.825	723.19
489.043	713.19
489.261	704.19
489.479	717.19
489.696	708.19
489.914	730.19
490.132	699.19
490.35	755.19
490.568	763.19
490.786	732.19
491.003	784.19
491.221	764.19
491.439	782.19
491.657	821.19
491.874	806.19
492.092	797.19
492.31	813.19
492.527	797.19
492.745	798.19
492.963	833.19
493.18	811.19
493.398	823.19
493.615	832.19
493.833	824.19
494.05	834.19
494.268	829.19
494.485	813.19
494.703	812.19
494.92	835.19
495.138	845.19
495.355	842.19
495.573	845.19
495.79	852.19
496.008	816.19
496.225	817.19
496.442	837.19
496.66	832.19
496.877	830.19
497.094	835.19
497.312	840.19
497.529	853.19
497.746	846.19
497.963	868.19
498.181	884.19
498.398	910.19
498.615	934.19
498.832	929.19
499.049	966.19
499.267	996.19
499.484	1020.19
499.701	1036.19
499.918	1108.19
500.135	1137.19
500.352	1184.19
500.569	1209.19
500.786	1214.19
501.003	1223.19
501.22	1166.19
501.437	1147.19
501.654	1102.19
