Data from 1966.PennyLincolnUp.Lamp.En5.5.200Scan.071719.P1._HRD10591_14-13-05-913.txt Node
Date: Thu Jul 18 14:13:05 EDT 2019
User: cochatt
Spectrometer: HR+D1059
Trigger mode: 1
Integration Time (sec): 1.000000E-1
Scans to average: 1
Electric dark correction enabled: true
Nonlinearity correction enabled: false
Boxcar width: 0
XAxis mode: Wavelengths
Number of Pixels in Spectrum: 2048
>>>>>Begin Spectral Data<<<<<
223.165	-14.19
223.4	-14.19
223.635	-14.19
223.869	-0.19
224.104	-18.19
224.338	-23.19
224.573	-13.19
224.808	-15.19
225.042	-8.19
225.277	4.81
225.511	-1.19
225.746	-9.19
225.98	-0.19
226.215	7.81
226.449	25.81
226.683	18.81
226.918	23.81
227.152	21.81
227.387	43.81
227.621	25.81
227.856	35.81
228.09	50.81
228.324	37.81
228.559	53.81
228.793	65.81
229.027	71.81
229.262	78.81
229.496	98.81
229.73	104.81
229.964	108.81
230.199	86.81
230.433	90.81
230.667	93.81
230.901	90.81
231.136	85.81
231.37	101.81
231.604	86.81
231.838	77.81
232.072	93.81
232.306	97.81
232.541	90.81
232.775	84.81
233.009	95.81
233.243	96.81
233.477	96.81
233.711	82.81
233.945	109.81
234.179	96.81
234.413	103.81
234.647	81.81
234.881	98.81
235.115	79.81
235.349	87.81
235.583	106.81
235.817	84.81
236.051	97.81
236.285	105.81
236.519	105.81
236.753	106.81
236.987	108.81
237.221	125.81
237.455	143.81
237.689	132.81
237.922	104.81
238.156	88.81
238.39	103.81
238.624	99.81
238.858	97.81
239.091	96.81
239.325	80.81
239.559	106.81
239.793	106.81
240.027	110.81
240.26	107.81
240.494	122.81
240.728	105.81
240.961	113.81
241.195	120.81
241.429	115.81
241.662	109.81
241.896	89.81
242.13	97.81
242.363	95.81
242.597	84.81
242.83	105.81
243.064	110.81
243.298	104.81
243.531	87.81
243.765	107.81
243.998	101.81
244.232	111.81
244.465	94.81
244.699	97.81
244.932	102.81
245.166	101.81
245.399	93.81
245.633	101.81
245.866	103.81
246.099	113.81
246.333	105.81
246.566	104.81
246.8	109.81
247.033	101.81
247.266	94.81
247.5	100.81
247.733	113.81
247.966	113.81
248.2	122.81
248.433	120.81
248.666	113.81
248.899	117.81
249.133	120.81
249.366	145.81
249.599	130.81
249.832	117.81
250.066	117.81
250.299	119.81
250.532	118.81
250.765	123.81
250.998	138.81
251.231	139.81
251.465	119.81
251.698	131.81
251.931	119.81
252.164	114.81
252.397	122.81
252.63	133.81
252.863	130.81
253.096	130.81
253.329	142.81
253.562	133.81
253.795	133.81
254.028	118.81
254.261	128.81
254.494	134.81
254.727	154.81
254.96	169.81
255.193	136.81
255.426	133.81
255.659	131.81
255.892	138.81
256.124	131.81
256.357	135.81
256.59	133.81
256.823	123.81
257.056	121.81
257.289	126.81
257.521	125.81
257.754	126.81
257.987	121.81
258.22	134.81
258.452	113.81
258.685	116.81
258.918	131.81
259.151	147.81
259.383	147.81
259.616	135.81
259.849	147.81
260.081	143.81
260.314	151.81
260.547	143.81
260.779	127.81
261.012	147.81
261.244	121.81
261.477	138.81
261.71	137.81
261.942	142.81
262.175	143.81
262.407	140.81
262.64	131.81
262.872	131.81
263.105	136.81
263.337	144.81
263.57	137.81
263.802	147.81
264.035	128.81
264.267	115.81
264.499	124.81
264.732	154.81
264.964	139.81
265.197	136.81
265.429	132.81
265.661	142.81
265.894	125.81
266.126	123.81
266.358	124.81
266.591	140.81
266.823	144.81
267.055	135.81
267.287	135.81
267.52	140.81
267.752	131.81
267.984	134.81
268.216	140.81
268.448	139.81
268.681	156.81
268.913	155.81
269.145	145.81
269.377	177.81
269.609	156.81
269.841	148.81
270.073	143.81
270.306	173.81
270.538	169.81
270.77	171.81
271.002	181.81
271.234	167.81
271.466	177.81
271.698	165.81
271.93	197.81
272.162	180.81
272.394	192.81
272.626	166.81
272.858	151.81
273.09	155.81
273.322	157.81
273.553	147.81
273.785	138.81
274.017	147.81
274.249	146.81
274.481	147.81
274.713	138.81
274.945	139.81
275.176	167.81
275.408	159.81
275.64	156.81
275.872	166.81
276.104	147.81
276.335	166.81
276.567	145.81
276.799	171.81
277.031	177.81
277.262	182.81
277.494	175.81
277.726	165.81
277.957	152.81
278.189	175.81
278.421	162.81
278.652	147.81
278.884	170.81
279.115	157.81
279.347	167.81
279.579	150.81
279.81	141.81
280.042	150.81
280.273	150.81
280.505	148.81
280.736	164.81
280.968	153.81
281.199	155.81
281.431	158.81
281.662	153.81
281.894	161.81
282.125	156.81
282.356	163.81
282.588	186.81
282.819	172.81
283.051	155.81
283.282	143.81
283.513	167.81
283.745	156.81
283.976	149.81
284.207	159.81
284.439	141.81
284.67	156.81
284.901	158.81
285.132	156.81
285.364	154.81
285.595	169.81
285.826	152.81
286.057	169.81
286.288	157.81
286.52	165.81
286.751	157.81
286.982	156.81
287.213	178.81
287.444	163.81
287.675	165.81
287.906	162.81
288.138	146.81
288.369	179.81
288.6	159.81
288.831	146.81
289.062	164.81
289.293	170.81
289.524	166.81
289.755	155.81
289.986	154.81
290.217	153.81
290.448	174.81
290.679	163.81
290.91	156.81
291.141	153.81
291.371	182.81
291.602	141.81
291.833	162.81
292.064	158.81
292.295	162.81
292.526	174.81
292.757	172.81
292.987	163.81
293.218	145.81
293.449	147.81
293.68	165.81
293.91	160.81
294.141	151.81
294.372	162.81
294.603	164.81
294.833	173.81
295.064	159.81
295.295	163.81
295.525	161.81
295.756	156.81
295.987	180.81
296.217	168.81
296.448	179.81
296.679	165.81
296.909	156.81
297.14	159.81
297.37	168.81
297.601	147.81
297.831	169.81
298.062	170.81
298.292	173.81
298.523	163.81
298.753	161.81
298.984	177.81
299.214	178.81
299.445	168.81
299.675	161.81
299.905	161.81
300.136	158.81
300.366	159.81
300.597	167.81
300.827	177.81
301.057	181.81
301.288	176.81
301.518	170.81
301.748	187.81
301.979	168.81
302.209	180.81
302.439	187.81
302.669	183.81
302.9	158.81
303.13	181.81
303.36	186.81
303.59	167.81
303.82	196.81
304.051	183.81
304.281	177.81
304.511	187.81
304.741	166.81
304.971	181.81
305.201	160.81
305.431	184.81
305.661	175.81
305.891	167.81
306.121	177.81
306.352	193.81
306.582	181.81
306.812	170.81
307.042	181.81
307.272	181.81
307.502	176.81
307.731	170.81
307.961	173.81
308.191	193.81
308.421	160.81
308.651	178.81
308.881	173.81
309.111	167.81
309.341	178.81
309.571	185.81
309.8	191.81
310.03	189.81
310.26	188.81
310.49	186.81
310.72	204.81
310.949	205.81
311.179	193.81
311.409	199.81
311.639	196.81
311.868	190.81
312.098	204.81
312.328	198.81
312.557	191.81
312.787	203.81
313.017	198.81
313.246	195.81
313.476	198.81
313.706	196.81
313.935	205.81
314.165	202.81
314.394	196.81
314.624	227.81
314.853	205.81
315.083	210.81
315.312	179.81
315.542	203.81
315.771	198.81
316.001	206.81
316.23	187.81
316.46	178.81
316.689	184.81
316.919	201.81
317.148	204.81
317.377	186.81
317.607	204.81
317.836	202.81
318.065	197.81
318.295	187.81
318.524	189.81
318.753	184.81
318.983	195.81
319.212	203.81
319.441	203.81
319.67	210.81
319.9	200.81
320.129	200.81
320.358	196.81
320.587	194.81
320.816	192.81
321.046	194.81
321.275	199.81
321.504	197.81
321.733	218.81
321.962	203.81
322.191	207.81
322.42	215.81
322.649	225.81
322.878	211.81
323.108	218.81
323.337	245.81
323.566	232.81
323.795	268.81
324.024	271.81
324.253	358.81
324.482	475.81
324.71	716.81
324.939	942.81
325.168	749.81
325.397	401.81
325.626	289.81
325.855	238.81
326.084	227.81
326.313	223.81
326.542	228.81
326.77	267.81
326.999	330.81
327.228	419.81
327.457	638.81
327.686	693.81
327.914	462.81
328.143	316.81
328.372	293.81
328.6	279.81
328.829	272.81
329.058	278.81
329.287	286.81
329.515	267.81
329.744	236.81
329.972	243.81
330.201	265.81
330.43	291.81
330.658	307.81
330.887	325.81
331.115	309.81
331.344	261.81
331.572	259.81
331.801	247.81
332.03	247.81
332.258	234.81
332.486	220.81
332.715	238.81
332.943	223.81
333.172	240.81
333.4	216.81
333.629	240.81
333.857	235.81
334.085	253.81
334.314	244.81
334.542	287.81
334.771	267.81
334.999	256.81
335.227	235.81
335.455	238.81
335.684	239.81
335.912	226.81
336.14	199.81
336.369	228.81
336.597	233.81
336.825	217.81
337.053	227.81
337.281	244.81
337.51	195.81
337.738	220.81
337.966	217.81
338.194	231.81
338.422	215.81
338.65	222.81
338.878	225.81
339.106	204.81
339.334	223.81
339.562	219.81
339.79	206.81
340.018	190.81
340.246	222.81
340.474	203.81
340.702	215.81
340.93	208.81
341.158	211.81
341.386	222.81
341.614	220.81
341.842	202.81
342.07	220.81
342.298	211.81
342.526	211.81
342.754	204.81
342.981	203.81
343.209	208.81
343.437	217.81
343.665	214.81
343.893	199.81
344.12	251.81
344.348	208.81
344.576	222.81
344.804	228.81
345.031	209.81
345.259	225.81
345.487	221.81
345.714	209.81
345.942	209.81
346.17	216.81
346.397	207.81
346.625	217.81
346.853	208.81
347.08	207.81
347.308	204.81
347.535	216.81
347.763	204.81
347.99	223.81
348.218	217.81
348.445	202.81
348.673	213.81
348.9	218.81
349.128	206.81
349.355	204.81
349.583	201.81
349.81	193.81
350.037	196.81
350.265	200.81
350.492	196.81
350.72	200.81
350.947	218.81
351.174	217.81
351.402	189.81
351.629	212.81
351.856	218.81
352.083	243.81
352.311	226.81
352.538	218.81
352.765	234.81
352.992	221.81
353.22	214.81
353.447	198.81
353.674	211.81
353.901	188.81
354.128	190.81
354.355	188.81
354.583	198.81
354.81	205.81
355.037	179.81
355.264	200.81
355.491	198.81
355.718	193.81
355.945	208.81
356.172	206.81
356.399	187.81
356.626	196.81
356.853	187.81
357.08	201.81
357.307	184.81
357.534	205.81
357.761	197.81
357.988	186.81
358.215	183.81
358.441	189.81
358.668	191.81
358.895	197.81
359.122	203.81
359.349	188.81
359.576	203.81
359.802	214.81
360.029	225.81
360.256	244.81
360.483	229.81
360.709	207.81
360.936	193.81
361.163	207.81
361.39	203.81
361.616	216.81
361.843	210.81
362.07	208.81
362.296	209.81
362.523	209.81
362.749	215.81
362.976	204.81
363.203	198.81
363.429	186.81
363.656	206.81
363.882	193.81
364.109	206.81
364.335	196.81
364.562	203.81
364.788	207.81
365.015	197.81
365.241	204.81
365.468	189.81
365.694	207.81
365.92	204.81
366.147	205.81
366.373	202.81
366.599	189.81
366.826	182.81
367.052	187.81
367.278	191.81
367.505	190.81
367.731	191.81
367.957	197.81
368.184	191.81
368.41	208.81
368.636	197.81
368.862	188.81
369.089	203.81
369.315	181.81
369.541	196.81
369.767	205.81
369.993	184.81
370.219	184.81
370.445	196.81
370.672	179.81
370.898	183.81
371.124	188.81
371.35	194.81
371.576	174.81
371.802	197.81
372.028	192.81
372.254	201.81
372.48	195.81
372.706	185.81
372.932	196.81
373.158	206.81
373.384	205.81
373.61	187.81
373.835	204.81
374.061	197.81
374.287	218.81
374.513	184.81
374.739	203.81
374.965	216.81
375.191	202.81
375.416	209.81
375.642	219.81
375.868	209.81
376.094	193.81
376.319	190.81
376.545	187.81
376.771	214.81
376.997	189.81
377.222	191.81
377.448	164.81
377.674	179.81
377.899	204.81
378.125	199.81
378.35	179.81
378.576	194.81
378.802	191.81
379.027	198.81
379.253	184.81
379.478	193.81
379.704	195.81
379.929	198.81
380.155	186.81
380.38	201.81
380.606	202.81
380.831	186.81
381.057	195.81
381.282	196.81
381.507	189.81
381.733	201.81
381.958	197.81
382.184	202.81
382.409	199.81
382.634	199.81
382.86	205.81
383.085	214.81
383.31	200.81
383.535	189.81
383.761	203.81
383.986	211.81
384.211	217.81
384.436	227.81
384.662	206.81
384.887	208.81
385.112	221.81
385.337	201.81
385.562	205.81
385.787	218.81
386.013	212.81
386.238	235.81
386.463	203.81
386.688	199.81
386.913	208.81
387.138	193.81
387.363	219.81
387.588	212.81
387.813	201.81
388.038	172.81
388.263	197.81
388.488	203.81
388.713	210.81
388.938	201.81
389.163	210.81
389.387	203.81
389.612	206.81
389.837	194.81
390.062	211.81
390.287	210.81
390.512	218.81
390.736	190.81
390.961	210.81
391.186	198.81
391.411	213.81
391.636	228.81
391.86	205.81
392.085	205.81
392.31	214.81
392.534	227.81
392.759	207.81
392.984	194.81
393.208	226.81
393.433	225.81
393.658	218.81
393.882	206.81
394.107	217.81
394.331	216.81
394.556	227.81
394.78	206.81
395.005	210.81
395.229	204.81
395.454	228.81
395.678	212.81
395.903	211.81
396.127	230.81
396.352	234.81
396.576	233.81
396.801	224.81
397.025	226.81
397.249	229.81
397.474	214.81
397.698	202.81
397.922	226.81
398.147	255.81
398.371	222.81
398.595	231.81
398.82	236.81
399.044	254.81
399.268	263.81
399.492	252.81
399.717	276.81
399.941	276.81
400.165	287.81
400.389	275.81
400.613	273.81
400.837	248.81
401.062	236.81
401.286	253.81
401.51	239.81
401.734	225.81
401.958	239.81
402.182	230.81
402.406	246.81
402.63	249.81
402.854	243.81
403.078	236.81
403.302	248.81
403.526	244.81
403.75	247.81
403.974	244.81
404.198	222.81
404.422	254.81
404.645	268.81
404.869	252.81
405.093	251.81
405.317	276.81
405.541	283.81
405.765	264.81
405.988	269.81
406.212	247.81
406.436	273.81
406.66	302.81
406.883	277.81
407.107	289.81
407.331	287.81
407.555	299.81
407.778	319.81
408.002	279.81
408.226	278.81
408.449	257.81
408.673	280.81
408.896	285.81
409.12	284.81
409.344	281.81
409.567	255.81
409.791	265.81
410.014	244.81
410.238	238.81
410.461	253.81
410.685	246.81
410.908	261.81
411.132	256.81
411.355	271.81
411.578	268.81
411.802	265.81
412.025	241.81
412.249	247.81
412.472	250.81
412.695	293.81
412.919	269.81
413.142	258.81
413.365	261.81
413.589	227.81
413.812	214.81
414.035	227.81
414.258	243.81
414.482	237.81
414.705	213.81
414.928	231.81
415.151	229.81
415.374	234.81
415.597	218.81
415.821	227.81
416.044	235.81
416.267	238.81
416.49	241.81
416.713	249.81
416.936	236.81
417.159	232.81
417.382	227.81
417.605	243.81
417.828	242.81
418.051	244.81
418.274	240.81
418.497	238.81
418.72	233.81
418.943	225.81
419.166	222.81
419.389	251.81
419.611	257.81
419.834	232.81
420.057	245.81
420.28	267.81
420.503	248.81
420.726	247.81
420.948	263.81
421.171	266.81
421.394	280.81
421.617	263.81
421.839	243.81
422.062	260.81
422.285	268.81
422.507	277.81
422.73	313.81
422.953	265.81
423.175	272.81
423.398	244.81
423.621	247.81
423.843	277.81
424.066	258.81
424.288	271.81
424.511	286.81
424.733	282.81
424.956	321.81
425.178	297.81
425.401	295.81
425.623	321.81
425.846	269.81
426.068	245.81
426.291	244.81
426.513	269.81
426.735	247.81
426.958	295.81
427.18	299.81
427.402	359.81
427.625	408.81
427.847	331.81
428.069	317.81
428.292	284.81
428.514	266.81
428.736	248.81
428.958	244.81
429.181	243.81
429.403	253.81
429.625	257.81
429.847	271.81
430.069	294.81
430.292	282.81
430.514	246.81
430.736	239.81
430.958	242.81
431.18	236.81
431.402	247.81
431.624	231.81
431.846	211.81
432.068	226.81
432.29	219.81
432.512	241.81
432.734	241.81
432.956	230.81
433.178	241.81
433.4	231.81
433.622	249.81
433.844	243.81
434.066	224.81
434.287	219.81
434.509	220.81
434.731	243.81
434.953	241.81
435.175	232.81
435.397	258.81
435.618	257.81
435.84	292.81
436.062	311.81
436.284	330.81
436.505	278.81
436.727	265.81
436.949	243.81
437.17	240.81
437.392	259.81
437.614	242.81
437.835	258.81
438.057	302.81
438.278	348.81
438.5	342.81
438.721	361.81
438.943	341.81
439.165	286.81
439.386	274.81
439.608	277.81
439.829	264.81
440.05	269.81
440.272	300.81
440.493	288.81
440.715	258.81
440.936	249.81
441.158	238.81
441.379	245.81
441.6	247.81
441.822	267.81
442.043	275.81
442.264	323.81
442.486	332.81
442.707	280.81
442.928	257.81
443.149	266.81
443.371	291.81
443.592	292.81
443.813	341.81
444.034	354.81
444.255	275.81
444.476	273.81
444.698	260.81
444.919	260.81
445.14	321.81
445.361	306.81
445.582	281.81
445.803	319.81
446.024	344.81
446.245	345.81
446.466	312.81
446.687	295.81
446.908	262.81
447.129	253.81
447.35	245.81
447.571	241.81
447.792	245.81
448.013	233.81
448.234	241.81
448.455	270.81
448.675	311.81
448.896	365.81
449.117	309.81
449.338	295.81
449.559	341.81
449.779	339.81
450	286.81
450.221	237.81
450.442	245.81
450.662	236.81
450.883	245.81
451.104	246.81
451.324	240.81
451.545	233.81
451.766	226.81
451.986	201.81
452.207	219.81
452.428	227.81
452.648	219.81
452.869	238.81
453.089	226.81
453.31	239.81
453.53	230.81
453.751	220.81
453.971	197.81
454.192	244.81
454.412	245.81
454.633	214.81
454.853	219.81
455.073	223.81
455.294	236.81
455.514	265.81
455.734	266.81
455.955	227.81
456.175	206.81
456.395	202.81
456.616	195.81
456.836	205.81
457.056	187.81
457.276	191.81
457.497	207.81
457.717	212.81
457.937	212.81
458.157	204.81
458.377	224.81
458.598	234.81
458.818	268.81
459.038	319.81
459.258	287.81
459.478	259.81
459.698	249.81
459.918	240.81
460.138	242.81
460.358	238.81
460.578	242.81
460.798	243.81
461.018	244.81
461.238	234.81
461.458	245.81
461.678	252.81
461.898	246.81
462.118	236.81
462.338	226.81
462.558	254.81
462.777	247.81
462.997	241.81
463.217	253.81
463.437	259.81
463.657	234.81
463.876	247.81
464.096	235.81
464.316	259.81
464.536	249.81
464.755	241.81
464.975	266.81
465.195	285.81
465.414	326.81
465.634	273.81
465.854	249.81
466.073	252.81
466.293	232.81
466.512	221.81
466.732	206.81
466.951	237.81
467.171	227.81
467.391	232.81
467.61	235.81
467.829	241.81
468.049	233.81
468.268	252.81
468.488	238.81
468.707	200.81
468.927	228.81
469.146	227.81
469.365	227.81
469.585	207.81
469.804	229.81
470.023	232.81
470.243	227.81
470.462	231.81
470.681	258.81
470.901	226.81
471.12	212.81
471.339	244.81
471.558	236.81
471.777	245.81
471.997	236.81
472.216	231.81
472.435	254.81
472.654	259.81
472.873	238.81
473.092	227.81
473.311	239.81
473.53	217.81
473.749	237.81
473.968	254.81
474.187	310.81
474.406	313.81
474.625	222.81
474.844	233.81
475.063	244.81
475.282	231.81
475.501	234.81
475.72	237.81
475.939	238.81
476.158	222.81
476.377	232.81
476.596	265.81
476.814	242.81
477.033	249.81
477.252	254.81
477.471	233.81
477.69	226.81
477.908	245.81
478.127	269.81
478.346	244.81
478.564	246.81
478.783	270.81
479.002	265.81
479.22	269.81
479.439	276.81
479.658	286.81
479.876	278.81
480.095	271.81
480.313	291.81
480.532	293.81
480.751	288.81
480.969	293.81
481.188	344.81
481.406	350.81
481.624	290.81
481.843	280.81
482.061	248.81
482.28	265.81
482.498	271.81
482.717	251.81
482.935	256.81
483.153	257.81
483.372	262.81
483.59	263.81
483.808	267.81
484.027	255.81
484.245	265.81
484.463	264.81
484.681	265.81
484.9	253.81
485.118	265.81
485.336	278.81
485.554	281.81
485.772	268.81
485.99	278.81
486.209	263.81
486.427	285.81
486.645	292.81
486.863	285.81
487.081	274.81
487.299	299.81
487.517	261.81
487.735	270.81
487.953	278.81
488.171	280.81
488.389	278.81
488.607	266.81
488.825	284.81
489.043	266.81
489.261	285.81
489.479	299.81
489.696	286.81
489.914	279.81
490.132	286.81
490.35	297.81
490.568	281.81
490.786	310.81
491.003	278.81
491.221	324.81
491.439	330.81
491.657	319.81
491.874	331.81
492.092	326.81
492.31	326.81
492.527	324.81
492.745	334.81
492.963	337.81
493.18	331.81
493.398	337.81
493.615	333.81
493.833	336.81
494.05	337.81
494.268	322.81
494.485	342.81
494.703	333.81
494.92	361.81
495.138	330.81
495.355	340.81
495.573	327.81
495.79	321.81
496.008	330.81
496.225	329.81
496.442	311.81
496.66	346.81
496.877	315.81
497.094	321.81
497.312	328.81
497.529	324.81
497.746	332.81
497.963	342.81
498.181	340.81
498.398	351.81
498.615	346.81
498.832	367.81
499.049	366.81
499.267	384.81
499.484	377.81
499.701	379.81
499.918	382.81
500.135	423.81
500.352	425.81
500.569	434.81
500.786	410.81
501.003	417.81
501.22	413.81
501.437	425.81
501.654	394.81
501.871	385.81
502.088	377.81
502.305	371.81
502.522	366.81
