Data from 1966.PennyLincolnUp.Lamp.En5.5.200Scan.071719.P1._HRD10591_14-15-11-930.txt Node
Date: Thu Jul 18 14:15:11 EDT 2019
User: cochatt
Spectrometer: HR+D1059
Trigger mode: 1
Integration Time (sec): 1.000000E-1
Scans to average: 1
Electric dark correction enabled: true
Nonlinearity correction enabled: false
Boxcar width: 0
XAxis mode: Wavelengths
Number of Pixels in Spectrum: 2048
>>>>>Begin Spectral Data<<<<<
223.165	-16.44
223.4	-16.44
223.635	-16.44
223.869	-25.44
224.104	-10.44
224.338	-9.44
224.573	-5.44
224.808	-27.44
225.042	-6.44
225.277	-7.44
225.511	-4.44
225.746	6.56
225.98	4.56
226.215	6.56
226.449	15.56
226.683	13.56
226.918	23.56
227.152	42.56
227.387	31.56
227.621	39.56
227.856	39.56
228.09	55.56
228.324	40.56
228.559	55.56
228.793	53.56
229.027	61.56
229.262	77.56
229.496	77.56
229.73	107.56
229.964	132.56
230.199	100.56
230.433	98.56
230.667	102.56
230.901	99.56
231.136	86.56
231.37	86.56
231.604	94.56
231.838	91.56
232.072	104.56
232.306	86.56
232.541	94.56
232.775	90.56
233.009	92.56
233.243	107.56
233.477	80.56
233.711	105.56
233.945	98.56
234.179	95.56
234.413	101.56
234.647	101.56
234.881	90.56
235.115	91.56
235.349	97.56
235.583	72.56
235.817	114.56
236.051	108.56
236.285	105.56
236.519	104.56
236.753	89.56
236.987	116.56
237.221	128.56
237.455	149.56
237.689	132.56
237.922	96.56
238.156	101.56
238.39	92.56
238.624	98.56
238.858	84.56
239.091	99.56
239.325	97.56
239.559	89.56
239.793	107.56
240.027	105.56
240.26	108.56
240.494	117.56
240.728	107.56
240.961	122.56
241.195	115.56
241.429	98.56
241.662	92.56
241.896	102.56
242.13	98.56
242.363	107.56
242.597	105.56
242.83	104.56
243.064	109.56
243.298	118.56
243.531	101.56
243.765	103.56
243.998	99.56
244.232	102.56
244.465	95.56
244.699	98.56
244.932	103.56
245.166	94.56
245.399	112.56
245.633	107.56
245.866	101.56
246.099	105.56
246.333	103.56
246.566	101.56
246.8	108.56
247.033	105.56
247.266	123.56
247.5	114.56
247.733	122.56
247.966	119.56
248.2	116.56
248.433	122.56
248.666	118.56
248.899	139.56
249.133	148.56
249.366	130.56
249.599	134.56
249.832	126.56
250.066	115.56
250.299	130.56
250.532	117.56
250.765	133.56
250.998	150.56
251.231	150.56
251.465	140.56
251.698	108.56
251.931	137.56
252.164	135.56
252.397	130.56
252.63	140.56
252.863	131.56
253.096	129.56
253.329	143.56
253.562	138.56
253.795	149.56
254.028	146.56
254.261	138.56
254.494	147.56
254.727	172.56
254.96	171.56
255.193	165.56
255.426	152.56
255.659	140.56
255.892	138.56
256.124	139.56
256.357	137.56
256.59	148.56
256.823	126.56
257.056	134.56
257.289	134.56
257.521	142.56
257.754	126.56
257.987	138.56
258.22	135.56
258.452	134.56
258.685	140.56
258.918	136.56
259.151	122.56
259.383	138.56
259.616	135.56
259.849	144.56
260.081	164.56
260.314	155.56
260.547	178.56
260.779	150.56
261.012	149.56
261.244	139.56
261.477	150.56
261.71	130.56
261.942	152.56
262.175	152.56
262.407	171.56
262.64	141.56
262.872	125.56
263.105	126.56
263.337	132.56
263.57	122.56
263.802	119.56
264.035	134.56
264.267	138.56
264.499	140.56
264.732	127.56
264.964	136.56
265.197	138.56
265.429	140.56
265.661	131.56
265.894	132.56
266.126	142.56
266.358	129.56
266.591	162.56
266.823	151.56
267.055	142.56
267.287	146.56
267.52	142.56
267.752	132.56
267.984	150.56
268.216	138.56
268.448	152.56
268.681	145.56
268.913	170.56
269.145	152.56
269.377	170.56
269.609	170.56
269.841	162.56
270.073	166.56
270.306	162.56
270.538	181.56
270.77	171.56
271.002	179.56
271.234	195.56
271.466	183.56
271.698	181.56
271.93	173.56
272.162	187.56
272.394	174.56
272.626	193.56
272.858	190.56
273.09	175.56
273.322	142.56
273.553	162.56
273.785	163.56
274.017	148.56
274.249	158.56
274.481	153.56
274.713	146.56
274.945	169.56
275.176	172.56
275.408	165.56
275.64	155.56
275.872	158.56
276.104	171.56
276.335	160.56
276.567	172.56
276.799	174.56
277.031	185.56
277.262	193.56
277.494	173.56
277.726	185.56
277.957	178.56
278.189	163.56
278.421	164.56
278.652	160.56
278.884	172.56
279.115	168.56
279.347	145.56
279.579	168.56
279.81	170.56
280.042	150.56
280.273	162.56
280.505	171.56
280.736	167.56
280.968	142.56
281.199	146.56
281.431	171.56
281.662	181.56
281.894	163.56
282.125	167.56
282.356	185.56
282.588	176.56
282.819	183.56
283.051	159.56
283.282	170.56
283.513	163.56
283.745	167.56
283.976	159.56
284.207	167.56
284.439	180.56
284.67	158.56
284.901	163.56
285.132	163.56
285.364	158.56
285.595	164.56
285.826	157.56
286.057	170.56
286.288	168.56
286.52	160.56
286.751	171.56
286.982	174.56
287.213	156.56
287.444	163.56
287.675	182.56
287.906	177.56
288.138	171.56
288.369	178.56
288.6	178.56
288.831	168.56
289.062	179.56
289.293	196.56
289.524	170.56
289.755	162.56
289.986	174.56
290.217	173.56
290.448	163.56
290.679	168.56
290.91	158.56
291.141	178.56
291.371	174.56
291.602	172.56
291.833	170.56
292.064	156.56
292.295	183.56
292.526	172.56
292.757	164.56
292.987	170.56
293.218	159.56
293.449	176.56
293.68	168.56
293.91	173.56
294.141	164.56
294.372	176.56
294.603	167.56
294.833	176.56
295.064	174.56
295.295	185.56
295.525	170.56
295.756	170.56
295.987	189.56
296.217	193.56
296.448	201.56
296.679	168.56
296.909	182.56
297.14	171.56
297.37	186.56
297.601	176.56
297.831	178.56
298.062	181.56
298.292	169.56
298.523	175.56
298.753	188.56
298.984	181.56
299.214	198.56
299.445	173.56
299.675	190.56
299.905	188.56
300.136	179.56
300.366	197.56
300.597	192.56
300.827	177.56
301.057	190.56
301.288	183.56
301.518	190.56
301.748	187.56
301.979	184.56
302.209	182.56
302.439	208.56
302.669	205.56
302.9	178.56
303.13	197.56
303.36	191.56
303.59	189.56
303.82	194.56
304.051	194.56
304.281	174.56
304.511	183.56
304.741	184.56
304.971	192.56
305.201	196.56
305.431	187.56
305.661	207.56
305.891	190.56
306.121	200.56
306.352	196.56
306.582	203.56
306.812	188.56
307.042	199.56
307.272	197.56
307.502	187.56
307.731	182.56
307.961	180.56
308.191	190.56
308.421	184.56
308.651	185.56
308.881	197.56
309.111	178.56
309.341	186.56
309.571	188.56
309.8	208.56
310.03	207.56
310.26	223.56
310.49	231.56
310.72	219.56
310.949	227.56
311.179	247.56
311.409	235.56
311.639	204.56
311.868	219.56
312.098	226.56
312.328	237.56
312.557	231.56
312.787	242.56
313.017	242.56
313.246	210.56
313.476	197.56
313.706	212.56
313.935	209.56
314.165	207.56
314.394	244.56
314.624	226.56
314.853	219.56
315.083	199.56
315.312	202.56
315.542	200.56
315.771	214.56
316.001	210.56
316.23	205.56
316.46	206.56
316.689	193.56
316.919	207.56
317.148	216.56
317.377	213.56
317.607	222.56
317.836	213.56
318.065	218.56
318.295	214.56
318.524	193.56
318.753	221.56
318.983	210.56
319.212	199.56
319.441	226.56
319.67	224.56
319.9	210.56
320.129	217.56
320.358	211.56
320.587	215.56
320.816	220.56
321.046	208.56
321.275	215.56
321.504	227.56
321.733	208.56
321.962	227.56
322.191	226.56
322.42	243.56
322.649	254.56
322.878	261.56
323.108	248.56
323.337	255.56
323.566	254.56
323.795	295.56
324.024	319.56
324.253	361.56
324.482	565.56
324.71	804.56
324.939	1118.56
325.168	914.56
325.397	470.56
325.626	306.56
325.855	270.56
326.084	269.56
326.313	270.56
326.542	257.56
326.77	304.56
326.999	364.56
327.228	491.56
327.457	732.56
327.686	822.56
327.914	529.56
328.143	379.56
328.372	336.56
328.6	310.56
328.829	298.56
329.058	320.56
329.287	327.56
329.515	314.56
329.744	276.56
329.972	283.56
330.201	320.56
330.43	314.56
330.658	345.56
330.887	347.56
331.115	329.56
331.344	271.56
331.572	272.56
331.801	266.56
332.03	264.56
332.258	253.56
332.486	251.56
332.715	254.56
332.943	261.56
333.172	269.56
333.4	229.56
333.629	254.56
333.857	281.56
334.085	279.56
334.314	284.56
334.542	322.56
334.771	324.56
334.999	292.56
335.227	273.56
335.455	247.56
335.684	247.56
335.912	232.56
336.14	251.56
336.369	267.56
336.597	243.56
336.825	245.56
337.053	244.56
337.281	231.56
337.51	238.56
337.738	234.56
337.966	226.56
338.194	237.56
338.422	255.56
338.65	226.56
338.878	232.56
339.106	225.56
339.334	217.56
339.562	238.56
339.79	226.56
340.018	248.56
340.246	235.56
340.474	227.56
340.702	233.56
340.93	254.56
341.158	244.56
341.386	226.56
341.614	221.56
341.842	220.56
342.07	222.56
342.298	232.56
342.526	228.56
342.754	224.56
342.981	212.56
343.209	218.56
343.437	235.56
343.665	237.56
343.893	233.56
344.12	231.56
344.348	246.56
344.576	240.56
344.804	242.56
345.031	226.56
345.259	251.56
345.487	253.56
345.714	244.56
345.942	217.56
346.17	246.56
346.397	238.56
346.625	199.56
346.853	210.56
347.08	216.56
347.308	230.56
347.535	223.56
347.763	238.56
347.99	228.56
348.218	236.56
348.445	228.56
348.673	238.56
348.9	213.56
349.128	221.56
349.355	219.56
349.583	221.56
349.81	199.56
350.037	215.56
350.265	233.56
350.492	227.56
350.72	223.56
350.947	212.56
351.174	243.56
351.402	222.56
351.629	244.56
351.856	221.56
352.083	219.56
352.311	242.56
352.538	232.56
352.765	221.56
352.992	222.56
353.22	232.56
353.447	228.56
353.674	215.56
353.901	209.56
354.128	211.56
354.355	216.56
354.583	206.56
354.81	204.56
355.037	217.56
355.264	202.56
355.491	205.56
355.718	194.56
355.945	182.56
356.172	199.56
356.399	203.56
356.626	203.56
356.853	203.56
357.08	204.56
357.307	218.56
357.534	215.56
357.761	214.56
357.988	214.56
358.215	204.56
358.441	211.56
358.668	198.56
358.895	208.56
359.122	204.56
359.349	226.56
359.576	231.56
359.802	229.56
360.029	284.56
360.256	257.56
360.483	231.56
360.709	214.56
360.936	233.56
361.163	232.56
361.39	213.56
361.616	222.56
361.843	231.56
362.07	245.56
362.296	211.56
362.523	230.56
362.749	227.56
362.976	222.56
363.203	225.56
363.429	205.56
363.656	223.56
363.882	222.56
364.109	207.56
364.335	206.56
364.562	231.56
364.788	210.56
365.015	209.56
365.241	205.56
365.468	216.56
365.694	210.56
365.92	213.56
366.147	218.56
366.373	198.56
366.599	215.56
366.826	221.56
367.052	209.56
367.278	228.56
367.505	220.56
367.731	220.56
367.957	206.56
368.184	212.56
368.41	211.56
368.636	231.56
368.862	221.56
369.089	202.56
369.315	208.56
369.541	207.56
369.767	214.56
369.993	225.56
370.219	213.56
370.445	203.56
370.672	220.56
370.898	209.56
371.124	223.56
371.35	212.56
371.576	205.56
371.802	206.56
372.028	196.56
372.254	188.56
372.48	194.56
372.706	203.56
372.932	212.56
373.158	206.56
373.384	223.56
373.61	214.56
373.835	206.56
374.061	207.56
374.287	221.56
374.513	200.56
374.739	208.56
374.965	207.56
375.191	217.56
375.416	207.56
375.642	211.56
375.868	214.56
376.094	199.56
376.319	218.56
376.545	216.56
376.771	209.56
376.997	208.56
377.222	217.56
377.448	202.56
377.674	212.56
377.899	202.56
378.125	197.56
378.35	207.56
378.576	192.56
378.802	198.56
379.027	211.56
379.253	203.56
379.478	222.56
379.704	226.56
379.929	219.56
380.155	215.56
380.38	191.56
380.606	197.56
380.831	203.56
381.057	222.56
381.282	211.56
381.507	212.56
381.733	208.56
381.958	214.56
382.184	218.56
382.409	225.56
382.634	205.56
382.86	197.56
383.085	203.56
383.31	208.56
383.535	231.56
383.761	204.56
383.986	219.56
384.211	224.56
384.436	207.56
384.662	201.56
384.887	216.56
385.112	205.56
385.337	220.56
385.562	212.56
385.787	213.56
386.013	219.56
386.238	219.56
386.463	225.56
386.688	232.56
386.913	208.56
387.138	209.56
387.363	206.56
387.588	236.56
387.813	227.56
388.038	216.56
388.263	207.56
388.488	206.56
388.713	218.56
388.938	210.56
389.163	216.56
389.387	231.56
389.612	234.56
389.837	212.56
390.062	220.56
390.287	232.56
390.512	233.56
390.736	217.56
390.961	223.56
391.186	232.56
391.411	229.56
391.636	215.56
391.86	225.56
392.085	212.56
392.31	230.56
392.534	240.56
392.759	228.56
392.984	230.56
393.208	217.56
393.433	223.56
393.658	225.56
393.882	214.56
394.107	223.56
394.331	227.56
394.556	223.56
394.78	237.56
395.005	230.56
395.229	222.56
395.454	235.56
395.678	224.56
395.903	235.56
396.127	224.56
396.352	256.56
396.576	211.56
396.801	202.56
397.025	223.56
397.249	222.56
397.474	252.56
397.698	238.56
397.922	243.56
398.147	244.56
398.371	247.56
398.595	234.56
398.82	237.56
399.044	262.56
399.268	262.56
399.492	257.56
399.717	293.56
399.941	284.56
400.165	299.56
400.389	302.56
400.613	279.56
400.837	266.56
401.062	244.56
401.286	243.56
401.51	240.56
401.734	242.56
401.958	246.56
402.182	269.56
402.406	278.56
402.63	260.56
402.854	272.56
403.078	266.56
403.302	264.56
403.526	262.56
403.75	256.56
403.974	251.56
404.198	267.56
404.422	270.56
404.645	261.56
404.869	269.56
405.093	275.56
405.317	318.56
405.541	303.56
405.765	278.56
405.988	271.56
406.212	271.56
406.436	294.56
406.66	303.56
406.883	285.56
407.107	278.56
407.331	318.56
407.555	326.56
407.778	313.56
408.002	324.56
408.226	289.56
408.449	286.56
408.673	270.56
408.896	280.56
409.12	293.56
409.344	283.56
409.567	279.56
409.791	266.56
410.014	290.56
410.238	258.56
410.461	276.56
410.685	264.56
410.908	282.56
411.132	295.56
411.355	296.56
411.578	292.56
411.802	239.56
412.025	250.56
412.249	252.56
412.472	288.56
412.695	300.56
412.919	283.56
413.142	283.56
413.365	263.56
413.589	267.56
413.812	249.56
414.035	234.56
414.258	247.56
414.482	254.56
414.705	244.56
414.928	245.56
415.151	236.56
415.374	242.56
415.597	231.56
415.821	248.56
416.044	232.56
416.267	263.56
416.49	242.56
416.713	235.56
416.936	233.56
417.159	258.56
417.382	263.56
417.605	246.56
417.828	265.56
418.051	265.56
418.274	252.56
418.497	238.56
418.72	236.56
418.943	247.56
419.166	242.56
419.389	270.56
419.611	264.56
419.834	266.56
420.057	268.56
420.28	274.56
420.503	249.56
420.726	290.56
420.948	267.56
421.171	276.56
421.394	283.56
421.617	267.56
421.839	246.56
422.062	248.56
422.285	285.56
422.507	287.56
422.73	313.56
422.953	306.56
423.175	245.56
423.398	268.56
423.621	262.56
423.843	277.56
424.066	273.56
424.288	303.56
424.511	282.56
424.733	318.56
424.956	330.56
425.178	321.56
425.401	319.56
425.623	314.56
425.846	288.56
426.068	263.56
426.291	270.56
426.513	285.56
426.735	289.56
426.958	308.56
427.18	329.56
427.402	382.56
427.625	446.56
427.847	388.56
428.069	318.56
428.292	302.56
428.514	273.56
428.736	268.56
428.958	257.56
429.181	255.56
429.403	239.56
429.625	268.56
429.847	259.56
430.069	310.56
430.292	301.56
430.514	278.56
430.736	260.56
430.958	252.56
431.18	262.56
431.402	230.56
431.624	237.56
431.846	243.56
432.068	226.56
432.29	264.56
432.512	244.56
432.734	238.56
432.956	262.56
433.178	246.56
433.4	237.56
433.622	254.56
433.844	240.56
434.066	259.56
434.287	239.56
434.509	242.56
434.731	258.56
434.953	250.56
435.175	259.56
435.397	280.56
435.618	284.56
435.84	284.56
436.062	337.56
436.284	355.56
436.505	297.56
436.727	286.56
436.949	262.56
437.17	264.56
437.392	255.56
437.614	262.56
437.835	288.56
438.057	362.56
438.278	370.56
438.5	348.56
438.721	378.56
438.943	364.56
439.165	293.56
439.386	287.56
439.608	284.56
439.829	296.56
440.05	318.56
440.272	314.56
440.493	299.56
440.715	282.56
440.936	300.56
441.158	259.56
441.379	262.56
441.6	271.56
441.822	282.56
442.043	318.56
442.264	340.56
442.486	332.56
442.707	285.56
442.928	286.56
443.149	296.56
443.371	299.56
443.592	325.56
443.813	361.56
444.034	366.56
444.255	317.56
444.476	284.56
444.698	261.56
444.919	286.56
445.14	386.56
445.361	343.56
445.582	308.56
445.803	339.56
446.024	366.56
446.245	383.56
446.466	323.56
446.687	282.56
446.908	280.56
447.129	283.56
447.35	262.56
447.571	248.56
447.792	257.56
448.013	258.56
448.234	271.56
448.455	258.56
448.675	317.56
448.896	372.56
449.117	313.56
449.338	304.56
449.559	358.56
449.779	407.56
450	301.56
450.221	282.56
450.442	258.56
450.662	246.56
450.883	246.56
451.104	266.56
451.324	275.56
451.545	263.56
451.766	244.56
451.986	239.56
452.207	233.56
452.428	232.56
452.648	242.56
452.869	243.56
453.089	243.56
453.31	238.56
453.53	251.56
453.751	254.56
453.971	264.56
454.192	253.56
454.412	267.56
454.633	242.56
454.853	224.56
455.073	230.56
455.294	245.56
455.514	288.56
455.734	248.56
455.955	232.56
456.175	222.56
456.395	209.56
456.616	218.56
456.836	230.56
457.056	223.56
457.276	217.56
457.497	209.56
457.717	219.56
457.937	244.56
458.157	225.56
458.377	246.56
458.598	244.56
458.818	275.56
459.038	336.56
459.258	336.56
459.478	262.56
459.698	258.56
459.918	231.56
460.138	239.56
460.358	248.56
460.578	252.56
460.798	250.56
461.018	242.56
461.238	247.56
461.458	237.56
461.678	260.56
461.898	251.56
462.118	234.56
462.338	240.56
462.558	253.56
462.777	258.56
462.997	276.56
463.217	263.56
463.437	256.56
463.657	264.56
463.876	272.56
464.096	262.56
464.316	260.56
464.536	290.56
464.755	287.56
464.975	267.56
465.195	307.56
465.414	362.56
465.634	298.56
465.854	262.56
466.073	243.56
466.293	236.56
466.512	246.56
466.732	242.56
466.951	224.56
467.171	237.56
467.391	244.56
467.61	254.56
467.829	254.56
468.049	270.56
468.268	260.56
468.488	231.56
468.707	235.56
468.927	250.56
469.146	220.56
469.365	215.56
469.585	222.56
469.804	256.56
470.023	257.56
470.243	244.56
470.462	249.56
470.681	276.56
470.901	261.56
471.12	256.56
471.339	235.56
471.558	247.56
471.777	226.56
471.997	232.56
472.216	260.56
472.435	296.56
472.654	267.56
472.873	261.56
473.092	253.56
473.311	231.56
473.53	234.56
473.749	236.56
473.968	256.56
474.187	307.56
474.406	319.56
474.625	279.56
474.844	260.56
475.063	243.56
475.282	242.56
475.501	252.56
475.72	242.56
475.939	246.56
476.158	236.56
476.377	255.56
476.596	235.56
476.814	244.56
477.033	249.56
477.252	276.56
477.471	262.56
477.69	250.56
477.908	260.56
478.127	258.56
478.346	247.56
478.564	273.56
478.783	276.56
479.002	263.56
479.22	260.56
479.439	275.56
479.658	296.56
479.876	290.56
480.095	286.56
480.313	282.56
480.532	285.56
480.751	299.56
480.969	323.56
481.188	361.56
481.406	393.56
481.624	323.56
481.843	302.56
482.061	285.56
482.28	284.56
482.498	284.56
482.717	268.56
482.935	268.56
483.153	291.56
483.372	262.56
483.59	281.56
483.808	264.56
484.027	299.56
484.245	276.56
484.463	277.56
484.681	294.56
484.9	296.56
485.118	292.56
485.336	284.56
485.554	258.56
485.772	283.56
485.99	281.56
486.209	285.56
486.427	299.56
486.645	299.56
486.863	318.56
487.081	316.56
487.299	298.56
487.517	294.56
487.735	290.56
487.953	288.56
488.171	315.56
488.389	307.56
488.607	312.56
488.825	286.56
489.043	307.56
489.261	322.56
489.479	322.56
489.696	302.56
489.914	311.56
490.132	292.56
490.35	311.56
490.568	312.56
490.786	288.56
491.003	333.56
491.221	335.56
491.439	331.56
491.657	354.56
491.874	350.56
492.092	373.56
492.31	378.56
492.527	348.56
492.745	363.56
492.963	337.56
493.18	365.56
493.398	344.56
493.615	374.56
493.833	354.56
494.05	342.56
494.268	356.56
494.485	353.56
494.703	354.56
494.92	380.56
495.138	341.56
495.355	351.56
495.573	341.56
495.79	346.56
496.008	378.56
496.225	359.56
496.442	360.56
496.66	359.56
496.877	343.56
497.094	348.56
497.312	344.56
497.529	338.56
497.746	354.56
497.963	331.56
498.181	366.56
498.398	379.56
498.615	374.56
498.832	373.56
499.049	383.56
499.267	385.56
499.484	402.56
499.701	401.56
499.918	418.56
500.135	433.56
500.352	460.56
500.569	451.56
500.786	456.56
501.003	474.56
501.22	459.56
501.437	443.56
501.654	412.56
501.871	419.56
502.088	406.56
502.305	399.56
502.522	380.56
