Data from 1966.PennyLincolnUp.Lamp.En5.5.200Scan.071719.P1.Scan2.head_HRD10591_14-19-25-266.txt Node
Date: Thu Jul 18 14:19:25 EDT 2019
User: cochatt
Spectrometer: HR+D1059
Trigger mode: 1
Integration Time (sec): 1.000000E-1
Scans to average: 1
Electric dark correction enabled: true
Nonlinearity correction enabled: false
Boxcar width: 0
XAxis mode: Wavelengths
Number of Pixels in Spectrum: 2048
>>>>>Begin Spectral Data<<<<<
223.165	-30.44
223.4	-30.44
223.635	-30.44
223.869	-15.44
224.104	-20.44
224.338	-14.44
224.573	-25.44
224.808	-14.44
225.042	-5.44
225.277	-14.44
225.511	-12.44
225.746	9.56
225.98	-1.44
226.215	21.56
226.449	13.56
226.683	23.56
226.918	40.56
227.152	45.56
227.387	36.56
227.621	26.56
227.856	51.56
228.09	43.56
228.324	50.56
228.559	44.56
228.793	62.56
229.027	100.56
229.262	101.56
229.496	116.56
229.73	137.56
229.964	161.56
230.199	120.56
230.433	118.56
230.667	116.56
230.901	116.56
231.136	120.56
231.37	110.56
231.604	118.56
231.838	121.56
232.072	124.56
232.306	111.56
232.541	105.56
232.775	131.56
233.009	133.56
233.243	105.56
233.477	116.56
233.711	109.56
233.945	129.56
234.179	117.56
234.413	126.56
234.647	121.56
234.881	109.56
235.115	129.56
235.349	125.56
235.583	131.56
235.817	116.56
236.051	110.56
236.285	117.56
236.519	133.56
236.753	148.56
236.987	143.56
237.221	190.56
237.455	242.56
237.689	187.56
237.922	129.56
238.156	128.56
238.39	134.56
238.624	135.56
238.858	126.56
239.091	127.56
239.325	122.56
239.559	131.56
239.793	133.56
240.027	142.56
240.26	147.56
240.494	175.56
240.728	127.56
240.961	153.56
241.195	139.56
241.429	149.56
241.662	134.56
241.896	152.56
242.13	144.56
242.363	133.56
242.597	136.56
242.83	141.56
243.064	138.56
243.298	149.56
243.531	136.56
243.765	146.56
243.998	145.56
244.232	131.56
244.465	145.56
244.699	156.56
244.932	144.56
245.166	139.56
245.399	150.56
245.633	125.56
245.866	163.56
246.099	152.56
246.333	150.56
246.566	144.56
246.8	153.56
247.033	171.56
247.266	153.56
247.5	150.56
247.733	174.56
247.966	196.56
248.2	177.56
248.433	173.56
248.666	181.56
248.899	195.56
249.133	211.56
249.366	209.56
249.599	206.56
249.832	191.56
250.066	172.56
250.299	186.56
250.532	209.56
250.765	203.56
250.998	212.56
251.231	230.56
251.465	211.56
251.698	206.56
251.931	209.56
252.164	211.56
252.397	212.56
252.63	211.56
252.863	189.56
253.096	227.56
253.329	230.56
253.562	230.56
253.795	211.56
254.028	217.56
254.261	214.56
254.494	220.56
254.727	249.56
254.96	277.56
255.193	289.56
255.426	268.56
255.659	252.56
255.892	237.56
256.124	241.56
256.357	257.56
256.59	228.56
256.823	224.56
257.056	209.56
257.289	218.56
257.521	213.56
257.754	202.56
257.987	217.56
258.22	211.56
258.452	206.56
258.685	224.56
258.918	221.56
259.151	218.56
259.383	221.56
259.616	242.56
259.849	221.56
260.081	227.56
260.314	251.56
260.547	261.56
260.779	267.56
261.012	249.56
261.244	233.56
261.477	245.56
261.71	212.56
261.942	233.56
262.175	245.56
262.407	233.56
262.64	208.56
262.872	204.56
263.105	204.56
263.337	220.56
263.57	217.56
263.802	217.56
264.035	207.56
264.267	206.56
264.499	203.56
264.732	223.56
264.964	238.56
265.197	227.56
265.429	239.56
265.661	215.56
265.894	217.56
266.126	221.56
266.358	228.56
266.591	182.56
266.823	221.56
267.055	216.56
267.287	241.56
267.52	228.56
267.752	228.56
267.984	231.56
268.216	235.56
268.448	243.56
268.681	237.56
268.913	231.56
269.145	255.56
269.377	276.56
269.609	290.56
269.841	298.56
270.073	267.56
270.306	301.56
270.538	318.56
270.77	315.56
271.002	300.56
271.234	298.56
271.466	302.56
271.698	312.56
271.93	333.56
272.162	302.56
272.394	346.56
272.626	305.56
272.858	296.56
273.09	283.56
273.322	294.56
273.553	264.56
273.785	280.56
274.017	278.56
274.249	270.56
274.481	259.56
274.713	280.56
274.945	293.56
275.176	289.56
275.408	262.56
275.64	271.56
275.872	283.56
276.104	267.56
276.335	264.56
276.567	286.56
276.799	302.56
277.031	313.56
277.262	308.56
277.494	328.56
277.726	317.56
277.957	302.56
278.189	284.56
278.421	276.56
278.652	268.56
278.884	275.56
279.115	277.56
279.347	272.56
279.579	274.56
279.81	280.56
280.042	272.56
280.273	282.56
280.505	286.56
280.736	266.56
280.968	280.56
281.199	275.56
281.431	277.56
281.662	261.56
281.894	272.56
282.125	283.56
282.356	302.56
282.588	329.56
282.819	315.56
283.051	286.56
283.282	291.56
283.513	286.56
283.745	275.56
283.976	280.56
284.207	292.56
284.439	302.56
284.67	299.56
284.901	289.56
285.132	292.56
285.364	287.56
285.595	275.56
285.826	271.56
286.057	266.56
286.288	286.56
286.52	274.56
286.751	286.56
286.982	287.56
287.213	305.56
287.444	301.56
287.675	307.56
287.906	299.56
288.138	326.56
288.369	318.56
288.6	327.56
288.831	313.56
289.062	294.56
289.293	290.56
289.524	299.56
289.755	306.56
289.986	282.56
290.217	299.56
290.448	314.56
290.679	318.56
290.91	292.56
291.141	300.56
291.371	301.56
291.602	308.56
291.833	313.56
292.064	279.56
292.295	307.56
292.526	309.56
292.757	296.56
292.987	307.56
293.218	309.56
293.449	321.56
293.68	308.56
293.91	296.56
294.141	289.56
294.372	299.56
294.603	296.56
294.833	292.56
295.064	301.56
295.295	319.56
295.525	313.56
295.756	295.56
295.987	323.56
296.217	319.56
296.448	326.56
296.679	307.56
296.909	311.56
297.14	326.56
297.37	304.56
297.601	319.56
297.831	319.56
298.062	291.56
298.292	315.56
298.523	320.56
298.753	335.56
298.984	313.56
299.214	318.56
299.445	330.56
299.675	323.56
299.905	342.56
300.136	332.56
300.366	330.56
300.597	333.56
300.827	313.56
301.057	331.56
301.288	362.56
301.518	345.56
301.748	339.56
301.979	341.56
302.209	339.56
302.439	323.56
302.669	334.56
302.9	338.56
303.13	342.56
303.36	347.56
303.59	337.56
303.82	369.56
304.051	362.56
304.281	327.56
304.511	323.56
304.741	328.56
304.971	335.56
305.201	349.56
305.431	344.56
305.661	347.56
305.891	342.56
306.121	324.56
306.352	350.56
306.582	349.56
306.812	336.56
307.042	335.56
307.272	342.56
307.502	354.56
307.731	349.56
307.961	340.56
308.191	347.56
308.421	329.56
308.651	359.56
308.881	353.56
309.111	357.56
309.341	366.56
309.571	365.56
309.8	365.56
310.03	380.56
310.26	382.56
310.49	398.56
310.72	391.56
310.949	402.56
311.179	403.56
311.409	384.56
311.639	385.56
311.868	373.56
312.098	364.56
312.328	410.56
312.557	425.56
312.787	407.56
313.017	422.56
313.246	415.56
313.476	379.56
313.706	403.56
313.935	400.56
314.165	401.56
314.394	451.56
314.624	396.56
314.853	405.56
315.083	409.56
315.312	397.56
315.542	391.56
315.771	384.56
316.001	373.56
316.23	381.56
316.46	375.56
316.689	389.56
316.919	385.56
317.148	405.56
317.377	419.56
317.607	389.56
317.836	402.56
318.065	401.56
318.295	394.56
318.524	408.56
318.753	393.56
318.983	395.56
319.212	403.56
319.441	400.56
319.67	398.56
319.9	390.56
320.129	388.56
320.358	390.56
320.587	397.56
320.816	407.56
321.046	427.56
321.275	402.56
321.504	408.56
321.733	408.56
321.962	428.56
322.191	441.56
322.42	449.56
322.649	472.56
322.878	468.56
323.108	462.56
323.337	479.56
323.566	503.56
323.795	545.56
324.024	604.56
324.253	689.56
324.482	979.56
324.71	1543.56
324.939	2323.56
325.168	1998.56
325.397	997.56
325.626	673.56
325.855	546.56
326.084	528.56
326.313	519.56
326.542	503.56
326.77	573.56
326.999	630.56
327.228	893.56
327.457	1393.56
327.686	1732.56
327.914	1117.56
328.143	709.56
328.372	622.56
328.6	618.56
328.829	574.56
329.058	598.56
329.287	611.56
329.515	572.56
329.744	546.56
329.972	542.56
330.201	553.56
330.43	591.56
330.658	615.56
330.887	635.56
331.115	631.56
331.344	553.56
331.572	509.56
331.801	538.56
332.03	511.56
332.258	500.56
332.486	476.56
332.715	454.56
332.943	513.56
333.172	495.56
333.4	477.56
333.629	505.56
333.857	514.56
334.085	532.56
334.314	538.56
334.542	567.56
334.771	588.56
334.999	532.56
335.227	516.56
335.455	505.56
335.684	485.56
335.912	477.56
336.14	478.56
336.369	445.56
336.597	490.56
336.825	498.56
337.053	475.56
337.281	457.56
337.51	456.56
337.738	462.56
337.966	465.56
338.194	478.56
338.422	466.56
338.65	470.56
338.878	466.56
339.106	443.56
339.334	472.56
339.562	459.56
339.79	453.56
340.018	455.56
340.246	428.56
340.474	452.56
340.702	461.56
340.93	438.56
341.158	440.56
341.386	478.56
341.614	453.56
341.842	456.56
342.07	451.56
342.298	425.56
342.526	455.56
342.754	435.56
342.981	427.56
343.209	443.56
343.437	440.56
343.665	434.56
343.893	455.56
344.12	483.56
344.348	453.56
344.576	490.56
344.804	486.56
345.031	462.56
345.259	484.56
345.487	487.56
345.714	456.56
345.942	485.56
346.17	457.56
346.397	437.56
346.625	448.56
346.853	447.56
347.08	440.56
347.308	451.56
347.535	442.56
347.763	476.56
347.99	439.56
348.218	447.56
348.445	465.56
348.673	449.56
348.9	437.56
349.128	437.56
349.355	441.56
349.583	422.56
349.81	425.56
350.037	433.56
350.265	453.56
350.492	444.56
350.72	456.56
350.947	430.56
351.174	441.56
351.402	467.56
351.629	454.56
351.856	453.56
352.083	430.56
352.311	461.56
352.538	468.56
352.765	471.56
352.992	460.56
353.22	443.56
353.447	431.56
353.674	452.56
353.901	435.56
354.128	423.56
354.355	426.56
354.583	419.56
354.81	437.56
355.037	395.56
355.264	415.56
355.491	415.56
355.718	405.56
355.945	413.56
356.172	410.56
356.399	401.56
356.626	417.56
356.853	389.56
357.08	425.56
357.307	431.56
357.534	419.56
357.761	421.56
357.988	419.56
358.215	433.56
358.441	408.56
358.668	431.56
358.895	446.56
359.122	421.56
359.349	453.56
359.576	447.56
359.802	473.56
360.029	504.56
360.256	489.56
360.483	490.56
360.709	471.56
360.936	454.56
361.163	439.56
361.39	446.56
361.616	449.56
361.843	452.56
362.07	453.56
362.296	454.56
362.523	449.56
362.749	454.56
362.976	435.56
363.203	426.56
363.429	430.56
363.656	462.56
363.882	429.56
364.109	441.56
364.335	415.56
364.562	419.56
364.788	453.56
365.015	431.56
365.241	435.56
365.468	437.56
365.694	431.56
365.92	429.56
366.147	438.56
366.373	444.56
366.599	433.56
366.826	416.56
367.052	425.56
367.278	422.56
367.505	445.56
367.731	436.56
367.957	425.56
368.184	423.56
368.41	448.56
368.636	426.56
368.862	456.56
369.089	438.56
369.315	435.56
369.541	413.56
369.767	448.56
369.993	433.56
370.219	435.56
370.445	433.56
370.672	441.56
370.898	436.56
371.124	419.56
371.35	433.56
371.576	427.56
371.802	418.56
372.028	445.56
372.254	446.56
372.48	426.56
372.706	446.56
372.932	452.56
373.158	463.56
373.384	454.56
373.61	437.56
373.835	443.56
374.061	430.56
374.287	438.56
374.513	460.56
374.739	445.56
374.965	442.56
375.191	453.56
375.416	443.56
375.642	445.56
375.868	444.56
376.094	456.56
376.319	428.56
376.545	445.56
376.771	442.56
376.997	425.56
377.222	437.56
377.448	441.56
377.674	430.56
377.899	435.56
378.125	424.56
378.35	422.56
378.576	421.56
378.802	427.56
379.027	453.56
379.253	420.56
379.478	431.56
379.704	450.56
379.929	449.56
380.155	444.56
380.38	433.56
380.606	442.56
380.831	438.56
381.057	420.56
381.282	443.56
381.507	439.56
381.733	452.56
381.958	436.56
382.184	459.56
382.409	452.56
382.634	459.56
382.86	449.56
383.085	443.56
383.31	445.56
383.535	450.56
383.761	433.56
383.986	457.56
384.211	452.56
384.436	458.56
384.662	472.56
384.887	472.56
385.112	469.56
385.337	479.56
385.562	480.56
385.787	502.56
386.013	501.56
386.238	485.56
386.463	483.56
386.688	491.56
386.913	481.56
387.138	498.56
387.363	502.56
387.588	483.56
387.813	499.56
388.038	499.56
388.263	501.56
388.488	490.56
388.713	478.56
388.938	504.56
389.163	491.56
389.387	468.56
389.612	481.56
389.837	493.56
390.062	513.56
390.287	474.56
390.512	487.56
390.736	507.56
390.961	514.56
391.186	494.56
391.411	490.56
391.636	503.56
391.86	515.56
392.085	511.56
392.31	502.56
392.534	483.56
392.759	516.56
392.984	512.56
393.208	490.56
393.433	504.56
393.658	513.56
393.882	488.56
394.107	501.56
394.331	500.56
394.556	511.56
394.78	512.56
395.005	505.56
395.229	498.56
395.454	494.56
395.678	494.56
395.903	528.56
396.127	531.56
396.352	557.56
396.576	549.56
396.801	523.56
397.025	532.56
397.249	513.56
397.474	518.56
397.698	522.56
397.922	525.56
398.147	548.56
398.371	568.56
398.595	550.56
398.82	548.56
399.044	582.56
399.268	594.56
399.492	634.56
399.717	633.56
399.941	687.56
400.165	703.56
400.389	689.56
400.613	659.56
400.837	634.56
401.062	611.56
401.286	596.56
401.51	570.56
401.734	573.56
401.958	570.56
402.182	573.56
402.406	582.56
402.63	593.56
402.854	591.56
403.078	597.56
403.302	599.56
403.526	619.56
403.75	592.56
403.974	609.56
404.198	583.56
404.422	596.56
404.645	601.56
404.869	610.56
405.093	648.56
405.317	710.56
405.541	739.56
405.765	651.56
405.988	640.56
406.212	639.56
406.436	639.56
406.66	677.56
406.883	640.56
407.107	677.56
407.331	712.56
407.555	777.56
407.778	807.56
408.002	718.56
408.226	639.56
408.449	667.56
408.673	646.56
408.896	666.56
409.12	706.56
409.344	700.56
409.567	633.56
409.791	627.56
410.014	591.56
410.238	601.56
410.461	597.56
410.685	617.56
410.908	631.56
411.132	657.56
411.355	703.56
411.578	654.56
411.802	610.56
412.025	583.56
412.249	598.56
412.472	638.56
412.695	677.56
412.919	669.56
413.142	609.56
413.365	599.56
413.589	591.56
413.812	581.56
414.035	570.56
414.258	573.56
414.482	579.56
414.705	585.56
414.928	589.56
415.151	571.56
415.374	553.56
415.597	579.56
415.821	569.56
416.044	565.56
416.267	573.56
416.49	552.56
416.713	543.56
416.936	579.56
417.159	585.56
417.382	582.56
417.605	561.56
417.828	584.56
418.051	585.56
418.274	609.56
418.497	575.56
418.72	567.56
418.943	567.56
419.166	588.56
419.389	610.56
419.611	626.56
419.834	607.56
420.057	589.56
420.28	582.56
420.503	588.56
420.726	594.56
420.948	608.56
421.171	655.56
421.394	697.56
421.617	599.56
421.839	592.56
422.062	581.56
422.285	622.56
422.507	669.56
422.73	745.56
422.953	733.56
423.175	647.56
423.398	628.56
423.621	629.56
423.843	650.56
424.066	638.56
424.288	632.56
424.511	661.56
424.733	710.56
424.956	807.56
425.178	767.56
425.401	758.56
425.623	786.56
425.846	691.56
426.068	643.56
426.291	635.56
426.513	609.56
426.735	643.56
426.958	701.56
427.18	742.56
427.402	925.56
427.625	1003.56
427.847	886.56
428.069	765.56
428.292	689.56
428.514	622.56
428.736	598.56
428.958	611.56
429.181	588.56
429.403	556.56
429.625	588.56
429.847	645.56
430.069	726.56
430.292	707.56
430.514	608.56
430.736	607.56
430.958	566.56
431.18	548.56
431.402	565.56
431.624	533.56
431.846	556.56
432.068	565.56
432.29	568.56
432.512	562.56
432.734	549.56
432.956	547.56
433.178	577.56
433.4	582.56
433.622	559.56
433.844	556.56
434.066	545.56
434.287	571.56
434.509	586.56
434.731	565.56
434.953	578.56
435.175	598.56
435.397	620.56
435.618	613.56
435.84	695.56
436.062	791.56
436.284	870.56
436.505	709.56
436.727	644.56
436.949	612.56
437.17	578.56
437.392	584.56
437.614	612.56
437.835	636.56
438.057	734.56
438.278	845.56
438.5	844.56
438.721	927.56
438.943	911.56
439.165	731.56
439.386	643.56
439.608	653.56
439.829	646.56
440.05	679.56
440.272	721.56
440.493	690.56
440.715	629.56
440.936	623.56
441.158	609.56
441.379	597.56
441.6	595.56
441.822	627.56
442.043	660.56
442.264	785.56
442.486	826.56
442.707	665.56
442.928	652.56
443.149	680.56
443.371	691.56
443.592	708.56
443.813	834.56
444.034	899.56
444.255	739.56
444.476	670.56
444.698	643.56
444.919	670.56
445.14	725.56
445.361	693.56
445.582	696.56
445.803	760.56
446.024	891.56
446.245	907.56
446.466	793.56
446.687	662.56
446.908	641.56
447.129	609.56
447.35	601.56
447.571	597.56
447.792	581.56
448.013	564.56
448.234	622.56
448.455	679.56
448.675	789.56
448.896	929.56
449.117	787.56
449.338	741.56
449.559	841.56
449.779	951.56
450	743.56
450.221	643.56
450.442	584.56
450.662	559.56
450.883	578.56
451.104	593.56
451.324	595.56
451.545	565.56
451.766	557.56
451.986	529.56
452.207	519.56
452.428	522.56
452.648	509.56
452.869	500.56
453.089	534.56
453.31	539.56
453.53	514.56
453.751	510.56
453.971	511.56
454.192	557.56
454.412	533.56
454.633	513.56
454.853	524.56
455.073	518.56
455.294	545.56
455.514	609.56
455.734	620.56
455.955	535.56
456.175	528.56
456.395	511.56
456.616	479.56
456.836	517.56
457.056	478.56
457.276	476.56
457.497	532.56
457.717	507.56
457.937	499.56
458.157	509.56
458.377	529.56
458.598	552.56
458.818	595.56
459.038	665.56
459.258	706.56
459.478	628.56
459.698	570.56
459.918	572.56
460.138	546.56
460.358	589.56
460.578	542.56
460.798	577.56
461.018	596.56
461.238	574.56
461.458	596.56
461.678	571.56
461.898	571.56
462.118	574.56
462.338	581.56
462.558	604.56
462.777	601.56
462.997	620.56
463.217	622.56
463.437	630.56
463.657	619.56
463.876	618.56
464.096	609.56
464.316	604.56
464.536	635.56
464.755	617.56
464.975	583.56
465.195	643.56
465.414	712.56
465.634	621.56
465.854	594.56
466.073	565.56
466.293	555.56
466.512	544.56
466.732	547.56
466.951	535.56
467.171	541.56
467.391	533.56
467.61	561.56
467.829	578.56
468.049	553.56
468.268	559.56
468.488	532.56
468.707	535.56
468.927	537.56
469.146	528.56
469.365	539.56
469.585	519.56
469.804	527.56
470.023	557.56
470.243	539.56
470.462	567.56
470.681	569.56
470.901	574.56
471.12	567.56
471.339	557.56
471.558	558.56
471.777	557.56
471.997	547.56
472.216	543.56
472.435	597.56
472.654	547.56
472.873	552.56
473.092	547.56
473.311	542.56
473.53	550.56
473.749	551.56
473.968	578.56
474.187	693.56
474.406	733.56
474.625	610.56
474.844	565.56
475.063	547.56
475.282	556.56
475.501	535.56
475.72	571.56
475.939	538.56
476.158	559.56
476.377	559.56
476.596	573.56
476.814	570.56
477.033	581.56
477.252	579.56
477.471	572.56
477.69	582.56
477.908	585.56
478.127	608.56
478.346	589.56
478.564	616.56
478.783	608.56
479.002	633.56
479.22	648.56
479.439	646.56
479.658	650.56
479.876	659.56
480.095	662.56
480.313	682.56
480.532	690.56
480.751	667.56
480.969	692.56
481.188	757.56
481.406	797.56
481.624	727.56
481.843	689.56
482.061	655.56
482.28	651.56
482.498	669.56
482.717	645.56
482.935	661.56
483.153	624.56
483.372	642.56
483.59	653.56
483.808	636.56
484.027	654.56
484.245	639.56
484.463	665.56
484.681	651.56
484.9	654.56
485.118	639.56
485.336	669.56
485.554	661.56
485.772	669.56
485.99	671.56
486.209	690.56
486.427	696.56
486.645	683.56
486.863	705.56
487.081	705.56
487.299	682.56
487.517	698.56
487.735	691.56
487.953	679.56
488.171	700.56
488.389	677.56
488.607	707.56
488.825	681.56
489.043	698.56
489.261	707.56
489.479	738.56
489.696	713.56
489.914	675.56
490.132	701.56
490.35	703.56
490.568	748.56
490.786	737.56
491.003	750.56
491.221	775.56
491.439	759.56
491.657	780.56
491.874	783.56
492.092	788.56
492.31	782.56
492.527	814.56
492.745	794.56
492.963	824.56
493.18	797.56
493.398	834.56
493.615	835.56
493.833	842.56
494.05	843.56
494.268	846.56
494.485	818.56
494.703	830.56
494.92	840.56
495.138	811.56
495.355	841.56
495.573	845.56
495.79	821.56
496.008	826.56
496.225	838.56
496.442	840.56
496.66	839.56
496.877	809.56
497.094	834.56
497.312	843.56
497.529	841.56
497.746	873.56
497.963	858.56
498.181	902.56
498.398	897.56
498.615	917.56
498.832	947.56
499.049	958.56
499.267	969.56
499.484	1010.56
499.701	1076.56
499.918	1093.56
500.135	1134.56
500.352	1198.56
500.569	1198.56
500.786	1203.56
501.003	1185.56
501.22	1156.56
501.437	1131.56
501.654	1086.56
