Data from 1966.PennyLincolnUp.Lamp.En5.5.200Scan.071719.P1._HRD10591_14-12-17-913.txt Node
Date: Thu Jul 18 14:12:17 EDT 2019
User: cochatt
Spectrometer: HR+D1059
Trigger mode: 1
Integration Time (sec): 1.000000E-1
Scans to average: 1
Electric dark correction enabled: true
Nonlinearity correction enabled: false
Boxcar width: 0
XAxis mode: Wavelengths
Number of Pixels in Spectrum: 2048
>>>>>Begin Spectral Data<<<<<
223.165	-17.94
223.4	-17.94
223.635	-17.94
223.869	-14.94
224.104	-16.94
224.338	-20.94
224.573	1.06
224.808	-15.94
225.042	-18.94
225.277	-1.94
225.511	9.06
225.746	7.06
225.98	-5.94
226.215	17.06
226.449	9.06
226.683	31.06
226.918	21.06
227.152	18.06
227.387	37.06
227.621	35.06
227.856	53.06
228.09	32.06
228.324	37.06
228.559	45.06
228.793	60.06
229.027	60.06
229.262	79.06
229.496	85.06
229.73	76.06
229.964	115.06
230.199	83.06
230.433	85.06
230.667	81.06
230.901	80.06
231.136	102.06
231.37	95.06
231.604	88.06
231.838	76.06
232.072	89.06
232.306	96.06
232.541	85.06
232.775	93.06
233.009	87.06
233.243	93.06
233.477	99.06
233.711	94.06
233.945	86.06
234.179	89.06
234.413	101.06
234.647	93.06
234.881	97.06
235.115	95.06
235.349	110.06
235.583	94.06
235.817	105.06
236.051	100.06
236.285	85.06
236.519	91.06
236.753	98.06
236.987	95.06
237.221	109.06
237.455	140.06
237.689	116.06
237.922	105.06
238.156	85.06
238.39	87.06
238.624	87.06
238.858	93.06
239.091	79.06
239.325	87.06
239.559	93.06
239.793	83.06
240.027	96.06
240.26	111.06
240.494	95.06
240.728	100.06
240.961	85.06
241.195	107.06
241.429	90.06
241.662	90.06
241.896	97.06
242.13	91.06
242.363	110.06
242.597	113.06
242.83	102.06
243.064	91.06
243.298	97.06
243.531	98.06
243.765	93.06
243.998	88.06
244.232	91.06
244.465	92.06
244.699	108.06
244.932	93.06
245.166	93.06
245.399	106.06
245.633	96.06
245.866	101.06
246.099	95.06
246.333	110.06
246.566	94.06
246.8	109.06
247.033	102.06
247.266	103.06
247.5	113.06
247.733	116.06
247.966	119.06
248.2	107.06
248.433	106.06
248.666	122.06
248.899	129.06
249.133	116.06
249.366	124.06
249.599	118.06
249.832	128.06
250.066	121.06
250.299	115.06
250.532	126.06
250.765	120.06
250.998	117.06
251.231	124.06
251.465	127.06
251.698	116.06
251.931	105.06
252.164	119.06
252.397	115.06
252.63	124.06
252.863	127.06
253.096	117.06
253.329	128.06
253.562	125.06
253.795	125.06
254.028	132.06
254.261	104.06
254.494	125.06
254.727	135.06
254.96	149.06
255.193	141.06
255.426	125.06
255.659	118.06
255.892	130.06
256.124	123.06
256.357	123.06
256.59	129.06
256.823	125.06
257.056	117.06
257.289	109.06
257.521	118.06
257.754	110.06
257.987	101.06
258.22	117.06
258.452	119.06
258.685	110.06
258.918	116.06
259.151	126.06
259.383	129.06
259.616	131.06
259.849	140.06
260.081	129.06
260.314	134.06
260.547	133.06
260.779	161.06
261.012	144.06
261.244	129.06
261.477	148.06
261.71	149.06
261.942	132.06
262.175	136.06
262.407	127.06
262.64	131.06
262.872	126.06
263.105	117.06
263.337	137.06
263.57	134.06
263.802	126.06
264.035	108.06
264.267	132.06
264.499	129.06
264.732	126.06
264.964	125.06
265.197	116.06
265.429	127.06
265.661	125.06
265.894	115.06
266.126	119.06
266.358	133.06
266.591	116.06
266.823	115.06
267.055	124.06
267.287	142.06
267.52	133.06
267.752	129.06
267.984	121.06
268.216	129.06
268.448	119.06
268.681	124.06
268.913	126.06
269.145	146.06
269.377	149.06
269.609	158.06
269.841	134.06
270.073	151.06
270.306	147.06
270.538	159.06
270.77	173.06
271.002	159.06
271.234	140.06
271.466	135.06
271.698	159.06
271.93	154.06
272.162	150.06
272.394	150.06
272.626	147.06
272.858	160.06
273.09	155.06
273.322	151.06
273.553	127.06
273.785	154.06
274.017	143.06
274.249	147.06
274.481	146.06
274.713	150.06
274.945	139.06
275.176	142.06
275.408	137.06
275.64	152.06
275.872	148.06
276.104	158.06
276.335	140.06
276.567	151.06
276.799	170.06
277.031	149.06
277.262	154.06
277.494	164.06
277.726	165.06
277.957	156.06
278.189	147.06
278.421	142.06
278.652	154.06
278.884	164.06
279.115	149.06
279.347	149.06
279.579	161.06
279.81	150.06
280.042	143.06
280.273	165.06
280.505	152.06
280.736	146.06
280.968	137.06
281.199	141.06
281.431	140.06
281.662	134.06
281.894	148.06
282.125	143.06
282.356	150.06
282.588	153.06
282.819	181.06
283.051	149.06
283.282	140.06
283.513	148.06
283.745	143.06
283.976	158.06
284.207	140.06
284.439	153.06
284.67	144.06
284.901	149.06
285.132	142.06
285.364	149.06
285.595	144.06
285.826	136.06
286.057	147.06
286.288	151.06
286.52	129.06
286.751	145.06
286.982	152.06
287.213	151.06
287.444	137.06
287.675	160.06
287.906	172.06
288.138	182.06
288.369	167.06
288.6	164.06
288.831	161.06
289.062	156.06
289.293	162.06
289.524	150.06
289.755	154.06
289.986	151.06
290.217	163.06
290.448	153.06
290.679	155.06
290.91	153.06
291.141	150.06
291.371	151.06
291.602	153.06
291.833	141.06
292.064	149.06
292.295	147.06
292.526	154.06
292.757	165.06
292.987	147.06
293.218	153.06
293.449	156.06
293.68	161.06
293.91	149.06
294.141	145.06
294.372	153.06
294.603	155.06
294.833	165.06
295.064	155.06
295.295	157.06
295.525	145.06
295.756	144.06
295.987	173.06
296.217	181.06
296.448	165.06
296.679	161.06
296.909	154.06
297.14	159.06
297.37	147.06
297.601	162.06
297.831	165.06
298.062	165.06
298.292	164.06
298.523	154.06
298.753	153.06
298.984	148.06
299.214	154.06
299.445	156.06
299.675	170.06
299.905	166.06
300.136	165.06
300.366	157.06
300.597	168.06
300.827	161.06
301.057	163.06
301.288	163.06
301.518	165.06
301.748	163.06
301.979	162.06
302.209	170.06
302.439	167.06
302.669	158.06
302.9	170.06
303.13	172.06
303.36	168.06
303.59	153.06
303.82	171.06
304.051	174.06
304.281	166.06
304.511	177.06
304.741	165.06
304.971	169.06
305.201	164.06
305.431	167.06
305.661	157.06
305.891	165.06
306.121	176.06
306.352	163.06
306.582	173.06
306.812	170.06
307.042	174.06
307.272	158.06
307.502	165.06
307.731	163.06
307.961	179.06
308.191	180.06
308.421	177.06
308.651	159.06
308.881	170.06
309.111	182.06
309.341	180.06
309.571	182.06
309.8	171.06
310.03	177.06
310.26	180.06
310.49	194.06
310.72	208.06
310.949	205.06
311.179	196.06
311.409	207.06
311.639	168.06
311.868	194.06
312.098	194.06
312.328	205.06
312.557	207.06
312.787	196.06
313.017	190.06
313.246	184.06
313.476	179.06
313.706	186.06
313.935	194.06
314.165	192.06
314.394	169.06
314.624	195.06
314.853	189.06
315.083	172.06
315.312	174.06
315.542	186.06
315.771	187.06
316.001	199.06
316.23	190.06
316.46	179.06
316.689	191.06
316.919	179.06
317.148	190.06
317.377	197.06
317.607	203.06
317.836	190.06
318.065	202.06
318.295	182.06
318.524	182.06
318.753	167.06
318.983	189.06
319.212	197.06
319.441	185.06
319.67	181.06
319.9	188.06
320.129	180.06
320.358	188.06
320.587	202.06
320.816	185.06
321.046	190.06
321.275	197.06
321.504	190.06
321.733	189.06
321.962	206.06
322.191	202.06
322.42	201.06
322.649	218.06
322.878	217.06
323.108	215.06
323.337	223.06
323.566	229.06
323.795	241.06
324.024	263.06
324.253	331.06
324.482	469.06
324.71	718.06
324.939	1010.06
325.168	829.06
325.397	385.06
325.626	279.06
325.855	219.06
326.084	207.06
326.313	216.06
326.542	212.06
326.77	245.06
326.999	318.06
327.228	435.06
327.457	657.06
327.686	734.06
327.914	475.06
328.143	298.06
328.372	276.06
328.6	286.06
328.829	268.06
329.058	271.06
329.287	267.06
329.515	232.06
329.744	253.06
329.972	235.06
330.201	259.06
330.43	290.06
330.658	299.06
330.887	289.06
331.115	291.06
331.344	227.06
331.572	236.06
331.801	248.06
332.03	233.06
332.258	226.06
332.486	217.06
332.715	204.06
332.943	227.06
333.172	214.06
333.4	200.06
333.629	221.06
333.857	210.06
334.085	223.06
334.314	241.06
334.542	271.06
334.771	288.06
334.999	261.06
335.227	237.06
335.455	223.06
335.684	228.06
335.912	211.06
336.14	204.06
336.369	203.06
336.597	233.06
336.825	216.06
337.053	210.06
337.281	205.06
337.51	217.06
337.738	218.06
337.966	210.06
338.194	212.06
338.422	202.06
338.65	215.06
338.878	225.06
339.106	199.06
339.334	203.06
339.562	194.06
339.79	202.06
340.018	199.06
340.246	232.06
340.474	193.06
340.702	199.06
340.93	203.06
341.158	216.06
341.386	221.06
341.614	217.06
341.842	197.06
342.07	197.06
342.298	202.06
342.526	213.06
342.754	198.06
342.981	187.06
343.209	203.06
343.437	207.06
343.665	197.06
343.893	195.06
344.12	215.06
344.348	197.06
344.576	203.06
344.804	229.06
345.031	218.06
345.259	218.06
345.487	225.06
345.714	211.06
345.942	196.06
346.17	187.06
346.397	183.06
346.625	206.06
346.853	190.06
347.08	187.06
347.308	212.06
347.535	200.06
347.763	211.06
347.99	200.06
348.218	199.06
348.445	190.06
348.673	207.06
348.9	194.06
349.128	213.06
349.355	191.06
349.583	211.06
349.81	186.06
350.037	189.06
350.265	198.06
350.492	190.06
350.72	188.06
350.947	205.06
351.174	189.06
351.402	203.06
351.629	190.06
351.856	202.06
352.083	189.06
352.311	205.06
352.538	198.06
352.765	220.06
352.992	202.06
353.22	203.06
353.447	188.06
353.674	193.06
353.901	185.06
354.128	197.06
354.355	181.06
354.583	195.06
354.81	199.06
355.037	186.06
355.264	189.06
355.491	185.06
355.718	181.06
355.945	200.06
356.172	187.06
356.399	182.06
356.626	190.06
356.853	191.06
357.08	195.06
357.307	187.06
357.534	183.06
357.761	194.06
357.988	187.06
358.215	200.06
358.441	185.06
358.668	179.06
358.895	174.06
359.122	198.06
359.349	186.06
359.576	205.06
359.802	199.06
360.029	222.06
360.256	243.06
360.483	215.06
360.709	209.06
360.936	199.06
361.163	183.06
361.39	194.06
361.616	203.06
361.843	210.06
362.07	196.06
362.296	217.06
362.523	213.06
362.749	187.06
362.976	200.06
363.203	204.06
363.429	199.06
363.656	189.06
363.882	181.06
364.109	182.06
364.335	198.06
364.562	199.06
364.788	197.06
365.015	194.06
365.241	185.06
365.468	187.06
365.694	188.06
365.92	188.06
366.147	187.06
366.373	172.06
366.599	195.06
366.826	177.06
367.052	182.06
367.278	207.06
367.505	205.06
367.731	193.06
367.957	184.06
368.184	194.06
368.41	181.06
368.636	185.06
368.862	194.06
369.089	197.06
369.315	187.06
369.541	186.06
369.767	192.06
369.993	185.06
370.219	191.06
370.445	187.06
370.672	188.06
370.898	186.06
371.124	199.06
371.35	181.06
371.576	178.06
371.802	171.06
372.028	182.06
372.254	190.06
372.48	195.06
372.706	172.06
372.932	195.06
373.158	181.06
373.384	189.06
373.61	184.06
373.835	189.06
374.061	186.06
374.287	206.06
374.513	195.06
374.739	203.06
374.965	189.06
375.191	197.06
375.416	210.06
375.642	201.06
375.868	202.06
376.094	197.06
376.319	196.06
376.545	173.06
376.771	185.06
376.997	178.06
377.222	194.06
377.448	190.06
377.674	182.06
377.899	198.06
378.125	190.06
378.35	190.06
378.576	173.06
378.802	175.06
379.027	194.06
379.253	196.06
379.478	189.06
379.704	186.06
379.929	185.06
380.155	200.06
380.38	195.06
380.606	185.06
380.831	177.06
381.057	196.06
381.282	201.06
381.507	190.06
381.733	199.06
381.958	190.06
382.184	189.06
382.409	196.06
382.634	199.06
382.86	211.06
383.085	199.06
383.31	201.06
383.535	219.06
383.761	196.06
383.986	194.06
384.211	204.06
384.436	223.06
384.662	202.06
384.887	188.06
385.112	214.06
385.337	213.06
385.562	213.06
385.787	200.06
386.013	223.06
386.238	208.06
386.463	225.06
386.688	210.06
386.913	212.06
387.138	204.06
387.363	194.06
387.588	199.06
387.813	207.06
388.038	226.06
388.263	215.06
388.488	217.06
388.713	201.06
388.938	208.06
389.163	226.06
389.387	199.06
389.612	206.06
389.837	214.06
390.062	197.06
390.287	197.06
390.512	203.06
390.736	199.06
390.961	207.06
391.186	205.06
391.411	200.06
391.636	205.06
391.86	226.06
392.085	207.06
392.31	198.06
392.534	222.06
392.759	218.06
392.984	216.06
393.208	231.06
393.433	266.06
393.658	261.06
393.882	217.06
394.107	206.06
394.331	206.06
394.556	200.06
394.78	195.06
395.005	218.06
395.229	204.06
395.454	217.06
395.678	221.06
395.903	209.06
396.127	223.06
396.352	233.06
396.576	241.06
396.801	223.06
397.025	261.06
397.249	233.06
397.474	227.06
397.698	206.06
397.922	222.06
398.147	219.06
398.371	221.06
398.595	232.06
398.82	212.06
399.044	219.06
399.268	243.06
399.492	262.06
399.717	257.06
399.941	252.06
400.165	272.06
400.389	267.06
400.613	249.06
400.837	245.06
401.062	224.06
401.286	231.06
401.51	232.06
401.734	231.06
401.958	232.06
402.182	236.06
402.406	244.06
402.63	260.06
402.854	237.06
403.078	230.06
403.302	234.06
403.526	237.06
403.75	245.06
403.974	242.06
404.198	223.06
404.422	247.06
404.645	237.06
404.869	236.06
405.093	246.06
405.317	259.06
405.541	279.06
405.765	261.06
405.988	241.06
406.212	251.06
406.436	279.06
406.66	286.06
406.883	262.06
407.107	244.06
407.331	282.06
407.555	289.06
407.778	295.06
408.002	269.06
408.226	252.06
408.449	274.06
408.673	266.06
408.896	270.06
409.12	293.06
409.344	268.06
409.567	246.06
409.791	249.06
410.014	250.06
410.238	244.06
410.461	245.06
410.685	240.06
410.908	249.06
411.132	251.06
411.355	263.06
411.578	262.06
411.802	221.06
412.025	244.06
412.249	247.06
412.472	264.06
412.695	281.06
412.919	260.06
413.142	236.06
413.365	252.06
413.589	229.06
413.812	244.06
414.035	235.06
414.258	231.06
414.482	224.06
414.705	238.06
414.928	220.06
415.151	226.06
415.374	233.06
415.597	239.06
415.821	208.06
416.044	211.06
416.267	227.06
416.49	232.06
416.713	239.06
416.936	218.06
417.159	232.06
417.382	237.06
417.605	221.06
417.828	241.06
418.051	232.06
418.274	232.06
418.497	205.06
418.72	234.06
418.943	229.06
419.166	219.06
419.389	257.06
419.611	234.06
419.834	252.06
420.057	237.06
420.28	233.06
420.503	227.06
420.726	253.06
420.948	243.06
421.171	276.06
421.394	257.06
421.617	247.06
421.839	230.06
422.062	210.06
422.285	225.06
422.507	261.06
422.73	292.06
422.953	277.06
423.175	250.06
423.398	250.06
423.621	239.06
423.843	258.06
424.066	241.06
424.288	249.06
424.511	274.06
424.733	284.06
424.956	317.06
425.178	304.06
425.401	294.06
425.623	288.06
425.846	262.06
426.068	229.06
426.291	273.06
426.513	251.06
426.735	256.06
426.958	282.06
427.18	301.06
427.402	336.06
427.625	375.06
427.847	351.06
428.069	287.06
428.292	269.06
428.514	227.06
428.736	241.06
428.958	241.06
429.181	238.06
429.403	241.06
429.625	233.06
429.847	236.06
430.069	287.06
430.292	267.06
430.514	238.06
430.736	233.06
430.958	235.06
431.18	228.06
431.402	217.06
431.624	227.06
431.846	218.06
432.068	213.06
432.29	213.06
432.512	225.06
432.734	236.06
432.956	232.06
433.178	247.06
433.4	239.06
433.622	234.06
433.844	217.06
434.066	211.06
434.287	226.06
434.509	242.06
434.731	231.06
434.953	247.06
435.175	252.06
435.397	264.06
435.618	234.06
435.84	251.06
436.062	316.06
436.284	302.06
436.505	280.06
436.727	252.06
436.949	242.06
437.17	233.06
437.392	226.06
437.614	233.06
437.835	257.06
438.057	301.06
438.278	344.06
438.5	331.06
438.721	347.06
438.943	300.06
439.165	281.06
439.386	267.06
439.608	255.06
439.829	249.06
440.05	263.06
440.272	290.06
440.493	282.06
440.715	254.06
440.936	221.06
441.158	231.06
441.379	240.06
441.6	264.06
441.822	259.06
442.043	255.06
442.264	302.06
442.486	310.06
442.707	257.06
442.928	244.06
443.149	277.06
443.371	289.06
443.592	302.06
443.813	309.06
444.034	331.06
444.255	279.06
444.476	263.06
444.698	258.06
444.919	238.06
445.14	339.06
445.361	297.06
445.582	289.06
445.803	290.06
446.024	339.06
446.245	341.06
446.466	299.06
446.687	270.06
446.908	259.06
447.129	240.06
447.35	238.06
447.571	245.06
447.792	234.06
448.013	233.06
448.234	219.06
448.455	256.06
448.675	296.06
448.896	330.06
449.117	305.06
449.338	283.06
449.559	317.06
449.779	355.06
450	276.06
450.221	244.06
450.442	242.06
450.662	240.06
450.883	250.06
451.104	240.06
451.324	234.06
451.545	215.06
451.766	221.06
451.986	205.06
452.207	237.06
452.428	205.06
452.648	232.06
452.869	224.06
453.089	231.06
453.31	224.06
453.53	233.06
453.751	205.06
453.971	228.06
454.192	239.06
454.412	232.06
454.633	203.06
454.853	216.06
455.073	212.06
455.294	225.06
455.514	248.06
455.734	237.06
455.955	225.06
456.175	210.06
456.395	207.06
456.616	215.06
456.836	204.06
457.056	202.06
457.276	207.06
457.497	211.06
457.717	210.06
457.937	226.06
458.157	215.06
458.377	225.06
458.598	228.06
458.818	251.06
459.038	302.06
459.258	285.06
459.478	255.06
459.698	219.06
459.918	232.06
460.138	218.06
460.358	228.06
460.578	221.06
460.798	216.06
461.018	228.06
461.238	233.06
461.458	216.06
461.678	233.06
461.898	223.06
462.118	230.06
462.338	249.06
462.558	253.06
462.777	234.06
462.997	242.06
463.217	249.06
463.437	246.06
463.657	234.06
463.876	243.06
464.096	250.06
464.316	244.06
464.536	237.06
464.755	268.06
464.975	262.06
465.195	281.06
465.414	329.06
465.634	264.06
465.854	246.06
466.073	228.06
466.293	224.06
466.512	219.06
466.732	215.06
466.951	223.06
467.171	236.06
467.391	234.06
467.61	216.06
467.829	225.06
468.049	225.06
468.268	238.06
468.488	248.06
468.707	227.06
468.927	213.06
469.146	227.06
469.365	223.06
469.585	209.06
469.804	229.06
470.023	239.06
470.243	213.06
470.462	222.06
470.681	229.06
470.901	247.06
471.12	227.06
471.339	217.06
471.558	216.06
471.777	217.06
471.997	226.06
472.216	251.06
472.435	283.06
472.654	252.06
472.873	219.06
473.092	241.06
473.311	222.06
473.53	221.06
473.749	214.06
473.968	259.06
474.187	287.06
474.406	284.06
474.625	238.06
474.844	239.06
475.063	240.06
475.282	225.06
475.501	217.06
475.72	237.06
475.939	228.06
476.158	240.06
476.377	217.06
476.596	229.06
476.814	231.06
477.033	242.06
477.252	237.06
477.471	241.06
477.69	238.06
477.908	230.06
478.127	258.06
478.346	245.06
478.564	235.06
478.783	243.06
479.002	242.06
479.22	228.06
479.439	256.06
479.658	263.06
479.876	250.06
480.095	257.06
480.313	272.06
480.532	266.06
480.751	282.06
480.969	271.06
481.188	340.06
481.406	360.06
481.624	281.06
481.843	270.06
482.061	265.06
482.28	279.06
482.498	275.06
482.717	264.06
482.935	267.06
483.153	250.06
483.372	243.06
483.59	267.06
483.808	269.06
484.027	261.06
484.245	236.06
484.463	261.06
484.681	270.06
484.9	261.06
485.118	272.06
485.336	258.06
485.554	267.06
485.772	271.06
485.99	266.06
486.209	257.06
486.427	274.06
486.645	280.06
486.863	281.06
487.081	280.06
487.299	275.06
487.517	261.06
487.735	293.06
487.953	270.06
488.171	275.06
488.389	281.06
488.607	277.06
488.825	265.06
489.043	269.06
489.261	294.06
489.479	251.06
489.696	258.06
489.914	278.06
490.132	266.06
490.35	276.06
490.568	279.06
490.786	294.06
491.003	270.06
491.221	287.06
491.439	305.06
491.657	316.06
491.874	309.06
492.092	314.06
492.31	315.06
492.527	311.06
492.745	312.06
492.963	303.06
493.18	321.06
493.398	313.06
493.615	312.06
493.833	318.06
494.05	323.06
494.268	314.06
494.485	281.06
494.703	317.06
494.92	310.06
495.138	290.06
495.355	308.06
495.573	303.06
495.79	318.06
496.008	321.06
496.225	295.06
496.442	301.06
496.66	307.06
496.877	320.06
497.094	304.06
497.312	324.06
497.529	291.06
497.746	311.06
497.963	311.06
498.181	323.06
498.398	321.06
498.615	318.06
498.832	337.06
499.049	330.06
499.267	342.06
499.484	351.06
499.701	370.06
499.918	379.06
500.135	387.06
500.352	387.06
500.569	414.06
500.786	414.06
501.003	422.06
501.22	409.06
501.437	394.06
501.654	391.06
501.871	391.06
502.088	377.06
502.305	352.06
502.522	336.06
502.739	347.06
