Data from 1966.PennyLincolnUp.Lamp.En5.5.200Scan.071719.P1.Scan2.head_HRD10591_14-17-01-075.txt Node
Date: Thu Jul 18 14:17:01 EDT 2019
User: cochatt
Spectrometer: HR+D1059
Trigger mode: 1
Integration Time (sec): 1.000000E-1
Scans to average: 1
Electric dark correction enabled: true
Nonlinearity correction enabled: false
Boxcar width: 0
XAxis mode: Wavelengths
Number of Pixels in Spectrum: 2048
>>>>>Begin Spectral Data<<<<<
223.165	-16.5
223.4	-16.5
223.635	-16.5
223.869	-18.5
224.104	-11.5
224.338	-17.5
224.573	-1.5
224.808	-22.5
225.042	-11.5
225.277	9.5
225.511	-4.5
225.746	7.5
225.98	-9.5
226.215	23.5
226.449	17.5
226.683	21.5
226.918	20.5
227.152	13.5
227.387	38.5
227.621	45.5
227.856	35.5
228.09	45.5
228.324	58.5
228.559	66.5
228.793	76.5
229.027	91.5
229.262	106.5
229.496	113.5
229.73	136.5
229.964	130.5
230.199	120.5
230.433	111.5
230.667	113.5
230.901	118.5
231.136	104.5
231.37	90.5
231.604	114.5
231.838	111.5
232.072	117.5
232.306	105.5
232.541	116.5
232.775	117.5
233.009	109.5
233.243	105.5
233.477	127.5
233.711	122.5
233.945	113.5
234.179	112.5
234.413	95.5
234.647	98.5
234.881	125.5
235.115	116.5
235.349	113.5
235.583	118.5
235.817	126.5
236.051	118.5
236.285	113.5
236.519	126.5
236.753	122.5
236.987	139.5
237.221	161.5
237.455	222.5
237.689	170.5
237.922	155.5
238.156	134.5
238.39	132.5
238.624	112.5
238.858	127.5
239.091	138.5
239.325	134.5
239.559	137.5
239.793	134.5
240.027	135.5
240.26	125.5
240.494	143.5
240.728	130.5
240.961	137.5
241.195	146.5
241.429	133.5
241.662	147.5
241.896	155.5
242.13	143.5
242.363	141.5
242.597	124.5
242.83	140.5
243.064	144.5
243.298	145.5
243.531	130.5
243.765	144.5
243.998	151.5
244.232	164.5
244.465	150.5
244.699	162.5
244.932	152.5
245.166	136.5
245.399	139.5
245.633	141.5
245.866	150.5
246.099	145.5
246.333	150.5
246.566	130.5
246.8	142.5
247.033	156.5
247.266	146.5
247.5	157.5
247.733	153.5
247.966	161.5
248.2	151.5
248.433	172.5
248.666	173.5
248.899	184.5
249.133	201.5
249.366	194.5
249.599	193.5
249.832	169.5
250.066	186.5
250.299	191.5
250.532	180.5
250.765	203.5
250.998	218.5
251.231	209.5
251.465	213.5
251.698	212.5
251.931	193.5
252.164	209.5
252.397	192.5
252.63	193.5
252.863	188.5
253.096	208.5
253.329	211.5
253.562	214.5
253.795	197.5
254.028	207.5
254.261	193.5
254.494	223.5
254.727	242.5
254.96	258.5
255.193	254.5
255.426	233.5
255.659	227.5
255.892	227.5
256.124	217.5
256.357	209.5
256.59	199.5
256.823	211.5
257.056	216.5
257.289	207.5
257.521	204.5
257.754	205.5
257.987	213.5
258.22	211.5
258.452	192.5
258.685	204.5
258.918	193.5
259.151	225.5
259.383	217.5
259.616	231.5
259.849	220.5
260.081	225.5
260.314	253.5
260.547	256.5
260.779	258.5
261.012	230.5
261.244	230.5
261.477	224.5
261.71	209.5
261.942	206.5
262.175	237.5
262.407	213.5
262.64	216.5
262.872	215.5
263.105	206.5
263.337	217.5
263.57	194.5
263.802	203.5
264.035	212.5
264.267	199.5
264.499	211.5
264.732	214.5
264.964	227.5
265.197	217.5
265.429	196.5
265.661	213.5
265.894	224.5
266.126	202.5
266.358	223.5
266.591	226.5
266.823	227.5
267.055	212.5
267.287	235.5
267.52	215.5
267.752	212.5
267.984	232.5
268.216	222.5
268.448	205.5
268.681	220.5
268.913	226.5
269.145	249.5
269.377	275.5
269.609	260.5
269.841	267.5
270.073	260.5
270.306	271.5
270.538	300.5
270.77	278.5
271.002	293.5
271.234	273.5
271.466	271.5
271.698	322.5
271.93	301.5
272.162	306.5
272.394	293.5
272.626	307.5
272.858	290.5
273.09	275.5
273.322	262.5
273.553	277.5
273.785	254.5
274.017	261.5
274.249	244.5
274.481	253.5
274.713	246.5
274.945	272.5
275.176	260.5
275.408	258.5
275.64	264.5
275.872	264.5
276.104	255.5
276.335	260.5
276.567	265.5
276.799	278.5
277.031	287.5
277.262	297.5
277.494	310.5
277.726	284.5
277.957	271.5
278.189	274.5
278.421	261.5
278.652	267.5
278.884	261.5
279.115	280.5
279.347	281.5
279.579	279.5
279.81	264.5
280.042	251.5
280.273	267.5
280.505	283.5
280.736	265.5
280.968	267.5
281.199	286.5
281.431	275.5
281.662	288.5
281.894	274.5
282.125	280.5
282.356	280.5
282.588	298.5
282.819	299.5
283.051	288.5
283.282	264.5
283.513	267.5
283.745	271.5
283.976	284.5
284.207	285.5
284.439	278.5
284.67	274.5
284.901	276.5
285.132	277.5
285.364	274.5
285.595	286.5
285.826	282.5
286.057	268.5
286.288	285.5
286.52	271.5
286.751	285.5
286.982	278.5
287.213	276.5
287.444	272.5
287.675	285.5
287.906	281.5
288.138	300.5
288.369	321.5
288.6	302.5
288.831	296.5
289.062	265.5
289.293	281.5
289.524	288.5
289.755	304.5
289.986	287.5
290.217	289.5
290.448	280.5
290.679	286.5
290.91	301.5
291.141	293.5
291.371	295.5
291.602	287.5
291.833	283.5
292.064	266.5
292.295	284.5
292.526	293.5
292.757	288.5
292.987	290.5
293.218	282.5
293.449	303.5
293.68	289.5
293.91	275.5
294.141	279.5
294.372	285.5
294.603	274.5
294.833	308.5
295.064	286.5
295.295	288.5
295.525	296.5
295.756	292.5
295.987	284.5
296.217	310.5
296.448	329.5
296.679	306.5
296.909	296.5
297.14	304.5
297.37	311.5
297.601	296.5
297.831	305.5
298.062	299.5
298.292	301.5
298.523	313.5
298.753	314.5
298.984	323.5
299.214	320.5
299.445	302.5
299.675	318.5
299.905	317.5
300.136	317.5
300.366	313.5
300.597	318.5
300.827	320.5
301.057	335.5
301.288	317.5
301.518	324.5
301.748	333.5
301.979	312.5
302.209	330.5
302.439	326.5
302.669	318.5
302.9	316.5
303.13	316.5
303.36	315.5
303.59	317.5
303.82	320.5
304.051	357.5
304.281	330.5
304.511	326.5
304.741	323.5
304.971	322.5
305.201	320.5
305.431	322.5
305.661	325.5
305.891	344.5
306.121	334.5
306.352	318.5
306.582	326.5
306.812	336.5
307.042	333.5
307.272	324.5
307.502	333.5
307.731	342.5
307.961	333.5
308.191	333.5
308.421	336.5
308.651	341.5
308.881	325.5
309.111	345.5
309.341	337.5
309.571	353.5
309.8	340.5
310.03	347.5
310.26	357.5
310.49	363.5
310.72	365.5
310.949	374.5
311.179	357.5
311.409	372.5
311.639	351.5
311.868	348.5
312.098	357.5
312.328	377.5
312.557	381.5
312.787	395.5
313.017	403.5
313.246	353.5
313.476	365.5
313.706	381.5
313.935	377.5
314.165	367.5
314.394	374.5
314.624	420.5
314.853	383.5
315.083	377.5
315.312	372.5
315.542	376.5
315.771	368.5
316.001	355.5
316.23	367.5
316.46	375.5
316.689	376.5
316.919	378.5
317.148	369.5
317.377	396.5
317.607	382.5
317.836	385.5
318.065	380.5
318.295	384.5
318.524	382.5
318.753	362.5
318.983	366.5
319.212	375.5
319.441	376.5
319.67	395.5
319.9	382.5
320.129	380.5
320.358	372.5
320.587	370.5
320.816	376.5
321.046	389.5
321.275	380.5
321.504	399.5
321.733	374.5
321.962	404.5
322.191	403.5
322.42	413.5
322.649	413.5
322.878	431.5
323.108	432.5
323.337	439.5
323.566	485.5
323.795	485.5
324.024	520.5
324.253	595.5
324.482	815.5
324.71	1282.5
324.939	1913.5
325.168	1668.5
325.397	840.5
325.626	590.5
325.855	495.5
326.084	474.5
326.313	477.5
326.542	458.5
326.77	519.5
326.999	584.5
327.228	785.5
327.457	1172.5
327.686	1430.5
327.914	951.5
328.143	639.5
328.372	560.5
328.6	542.5
328.829	511.5
329.058	532.5
329.287	541.5
329.515	503.5
329.744	484.5
329.972	462.5
330.201	482.5
330.43	514.5
330.658	560.5
330.887	549.5
331.115	568.5
331.344	510.5
331.572	460.5
331.801	466.5
332.03	465.5
332.258	467.5
332.486	450.5
332.715	461.5
332.943	451.5
333.172	454.5
333.4	470.5
333.629	448.5
333.857	468.5
334.085	477.5
334.314	493.5
334.542	502.5
334.771	517.5
334.999	496.5
335.227	486.5
335.455	468.5
335.684	463.5
335.912	448.5
336.14	454.5
336.369	456.5
336.597	442.5
336.825	462.5
337.053	439.5
337.281	441.5
337.51	444.5
337.738	460.5
337.966	438.5
338.194	449.5
338.422	446.5
338.65	442.5
338.878	432.5
339.106	429.5
339.334	450.5
339.562	430.5
339.79	422.5
340.018	438.5
340.246	429.5
340.474	433.5
340.702	441.5
340.93	427.5
341.158	425.5
341.386	429.5
341.614	444.5
341.842	443.5
342.07	429.5
342.298	430.5
342.526	421.5
342.754	410.5
342.981	406.5
343.209	426.5
343.437	438.5
343.665	454.5
343.893	466.5
344.12	453.5
344.348	468.5
344.576	440.5
344.804	449.5
345.031	443.5
345.259	433.5
345.487	430.5
345.714	442.5
345.942	430.5
346.17	411.5
346.397	429.5
346.625	442.5
346.853	425.5
347.08	399.5
347.308	424.5
347.535	417.5
347.763	431.5
347.99	416.5
348.218	440.5
348.445	431.5
348.673	422.5
348.9	441.5
349.128	439.5
349.355	422.5
349.583	394.5
349.81	413.5
350.037	402.5
350.265	421.5
350.492	436.5
350.72	407.5
350.947	405.5
351.174	430.5
351.402	439.5
351.629	396.5
351.856	426.5
352.083	436.5
352.311	414.5
352.538	447.5
352.765	427.5
352.992	428.5
353.22	430.5
353.447	415.5
353.674	408.5
353.901	399.5
354.128	402.5
354.355	403.5
354.583	412.5
354.81	423.5
355.037	409.5
355.264	396.5
355.491	389.5
355.718	400.5
355.945	406.5
356.172	409.5
356.399	388.5
356.626	406.5
356.853	404.5
357.08	400.5
357.307	404.5
357.534	420.5
357.761	383.5
357.988	406.5
358.215	404.5
358.441	420.5
358.668	396.5
358.895	430.5
359.122	405.5
359.349	436.5
359.576	426.5
359.802	443.5
360.029	474.5
360.256	478.5
360.483	457.5
360.709	444.5
360.936	450.5
361.163	447.5
361.39	442.5
361.616	417.5
361.843	416.5
362.07	408.5
362.296	428.5
362.523	425.5
362.749	431.5
362.976	402.5
363.203	422.5
363.429	398.5
363.656	425.5
363.882	421.5
364.109	421.5
364.335	425.5
364.562	403.5
364.788	411.5
365.015	425.5
365.241	415.5
365.468	425.5
365.694	425.5
365.92	434.5
366.147	420.5
366.373	415.5
366.599	426.5
366.826	422.5
367.052	433.5
367.278	425.5
367.505	416.5
367.731	436.5
367.957	412.5
368.184	421.5
368.41	442.5
368.636	412.5
368.862	438.5
369.089	436.5
369.315	407.5
369.541	436.5
369.767	425.5
369.993	431.5
370.219	439.5
370.445	417.5
370.672	424.5
370.898	439.5
371.124	404.5
371.35	406.5
371.576	419.5
371.802	411.5
372.028	431.5
372.254	420.5
372.48	417.5
372.706	430.5
372.932	449.5
373.158	421.5
373.384	428.5
373.61	431.5
373.835	424.5
374.061	446.5
374.287	420.5
374.513	453.5
374.739	450.5
374.965	441.5
375.191	452.5
375.416	421.5
375.642	424.5
375.868	440.5
376.094	436.5
376.319	433.5
376.545	438.5
376.771	443.5
376.997	427.5
377.222	433.5
377.448	433.5
377.674	418.5
377.899	415.5
378.125	422.5
378.35	420.5
378.576	432.5
378.802	434.5
379.027	434.5
379.253	425.5
379.478	433.5
379.704	421.5
379.929	414.5
380.155	417.5
380.38	446.5
380.606	438.5
380.831	427.5
381.057	429.5
381.282	448.5
381.507	428.5
381.733	439.5
381.958	442.5
382.184	450.5
382.409	448.5
382.634	452.5
382.86	453.5
383.085	469.5
383.31	455.5
383.535	440.5
383.761	452.5
383.986	454.5
384.211	465.5
384.436	446.5
384.662	465.5
384.887	463.5
385.112	480.5
385.337	473.5
385.562	458.5
385.787	480.5
386.013	485.5
386.238	475.5
386.463	472.5
386.688	470.5
386.913	486.5
387.138	503.5
387.363	477.5
387.588	477.5
387.813	476.5
388.038	483.5
388.263	473.5
388.488	501.5
388.713	481.5
388.938	469.5
389.163	494.5
389.387	489.5
389.612	475.5
389.837	487.5
390.062	482.5
390.287	482.5
390.512	502.5
390.736	470.5
390.961	489.5
391.186	504.5
391.411	507.5
391.636	485.5
391.86	508.5
392.085	511.5
392.31	506.5
392.534	505.5
392.759	488.5
392.984	502.5
393.208	490.5
393.433	507.5
393.658	512.5
393.882	476.5
394.107	465.5
394.331	480.5
394.556	483.5
394.78	500.5
395.005	502.5
395.229	474.5
395.454	488.5
395.678	512.5
395.903	504.5
396.127	512.5
396.352	529.5
396.576	479.5
396.801	502.5
397.025	499.5
397.249	505.5
397.474	524.5
397.698	535.5
397.922	545.5
398.147	539.5
398.371	528.5
398.595	542.5
398.82	557.5
399.044	594.5
399.268	576.5
399.492	601.5
399.717	655.5
399.941	688.5
400.165	676.5
400.389	679.5
400.613	616.5
400.837	607.5
401.062	576.5
401.286	568.5
401.51	562.5
401.734	550.5
401.958	548.5
402.182	584.5
402.406	598.5
402.63	589.5
402.854	585.5
403.078	586.5
403.302	581.5
403.526	599.5
403.75	563.5
403.974	570.5
404.198	557.5
404.422	578.5
404.645	579.5
404.869	596.5
405.093	607.5
405.317	656.5
405.541	680.5
405.765	638.5
405.988	615.5
406.212	605.5
406.436	615.5
406.66	622.5
406.883	622.5
407.107	660.5
407.331	705.5
407.555	761.5
407.778	748.5
408.002	694.5
408.226	654.5
408.449	620.5
408.673	640.5
408.896	674.5
409.12	724.5
409.344	636.5
409.567	613.5
409.791	593.5
410.014	603.5
410.238	584.5
410.461	594.5
410.685	617.5
410.908	610.5
411.132	635.5
411.355	666.5
411.578	632.5
411.802	592.5
412.025	586.5
412.249	593.5
412.472	595.5
412.695	642.5
412.919	642.5
413.142	586.5
413.365	581.5
413.589	588.5
413.812	550.5
414.035	533.5
414.258	566.5
414.482	558.5
414.705	561.5
414.928	551.5
415.151	550.5
415.374	530.5
415.597	550.5
415.821	531.5
416.044	553.5
416.267	559.5
416.49	543.5
416.713	544.5
416.936	538.5
417.159	519.5
417.382	544.5
417.605	565.5
417.828	550.5
418.051	572.5
418.274	574.5
418.497	539.5
418.72	551.5
418.943	560.5
419.166	576.5
419.389	605.5
419.611	590.5
419.834	566.5
420.057	588.5
420.28	585.5
420.503	566.5
420.726	558.5
420.948	579.5
421.171	619.5
421.394	654.5
421.617	585.5
421.839	561.5
422.062	584.5
422.285	584.5
422.507	633.5
422.73	709.5
422.953	689.5
423.175	593.5
423.398	591.5
423.621	586.5
423.843	605.5
424.066	604.5
424.288	595.5
424.511	644.5
424.733	680.5
424.956	744.5
425.178	735.5
425.401	732.5
425.623	740.5
425.846	648.5
426.068	627.5
426.291	585.5
426.513	593.5
426.735	611.5
426.958	652.5
427.18	727.5
427.402	866.5
427.625	921.5
427.847	820.5
428.069	705.5
428.292	642.5
428.514	592.5
428.736	576.5
428.958	594.5
429.181	550.5
429.403	561.5
429.625	551.5
429.847	605.5
430.069	652.5
430.292	656.5
430.514	566.5
430.736	576.5
430.958	561.5
431.18	547.5
431.402	540.5
431.624	541.5
431.846	531.5
432.068	532.5
432.29	558.5
432.512	529.5
432.734	525.5
432.956	544.5
433.178	546.5
433.4	554.5
433.622	556.5
433.844	543.5
434.066	529.5
434.287	532.5
434.509	526.5
434.731	557.5
434.953	556.5
435.175	572.5
435.397	577.5
435.618	611.5
435.84	650.5
436.062	743.5
436.284	785.5
436.505	664.5
436.727	611.5
436.949	585.5
437.17	565.5
437.392	558.5
437.614	581.5
437.835	599.5
438.057	688.5
438.278	790.5
438.5	793.5
438.721	870.5
438.943	851.5
439.165	662.5
439.386	610.5
439.608	585.5
439.829	601.5
440.05	629.5
440.272	687.5
440.493	650.5
440.715	594.5
440.936	577.5
441.158	578.5
441.379	568.5
441.6	595.5
441.822	589.5
442.043	629.5
442.264	730.5
442.486	787.5
442.707	680.5
442.928	613.5
443.149	623.5
443.371	633.5
443.592	688.5
443.813	767.5
444.034	862.5
444.255	708.5
444.476	641.5
444.698	640.5
444.919	606.5
445.14	689.5
445.361	670.5
445.582	668.5
445.803	713.5
446.024	774.5
446.245	813.5
446.466	765.5
446.687	647.5
446.908	606.5
447.129	600.5
447.35	542.5
447.571	553.5
447.792	525.5
448.013	552.5
448.234	573.5
448.455	603.5
448.675	756.5
448.896	862.5
449.117	745.5
449.338	704.5
449.559	795.5
449.779	903.5
450	726.5
450.221	623.5
450.442	587.5
450.662	543.5
450.883	549.5
451.104	553.5
451.324	556.5
451.545	534.5
451.766	504.5
451.986	505.5
452.207	495.5
452.428	511.5
452.648	485.5
452.869	512.5
453.089	540.5
453.31	527.5
453.53	500.5
453.751	507.5
453.971	500.5
454.192	524.5
454.412	498.5
454.633	491.5
454.853	498.5
455.073	484.5
455.294	519.5
455.514	576.5
455.734	559.5
455.955	508.5
456.175	473.5
456.395	469.5
456.616	464.5
456.836	475.5
457.056	470.5
457.276	454.5
457.497	473.5
457.717	462.5
457.937	484.5
458.157	519.5
458.377	494.5
458.598	516.5
458.818	564.5
459.038	649.5
459.258	658.5
459.478	566.5
459.698	542.5
459.918	527.5
460.138	543.5
460.358	540.5
460.578	552.5
460.798	560.5
461.018	569.5
461.238	580.5
461.458	551.5
461.678	549.5
461.898	566.5
462.118	555.5
462.338	578.5
462.558	587.5
462.777	604.5
462.997	602.5
463.217	607.5
463.437	593.5
463.657	572.5
463.876	582.5
464.096	607.5
464.316	589.5
464.536	604.5
464.755	605.5
464.975	588.5
465.195	613.5
465.414	666.5
465.634	615.5
465.854	558.5
466.073	542.5
466.293	549.5
466.512	527.5
466.732	530.5
466.951	539.5
467.171	513.5
467.391	505.5
467.61	530.5
467.829	530.5
468.049	526.5
468.268	524.5
468.488	507.5
468.707	501.5
468.927	485.5
469.146	495.5
469.365	494.5
469.585	509.5
469.804	494.5
470.023	524.5
470.243	525.5
470.462	532.5
470.681	543.5
470.901	548.5
471.12	538.5
471.339	509.5
471.558	514.5
471.777	512.5
471.997	518.5
472.216	534.5
472.435	566.5
472.654	551.5
472.873	542.5
473.092	525.5
473.311	528.5
473.53	533.5
473.749	528.5
473.968	580.5
474.187	654.5
474.406	678.5
474.625	564.5
474.844	560.5
475.063	551.5
475.282	541.5
475.501	544.5
475.72	548.5
475.939	518.5
476.158	557.5
476.377	552.5
476.596	548.5
476.814	541.5
477.033	534.5
477.252	554.5
477.471	569.5
477.69	556.5
477.908	576.5
478.127	600.5
478.346	584.5
478.564	572.5
478.783	583.5
479.002	609.5
479.22	608.5
479.439	619.5
479.658	623.5
479.876	637.5
480.095	638.5
480.313	665.5
480.532	650.5
480.751	658.5
480.969	655.5
481.188	688.5
481.406	721.5
481.624	658.5
481.843	635.5
482.061	636.5
482.28	640.5
482.498	602.5
482.717	628.5
482.935	617.5
483.153	610.5
483.372	592.5
483.59	632.5
483.808	613.5
484.027	637.5
484.245	633.5
484.463	622.5
484.681	637.5
484.9	642.5
485.118	655.5
485.336	623.5
485.554	639.5
485.772	622.5
485.99	658.5
486.209	646.5
486.427	650.5
486.645	674.5
486.863	665.5
487.081	669.5
487.299	663.5
487.517	670.5
487.735	646.5
487.953	651.5
488.171	655.5
488.389	669.5
488.607	678.5
488.825	662.5
489.043	671.5
489.261	679.5
489.479	692.5
489.696	672.5
489.914	669.5
490.132	663.5
490.35	674.5
490.568	688.5
490.786	718.5
491.003	717.5
491.221	734.5
491.439	734.5
491.657	729.5
491.874	751.5
492.092	731.5
492.31	741.5
492.527	753.5
492.745	777.5
492.963	775.5
493.18	777.5
493.398	763.5
493.615	773.5
493.833	800.5
494.05	749.5
494.268	761.5
494.485	777.5
494.703	785.5
494.92	764.5
495.138	745.5
495.355	746.5
495.573	785.5
495.79	772.5
496.008	788.5
496.225	790.5
496.442	790.5
496.66	782.5
496.877	767.5
497.094	799.5
497.312	790.5
497.529	813.5
497.746	829.5
497.963	856.5
498.181	856.5
498.398	889.5
498.615	868.5
498.832	909.5
499.049	922.5
499.267	925.5
499.484	970.5
499.701	1003.5
499.918	1066.5
500.135	1108.5
500.352	1162.5
500.569	1164.5
500.786	1156.5
501.003	1168.5
501.22	1088.5
501.437	1094.5
501.654	1031.5
501.871	1021.5
502.088	978.5
502.305	941.5
502.522	897.5
502.739	897.5
502.956	854.5
503.172	838.5
503.389	816.5
503.606	832.5
503.823	812.5
504.04	824.5
504.256	788.5
504.473	806.5
504.69	778.5
504.907	804.5
505.123	789.5
505.34	778.5
505.557	768.5
505.773	747.5
505.99	758.5
506.207	730.5
506.423	743.5
506.64	726.5
506.856	721.5
507.073	712.5
507.289	737.5
507.506	712.5
507.722	737.5
507.939	745.5
508.155	730.5
508.372	729.5
508.588	711.5
508.805	713.5
509.021	693.5
509.238	707.5
509.454	717.5
509.67	694.5
509.887	697.5
510.103	708.5
510.319	722.5
510.536	744.5
510.752	1108.5
510.968	941.5
511.184	708.5
511.401	668.5
511.617	679.5
511.833	643.5
512.049	669.5
512.265	657.5
512.481	663.5
512.698	656.5
512.914	664.5
513.13	633.5
513.346	654.5
513.562	658.5
513.778	642.5
513.994	669.5
514.21	682.5
514.426	688.5
514.642	718.5
514.858	735.5
515.074	751.5
515.29	846.5
515.506	1135.5
515.721	983.5
515.937	760.5
516.153	702.5
516.369	705.5
516.585	710.5
516.801	712.5
517.016	711.5
517.232	692.5
517.448	711.5
517.664	721.5
517.879	703.5
518.095	708.5
518.311	703.5
518.527	701.5
518.742	698.5
518.958	678.5
519.173	674.5
519.389	702.5
519.605	664.5
