Data from 1966.PennyLincolnUp.Lamp.En5.5.200Scan.071719.P1.Scan2.head_HRD10591_14-16-50-060.txt Node
Date: Thu Jul 18 14:16:50 EDT 2019
User: cochatt
Spectrometer: HR+D1059
Trigger mode: 1
Integration Time (sec): 1.000000E-1
Scans to average: 1
Electric dark correction enabled: true
Nonlinearity correction enabled: false
Boxcar width: 0
XAxis mode: Wavelengths
Number of Pixels in Spectrum: 2048
>>>>>Begin Spectral Data<<<<<
223.165	-15.94
223.4	-15.94
223.635	-15.94
223.869	-11.94
224.104	-15.94
224.338	7.06
224.573	-9.94
224.808	-13.94
225.042	-6.94
225.277	-19.94
225.511	-23.94
225.746	-9.94
225.98	28.06
226.215	6.06
226.449	12.06
226.683	20.06
226.918	20.06
227.152	35.06
227.387	32.06
227.621	38.06
227.856	54.06
228.09	62.06
228.324	60.06
228.559	70.06
228.793	72.06
229.027	90.06
229.262	114.06
229.496	102.06
229.73	123.06
229.964	148.06
230.199	121.06
230.433	111.06
230.667	115.06
230.901	107.06
231.136	115.06
231.37	119.06
231.604	101.06
231.838	120.06
232.072	120.06
232.306	113.06
232.541	115.06
232.775	121.06
233.009	111.06
233.243	120.06
233.477	123.06
233.711	108.06
233.945	128.06
234.179	135.06
234.413	118.06
234.647	115.06
234.881	128.06
235.115	127.06
235.349	124.06
235.583	115.06
235.817	128.06
236.051	119.06
236.285	108.06
236.519	126.06
236.753	123.06
236.987	148.06
237.221	178.06
237.455	225.06
237.689	192.06
237.922	134.06
238.156	128.06
238.39	133.06
238.624	127.06
238.858	130.06
239.091	129.06
239.325	125.06
239.559	126.06
239.793	128.06
240.027	124.06
240.26	137.06
240.494	134.06
240.728	145.06
240.961	162.06
241.195	138.06
241.429	133.06
241.662	142.06
241.896	138.06
242.13	133.06
242.363	138.06
242.597	139.06
242.83	137.06
243.064	129.06
243.298	144.06
243.531	148.06
243.765	135.06
243.998	135.06
244.232	143.06
244.465	137.06
244.699	144.06
244.932	152.06
245.166	143.06
245.399	150.06
245.633	156.06
245.866	153.06
246.099	152.06
246.333	131.06
246.566	141.06
246.8	163.06
247.033	158.06
247.266	150.06
247.5	162.06
247.733	171.06
247.966	170.06
248.2	174.06
248.433	161.06
248.666	167.06
248.899	188.06
249.133	188.06
249.366	207.06
249.599	191.06
249.832	184.06
250.066	182.06
250.299	188.06
250.532	200.06
250.765	203.06
250.998	203.06
251.231	211.06
251.465	206.06
251.698	199.06
251.931	182.06
252.164	171.06
252.397	180.06
252.63	169.06
252.863	206.06
253.096	218.06
253.329	219.06
253.562	215.06
253.795	194.06
254.028	205.06
254.261	203.06
254.494	222.06
254.727	243.06
254.96	252.06
255.193	247.06
255.426	240.06
255.659	226.06
255.892	223.06
256.124	201.06
256.357	221.06
256.59	215.06
256.823	218.06
257.056	225.06
257.289	194.06
257.521	197.06
257.754	198.06
257.987	200.06
258.22	196.06
258.452	208.06
258.685	203.06
258.918	209.06
259.151	210.06
259.383	215.06
259.616	203.06
259.849	216.06
260.081	219.06
260.314	235.06
260.547	230.06
260.779	242.06
261.012	215.06
261.244	199.06
261.477	223.06
261.71	205.06
261.942	215.06
262.175	213.06
262.407	225.06
262.64	211.06
262.872	186.06
263.105	206.06
263.337	213.06
263.57	194.06
263.802	206.06
264.035	204.06
264.267	214.06
264.499	205.06
264.732	216.06
264.964	211.06
265.197	212.06
265.429	205.06
265.661	210.06
265.894	215.06
266.126	194.06
266.358	214.06
266.591	205.06
266.823	209.06
267.055	203.06
267.287	217.06
267.52	211.06
267.752	211.06
267.984	231.06
268.216	219.06
268.448	214.06
268.681	216.06
268.913	217.06
269.145	243.06
269.377	264.06
269.609	260.06
269.841	250.06
270.073	239.06
270.306	258.06
270.538	256.06
270.77	268.06
271.002	270.06
271.234	280.06
271.466	270.06
271.698	282.06
271.93	272.06
272.162	296.06
272.394	277.06
272.626	268.06
272.858	268.06
273.09	269.06
273.322	254.06
273.553	237.06
273.785	248.06
274.017	254.06
274.249	244.06
274.481	245.06
274.713	238.06
274.945	273.06
275.176	247.06
275.408	251.06
275.64	242.06
275.872	244.06
276.104	236.06
276.335	251.06
276.567	272.06
276.799	280.06
277.031	262.06
277.262	284.06
277.494	293.06
277.726	276.06
277.957	311.06
278.189	270.06
278.421	262.06
278.652	271.06
278.884	250.06
279.115	256.06
279.347	254.06
279.579	255.06
279.81	262.06
280.042	252.06
280.273	256.06
280.505	258.06
280.736	260.06
280.968	267.06
281.199	269.06
281.431	262.06
281.662	254.06
281.894	263.06
282.125	254.06
282.356	260.06
282.588	274.06
282.819	273.06
283.051	270.06
283.282	264.06
283.513	271.06
283.745	255.06
283.976	288.06
284.207	266.06
284.439	238.06
284.67	261.06
284.901	273.06
285.132	282.06
285.364	244.06
285.595	282.06
285.826	267.06
286.057	266.06
286.288	269.06
286.52	268.06
286.751	269.06
286.982	278.06
287.213	279.06
287.444	262.06
287.675	272.06
287.906	294.06
288.138	280.06
288.369	277.06
288.6	302.06
288.831	280.06
289.062	297.06
289.293	274.06
289.524	274.06
289.755	286.06
289.986	268.06
290.217	276.06
290.448	273.06
290.679	290.06
290.91	282.06
291.141	281.06
291.371	292.06
291.602	282.06
291.833	281.06
292.064	277.06
292.295	294.06
292.526	273.06
292.757	277.06
292.987	293.06
293.218	288.06
293.449	275.06
293.68	300.06
293.91	291.06
294.141	271.06
294.372	282.06
294.603	291.06
294.833	290.06
295.064	273.06
295.295	299.06
295.525	289.06
295.756	291.06
295.987	289.06
296.217	293.06
296.448	310.06
296.679	302.06
296.909	307.06
297.14	289.06
297.37	301.06
297.601	271.06
297.831	285.06
298.062	284.06
298.292	302.06
298.523	299.06
298.753	289.06
298.984	294.06
299.214	284.06
299.445	287.06
299.675	295.06
299.905	307.06
300.136	280.06
300.366	280.06
300.597	329.06
300.827	306.06
301.057	322.06
301.288	285.06
301.518	322.06
301.748	301.06
301.979	287.06
302.209	314.06
302.439	320.06
302.669	305.06
302.9	321.06
303.13	306.06
303.36	306.06
303.59	300.06
303.82	324.06
304.051	325.06
304.281	319.06
304.511	315.06
304.741	298.06
304.971	297.06
305.201	322.06
305.431	310.06
305.661	295.06
305.891	329.06
306.121	313.06
306.352	311.06
306.582	303.06
306.812	283.06
307.042	331.06
307.272	331.06
307.502	327.06
307.731	334.06
307.961	307.06
308.191	320.06
308.421	318.06
308.651	325.06
308.881	345.06
309.111	343.06
309.341	313.06
309.571	310.06
309.8	329.06
310.03	321.06
310.26	363.06
310.49	342.06
310.72	356.06
310.949	352.06
311.179	374.06
311.409	374.06
311.639	350.06
311.868	351.06
312.098	340.06
312.328	359.06
312.557	359.06
312.787	366.06
313.017	376.06
313.246	360.06
313.476	343.06
313.706	361.06
313.935	346.06
314.165	379.06
314.394	366.06
314.624	358.06
314.853	364.06
315.083	339.06
315.312	344.06
315.542	342.06
315.771	365.06
316.001	380.06
316.23	347.06
316.46	345.06
316.689	360.06
316.919	362.06
317.148	371.06
317.377	360.06
317.607	359.06
317.836	347.06
318.065	348.06
318.295	348.06
318.524	357.06
318.753	376.06
318.983	366.06
319.212	351.06
319.441	379.06
319.67	385.06
319.9	371.06
320.129	374.06
320.358	358.06
320.587	358.06
320.816	368.06
321.046	378.06
321.275	387.06
321.504	371.06
321.733	394.06
321.962	380.06
322.191	389.06
322.42	417.06
322.649	412.06
322.878	420.06
323.108	414.06
323.337	419.06
323.566	432.06
323.795	442.06
324.024	500.06
324.253	577.06
324.482	782.06
324.71	1172.06
324.939	1784.06
325.168	1544.06
325.397	783.06
325.626	538.06
325.855	464.06
326.084	454.06
326.313	442.06
326.542	450.06
326.77	485.06
326.999	546.06
327.228	734.06
327.457	1105.06
327.686	1396.06
327.914	900.06
328.143	623.06
328.372	542.06
328.6	488.06
328.829	480.06
329.058	486.06
329.287	494.06
329.515	494.06
329.744	466.06
329.972	454.06
330.201	448.06
330.43	482.06
330.658	523.06
330.887	539.06
331.115	488.06
331.344	448.06
331.572	455.06
331.801	455.06
332.03	476.06
332.258	434.06
332.486	425.06
332.715	429.06
332.943	446.06
333.172	432.06
333.4	438.06
333.629	446.06
333.857	439.06
334.085	454.06
334.314	481.06
334.542	454.06
334.771	528.06
334.999	487.06
335.227	481.06
335.455	440.06
335.684	446.06
335.912	433.06
336.14	421.06
336.369	440.06
336.597	451.06
336.825	439.06
337.053	426.06
337.281	435.06
337.51	431.06
337.738	430.06
337.966	418.06
338.194	419.06
338.422	443.06
338.65	416.06
338.878	411.06
339.106	416.06
339.334	436.06
339.562	403.06
339.79	418.06
340.018	422.06
340.246	431.06
340.474	443.06
340.702	430.06
340.93	427.06
341.158	402.06
341.386	417.06
341.614	408.06
341.842	416.06
342.07	401.06
342.298	415.06
342.526	417.06
342.754	408.06
342.981	419.06
343.209	391.06
343.437	411.06
343.665	410.06
343.893	404.06
344.12	441.06
344.348	444.06
344.576	436.06
344.804	422.06
345.031	449.06
345.259	440.06
345.487	426.06
345.714	426.06
345.942	408.06
346.17	425.06
346.397	415.06
346.625	404.06
346.853	407.06
347.08	400.06
347.308	396.06
347.535	424.06
347.763	422.06
347.99	411.06
348.218	443.06
348.445	429.06
348.673	408.06
348.9	424.06
349.128	408.06
349.355	402.06
349.583	388.06
349.81	392.06
350.037	402.06
350.265	417.06
350.492	390.06
350.72	399.06
350.947	404.06
351.174	395.06
351.402	405.06
351.629	401.06
351.856	394.06
352.083	399.06
352.311	433.06
352.538	419.06
352.765	411.06
352.992	400.06
353.22	399.06
353.447	398.06
353.674	405.06
353.901	387.06
354.128	390.06
354.355	410.06
354.583	391.06
354.81	416.06
355.037	398.06
355.264	382.06
355.491	354.06
355.718	356.06
355.945	385.06
356.172	410.06
356.399	382.06
356.626	384.06
356.853	389.06
357.08	376.06
357.307	393.06
357.534	389.06
357.761	401.06
357.988	384.06
358.215	375.06
358.441	404.06
358.668	408.06
358.895	403.06
359.122	392.06
359.349	406.06
359.576	416.06
359.802	411.06
360.029	442.06
360.256	442.06
360.483	427.06
360.709	412.06
360.936	413.06
361.163	415.06
361.39	406.06
361.616	392.06
361.843	419.06
362.07	429.06
362.296	412.06
362.523	418.06
362.749	415.06
362.976	382.06
363.203	415.06
363.429	402.06
363.656	396.06
363.882	418.06
364.109	390.06
364.335	392.06
364.562	402.06
364.788	395.06
365.015	408.06
365.241	384.06
365.468	405.06
365.694	398.06
365.92	402.06
366.147	405.06
366.373	396.06
366.599	378.06
366.826	406.06
367.052	396.06
367.278	387.06
367.505	412.06
367.731	393.06
367.957	404.06
368.184	387.06
368.41	399.06
368.636	421.06
368.862	418.06
369.089	404.06
369.315	384.06
369.541	407.06
369.767	413.06
369.993	412.06
370.219	416.06
370.445	396.06
370.672	391.06
370.898	391.06
371.124	408.06
371.35	418.06
371.576	419.06
371.802	415.06
372.028	401.06
372.254	423.06
372.48	404.06
372.706	431.06
372.932	411.06
373.158	421.06
373.384	407.06
373.61	427.06
373.835	414.06
374.061	396.06
374.287	423.06
374.513	404.06
374.739	414.06
374.965	420.06
375.191	427.06
375.416	431.06
375.642	426.06
375.868	427.06
376.094	415.06
376.319	426.06
376.545	416.06
376.771	424.06
376.997	426.06
377.222	395.06
377.448	416.06
377.674	418.06
377.899	401.06
378.125	409.06
378.35	408.06
378.576	394.06
378.802	424.06
379.027	406.06
379.253	416.06
379.478	412.06
379.704	418.06
379.929	423.06
380.155	426.06
380.38	433.06
380.606	418.06
380.831	400.06
381.057	409.06
381.282	418.06
381.507	417.06
381.733	422.06
381.958	424.06
382.184	431.06
382.409	435.06
382.634	424.06
382.86	424.06
383.085	427.06
383.31	425.06
383.535	434.06
383.761	441.06
383.986	434.06
384.211	446.06
384.436	458.06
384.662	446.06
384.887	458.06
385.112	450.06
385.337	448.06
385.562	444.06
385.787	471.06
386.013	482.06
386.238	442.06
386.463	453.06
386.688	479.06
386.913	432.06
387.138	471.06
387.363	468.06
387.588	441.06
387.813	450.06
388.038	455.06
388.263	487.06
388.488	472.06
388.713	453.06
388.938	473.06
389.163	460.06
389.387	468.06
389.612	466.06
389.837	465.06
390.062	480.06
390.287	455.06
390.512	450.06
390.736	454.06
390.961	461.06
391.186	465.06
391.411	476.06
391.636	457.06
391.86	467.06
392.085	471.06
392.31	486.06
392.534	479.06
392.759	486.06
392.984	472.06
393.208	471.06
393.433	501.06
393.658	476.06
393.882	481.06
394.107	467.06
394.331	465.06
394.556	469.06
394.78	477.06
395.005	477.06
395.229	473.06
395.454	486.06
395.678	495.06
395.903	474.06
396.127	505.06
396.352	505.06
396.576	499.06
396.801	496.06
397.025	482.06
397.249	480.06
397.474	480.06
397.698	489.06
397.922	497.06
398.147	522.06
398.371	523.06
398.595	536.06
398.82	533.06
399.044	522.06
399.268	540.06
399.492	592.06
399.717	640.06
399.941	656.06
400.165	671.06
400.389	666.06
400.613	600.06
400.837	567.06
401.062	575.06
401.286	559.06
401.51	533.06
401.734	528.06
401.958	546.06
402.182	523.06
402.406	535.06
402.63	541.06
402.854	526.06
403.078	552.06
403.302	555.06
403.526	552.06
403.75	558.06
403.974	560.06
404.198	551.06
404.422	545.06
404.645	572.06
404.869	561.06
405.093	599.06
405.317	639.06
405.541	681.06
405.765	601.06
405.988	582.06
406.212	593.06
406.436	600.06
406.66	592.06
406.883	605.06
407.107	630.06
407.331	669.06
407.555	737.06
407.778	720.06
408.002	643.06
408.226	609.06
408.449	595.06
408.673	609.06
408.896	612.06
409.12	655.06
409.344	615.06
409.567	606.06
409.791	579.06
410.014	576.06
410.238	582.06
410.461	563.06
410.685	543.06
410.908	551.06
411.132	616.06
411.355	631.06
411.578	602.06
411.802	554.06
412.025	541.06
412.249	564.06
412.472	576.06
412.695	616.06
412.919	599.06
413.142	552.06
413.365	578.06
413.589	551.06
413.812	522.06
414.035	506.06
414.258	537.06
414.482	536.06
414.705	561.06
414.928	526.06
415.151	518.06
415.374	532.06
415.597	515.06
415.821	518.06
416.044	531.06
416.267	542.06
416.49	538.06
416.713	535.06
416.936	535.06
417.159	535.06
417.382	539.06
417.605	530.06
417.828	530.06
418.051	543.06
418.274	545.06
418.497	527.06
418.72	530.06
418.943	529.06
419.166	557.06
419.389	592.06
419.611	562.06
419.834	546.06
420.057	559.06
420.28	548.06
420.503	544.06
420.726	555.06
420.948	575.06
421.171	588.06
421.394	612.06
421.617	568.06
421.839	547.06
422.062	559.06
422.285	551.06
422.507	632.06
422.73	704.06
422.953	668.06
423.175	606.06
423.398	557.06
423.621	567.06
423.843	580.06
424.066	584.06
424.288	604.06
424.511	579.06
424.733	656.06
424.956	724.06
425.178	716.06
425.401	717.06
425.623	728.06
425.846	596.06
426.068	577.06
426.291	577.06
426.513	566.06
426.735	562.06
426.958	601.06
427.18	675.06
427.402	843.06
427.625	908.06
427.847	769.06
428.069	680.06
428.292	624.06
428.514	577.06
428.736	577.06
428.958	556.06
429.181	558.06
429.403	552.06
429.625	541.06
429.847	575.06
430.069	657.06
430.292	649.06
430.514	554.06
430.736	552.06
430.958	536.06
431.18	522.06
431.402	505.06
431.624	514.06
431.846	521.06
432.068	514.06
432.29	513.06
432.512	504.06
432.734	536.06
432.956	526.06
433.178	533.06
433.4	536.06
433.622	531.06
433.844	518.06
434.066	509.06
434.287	527.06
434.509	530.06
434.731	528.06
434.953	523.06
435.175	539.06
435.397	592.06
435.618	569.06
435.84	619.06
436.062	696.06
436.284	815.06
436.505	648.06
436.727	587.06
436.949	556.06
437.17	549.06
437.392	537.06
437.614	550.06
437.835	559.06
438.057	665.06
438.278	787.06
438.5	760.06
438.721	853.06
438.943	792.06
439.165	647.06
439.386	576.06
439.608	596.06
439.829	583.06
440.05	623.06
440.272	634.06
440.493	586.06
440.715	563.06
440.936	574.06
441.158	538.06
441.379	544.06
441.6	553.06
441.822	568.06
442.043	601.06
442.264	689.06
442.486	744.06
442.707	648.06
442.928	595.06
443.149	605.06
443.371	616.06
443.592	656.06
443.813	753.06
444.034	815.06
444.255	694.06
444.476	606.06
444.698	574.06
444.919	587.06
445.14	689.06
445.361	668.06
445.582	634.06
445.803	671.06
446.024	788.06
446.245	760.06
446.466	721.06
446.687	605.06
446.908	570.06
447.129	564.06
447.35	551.06
447.571	528.06
447.792	541.06
448.013	526.06
448.234	560.06
448.455	605.06
448.675	720.06
448.896	824.06
449.117	691.06
449.338	654.06
449.559	775.06
449.779	878.06
450	680.06
450.221	572.06
450.442	568.06
450.662	537.06
450.883	558.06
451.104	517.06
451.324	505.06
451.545	495.06
451.766	496.06
451.986	483.06
452.207	484.06
452.428	484.06
452.648	481.06
452.869	484.06
453.089	496.06
453.31	494.06
453.53	496.06
453.751	480.06
453.971	480.06
454.192	485.06
454.412	475.06
454.633	494.06
454.853	502.06
455.073	462.06
455.294	496.06
455.514	541.06
455.734	554.06
455.955	502.06
456.175	472.06
456.395	469.06
456.616	454.06
456.836	455.06
457.056	447.06
457.276	458.06
457.497	458.06
457.717	477.06
457.937	473.06
458.157	499.06
458.377	502.06
458.598	491.06
458.818	566.06
459.038	589.06
459.258	621.06
459.478	537.06
459.698	533.06
459.918	544.06
460.138	518.06
460.358	540.06
460.578	537.06
460.798	553.06
461.018	546.06
461.238	554.06
461.458	547.06
461.678	516.06
461.898	551.06
462.118	538.06
462.338	568.06
462.558	566.06
462.777	572.06
462.997	607.06
463.217	604.06
463.437	595.06
463.657	578.06
463.876	590.06
464.096	573.06
464.316	576.06
464.536	572.06
464.755	593.06
464.975	582.06
465.195	594.06
465.414	619.06
465.634	589.06
465.854	551.06
466.073	543.06
466.293	532.06
466.512	507.06
466.732	506.06
466.951	508.06
467.171	513.06
467.391	538.06
467.61	488.06
467.829	518.06
468.049	516.06
468.268	496.06
468.488	476.06
468.707	495.06
468.927	486.06
469.146	470.06
469.365	468.06
469.585	491.06
469.804	509.06
470.023	504.06
470.243	523.06
470.462	517.06
470.681	529.06
470.901	548.06
471.12	505.06
471.339	502.06
471.558	497.06
471.777	518.06
471.997	524.06
472.216	522.06
472.435	528.06
472.654	514.06
472.873	482.06
473.092	501.06
473.311	520.06
473.53	499.06
473.749	523.06
473.968	540.06
474.187	648.06
474.406	660.06
474.625	556.06
474.844	514.06
475.063	511.06
475.282	514.06
475.501	524.06
475.72	501.06
475.939	538.06
476.158	538.06
476.377	532.06
476.596	537.06
476.814	535.06
477.033	541.06
477.252	536.06
477.471	524.06
477.69	556.06
477.908	576.06
478.127	574.06
478.346	568.06
478.564	560.06
478.783	574.06
479.002	593.06
479.22	595.06
479.439	599.06
479.658	585.06
479.876	613.06
480.095	613.06
480.313	647.06
480.532	610.06
480.751	622.06
480.969	668.06
481.188	678.06
481.406	690.06
481.624	621.06
481.843	590.06
482.061	611.06
482.28	595.06
482.498	601.06
482.717	597.06
482.935	594.06
483.153	576.06
483.372	599.06
483.59	617.06
483.808	592.06
484.027	617.06
484.245	610.06
484.463	596.06
484.681	618.06
484.9	592.06
485.118	604.06
485.336	628.06
485.554	634.06
485.772	640.06
485.99	640.06
486.209	637.06
486.427	614.06
486.645	636.06
486.863	640.06
487.081	636.06
487.299	634.06
487.517	623.06
487.735	597.06
487.953	632.06
488.171	642.06
488.389	650.06
488.607	656.06
488.825	654.06
489.043	660.06
489.261	644.06
489.479	626.06
489.696	657.06
489.914	649.06
490.132	688.06
490.35	686.06
490.568	642.06
490.786	673.06
491.003	678.06
491.221	692.06
491.439	710.06
491.657	702.06
491.874	691.06
492.092	716.06
492.31	737.06
492.527	719.06
492.745	724.06
492.963	712.06
493.18	717.06
493.398	735.06
493.615	738.06
493.833	741.06
494.05	732.06
494.268	753.06
494.485	753.06
494.703	753.06
494.92	740.06
495.138	753.06
495.355	733.06
495.573	753.06
495.79	742.06
496.008	758.06
496.225	746.06
496.442	759.06
496.66	747.06
496.877	745.06
497.094	803.06
497.312	779.06
497.529	782.06
497.746	782.06
497.963	798.06
498.181	807.06
498.398	810.06
498.615	842.06
498.832	850.06
499.049	892.06
499.267	922.06
499.484	924.06
499.701	976.06
499.918	987.06
500.135	1074.06
500.352	1078.06
500.569	1128.06
500.786	1134.06
501.003	1107.06
501.22	1058.06
501.437	1032.06
501.654	1032.06
