Data from 1966.PennyLincolnUp.Lamp.En5.5.200Scan.071719.P1.Scan2.head_HRD10591_14-18-03-157.txt Node
Date: Thu Jul 18 14:18:03 EDT 2019
User: cochatt
Spectrometer: HR+D1059
Trigger mode: 1
Integration Time (sec): 1.000000E-1
Scans to average: 1
Electric dark correction enabled: true
Nonlinearity correction enabled: false
Boxcar width: 0
XAxis mode: Wavelengths
Number of Pixels in Spectrum: 2048
>>>>>Begin Spectral Data<<<<<
223.165	-13.94
223.4	-13.94
223.635	-13.94
223.869	-24.94
224.104	-27.94
224.338	-12.94
224.573	-5.94
224.808	1.06
225.042	4.06
225.277	-8.94
225.511	9.06
225.746	-7.94
225.98	-11.94
226.215	3.06
226.449	18.06
226.683	29.06
226.918	24.06
227.152	26.06
227.387	41.06
227.621	24.06
227.856	54.06
228.09	44.06
228.324	45.06
228.559	70.06
228.793	81.06
229.027	77.06
229.262	95.06
229.496	104.06
229.73	150.06
229.964	151.06
230.199	131.06
230.433	115.06
230.667	106.06
230.901	102.06
231.136	107.06
231.37	112.06
231.604	107.06
231.838	118.06
232.072	107.06
232.306	108.06
232.541	124.06
232.775	122.06
233.009	107.06
233.243	117.06
233.477	121.06
233.711	114.06
233.945	109.06
234.179	118.06
234.413	117.06
234.647	116.06
234.881	110.06
235.115	113.06
235.349	113.06
235.583	130.06
235.817	119.06
236.051	124.06
236.285	124.06
236.519	124.06
236.753	131.06
236.987	144.06
237.221	194.06
237.455	237.06
237.689	186.06
237.922	126.06
238.156	141.06
238.39	132.06
238.624	125.06
238.858	123.06
239.091	139.06
239.325	142.06
239.559	112.06
239.793	126.06
240.027	146.06
240.26	147.06
240.494	154.06
240.728	145.06
240.961	150.06
241.195	164.06
241.429	140.06
241.662	115.06
241.896	134.06
242.13	137.06
242.363	142.06
242.597	137.06
242.83	148.06
243.064	146.06
243.298	137.06
243.531	145.06
243.765	148.06
243.998	126.06
244.232	148.06
244.465	163.06
244.699	139.06
244.932	137.06
245.166	150.06
245.399	162.06
245.633	140.06
245.866	135.06
246.099	147.06
246.333	156.06
246.566	142.06
246.8	156.06
247.033	161.06
247.266	153.06
247.5	161.06
247.733	168.06
247.966	175.06
248.2	147.06
248.433	165.06
248.666	173.06
248.899	189.06
249.133	188.06
249.366	227.06
249.599	204.06
249.832	162.06
250.066	175.06
250.299	183.06
250.532	213.06
250.765	193.06
250.998	217.06
251.231	240.06
251.465	203.06
251.698	190.06
251.931	204.06
252.164	196.06
252.397	194.06
252.63	218.06
252.863	201.06
253.096	214.06
253.329	224.06
253.562	228.06
253.795	213.06
254.028	198.06
254.261	223.06
254.494	217.06
254.727	244.06
254.96	256.06
255.193	269.06
255.426	231.06
255.659	232.06
255.892	208.06
256.124	236.06
256.357	222.06
256.59	214.06
256.823	196.06
257.056	217.06
257.289	203.06
257.521	197.06
257.754	208.06
257.987	202.06
258.22	190.06
258.452	197.06
258.685	190.06
258.918	218.06
259.151	194.06
259.383	212.06
259.616	211.06
259.849	230.06
260.081	222.06
260.314	250.06
260.547	240.06
260.779	239.06
261.012	223.06
261.244	233.06
261.477	212.06
261.71	200.06
261.942	227.06
262.175	220.06
262.407	219.06
262.64	208.06
262.872	226.06
263.105	228.06
263.337	229.06
263.57	190.06
263.802	214.06
264.035	214.06
264.267	223.06
264.499	212.06
264.732	217.06
264.964	221.06
265.197	220.06
265.429	199.06
265.661	230.06
265.894	212.06
266.126	219.06
266.358	217.06
266.591	203.06
266.823	212.06
267.055	230.06
267.287	237.06
267.52	216.06
267.752	235.06
267.984	223.06
268.216	223.06
268.448	241.06
268.681	218.06
268.913	235.06
269.145	249.06
269.377	271.06
269.609	256.06
269.841	255.06
270.073	246.06
270.306	290.06
270.538	303.06
270.77	297.06
271.002	291.06
271.234	280.06
271.466	283.06
271.698	283.06
271.93	290.06
272.162	293.06
272.394	316.06
272.626	285.06
272.858	277.06
273.09	267.06
273.322	275.06
273.553	258.06
273.785	263.06
274.017	259.06
274.249	258.06
274.481	259.06
274.713	249.06
274.945	273.06
275.176	262.06
275.408	261.06
275.64	249.06
275.872	250.06
276.104	257.06
276.335	246.06
276.567	262.06
276.799	279.06
277.031	297.06
277.262	307.06
277.494	311.06
277.726	313.06
277.957	290.06
278.189	283.06
278.421	280.06
278.652	260.06
278.884	240.06
279.115	262.06
279.347	279.06
279.579	256.06
279.81	253.06
280.042	255.06
280.273	265.06
280.505	282.06
280.736	268.06
280.968	249.06
281.199	263.06
281.431	284.06
281.662	259.06
281.894	234.06
282.125	248.06
282.356	277.06
282.588	302.06
282.819	296.06
283.051	271.06
283.282	279.06
283.513	287.06
283.745	253.06
283.976	275.06
284.207	284.06
284.439	276.06
284.67	291.06
284.901	272.06
285.132	268.06
285.364	273.06
285.595	266.06
285.826	276.06
286.057	287.06
286.288	270.06
286.52	270.06
286.751	286.06
286.982	302.06
287.213	283.06
287.444	277.06
287.675	270.06
287.906	272.06
288.138	296.06
288.369	300.06
288.6	306.06
288.831	309.06
289.062	269.06
289.293	285.06
289.524	283.06
289.755	282.06
289.986	290.06
290.217	267.06
290.448	270.06
290.679	278.06
290.91	294.06
291.141	287.06
291.371	284.06
291.602	287.06
291.833	269.06
292.064	290.06
292.295	268.06
292.526	297.06
292.757	294.06
292.987	286.06
293.218	303.06
293.449	292.06
293.68	298.06
293.91	290.06
294.141	294.06
294.372	301.06
294.603	269.06
294.833	295.06
295.064	287.06
295.295	291.06
295.525	314.06
295.756	302.06
295.987	308.06
296.217	302.06
296.448	308.06
296.679	300.06
296.909	288.06
297.14	296.06
297.37	296.06
297.601	304.06
297.831	280.06
298.062	301.06
298.292	298.06
298.523	300.06
298.753	266.06
298.984	328.06
299.214	307.06
299.445	296.06
299.675	308.06
299.905	308.06
300.136	282.06
300.366	296.06
300.597	309.06
300.827	298.06
301.057	332.06
301.288	326.06
301.518	319.06
301.748	328.06
301.979	329.06
302.209	325.06
302.439	329.06
302.669	327.06
302.9	308.06
303.13	311.06
303.36	324.06
303.59	335.06
303.82	327.06
304.051	311.06
304.281	322.06
304.511	329.06
304.741	322.06
304.971	309.06
305.201	323.06
305.431	326.06
305.661	320.06
305.891	299.06
306.121	318.06
306.352	314.06
306.582	336.06
306.812	331.06
307.042	322.06
307.272	328.06
307.502	335.06
307.731	345.06
307.961	338.06
308.191	332.06
308.421	334.06
308.651	336.06
308.881	334.06
309.111	323.06
309.341	347.06
309.571	347.06
309.8	338.06
310.03	340.06
310.26	350.06
310.49	357.06
310.72	386.06
310.949	379.06
311.179	382.06
311.409	376.06
311.639	371.06
311.868	367.06
312.098	375.06
312.328	371.06
312.557	395.06
312.787	373.06
313.017	381.06
313.246	373.06
313.476	347.06
313.706	363.06
313.935	377.06
314.165	380.06
314.394	394.06
314.624	382.06
314.853	376.06
315.083	369.06
315.312	371.06
315.542	375.06
315.771	343.06
316.001	362.06
316.23	344.06
316.46	357.06
316.689	357.06
316.919	380.06
317.148	374.06
317.377	367.06
317.607	373.06
317.836	372.06
318.065	390.06
318.295	380.06
318.524	379.06
318.753	380.06
318.983	356.06
319.212	374.06
319.441	385.06
319.67	373.06
319.9	373.06
320.129	367.06
320.358	368.06
320.587	370.06
320.816	376.06
321.046	383.06
321.275	401.06
321.504	399.06
321.733	381.06
321.962	378.06
322.191	399.06
322.42	420.06
322.649	452.06
322.878	434.06
323.108	428.06
323.337	465.06
323.566	487.06
323.795	505.06
324.024	552.06
324.253	640.06
324.482	863.06
324.71	1411.06
324.939	2095.06
325.168	1813.06
325.397	892.06
325.626	626.06
325.855	508.06
326.084	498.06
326.313	472.06
326.542	481.06
326.77	520.06
326.999	626.06
327.228	828.06
327.457	1269.06
327.686	1595.06
327.914	1048.06
328.143	685.06
328.372	583.06
328.6	568.06
328.829	509.06
329.058	542.06
329.287	558.06
329.515	541.06
329.744	475.06
329.972	490.06
330.201	502.06
330.43	547.06
330.658	557.06
330.887	578.06
331.115	559.06
331.344	514.06
331.572	460.06
331.801	502.06
332.03	472.06
332.258	462.06
332.486	460.06
332.715	462.06
332.943	437.06
333.172	436.06
333.4	467.06
333.629	468.06
333.857	475.06
334.085	493.06
334.314	512.06
334.542	544.06
334.771	570.06
334.999	499.06
335.227	475.06
335.455	477.06
335.684	471.06
335.912	437.06
336.14	455.06
336.369	449.06
336.597	462.06
336.825	442.06
337.053	471.06
337.281	452.06
337.51	421.06
337.738	421.06
337.966	435.06
338.194	430.06
338.422	445.06
338.65	439.06
338.878	435.06
339.106	425.06
339.334	427.06
339.562	462.06
339.79	445.06
340.018	426.06
340.246	442.06
340.474	430.06
340.702	428.06
340.93	435.06
341.158	428.06
341.386	441.06
341.614	427.06
341.842	424.06
342.07	416.06
342.298	418.06
342.526	420.06
342.754	399.06
342.981	415.06
343.209	427.06
343.437	438.06
343.665	440.06
343.893	425.06
344.12	443.06
344.348	459.06
344.576	478.06
344.804	435.06
345.031	450.06
345.259	457.06
345.487	442.06
345.714	445.06
345.942	427.06
346.17	429.06
346.397	423.06
346.625	432.06
346.853	433.06
347.08	406.06
347.308	421.06
347.535	407.06
347.763	423.06
347.99	435.06
348.218	416.06
348.445	436.06
348.673	452.06
348.9	421.06
349.128	402.06
349.355	411.06
349.583	395.06
349.81	404.06
350.037	412.06
350.265	408.06
350.492	411.06
350.72	402.06
350.947	408.06
351.174	404.06
351.402	420.06
351.629	416.06
351.856	420.06
352.083	450.06
352.311	440.06
352.538	432.06
352.765	467.06
352.992	443.06
353.22	420.06
353.447	422.06
353.674	423.06
353.901	409.06
354.128	404.06
354.355	408.06
354.583	397.06
354.81	388.06
355.037	415.06
355.264	393.06
355.491	398.06
355.718	388.06
355.945	389.06
356.172	401.06
356.399	391.06
356.626	388.06
356.853	391.06
357.08	386.06
357.307	394.06
357.534	392.06
357.761	384.06
357.988	396.06
358.215	391.06
358.441	409.06
358.668	390.06
358.895	429.06
359.122	421.06
359.349	397.06
359.576	436.06
359.802	438.06
360.029	443.06
360.256	479.06
360.483	465.06
360.709	431.06
360.936	436.06
361.163	443.06
361.39	419.06
361.616	431.06
361.843	427.06
362.07	426.06
362.296	433.06
362.523	407.06
362.749	426.06
362.976	423.06
363.203	418.06
363.429	430.06
363.656	399.06
363.882	402.06
364.109	396.06
364.335	392.06
364.562	411.06
364.788	396.06
365.015	393.06
365.241	438.06
365.468	424.06
365.694	419.06
365.92	400.06
366.147	389.06
366.373	407.06
366.599	413.06
366.826	407.06
367.052	386.06
367.278	413.06
367.505	411.06
367.731	413.06
367.957	408.06
368.184	414.06
368.41	432.06
368.636	430.06
368.862	427.06
369.089	407.06
369.315	424.06
369.541	417.06
369.767	418.06
369.993	409.06
370.219	379.06
370.445	424.06
370.672	396.06
370.898	405.06
371.124	399.06
371.35	422.06
371.576	422.06
371.802	414.06
372.028	435.06
372.254	417.06
372.48	418.06
372.706	410.06
372.932	419.06
373.158	404.06
373.384	424.06
373.61	412.06
373.835	440.06
374.061	406.06
374.287	420.06
374.513	410.06
374.739	423.06
374.965	440.06
375.191	451.06
375.416	432.06
375.642	404.06
375.868	424.06
376.094	414.06
376.319	421.06
376.545	423.06
376.771	398.06
376.997	423.06
377.222	428.06
377.448	421.06
377.674	416.06
377.899	418.06
378.125	416.06
378.35	401.06
378.576	413.06
378.802	418.06
379.027	408.06
379.253	416.06
379.478	401.06
379.704	420.06
379.929	407.06
380.155	411.06
380.38	400.06
380.606	418.06
380.831	431.06
381.057	429.06
381.282	429.06
381.507	424.06
381.733	422.06
381.958	428.06
382.184	426.06
382.409	405.06
382.634	460.06
382.86	430.06
383.085	419.06
383.31	427.06
383.535	421.06
383.761	434.06
383.986	438.06
384.211	451.06
384.436	452.06
384.662	454.06
384.887	453.06
385.112	443.06
385.337	439.06
385.562	484.06
385.787	459.06
386.013	477.06
386.238	461.06
386.463	454.06
386.688	475.06
386.913	447.06
387.138	464.06
387.363	455.06
387.588	469.06
387.813	489.06
388.038	463.06
388.263	464.06
388.488	474.06
388.713	488.06
388.938	483.06
389.163	463.06
389.387	457.06
389.612	454.06
389.837	451.06
390.062	450.06
390.287	462.06
390.512	463.06
390.736	460.06
390.961	463.06
391.186	454.06
391.411	478.06
391.636	477.06
391.86	506.06
392.085	473.06
392.31	500.06
392.534	478.06
392.759	509.06
392.984	464.06
393.208	480.06
393.433	489.06
393.658	485.06
393.882	471.06
394.107	470.06
394.331	464.06
394.556	474.06
394.78	484.06
395.005	464.06
395.229	460.06
395.454	495.06
395.678	486.06
395.903	477.06
396.127	523.06
396.352	517.06
396.576	494.06
396.801	488.06
397.025	488.06
397.249	515.06
397.474	516.06
397.698	515.06
397.922	515.06
398.147	546.06
398.371	532.06
398.595	507.06
398.82	551.06
399.044	544.06
399.268	566.06
399.492	583.06
399.717	627.06
399.941	658.06
400.165	673.06
400.389	672.06
400.613	622.06
400.837	591.06
401.062	574.06
401.286	550.06
401.51	513.06
401.734	554.06
401.958	534.06
402.182	548.06
402.406	546.06
402.63	546.06
402.854	539.06
403.078	546.06
403.302	554.06
403.526	566.06
403.75	576.06
403.974	582.06
404.198	571.06
404.422	563.06
404.645	555.06
404.869	591.06
405.093	611.06
405.317	656.06
405.541	707.06
405.765	629.06
405.988	594.06
406.212	616.06
406.436	610.06
406.66	619.06
406.883	613.06
407.107	654.06
407.331	679.06
407.555	727.06
407.778	737.06
408.002	672.06
408.226	628.06
408.449	624.06
408.673	627.06
408.896	660.06
409.12	695.06
409.344	657.06
409.567	607.06
409.791	582.06
410.014	558.06
410.238	572.06
410.461	565.06
410.685	567.06
410.908	580.06
411.132	600.06
411.355	644.06
411.578	612.06
411.802	585.06
412.025	557.06
412.249	570.06
412.472	593.06
412.695	663.06
412.919	618.06
413.142	588.06
413.365	564.06
413.589	566.06
413.812	545.06
414.035	538.06
414.258	539.06
414.482	541.06
414.705	557.06
414.928	542.06
415.151	539.06
415.374	520.06
415.597	554.06
415.821	546.06
416.044	544.06
416.267	529.06
416.49	534.06
416.713	527.06
416.936	534.06
417.159	534.06
417.382	539.06
417.605	541.06
417.828	552.06
418.051	554.06
418.274	570.06
418.497	538.06
418.72	522.06
418.943	545.06
419.166	570.06
419.389	571.06
419.611	578.06
419.834	565.06
420.057	570.06
420.28	548.06
420.503	580.06
420.726	568.06
420.948	600.06
421.171	613.06
421.394	659.06
421.617	576.06
421.839	550.06
422.062	559.06
422.285	568.06
422.507	603.06
422.73	699.06
422.953	676.06
423.175	594.06
423.398	594.06
423.621	572.06
423.843	619.06
424.066	602.06
424.288	632.06
424.511	629.06
424.733	668.06
424.956	750.06
425.178	712.06
425.401	725.06
425.623	736.06
425.846	664.06
426.068	595.06
426.291	589.06
426.513	591.06
426.735	606.06
426.958	662.06
427.18	740.06
427.402	862.06
427.625	939.06
427.847	824.06
428.069	758.06
428.292	661.06
428.514	596.06
428.736	566.06
428.958	572.06
429.181	558.06
429.403	562.06
429.625	528.06
429.847	588.06
430.069	660.06
430.292	662.06
430.514	581.06
430.736	549.06
430.958	562.06
431.18	549.06
431.402	521.06
431.624	513.06
431.846	517.06
432.068	555.06
432.29	536.06
432.512	528.06
432.734	563.06
432.956	543.06
433.178	536.06
433.4	541.06
433.622	536.06
433.844	529.06
434.066	498.06
434.287	512.06
434.509	557.06
434.731	534.06
434.953	549.06
435.175	573.06
435.397	598.06
435.618	608.06
435.84	622.06
436.062	730.06
436.284	817.06
436.505	660.06
436.727	622.06
436.949	574.06
437.17	564.06
437.392	568.06
437.614	588.06
437.835	596.06
438.057	686.06
438.278	798.06
438.5	807.06
438.721	878.06
438.943	857.06
439.165	704.06
439.386	631.06
439.608	625.06
439.829	610.06
440.05	617.06
440.272	692.06
440.493	622.06
440.715	601.06
440.936	568.06
441.158	576.06
441.379	572.06
441.6	582.06
441.822	589.06
442.043	630.06
442.264	738.06
442.486	744.06
442.707	641.06
442.928	620.06
443.149	624.06
443.371	679.06
443.592	670.06
443.813	799.06
444.034	846.06
444.255	712.06
444.476	660.06
444.698	634.06
444.919	614.06
445.14	726.06
445.361	664.06
445.582	650.06
445.803	713.06
446.024	832.06
446.245	839.06
446.466	741.06
446.687	641.06
446.908	589.06
447.129	592.06
447.35	548.06
447.571	550.06
447.792	543.06
448.013	539.06
448.234	582.06
448.455	607.06
448.675	748.06
448.896	884.06
449.117	748.06
449.338	699.06
449.559	806.06
449.779	919.06
450	733.06
450.221	629.06
450.442	563.06
450.662	528.06
450.883	546.06
451.104	527.06
451.324	552.06
451.545	520.06
451.766	517.06
451.986	516.06
452.207	494.06
452.428	505.06
452.648	496.06
452.869	485.06
453.089	504.06
453.31	533.06
453.53	488.06
453.751	508.06
453.971	486.06
454.192	512.06
454.412	512.06
454.633	497.06
454.853	494.06
455.073	490.06
455.294	521.06
455.514	592.06
455.734	582.06
455.955	517.06
456.175	492.06
456.395	494.06
456.616	469.06
456.836	469.06
457.056	467.06
457.276	463.06
457.497	439.06
457.717	476.06
457.937	476.06
458.157	488.06
458.377	495.06
458.598	522.06
458.818	556.06
459.038	647.06
459.258	679.06
459.478	592.06
459.698	532.06
459.918	516.06
460.138	540.06
460.358	536.06
460.578	540.06
460.798	568.06
461.018	525.06
461.238	536.06
461.458	528.06
461.678	537.06
461.898	546.06
462.118	550.06
462.338	558.06
462.558	564.06
462.777	582.06
462.997	598.06
463.217	598.06
463.437	597.06
463.657	614.06
463.876	571.06
464.096	596.06
464.316	594.06
464.536	590.06
464.755	584.06
464.975	602.06
465.195	610.06
465.414	672.06
465.634	610.06
465.854	592.06
466.073	556.06
466.293	518.06
466.512	514.06
466.732	516.06
466.951	511.06
467.171	489.06
467.391	520.06
467.61	538.06
467.829	524.06
468.049	534.06
468.268	542.06
468.488	511.06
468.707	482.06
468.927	474.06
469.146	505.06
469.365	519.06
469.585	498.06
469.804	510.06
470.023	503.06
470.243	535.06
470.462	525.06
470.681	568.06
470.901	538.06
471.12	535.06
471.339	533.06
471.558	535.06
471.777	538.06
471.997	528.06
472.216	538.06
472.435	551.06
472.654	541.06
472.873	535.06
473.092	518.06
473.311	519.06
473.53	514.06
473.749	540.06
473.968	554.06
474.187	669.06
474.406	694.06
474.625	559.06
474.844	532.06
475.063	544.06
475.282	526.06
475.501	535.06
475.72	519.06
475.939	536.06
476.158	536.06
476.377	519.06
476.596	538.06
476.814	533.06
477.033	537.06
477.252	551.06
477.471	555.06
477.69	576.06
477.908	567.06
478.127	580.06
478.346	576.06
478.564	570.06
478.783	596.06
479.002	579.06
479.22	611.06
479.439	611.06
479.658	633.06
479.876	592.06
480.095	650.06
480.313	675.06
480.532	654.06
480.751	661.06
480.969	666.06
481.188	695.06
481.406	730.06
481.624	638.06
481.843	656.06
482.061	636.06
482.28	616.06
482.498	630.06
482.717	628.06
482.935	632.06
483.153	620.06
483.372	607.06
483.59	628.06
483.808	608.06
484.027	608.06
484.245	626.06
484.463	615.06
484.681	627.06
484.9	627.06
485.118	623.06
485.336	623.06
485.554	623.06
485.772	631.06
485.99	639.06
486.209	642.06
486.427	642.06
486.645	651.06
486.863	657.06
487.081	665.06
487.299	670.06
487.517	679.06
487.735	639.06
487.953	648.06
488.171	647.06
488.389	677.06
488.607	670.06
488.825	674.06
489.043	681.06
489.261	662.06
489.479	664.06
489.696	682.06
489.914	679.06
490.132	663.06
490.35	702.06
490.568	681.06
490.786	713.06
491.003	703.06
491.221	740.06
491.439	733.06
491.657	732.06
491.874	740.06
492.092	743.06
492.31	739.06
492.527	743.06
492.745	780.06
492.963	756.06
493.18	764.06
493.398	785.06
493.615	775.06
493.833	795.06
494.05	751.06
494.268	782.06
494.485	767.06
494.703	744.06
494.92	742.06
495.138	773.06
495.355	819.06
495.573	796.06
495.79	785.06
496.008	774.06
496.225	775.06
496.442	791.06
496.66	797.06
496.877	803.06
497.094	772.06
497.312	790.06
497.529	813.06
497.746	808.06
497.963	845.06
498.181	864.06
498.398	868.06
498.615	888.06
498.832	898.06
499.049	916.06
499.267	913.06
499.484	935.06
499.701	1002.06
499.918	1050.06
500.135	1060.06
500.352	1116.06
500.569	1153.06
500.786	1162.06
501.003	1122.06
501.22	1110.06
501.437	1077.06
501.654	1007.06
