Data from 1966.PennyLincolnUp.Lamp.En5.5.200Scan.071719.P1._HRD10591_14-15-21-943.txt Node
Date: Thu Jul 18 14:15:21 EDT 2019
User: cochatt
Spectrometer: HR+D1059
Trigger mode: 1
Integration Time (sec): 1.000000E-1
Scans to average: 1
Electric dark correction enabled: true
Nonlinearity correction enabled: false
Boxcar width: 0
XAxis mode: Wavelengths
Number of Pixels in Spectrum: 2048
>>>>>Begin Spectral Data<<<<<
223.165	-6.75
223.4	-6.75
223.635	-6.75
223.869	-5.75
224.104	-23.75
224.338	-26.75
224.573	-19.75
224.808	3.25
225.042	-13.75
225.277	-2.75
225.511	-9.75
225.746	-7.75
225.98	10.25
226.215	7.25
226.449	8.25
226.683	14.25
226.918	34.25
227.152	39.25
227.387	34.25
227.621	33.25
227.856	26.25
228.09	27.25
228.324	44.25
228.559	35.25
228.793	58.25
229.027	81.25
229.262	82.25
229.496	93.25
229.73	89.25
229.964	105.25
230.199	106.25
230.433	90.25
230.667	84.25
230.901	84.25
231.136	83.25
231.37	87.25
231.604	80.25
231.838	92.25
232.072	89.25
232.306	91.25
232.541	98.25
232.775	96.25
233.009	88.25
233.243	87.25
233.477	95.25
233.711	91.25
233.945	75.25
234.179	106.25
234.413	90.25
234.647	75.25
234.881	103.25
235.115	100.25
235.349	92.25
235.583	95.25
235.817	105.25
236.051	108.25
236.285	98.25
236.519	111.25
236.753	104.25
236.987	121.25
237.221	120.25
237.455	149.25
237.689	147.25
237.922	106.25
238.156	82.25
238.39	95.25
238.624	104.25
238.858	89.25
239.091	82.25
239.325	92.25
239.559	105.25
239.793	89.25
240.027	104.25
240.26	117.25
240.494	123.25
240.728	118.25
240.961	108.25
241.195	90.25
241.429	109.25
241.662	104.25
241.896	89.25
242.13	106.25
242.363	105.25
242.597	104.25
242.83	102.25
243.064	92.25
243.298	105.25
243.531	103.25
243.765	96.25
243.998	82.25
244.232	105.25
244.465	118.25
244.699	97.25
244.932	115.25
245.166	100.25
245.399	111.25
245.633	113.25
245.866	116.25
246.099	96.25
246.333	113.25
246.566	115.25
246.8	115.25
247.033	99.25
247.266	104.25
247.5	89.25
247.733	118.25
247.966	113.25
248.2	123.25
248.433	108.25
248.666	119.25
248.899	125.25
249.133	125.25
249.366	136.25
249.599	149.25
249.832	124.25
250.066	109.25
250.299	127.25
250.532	131.25
250.765	131.25
250.998	141.25
251.231	143.25
251.465	139.25
251.698	126.25
251.931	129.25
252.164	129.25
252.397	133.25
252.63	107.25
252.863	122.25
253.096	136.25
253.329	153.25
253.562	140.25
253.795	134.25
254.028	119.25
254.261	151.25
254.494	139.25
254.727	170.25
254.96	165.25
255.193	177.25
255.426	149.25
255.659	145.25
255.892	152.25
256.124	140.25
256.357	150.25
256.59	131.25
256.823	135.25
257.056	132.25
257.289	129.25
257.521	124.25
257.754	133.25
257.987	133.25
258.22	138.25
258.452	124.25
258.685	135.25
258.918	142.25
259.151	125.25
259.383	129.25
259.616	127.25
259.849	147.25
260.081	138.25
260.314	163.25
260.547	168.25
260.779	130.25
261.012	139.25
261.244	123.25
261.477	139.25
261.71	146.25
261.942	137.25
262.175	142.25
262.407	155.25
262.64	146.25
262.872	135.25
263.105	141.25
263.337	140.25
263.57	132.25
263.802	131.25
264.035	134.25
264.267	141.25
264.499	129.25
264.732	124.25
264.964	132.25
265.197	132.25
265.429	135.25
265.661	139.25
265.894	134.25
266.126	140.25
266.358	147.25
266.591	131.25
266.823	137.25
267.055	141.25
267.287	131.25
267.52	143.25
267.752	150.25
267.984	146.25
268.216	142.25
268.448	155.25
268.681	143.25
268.913	153.25
269.145	152.25
269.377	149.25
269.609	157.25
269.841	163.25
270.073	189.25
270.306	201.25
270.538	200.25
270.77	192.25
271.002	161.25
271.234	187.25
271.466	175.25
271.698	178.25
271.93	171.25
272.162	204.25
272.394	194.25
272.626	158.25
272.858	181.25
273.09	163.25
273.322	166.25
273.553	151.25
273.785	167.25
274.017	157.25
274.249	167.25
274.481	153.25
274.713	158.25
274.945	156.25
275.176	167.25
275.408	163.25
275.64	157.25
275.872	156.25
276.104	145.25
276.335	177.25
276.567	159.25
276.799	173.25
277.031	185.25
277.262	193.25
277.494	185.25
277.726	183.25
277.957	170.25
278.189	159.25
278.421	171.25
278.652	157.25
278.884	171.25
279.115	148.25
279.347	153.25
279.579	154.25
279.81	166.25
280.042	168.25
280.273	167.25
280.505	153.25
280.736	145.25
280.968	156.25
281.199	164.25
281.431	148.25
281.662	165.25
281.894	140.25
282.125	150.25
282.356	175.25
282.588	199.25
282.819	184.25
283.051	157.25
283.282	165.25
283.513	149.25
283.745	157.25
283.976	166.25
284.207	160.25
284.439	166.25
284.67	171.25
284.901	167.25
285.132	153.25
285.364	165.25
285.595	165.25
285.826	170.25
286.057	173.25
286.288	169.25
286.52	160.25
286.751	176.25
286.982	165.25
287.213	173.25
287.444	161.25
287.675	188.25
287.906	173.25
288.138	180.25
288.369	186.25
288.6	177.25
288.831	175.25
289.062	181.25
289.293	179.25
289.524	175.25
289.755	183.25
289.986	171.25
290.217	163.25
290.448	168.25
290.679	167.25
290.91	181.25
291.141	171.25
291.371	169.25
291.602	170.25
291.833	183.25
292.064	163.25
292.295	169.25
292.526	175.25
292.757	161.25
292.987	176.25
293.218	173.25
293.449	161.25
293.68	186.25
293.91	166.25
294.141	166.25
294.372	175.25
294.603	171.25
294.833	181.25
295.064	175.25
295.295	151.25
295.525	183.25
295.756	171.25
295.987	192.25
296.217	182.25
296.448	206.25
296.679	171.25
296.909	164.25
297.14	175.25
297.37	181.25
297.601	184.25
297.831	182.25
298.062	176.25
298.292	180.25
298.523	180.25
298.753	189.25
298.984	168.25
299.214	165.25
299.445	188.25
299.675	177.25
299.905	181.25
300.136	196.25
300.366	184.25
300.597	168.25
300.827	189.25
301.057	171.25
301.288	189.25
301.518	189.25
301.748	189.25
301.979	191.25
302.209	179.25
302.439	182.25
302.669	187.25
302.9	184.25
303.13	183.25
303.36	208.25
303.59	192.25
303.82	204.25
304.051	183.25
304.281	196.25
304.511	205.25
304.741	180.25
304.971	184.25
305.201	179.25
305.431	202.25
305.661	183.25
305.891	185.25
306.121	201.25
306.352	189.25
306.582	191.25
306.812	183.25
307.042	179.25
307.272	187.25
307.502	179.25
307.731	199.25
307.961	178.25
308.191	191.25
308.421	192.25
308.651	199.25
308.881	206.25
309.111	211.25
309.341	207.25
309.571	187.25
309.8	208.25
310.03	199.25
310.26	229.25
310.49	207.25
310.72	215.25
310.949	225.25
311.179	223.25
311.409	210.25
311.639	211.25
311.868	204.25
312.098	218.25
312.328	217.25
312.557	233.25
312.787	230.25
313.017	229.25
313.246	226.25
313.476	211.25
313.706	221.25
313.935	207.25
314.165	221.25
314.394	225.25
314.624	231.25
314.853	231.25
315.083	206.25
315.312	214.25
315.542	204.25
315.771	224.25
316.001	220.25
316.23	200.25
316.46	199.25
316.689	202.25
316.919	219.25
317.148	206.25
317.377	216.25
317.607	203.25
317.836	212.25
318.065	214.25
318.295	223.25
318.524	204.25
318.753	209.25
318.983	220.25
319.212	193.25
319.441	216.25
319.67	216.25
319.9	203.25
320.129	211.25
320.358	210.25
320.587	230.25
320.816	218.25
321.046	207.25
321.275	215.25
321.504	224.25
321.733	210.25
321.962	234.25
322.191	237.25
322.42	221.25
322.649	249.25
322.878	257.25
323.108	248.25
323.337	280.25
323.566	262.25
323.795	292.25
324.024	310.25
324.253	385.25
324.482	563.25
324.71	841.25
324.939	1133.25
325.168	917.25
325.397	478.25
325.626	328.25
325.855	279.25
326.084	266.25
326.313	239.25
326.542	249.25
326.77	309.25
326.999	367.25
327.228	508.25
327.457	744.25
327.686	850.25
327.914	554.25
328.143	387.25
328.372	351.25
328.6	321.25
328.829	319.25
329.058	350.25
329.287	352.25
329.515	303.25
329.744	305.25
329.972	295.25
330.201	302.25
330.43	325.25
330.658	359.25
330.887	361.25
331.115	360.25
331.344	302.25
331.572	284.25
331.801	279.25
332.03	292.25
332.258	260.25
332.486	245.25
332.715	249.25
332.943	230.25
333.172	270.25
333.4	261.25
333.629	259.25
333.857	264.25
334.085	281.25
334.314	292.25
334.542	314.25
334.771	340.25
334.999	301.25
335.227	251.25
335.455	258.25
335.684	252.25
335.912	242.25
336.14	233.25
336.369	250.25
336.597	255.25
336.825	251.25
337.053	239.25
337.281	236.25
337.51	233.25
337.738	246.25
337.966	236.25
338.194	257.25
338.422	220.25
338.65	236.25
338.878	227.25
339.106	243.25
339.334	220.25
339.562	219.25
339.79	212.25
340.018	216.25
340.246	245.25
340.474	231.25
340.702	247.25
340.93	219.25
341.158	227.25
341.386	239.25
341.614	240.25
341.842	235.25
342.07	222.25
342.298	244.25
342.526	242.25
342.754	215.25
342.981	221.25
343.209	211.25
343.437	227.25
343.665	225.25
343.893	233.25
344.12	226.25
344.348	223.25
344.576	231.25
344.804	234.25
345.031	224.25
345.259	245.25
345.487	226.25
345.714	235.25
345.942	235.25
346.17	224.25
346.397	225.25
346.625	228.25
346.853	220.25
347.08	225.25
347.308	247.25
347.535	236.25
347.763	235.25
347.99	223.25
348.218	241.25
348.445	245.25
348.673	241.25
348.9	224.25
349.128	224.25
349.355	228.25
349.583	229.25
349.81	217.25
350.037	218.25
350.265	220.25
350.492	233.25
350.72	216.25
350.947	230.25
351.174	231.25
351.402	229.25
351.629	236.25
351.856	243.25
352.083	247.25
352.311	273.25
352.538	241.25
352.765	252.25
352.992	245.25
353.22	212.25
353.447	234.25
353.674	238.25
353.901	227.25
354.128	207.25
354.355	227.25
354.583	201.25
354.81	216.25
355.037	219.25
355.264	207.25
355.491	205.25
355.718	208.25
355.945	203.25
356.172	189.25
356.399	196.25
356.626	194.25
356.853	215.25
357.08	190.25
357.307	212.25
357.534	225.25
357.761	208.25
357.988	220.25
358.215	208.25
358.441	210.25
358.668	223.25
358.895	234.25
359.122	220.25
359.349	216.25
359.576	212.25
359.802	240.25
360.029	274.25
360.256	256.25
360.483	255.25
360.709	224.25
360.936	245.25
361.163	232.25
361.39	232.25
361.616	218.25
361.843	206.25
362.07	237.25
362.296	225.25
362.523	230.25
362.749	208.25
362.976	200.25
363.203	216.25
363.429	212.25
363.656	221.25
363.882	218.25
364.109	212.25
364.335	200.25
364.562	217.25
364.788	205.25
365.015	247.25
365.241	223.25
365.468	220.25
365.694	223.25
365.92	226.25
366.147	216.25
366.373	215.25
366.599	224.25
366.826	202.25
367.052	211.25
367.278	219.25
367.505	220.25
367.731	223.25
367.957	223.25
368.184	209.25
368.41	218.25
368.636	239.25
368.862	233.25
369.089	237.25
369.315	227.25
369.541	218.25
369.767	222.25
369.993	220.25
370.219	211.25
370.445	213.25
370.672	209.25
370.898	208.25
371.124	228.25
371.35	215.25
371.576	211.25
371.802	201.25
372.028	202.25
372.254	212.25
372.48	205.25
372.706	200.25
372.932	220.25
373.158	212.25
373.384	216.25
373.61	215.25
373.835	219.25
374.061	207.25
374.287	199.25
374.513	208.25
374.739	211.25
374.965	224.25
375.191	228.25
375.416	205.25
375.642	203.25
375.868	201.25
376.094	217.25
376.319	218.25
376.545	213.25
376.771	220.25
376.997	217.25
377.222	195.25
377.448	215.25
377.674	204.25
377.899	208.25
378.125	204.25
378.35	202.25
378.576	205.25
378.802	202.25
379.027	204.25
379.253	209.25
379.478	200.25
379.704	215.25
379.929	208.25
380.155	223.25
380.38	200.25
380.606	224.25
380.831	212.25
381.057	230.25
381.282	203.25
381.507	226.25
381.733	210.25
381.958	219.25
382.184	233.25
382.409	194.25
382.634	221.25
382.86	214.25
383.085	216.25
383.31	202.25
383.535	200.25
383.761	236.25
383.986	216.25
384.211	234.25
384.436	231.25
384.662	221.25
384.887	197.25
385.112	211.25
385.337	225.25
385.562	215.25
385.787	220.25
386.013	244.25
386.238	229.25
386.463	234.25
386.688	216.25
386.913	220.25
387.138	218.25
387.363	218.25
387.588	214.25
387.813	232.25
388.038	228.25
388.263	220.25
388.488	223.25
388.713	227.25
388.938	222.25
389.163	237.25
389.387	211.25
389.612	213.25
389.837	236.25
390.062	221.25
390.287	236.25
390.512	228.25
390.736	222.25
390.961	210.25
391.186	205.25
391.411	231.25
391.636	233.25
391.86	222.25
392.085	234.25
392.31	225.25
392.534	239.25
392.759	242.25
392.984	223.25
393.208	218.25
393.433	232.25
393.658	234.25
393.882	228.25
394.107	213.25
394.331	224.25
394.556	228.25
394.78	221.25
395.005	234.25
395.229	244.25
395.454	220.25
395.678	234.25
395.903	225.25
396.127	239.25
396.352	254.25
396.576	237.25
396.801	232.25
397.025	240.25
397.249	236.25
397.474	242.25
397.698	235.25
397.922	257.25
398.147	266.25
398.371	253.25
398.595	250.25
398.82	247.25
399.044	249.25
399.268	259.25
399.492	280.25
399.717	298.25
399.941	305.25
400.165	300.25
400.389	310.25
400.613	282.25
400.837	261.25
401.062	262.25
401.286	257.25
401.51	253.25
401.734	228.25
401.958	264.25
402.182	262.25
402.406	268.25
402.63	282.25
402.854	262.25
403.078	277.25
403.302	274.25
403.526	272.25
403.75	274.25
403.974	270.25
404.198	267.25
404.422	279.25
404.645	268.25
404.869	258.25
405.093	289.25
405.317	301.25
405.541	317.25
405.765	280.25
405.988	284.25
406.212	289.25
406.436	303.25
406.66	305.25
406.883	293.25
407.107	306.25
407.331	336.25
407.555	343.25
407.778	331.25
408.002	314.25
408.226	284.25
408.449	276.25
408.673	282.25
408.896	291.25
409.12	308.25
409.344	299.25
409.567	279.25
409.791	266.25
410.014	261.25
410.238	268.25
410.461	273.25
410.685	265.25
410.908	259.25
411.132	281.25
411.355	291.25
411.578	285.25
411.802	279.25
412.025	274.25
412.249	282.25
412.472	285.25
412.695	291.25
412.919	290.25
413.142	290.25
413.365	275.25
413.589	253.25
413.812	248.25
414.035	265.25
414.258	236.25
414.482	265.25
414.705	260.25
414.928	256.25
415.151	239.25
415.374	260.25
415.597	240.25
415.821	237.25
416.044	263.25
416.267	252.25
416.49	255.25
416.713	253.25
416.936	259.25
417.159	231.25
417.382	262.25
417.605	255.25
417.828	257.25
418.051	266.25
418.274	251.25
418.497	265.25
418.72	260.25
418.943	254.25
419.166	245.25
419.389	255.25
419.611	265.25
419.834	271.25
420.057	281.25
420.28	256.25
420.503	270.25
420.726	266.25
420.948	274.25
421.171	299.25
421.394	296.25
421.617	278.25
421.839	268.25
422.062	256.25
422.285	268.25
422.507	279.25
422.73	345.25
422.953	316.25
423.175	278.25
423.398	283.25
423.621	284.25
423.843	287.25
424.066	279.25
424.288	275.25
424.511	308.25
424.733	323.25
424.956	357.25
425.178	355.25
425.401	333.25
425.623	335.25
425.846	267.25
426.068	288.25
426.291	297.25
426.513	281.25
426.735	263.25
426.958	299.25
427.18	345.25
427.402	406.25
427.625	447.25
427.847	392.25
428.069	353.25
428.292	292.25
428.514	273.25
428.736	269.25
428.958	262.25
429.181	268.25
429.403	243.25
429.625	261.25
429.847	291.25
430.069	312.25
430.292	308.25
430.514	268.25
430.736	255.25
430.958	240.25
431.18	242.25
431.402	243.25
431.624	232.25
431.846	243.25
432.068	252.25
432.29	256.25
432.512	233.25
432.734	259.25
432.956	242.25
433.178	257.25
433.4	255.25
433.622	244.25
433.844	244.25
434.066	253.25
434.287	259.25
434.509	241.25
434.731	249.25
434.953	265.25
435.175	282.25
435.397	281.25
435.618	290.25
435.84	295.25
436.062	341.25
436.284	375.25
436.505	305.25
436.727	280.25
436.949	270.25
437.17	252.25
437.392	246.25
437.614	277.25
437.835	291.25
438.057	359.25
438.278	388.25
438.5	368.25
438.721	393.25
438.943	363.25
439.165	297.25
439.386	277.25
439.608	300.25
439.829	307.25
440.05	301.25
440.272	327.25
440.493	298.25
440.715	294.25
440.936	264.25
441.158	266.25
441.379	275.25
441.6	279.25
441.822	279.25
442.043	300.25
442.264	343.25
442.486	340.25
442.707	307.25
442.928	300.25
443.149	306.25
443.371	309.25
443.592	333.25
443.813	388.25
444.034	363.25
444.255	323.25
444.476	308.25
444.698	307.25
444.919	280.25
445.14	346.25
445.361	333.25
445.582	305.25
445.803	343.25
446.024	407.25
446.245	380.25
446.466	337.25
446.687	293.25
446.908	282.25
447.129	262.25
447.35	260.25
447.571	269.25
447.792	263.25
448.013	263.25
448.234	261.25
448.455	279.25
448.675	351.25
448.896	368.25
449.117	328.25
449.338	314.25
449.559	373.25
449.779	406.25
450	322.25
450.221	285.25
450.442	274.25
450.662	260.25
450.883	262.25
451.104	289.25
451.324	288.25
451.545	248.25
451.766	256.25
451.986	249.25
452.207	221.25
452.428	227.25
452.648	239.25
452.869	260.25
453.089	239.25
453.31	251.25
453.53	257.25
453.751	239.25
453.971	248.25
454.192	257.25
454.412	262.25
454.633	234.25
454.853	241.25
455.073	255.25
455.294	245.25
455.514	290.25
455.734	285.25
455.955	242.25
456.175	237.25
456.395	230.25
456.616	214.25
456.836	227.25
457.056	228.25
457.276	224.25
457.497	227.25
457.717	223.25
457.937	234.25
458.157	245.25
458.377	255.25
458.598	244.25
458.818	298.25
459.038	346.25
459.258	338.25
459.478	275.25
459.698	246.25
459.918	265.25
460.138	245.25
460.358	260.25
460.578	241.25
460.798	251.25
461.018	250.25
461.238	240.25
461.458	226.25
461.678	235.25
461.898	263.25
462.118	244.25
462.338	225.25
462.558	263.25
462.777	273.25
462.997	266.25
463.217	278.25
463.437	288.25
463.657	279.25
463.876	261.25
464.096	263.25
464.316	259.25
464.536	259.25
464.755	304.25
464.975	281.25
465.195	328.25
465.414	384.25
465.634	303.25
465.854	277.25
466.073	234.25
466.293	251.25
466.512	246.25
466.732	226.25
466.951	247.25
467.171	257.25
467.391	263.25
467.61	251.25
467.829	256.25
468.049	244.25
468.268	266.25
468.488	233.25
468.707	258.25
468.927	231.25
469.146	239.25
469.365	229.25
469.585	252.25
469.804	242.25
470.023	249.25
470.243	255.25
470.462	250.25
470.681	268.25
470.901	261.25
471.12	249.25
471.339	252.25
471.558	245.25
471.777	240.25
471.997	236.25
472.216	262.25
472.435	283.25
472.654	276.25
472.873	243.25
473.092	244.25
473.311	231.25
473.53	230.25
473.749	238.25
473.968	279.25
474.187	348.25
474.406	328.25
474.625	258.25
474.844	257.25
475.063	251.25
475.282	252.25
475.501	240.25
475.72	269.25
475.939	248.25
476.158	267.25
476.377	238.25
476.596	263.25
476.814	256.25
477.033	262.25
477.252	260.25
477.471	241.25
477.69	257.25
477.908	274.25
478.127	273.25
478.346	267.25
478.564	265.25
478.783	251.25
479.002	285.25
479.22	279.25
479.439	288.25
479.658	305.25
479.876	303.25
480.095	294.25
480.313	312.25
480.532	303.25
480.751	306.25
480.969	325.25
481.188	377.25
481.406	410.25
481.624	330.25
481.843	297.25
482.061	311.25
482.28	263.25
482.498	259.25
482.717	277.25
482.935	307.25
483.153	290.25
483.372	270.25
483.59	280.25
483.808	279.25
484.027	276.25
484.245	277.25
484.463	270.25
484.681	283.25
484.9	303.25
485.118	290.25
485.336	287.25
485.554	306.25
485.772	311.25
485.99	290.25
486.209	286.25
486.427	276.25
486.645	314.25
486.863	312.25
487.081	329.25
487.299	305.25
487.517	307.25
487.735	306.25
487.953	292.25
488.171	311.25
488.389	309.25
488.607	297.25
488.825	308.25
489.043	314.25
489.261	324.25
489.479	294.25
489.696	306.25
489.914	312.25
490.132	305.25
490.35	304.25
490.568	319.25
490.786	333.25
491.003	326.25
491.221	356.25
491.439	368.25
491.657	351.25
491.874	367.25
492.092	367.25
492.31	360.25
492.527	378.25
492.745	376.25
492.963	353.25
493.18	387.25
493.398	365.25
493.615	372.25
493.833	350.25
494.05	382.25
494.268	357.25
494.485	374.25
494.703	371.25
494.92	358.25
495.138	343.25
495.355	353.25
495.573	381.25
495.79	370.25
496.008	367.25
496.225	347.25
496.442	344.25
496.66	348.25
496.877	352.25
497.094	355.25
497.312	376.25
497.529	369.25
497.746	349.25
497.963	345.25
498.181	363.25
498.398	390.25
498.615	385.25
498.832	388.25
499.049	391.25
499.267	389.25
499.484	424.25
499.701	423.25
499.918	412.25
500.135	439.25
500.352	453.25
500.569	468.25
500.786	476.25
501.003	469.25
501.22	451.25
501.437	455.25
501.654	448.25
501.871	423.25
502.088	435.25
502.305	387.25
502.522	386.25
