Data from 1966.PennyLincolnUp.Lamp.En5.5.200Scan.071719.P1._HRD10591_14-12-40-914.txt Node
Date: Thu Jul 18 14:12:40 EDT 2019
User: cochatt
Spectrometer: HR+D1059
Trigger mode: 1
Integration Time (sec): 1.000000E-1
Scans to average: 1
Electric dark correction enabled: true
Nonlinearity correction enabled: false
Boxcar width: 0
XAxis mode: Wavelengths
Number of Pixels in Spectrum: 2048
>>>>>Begin Spectral Data<<<<<
223.165	-36.75
223.4	-36.75
223.635	-36.75
223.869	-5.75
224.104	-11.75
224.338	-6.75
224.573	-18.75
224.808	-19.75
225.042	-2.75
225.277	0.25
225.511	1.25
225.746	5.25
225.98	4.25
226.215	5.25
226.449	14.25
226.683	18.25
226.918	15.25
227.152	38.25
227.387	40.25
227.621	38.25
227.856	37.25
228.09	49.25
228.324	52.25
228.559	44.25
228.793	64.25
229.027	60.25
229.262	83.25
229.496	92.25
229.73	94.25
229.964	104.25
230.199	86.25
230.433	78.25
230.667	82.25
230.901	80.25
231.136	87.25
231.37	86.25
231.604	110.25
231.838	90.25
232.072	100.25
232.306	93.25
232.541	105.25
232.775	101.25
233.009	89.25
233.243	89.25
233.477	91.25
233.711	110.25
233.945	88.25
234.179	94.25
234.413	89.25
234.647	94.25
234.881	99.25
235.115	98.25
235.349	106.25
235.583	113.25
235.817	100.25
236.051	110.25
236.285	91.25
236.519	93.25
236.753	91.25
236.987	98.25
237.221	121.25
237.455	136.25
237.689	109.25
237.922	116.25
238.156	101.25
238.39	100.25
238.624	92.25
238.858	108.25
239.091	87.25
239.325	104.25
239.559	103.25
239.793	98.25
240.027	102.25
240.26	91.25
240.494	104.25
240.728	105.25
240.961	122.25
241.195	117.25
241.429	111.25
241.662	94.25
241.896	109.25
242.13	106.25
242.363	102.25
242.597	97.25
242.83	103.25
243.064	82.25
243.298	108.25
243.531	97.25
243.765	102.25
243.998	84.25
244.232	110.25
244.465	111.25
244.699	92.25
244.932	104.25
245.166	108.25
245.399	110.25
245.633	105.25
245.866	120.25
246.099	116.25
246.333	111.25
246.566	111.25
246.8	103.25
247.033	106.25
247.266	101.25
247.5	107.25
247.733	128.25
247.966	112.25
248.2	116.25
248.433	116.25
248.666	111.25
248.899	126.25
249.133	126.25
249.366	134.25
249.599	118.25
249.832	105.25
250.066	128.25
250.299	121.25
250.532	121.25
250.765	140.25
250.998	147.25
251.231	134.25
251.465	145.25
251.698	105.25
251.931	131.25
252.164	119.25
252.397	100.25
252.63	127.25
252.863	134.25
253.096	128.25
253.329	126.25
253.562	135.25
253.795	126.25
254.028	136.25
254.261	130.25
254.494	143.25
254.727	151.25
254.96	167.25
255.193	156.25
255.426	130.25
255.659	106.25
255.892	113.25
256.124	144.25
256.357	148.25
256.59	132.25
256.823	128.25
257.056	148.25
257.289	128.25
257.521	123.25
257.754	116.25
257.987	112.25
258.22	133.25
258.452	120.25
258.685	130.25
258.918	121.25
259.151	140.25
259.383	130.25
259.616	138.25
259.849	141.25
260.081	142.25
260.314	145.25
260.547	159.25
260.779	140.25
261.012	126.25
261.244	142.25
261.477	149.25
261.71	125.25
261.942	142.25
262.175	148.25
262.407	142.25
262.64	132.25
262.872	125.25
263.105	124.25
263.337	123.25
263.57	143.25
263.802	132.25
264.035	142.25
264.267	122.25
264.499	119.25
264.732	137.25
264.964	124.25
265.197	127.25
265.429	125.25
265.661	123.25
265.894	120.25
266.126	128.25
266.358	131.25
266.591	139.25
266.823	143.25
267.055	143.25
267.287	136.25
267.52	136.25
267.752	129.25
267.984	139.25
268.216	144.25
268.448	147.25
268.681	135.25
268.913	158.25
269.145	144.25
269.377	155.25
269.609	141.25
269.841	153.25
270.073	159.25
270.306	148.25
270.538	186.25
270.77	186.25
271.002	165.25
271.234	156.25
271.466	156.25
271.698	153.25
271.93	166.25
272.162	161.25
272.394	170.25
272.626	169.25
272.858	166.25
273.09	152.25
273.322	170.25
273.553	170.25
273.785	147.25
274.017	154.25
274.249	148.25
274.481	145.25
274.713	147.25
274.945	155.25
275.176	165.25
275.408	143.25
275.64	153.25
275.872	155.25
276.104	167.25
276.335	156.25
276.567	154.25
276.799	159.25
277.031	176.25
277.262	200.25
277.494	195.25
277.726	152.25
277.957	161.25
278.189	160.25
278.421	128.25
278.652	145.25
278.884	152.25
279.115	155.25
279.347	149.25
279.579	139.25
279.81	148.25
280.042	149.25
280.273	160.25
280.505	158.25
280.736	166.25
280.968	144.25
281.199	143.25
281.431	158.25
281.662	153.25
281.894	163.25
282.125	168.25
282.356	169.25
282.588	159.25
282.819	153.25
283.051	154.25
283.282	155.25
283.513	155.25
283.745	158.25
283.976	161.25
284.207	163.25
284.439	152.25
284.67	157.25
284.901	152.25
285.132	151.25
285.364	161.25
285.595	156.25
285.826	158.25
286.057	173.25
286.288	169.25
286.52	157.25
286.751	160.25
286.982	159.25
287.213	159.25
287.444	153.25
287.675	159.25
287.906	176.25
288.138	172.25
288.369	165.25
288.6	172.25
288.831	165.25
289.062	152.25
289.293	166.25
289.524	167.25
289.755	173.25
289.986	157.25
290.217	154.25
290.448	161.25
290.679	157.25
290.91	157.25
291.141	153.25
291.371	161.25
291.602	155.25
291.833	160.25
292.064	171.25
292.295	164.25
292.526	173.25
292.757	165.25
292.987	169.25
293.218	161.25
293.449	154.25
293.68	161.25
293.91	161.25
294.141	170.25
294.372	160.25
294.603	167.25
294.833	162.25
295.064	166.25
295.295	176.25
295.525	171.25
295.756	174.25
295.987	169.25
296.217	175.25
296.448	190.25
296.679	161.25
296.909	175.25
297.14	161.25
297.37	167.25
297.601	172.25
297.831	171.25
298.062	173.25
298.292	172.25
298.523	182.25
298.753	160.25
298.984	174.25
299.214	172.25
299.445	171.25
299.675	177.25
299.905	145.25
300.136	169.25
300.366	193.25
300.597	174.25
300.827	169.25
301.057	184.25
301.288	173.25
301.518	171.25
301.748	174.25
301.979	176.25
302.209	173.25
302.439	176.25
302.669	181.25
302.9	180.25
303.13	174.25
303.36	184.25
303.59	178.25
303.82	175.25
304.051	185.25
304.281	178.25
304.511	182.25
304.741	164.25
304.971	189.25
305.201	177.25
305.431	180.25
305.661	186.25
305.891	184.25
306.121	181.25
306.352	170.25
306.582	177.25
306.812	189.25
307.042	175.25
307.272	173.25
307.502	176.25
307.731	190.25
307.961	178.25
308.191	184.25
308.421	180.25
308.651	177.25
308.881	174.25
309.111	186.25
309.341	201.25
309.571	202.25
309.8	186.25
310.03	204.25
310.26	201.25
310.49	198.25
310.72	204.25
310.949	210.25
311.179	205.25
311.409	192.25
311.639	173.25
311.868	203.25
312.098	199.25
312.328	190.25
312.557	202.25
312.787	203.25
313.017	219.25
313.246	201.25
313.476	198.25
313.706	207.25
313.935	189.25
314.165	218.25
314.394	210.25
314.624	199.25
314.853	206.25
315.083	198.25
315.312	188.25
315.542	187.25
315.771	193.25
316.001	198.25
316.23	189.25
316.46	200.25
316.689	206.25
316.919	188.25
317.148	201.25
317.377	207.25
317.607	200.25
317.836	191.25
318.065	192.25
318.295	198.25
318.524	189.25
318.753	203.25
318.983	206.25
319.212	192.25
319.441	208.25
319.67	193.25
319.9	185.25
320.129	205.25
320.358	200.25
320.587	186.25
320.816	196.25
321.046	199.25
321.275	218.25
321.504	201.25
321.733	202.25
321.962	186.25
322.191	222.25
322.42	217.25
322.649	220.25
322.878	237.25
323.108	220.25
323.337	232.25
323.566	218.25
323.795	262.25
324.024	278.25
324.253	331.25
324.482	459.25
324.71	685.25
324.939	936.25
325.168	752.25
325.397	382.25
325.626	270.25
325.855	248.25
326.084	236.25
326.313	239.25
326.542	238.25
326.77	266.25
326.999	311.25
327.228	401.25
327.457	632.25
327.686	671.25
327.914	480.25
328.143	337.25
328.372	274.25
328.6	273.25
328.829	273.25
329.058	277.25
329.287	295.25
329.515	274.25
329.744	254.25
329.972	245.25
330.201	262.25
330.43	307.25
330.658	306.25
330.887	316.25
331.115	283.25
331.344	258.25
331.572	247.25
331.801	241.25
332.03	244.25
332.258	229.25
332.486	228.25
332.715	225.25
332.943	229.25
333.172	217.25
333.4	231.25
333.629	236.25
333.857	246.25
334.085	249.25
334.314	254.25
334.542	280.25
334.771	306.25
334.999	268.25
335.227	241.25
335.455	241.25
335.684	247.25
335.912	244.25
336.14	232.25
336.369	228.25
336.597	222.25
336.825	227.25
337.053	220.25
337.281	207.25
337.51	223.25
337.738	221.25
337.966	218.25
338.194	226.25
338.422	223.25
338.65	223.25
338.878	231.25
339.106	221.25
339.334	218.25
339.562	220.25
339.79	224.25
340.018	221.25
340.246	213.25
340.474	236.25
340.702	211.25
340.93	215.25
341.158	212.25
341.386	189.25
341.614	221.25
341.842	224.25
342.07	212.25
342.298	198.25
342.526	232.25
342.754	202.25
342.981	203.25
343.209	209.25
343.437	201.25
343.665	217.25
343.893	228.25
344.12	212.25
344.348	207.25
344.576	224.25
344.804	222.25
345.031	208.25
345.259	230.25
345.487	216.25
345.714	227.25
345.942	224.25
346.17	211.25
346.397	203.25
346.625	214.25
346.853	182.25
347.08	194.25
347.308	202.25
347.535	217.25
347.763	229.25
347.99	211.25
348.218	204.25
348.445	216.25
348.673	221.25
348.9	209.25
349.128	218.25
349.355	186.25
349.583	184.25
349.81	222.25
350.037	207.25
350.265	199.25
350.492	208.25
350.72	206.25
350.947	214.25
351.174	216.25
351.402	204.25
351.629	211.25
351.856	197.25
352.083	204.25
352.311	231.25
352.538	218.25
352.765	230.25
352.992	224.25
353.22	212.25
353.447	198.25
353.674	201.25
353.901	186.25
354.128	215.25
354.355	202.25
354.583	194.25
354.81	196.25
355.037	216.25
355.264	206.25
355.491	196.25
355.718	179.25
355.945	198.25
356.172	198.25
356.399	209.25
356.626	206.25
356.853	185.25
357.08	193.25
357.307	196.25
357.534	194.25
357.761	198.25
357.988	206.25
358.215	198.25
358.441	197.25
358.668	185.25
358.895	209.25
359.122	201.25
359.349	209.25
359.576	226.25
359.802	216.25
360.029	233.25
360.256	232.25
360.483	230.25
360.709	201.25
360.936	201.25
361.163	202.25
361.39	217.25
361.616	219.25
361.843	224.25
362.07	219.25
362.296	206.25
362.523	203.25
362.749	208.25
362.976	212.25
363.203	217.25
363.429	204.25
363.656	209.25
363.882	178.25
364.109	202.25
364.335	200.25
364.562	196.25
364.788	205.25
365.015	206.25
365.241	217.25
365.468	194.25
365.694	210.25
365.92	208.25
366.147	191.25
366.373	193.25
366.599	187.25
366.826	199.25
367.052	215.25
367.278	200.25
367.505	216.25
367.731	199.25
367.957	189.25
368.184	211.25
368.41	197.25
368.636	199.25
368.862	203.25
369.089	201.25
369.315	209.25
369.541	188.25
369.767	189.25
369.993	189.25
370.219	182.25
370.445	193.25
370.672	209.25
370.898	192.25
371.124	181.25
371.35	204.25
371.576	188.25
371.802	197.25
372.028	196.25
372.254	190.25
372.48	215.25
372.706	187.25
372.932	205.25
373.158	192.25
373.384	209.25
373.61	207.25
373.835	210.25
374.061	201.25
374.287	181.25
374.513	204.25
374.739	209.25
374.965	202.25
375.191	216.25
375.416	214.25
375.642	202.25
375.868	210.25
376.094	200.25
376.319	202.25
376.545	200.25
376.771	194.25
376.997	208.25
377.222	198.25
377.448	204.25
377.674	204.25
377.899	212.25
378.125	195.25
378.35	194.25
378.576	210.25
378.802	208.25
379.027	207.25
379.253	195.25
379.478	201.25
379.704	217.25
379.929	199.25
380.155	219.25
380.38	224.25
380.606	214.25
380.831	212.25
381.057	196.25
381.282	207.25
381.507	197.25
381.733	209.25
381.958	207.25
382.184	199.25
382.409	201.25
382.634	218.25
382.86	193.25
383.085	195.25
383.31	210.25
383.535	232.25
383.761	226.25
383.986	206.25
384.211	194.25
384.436	204.25
384.662	206.25
384.887	199.25
385.112	203.25
385.337	215.25
385.562	192.25
385.787	228.25
386.013	216.25
386.238	233.25
386.463	213.25
386.688	223.25
386.913	218.25
387.138	201.25
387.363	206.25
387.588	224.25
387.813	231.25
388.038	221.25
388.263	218.25
388.488	193.25
388.713	226.25
388.938	232.25
389.163	215.25
389.387	221.25
389.612	220.25
389.837	217.25
390.062	211.25
390.287	222.25
390.512	211.25
390.736	208.25
390.961	214.25
391.186	198.25
391.411	209.25
391.636	230.25
391.86	238.25
392.085	216.25
392.31	225.25
392.534	208.25
392.759	227.25
392.984	211.25
393.208	220.25
393.433	219.25
393.658	225.25
393.882	218.25
394.107	215.25
394.331	221.25
394.556	204.25
394.78	212.25
395.005	212.25
395.229	223.25
395.454	229.25
395.678	201.25
395.903	216.25
396.127	230.25
396.352	234.25
396.576	231.25
396.801	220.25
397.025	244.25
397.249	239.25
397.474	230.25
397.698	222.25
397.922	249.25
398.147	232.25
398.371	252.25
398.595	247.25
398.82	246.25
399.044	264.25
399.268	245.25
399.492	261.25
399.717	283.25
399.941	280.25
400.165	290.25
400.389	305.25
400.613	273.25
400.837	233.25
401.062	254.25
401.286	244.25
401.51	239.25
401.734	262.25
401.958	262.25
402.182	248.25
402.406	260.25
402.63	235.25
402.854	239.25
403.078	256.25
403.302	266.25
403.526	250.25
403.75	262.25
403.974	257.25
404.198	253.25
404.422	248.25
404.645	258.25
404.869	248.25
405.093	258.25
405.317	281.25
405.541	308.25
405.765	264.25
405.988	263.25
406.212	261.25
406.436	279.25
406.66	288.25
406.883	277.25
407.107	284.25
407.331	309.25
407.555	311.25
407.778	334.25
408.002	302.25
408.226	289.25
408.449	252.25
408.673	256.25
408.896	267.25
409.12	287.25
409.344	275.25
409.567	270.25
409.791	253.25
410.014	270.25
410.238	248.25
410.461	241.25
410.685	244.25
410.908	250.25
411.132	276.25
411.355	281.25
411.578	270.25
411.802	242.25
412.025	250.25
412.249	254.25
412.472	271.25
412.695	282.25
412.919	264.25
413.142	272.25
413.365	265.25
413.589	256.25
413.812	231.25
414.035	239.25
414.258	246.25
414.482	248.25
414.705	259.25
414.928	234.25
415.151	226.25
415.374	241.25
415.597	241.25
415.821	233.25
416.044	222.25
416.267	241.25
416.49	249.25
416.713	259.25
416.936	238.25
417.159	261.25
417.382	254.25
417.605	244.25
417.828	258.25
418.051	251.25
418.274	248.25
418.497	230.25
418.72	253.25
418.943	239.25
419.166	242.25
419.389	273.25
419.611	257.25
419.834	257.25
420.057	259.25
420.28	279.25
420.503	236.25
420.726	258.25
420.948	265.25
421.171	269.25
421.394	279.25
421.617	263.25
421.839	236.25
422.062	255.25
422.285	251.25
422.507	285.25
422.73	306.25
422.953	303.25
423.175	268.25
423.398	280.25
423.621	281.25
423.843	270.25
424.066	286.25
424.288	284.25
424.511	286.25
424.733	299.25
424.956	345.25
425.178	325.25
425.401	287.25
425.623	315.25
425.846	273.25
426.068	262.25
426.291	273.25
426.513	253.25
426.735	259.25
426.958	272.25
427.18	317.25
427.402	339.25
427.625	397.25
427.847	358.25
428.069	303.25
428.292	295.25
428.514	264.25
428.736	238.25
428.958	253.25
429.181	267.25
429.403	244.25
429.625	250.25
429.847	280.25
430.069	283.25
430.292	296.25
430.514	247.25
430.736	232.25
430.958	260.25
431.18	229.25
431.402	227.25
431.624	225.25
431.846	239.25
432.068	240.25
432.29	230.25
432.512	233.25
432.734	226.25
432.956	220.25
433.178	252.25
433.4	235.25
433.622	239.25
433.844	226.25
434.066	236.25
434.287	237.25
434.509	240.25
434.731	250.25
434.953	268.25
435.175	267.25
435.397	260.25
435.618	277.25
435.84	265.25
436.062	326.25
436.284	327.25
436.505	277.25
436.727	252.25
436.949	252.25
437.17	261.25
437.392	250.25
437.614	241.25
437.835	264.25
438.057	306.25
438.278	328.25
438.5	339.25
438.721	351.25
438.943	353.25
439.165	284.25
439.386	283.25
439.608	263.25
439.829	259.25
440.05	270.25
440.272	302.25
440.493	282.25
440.715	270.25
440.936	267.25
441.158	244.25
441.379	250.25
441.6	246.25
441.822	266.25
442.043	278.25
442.264	328.25
442.486	327.25
442.707	291.25
442.928	264.25
443.149	283.25
443.371	280.25
443.592	298.25
443.813	344.25
444.034	359.25
444.255	287.25
444.476	277.25
444.698	274.25
444.919	264.25
445.14	367.25
445.361	314.25
445.582	275.25
445.803	318.25
446.024	356.25
446.245	349.25
446.466	319.25
446.687	277.25
446.908	267.25
447.129	251.25
447.35	228.25
447.571	251.25
447.792	240.25
448.013	232.25
448.234	249.25
448.455	284.25
448.675	330.25
448.896	341.25
449.117	316.25
449.338	287.25
449.559	346.25
449.779	362.25
450	302.25
450.221	248.25
450.442	249.25
450.662	224.25
450.883	249.25
451.104	241.25
451.324	244.25
451.545	236.25
451.766	216.25
451.986	224.25
452.207	221.25
452.428	223.25
452.648	218.25
452.869	231.25
453.089	233.25
453.31	229.25
453.53	229.25
453.751	230.25
453.971	224.25
454.192	248.25
454.412	229.25
454.633	215.25
454.853	221.25
455.073	221.25
455.294	238.25
455.514	258.25
455.734	229.25
455.955	230.25
456.175	215.25
456.395	202.25
456.616	221.25
456.836	211.25
457.056	220.25
457.276	221.25
457.497	210.25
457.717	217.25
457.937	223.25
458.157	216.25
458.377	230.25
458.598	238.25
458.818	273.25
459.038	304.25
459.258	305.25
459.478	271.25
459.698	241.25
459.918	219.25
460.138	234.25
460.358	238.25
460.578	252.25
460.798	236.25
461.018	260.25
461.238	228.25
461.458	233.25
461.678	218.25
461.898	224.25
462.118	232.25
462.338	230.25
462.558	260.25
462.777	252.25
462.997	256.25
463.217	272.25
463.437	262.25
463.657	257.25
463.876	253.25
464.096	261.25
464.316	260.25
464.536	248.25
464.755	279.25
464.975	255.25
465.195	284.25
465.414	328.25
465.634	291.25
465.854	251.25
466.073	234.25
466.293	230.25
466.512	234.25
466.732	221.25
466.951	228.25
467.171	245.25
467.391	231.25
467.61	231.25
467.829	237.25
468.049	237.25
468.268	233.25
468.488	249.25
468.707	226.25
468.927	244.25
469.146	213.25
469.365	221.25
469.585	237.25
469.804	229.25
470.023	226.25
470.243	241.25
470.462	232.25
470.681	245.25
470.901	250.25
471.12	239.25
471.339	230.25
471.558	228.25
471.777	250.25
471.997	247.25
472.216	239.25
472.435	248.25
472.654	250.25
472.873	225.25
473.092	219.25
473.311	231.25
473.53	224.25
473.749	237.25
473.968	257.25
474.187	324.25
474.406	300.25
474.625	252.25
474.844	237.25
475.063	240.25
475.282	216.25
475.501	226.25
475.72	250.25
475.939	232.25
476.158	238.25
476.377	235.25
476.596	263.25
476.814	231.25
477.033	247.25
477.252	239.25
477.471	232.25
477.69	226.25
477.908	275.25
478.127	235.25
478.346	247.25
478.564	246.25
478.783	254.25
479.002	261.25
479.22	254.25
479.439	264.25
479.658	275.25
479.876	263.25
480.095	274.25
480.313	294.25
480.532	283.25
480.751	271.25
480.969	281.25
481.188	319.25
481.406	332.25
481.624	297.25
481.843	265.25
482.061	277.25
482.28	301.25
482.498	286.25
482.717	280.25
482.935	287.25
483.153	268.25
483.372	274.25
483.59	261.25
483.808	244.25
484.027	268.25
484.245	281.25
484.463	258.25
484.681	297.25
484.9	258.25
485.118	269.25
485.336	268.25
485.554	266.25
485.772	265.25
485.99	280.25
486.209	259.25
486.427	284.25
486.645	297.25
486.863	293.25
487.081	284.25
487.299	280.25
487.517	279.25
487.735	282.25
487.953	286.25
488.171	284.25
488.389	273.25
488.607	296.25
488.825	290.25
489.043	285.25
489.261	288.25
489.479	312.25
489.696	287.25
489.914	262.25
490.132	286.25
490.35	297.25
490.568	305.25
490.786	321.25
491.003	309.25
491.221	304.25
491.439	315.25
491.657	346.25
491.874	326.25
492.092	322.25
492.31	327.25
492.527	332.25
492.745	328.25
492.963	342.25
493.18	346.25
493.398	347.25
493.615	334.25
493.833	331.25
494.05	336.25
494.268	331.25
494.485	344.25
494.703	335.25
494.92	336.25
495.138	318.25
495.355	342.25
495.573	346.25
495.79	341.25
496.008	328.25
496.225	336.25
496.442	335.25
496.66	317.25
496.877	322.25
497.094	313.25
497.312	329.25
497.529	341.25
497.746	328.25
497.963	350.25
498.181	355.25
498.398	359.25
498.615	337.25
498.832	348.25
499.049	356.25
499.267	364.25
499.484	405.25
499.701	388.25
499.918	422.25
500.135	422.25
500.352	449.25
500.569	444.25
500.786	444.25
501.003	456.25
501.22	442.25
501.437	420.25
501.654	400.25
501.871	407.25
502.088	402.25
502.305	372.25
502.522	357.25
