Data from 1966.PennyLincolnUp.Lamp.En5.5.200Scan.071719.P1._HRD10591_14-13-25-914.txt Node
Date: Thu Jul 18 14:13:25 EDT 2019
User: cochatt
Spectrometer: HR+D1059
Trigger mode: 1
Integration Time (sec): 1.000000E-1
Scans to average: 1
Electric dark correction enabled: true
Nonlinearity correction enabled: false
Boxcar width: 0
XAxis mode: Wavelengths
Number of Pixels in Spectrum: 2048
>>>>>Begin Spectral Data<<<<<
223.165	-8.94
223.4	-8.94
223.635	-8.94
223.869	-23.94
224.104	-17.94
224.338	-3.94
224.573	-16.94
224.808	-10.94
225.042	-5.94
225.277	4.06
225.511	0.06
225.746	-6.94
225.98	12.06
226.215	4.06
226.449	7.06
226.683	28.06
226.918	22.06
227.152	18.06
227.387	22.06
227.621	42.06
227.856	41.06
228.09	36.06
228.324	42.06
228.559	56.06
228.793	67.06
229.027	64.06
229.262	73.06
229.496	100.06
229.73	72.06
229.964	105.06
230.199	104.06
230.433	102.06
230.667	101.06
230.901	86.06
231.136	90.06
231.37	102.06
231.604	98.06
231.838	108.06
232.072	82.06
232.306	97.06
232.541	84.06
232.775	86.06
233.009	113.06
233.243	89.06
233.477	91.06
233.711	79.06
233.945	81.06
234.179	106.06
234.413	83.06
234.647	100.06
234.881	86.06
235.115	99.06
235.349	94.06
235.583	96.06
235.817	114.06
236.051	93.06
236.285	95.06
236.519	103.06
236.753	98.06
236.987	108.06
237.221	123.06
237.455	143.06
237.689	110.06
237.922	111.06
238.156	108.06
238.39	108.06
238.624	96.06
238.858	93.06
239.091	97.06
239.325	93.06
239.559	105.06
239.793	98.06
240.027	89.06
240.26	104.06
240.494	120.06
240.728	110.06
240.961	114.06
241.195	115.06
241.429	120.06
241.662	96.06
241.896	96.06
242.13	109.06
242.363	94.06
242.597	106.06
242.83	108.06
243.064	92.06
243.298	112.06
243.531	105.06
243.765	86.06
243.998	101.06
244.232	96.06
244.465	106.06
244.699	100.06
244.932	105.06
245.166	108.06
245.399	110.06
245.633	103.06
245.866	119.06
246.099	98.06
246.333	107.06
246.566	114.06
246.8	109.06
247.033	109.06
247.266	101.06
247.5	113.06
247.733	124.06
247.966	136.06
248.2	111.06
248.433	118.06
248.666	116.06
248.899	122.06
249.133	136.06
249.366	142.06
249.599	116.06
249.832	104.06
250.066	129.06
250.299	126.06
250.532	136.06
250.765	132.06
250.998	149.06
251.231	143.06
251.465	147.06
251.698	136.06
251.931	113.06
252.164	115.06
252.397	124.06
252.63	127.06
252.863	131.06
253.096	136.06
253.329	136.06
253.562	138.06
253.795	140.06
254.028	148.06
254.261	128.06
254.494	140.06
254.727	162.06
254.96	169.06
255.193	175.06
255.426	150.06
255.659	152.06
255.892	151.06
256.124	145.06
256.357	145.06
256.59	139.06
256.823	133.06
257.056	130.06
257.289	117.06
257.521	117.06
257.754	136.06
257.987	124.06
258.22	144.06
258.452	114.06
258.685	157.06
258.918	133.06
259.151	125.06
259.383	128.06
259.616	153.06
259.849	136.06
260.081	144.06
260.314	139.06
260.547	170.06
260.779	147.06
261.012	146.06
261.244	137.06
261.477	165.06
261.71	139.06
261.942	150.06
262.175	147.06
262.407	140.06
262.64	140.06
262.872	138.06
263.105	140.06
263.337	128.06
263.57	134.06
263.802	132.06
264.035	144.06
264.267	137.06
264.499	132.06
264.732	140.06
264.964	136.06
265.197	137.06
265.429	142.06
265.661	140.06
265.894	130.06
266.126	132.06
266.358	145.06
266.591	142.06
266.823	141.06
267.055	132.06
267.287	137.06
267.52	132.06
267.752	137.06
267.984	131.06
268.216	135.06
268.448	134.06
268.681	147.06
268.913	156.06
269.145	161.06
269.377	176.06
269.609	148.06
269.841	155.06
270.073	176.06
270.306	183.06
270.538	192.06
270.77	186.06
271.002	157.06
271.234	165.06
271.466	176.06
271.698	190.06
271.93	178.06
272.162	190.06
272.394	189.06
272.626	182.06
272.858	180.06
273.09	168.06
273.322	167.06
273.553	172.06
273.785	153.06
274.017	160.06
274.249	147.06
274.481	165.06
274.713	156.06
274.945	169.06
275.176	149.06
275.408	166.06
275.64	154.06
275.872	169.06
276.104	159.06
276.335	150.06
276.567	153.06
276.799	160.06
277.031	196.06
277.262	190.06
277.494	182.06
277.726	175.06
277.957	174.06
278.189	150.06
278.421	160.06
278.652	157.06
278.884	161.06
279.115	153.06
279.347	150.06
279.579	138.06
279.81	159.06
280.042	177.06
280.273	169.06
280.505	159.06
280.736	167.06
280.968	163.06
281.199	162.06
281.431	163.06
281.662	168.06
281.894	139.06
282.125	159.06
282.356	167.06
282.588	187.06
282.819	178.06
283.051	165.06
283.282	162.06
283.513	160.06
283.745	164.06
283.976	166.06
284.207	156.06
284.439	178.06
284.67	161.06
284.901	160.06
285.132	156.06
285.364	164.06
285.595	146.06
285.826	157.06
286.057	166.06
286.288	156.06
286.52	175.06
286.751	165.06
286.982	168.06
287.213	167.06
287.444	158.06
287.675	152.06
287.906	176.06
288.138	171.06
288.369	172.06
288.6	189.06
288.831	162.06
289.062	184.06
289.293	168.06
289.524	166.06
289.755	161.06
289.986	167.06
290.217	182.06
290.448	176.06
290.679	175.06
290.91	174.06
291.141	173.06
291.371	173.06
291.602	158.06
291.833	173.06
292.064	180.06
292.295	184.06
292.526	161.06
292.757	169.06
292.987	165.06
293.218	165.06
293.449	176.06
293.68	171.06
293.91	169.06
294.141	174.06
294.372	178.06
294.603	156.06
294.833	174.06
295.064	176.06
295.295	175.06
295.525	164.06
295.756	181.06
295.987	180.06
296.217	181.06
296.448	200.06
296.679	175.06
296.909	176.06
297.14	167.06
297.37	177.06
297.601	177.06
297.831	183.06
298.062	188.06
298.292	167.06
298.523	168.06
298.753	178.06
298.984	184.06
299.214	172.06
299.445	170.06
299.675	185.06
299.905	175.06
300.136	180.06
300.366	180.06
300.597	176.06
300.827	189.06
301.057	176.06
301.288	184.06
301.518	176.06
301.748	187.06
301.979	184.06
302.209	178.06
302.439	180.06
302.669	188.06
302.9	177.06
303.13	172.06
303.36	188.06
303.59	200.06
303.82	210.06
304.051	189.06
304.281	184.06
304.511	191.06
304.741	184.06
304.971	178.06
305.201	188.06
305.431	181.06
305.661	182.06
305.891	172.06
306.121	180.06
306.352	209.06
306.582	189.06
306.812	188.06
307.042	186.06
307.272	174.06
307.502	198.06
307.731	197.06
307.961	184.06
308.191	184.06
308.421	186.06
308.651	196.06
308.881	201.06
309.111	198.06
309.341	183.06
309.571	176.06
309.8	192.06
310.03	187.06
310.26	215.06
310.49	211.06
310.72	199.06
310.949	201.06
311.179	218.06
311.409	194.06
311.639	203.06
311.868	205.06
312.098	201.06
312.328	205.06
312.557	216.06
312.787	214.06
313.017	207.06
313.246	222.06
313.476	197.06
313.706	213.06
313.935	209.06
314.165	232.06
314.394	229.06
314.624	223.06
314.853	208.06
315.083	219.06
315.312	208.06
315.542	204.06
315.771	189.06
316.001	204.06
316.23	203.06
316.46	205.06
316.689	215.06
316.919	208.06
317.148	221.06
317.377	197.06
317.607	204.06
317.836	218.06
318.065	205.06
318.295	209.06
318.524	194.06
318.753	196.06
318.983	194.06
319.212	208.06
319.441	203.06
319.67	198.06
319.9	204.06
320.129	215.06
320.358	203.06
320.587	218.06
320.816	200.06
321.046	213.06
321.275	224.06
321.504	202.06
321.733	205.06
321.962	213.06
322.191	237.06
322.42	227.06
322.649	237.06
322.878	225.06
323.108	228.06
323.337	244.06
323.566	247.06
323.795	276.06
324.024	278.06
324.253	346.06
324.482	493.06
324.71	727.06
324.939	971.06
325.168	814.06
325.397	414.06
325.626	284.06
325.855	269.06
326.084	246.06
326.313	238.06
326.542	249.06
326.77	268.06
326.999	330.06
327.228	454.06
327.457	665.06
327.686	737.06
327.914	493.06
328.143	357.06
328.372	314.06
328.6	300.06
328.829	286.06
329.058	291.06
329.287	310.06
329.515	292.06
329.744	252.06
329.972	258.06
330.201	282.06
330.43	311.06
330.658	315.06
330.887	326.06
331.115	300.06
331.344	281.06
331.572	253.06
331.801	256.06
332.03	253.06
332.258	250.06
332.486	238.06
332.715	226.06
332.943	230.06
333.172	223.06
333.4	263.06
333.629	240.06
333.857	242.06
334.085	246.06
334.314	262.06
334.542	295.06
334.771	314.06
334.999	295.06
335.227	259.06
335.455	241.06
335.684	226.06
335.912	228.06
336.14	234.06
336.369	229.06
336.597	242.06
336.825	230.06
337.053	226.06
337.281	237.06
337.51	207.06
337.738	247.06
337.966	240.06
338.194	235.06
338.422	235.06
338.65	238.06
338.878	228.06
339.106	227.06
339.334	216.06
339.562	238.06
339.79	223.06
340.018	234.06
340.246	225.06
340.474	224.06
340.702	230.06
340.93	225.06
341.158	236.06
341.386	245.06
341.614	221.06
341.842	226.06
342.07	227.06
342.298	217.06
342.526	209.06
342.754	203.06
342.981	216.06
343.209	207.06
343.437	224.06
343.665	214.06
343.893	232.06
344.12	242.06
344.348	228.06
344.576	235.06
344.804	221.06
345.031	221.06
345.259	237.06
345.487	231.06
345.714	241.06
345.942	218.06
346.17	213.06
346.397	229.06
346.625	199.06
346.853	202.06
347.08	211.06
347.308	220.06
347.535	245.06
347.763	224.06
347.99	218.06
348.218	212.06
348.445	225.06
348.673	223.06
348.9	211.06
349.128	219.06
349.355	223.06
349.583	236.06
349.81	207.06
350.037	227.06
350.265	191.06
350.492	219.06
350.72	215.06
350.947	220.06
351.174	222.06
351.402	232.06
351.629	216.06
351.856	232.06
352.083	220.06
352.311	230.06
352.538	233.06
352.765	222.06
352.992	228.06
353.22	214.06
353.447	216.06
353.674	202.06
353.901	202.06
354.128	202.06
354.355	218.06
354.583	208.06
354.81	198.06
355.037	205.06
355.264	202.06
355.491	200.06
355.718	205.06
355.945	193.06
356.172	221.06
356.399	194.06
356.626	193.06
356.853	209.06
357.08	211.06
357.307	199.06
357.534	208.06
357.761	205.06
357.988	218.06
358.215	208.06
358.441	207.06
358.668	206.06
358.895	188.06
359.122	205.06
359.349	204.06
359.576	225.06
359.802	232.06
360.029	249.06
360.256	266.06
360.483	233.06
360.709	225.06
360.936	222.06
361.163	220.06
361.39	209.06
361.616	223.06
361.843	208.06
362.07	223.06
362.296	232.06
362.523	210.06
362.749	206.06
362.976	221.06
363.203	227.06
363.429	223.06
363.656	211.06
363.882	209.06
364.109	214.06
364.335	206.06
364.562	201.06
364.788	191.06
365.015	203.06
365.241	214.06
365.468	207.06
365.694	213.06
365.92	212.06
366.147	212.06
366.373	211.06
366.599	213.06
366.826	197.06
367.052	182.06
367.278	200.06
367.505	211.06
367.731	220.06
367.957	203.06
368.184	207.06
368.41	218.06
368.636	218.06
368.862	208.06
369.089	212.06
369.315	203.06
369.541	196.06
369.767	205.06
369.993	209.06
370.219	210.06
370.445	213.06
370.672	223.06
370.898	201.06
371.124	203.06
371.35	216.06
371.576	186.06
371.802	201.06
372.028	205.06
372.254	209.06
372.48	196.06
372.706	207.06
372.932	204.06
373.158	217.06
373.384	223.06
373.61	205.06
373.835	196.06
374.061	232.06
374.287	213.06
374.513	205.06
374.739	220.06
374.965	200.06
375.191	205.06
375.416	212.06
375.642	191.06
375.868	217.06
376.094	213.06
376.319	205.06
376.545	185.06
376.771	199.06
376.997	214.06
377.222	196.06
377.448	209.06
377.674	210.06
377.899	206.06
378.125	197.06
378.35	218.06
378.576	219.06
378.802	220.06
379.027	227.06
379.253	193.06
379.478	191.06
379.704	206.06
379.929	199.06
380.155	212.06
380.38	207.06
380.606	200.06
380.831	188.06
381.057	202.06
381.282	228.06
381.507	207.06
381.733	209.06
381.958	207.06
382.184	199.06
382.409	196.06
382.634	213.06
382.86	223.06
383.085	208.06
383.31	218.06
383.535	213.06
383.761	225.06
383.986	216.06
384.211	208.06
384.436	210.06
384.662	230.06
384.887	231.06
385.112	210.06
385.337	229.06
385.562	210.06
385.787	215.06
386.013	234.06
386.238	232.06
386.463	232.06
386.688	238.06
386.913	223.06
387.138	226.06
387.363	219.06
387.588	228.06
387.813	232.06
388.038	220.06
388.263	231.06
388.488	214.06
388.713	225.06
388.938	224.06
389.163	212.06
389.387	222.06
389.612	203.06
389.837	212.06
390.062	210.06
390.287	240.06
390.512	220.06
390.736	220.06
390.961	219.06
391.186	226.06
391.411	216.06
391.636	215.06
391.86	232.06
392.085	214.06
392.31	225.06
392.534	232.06
392.759	230.06
392.984	228.06
393.208	218.06
393.433	237.06
393.658	249.06
393.882	229.06
394.107	223.06
394.331	229.06
394.556	230.06
394.78	225.06
395.005	231.06
395.229	226.06
395.454	226.06
395.678	231.06
395.903	247.06
396.127	237.06
396.352	238.06
396.576	242.06
396.801	231.06
397.025	216.06
397.249	220.06
397.474	231.06
397.698	229.06
397.922	242.06
398.147	238.06
398.371	242.06
398.595	260.06
398.82	251.06
399.044	236.06
399.268	266.06
399.492	274.06
399.717	290.06
399.941	269.06
400.165	304.06
400.389	299.06
400.613	293.06
400.837	252.06
401.062	250.06
401.286	234.06
401.51	252.06
401.734	238.06
401.958	254.06
402.182	255.06
402.406	261.06
402.63	282.06
402.854	254.06
403.078	256.06
403.302	243.06
403.526	258.06
403.75	283.06
403.974	266.06
404.198	252.06
404.422	272.06
404.645	266.06
404.869	273.06
405.093	274.06
405.317	298.06
405.541	305.06
405.765	299.06
405.988	273.06
406.212	269.06
406.436	284.06
406.66	310.06
406.883	299.06
407.107	282.06
407.331	291.06
407.555	333.06
407.778	329.06
408.002	330.06
408.226	284.06
408.449	296.06
408.673	281.06
408.896	280.06
409.12	300.06
409.344	284.06
409.567	279.06
409.791	258.06
410.014	270.06
410.238	274.06
410.461	267.06
410.685	263.06
410.908	276.06
411.132	264.06
411.355	286.06
411.578	288.06
411.802	269.06
412.025	264.06
412.249	262.06
412.472	266.06
412.695	287.06
412.919	293.06
413.142	279.06
413.365	271.06
413.589	250.06
413.812	265.06
414.035	252.06
414.258	238.06
414.482	255.06
414.705	265.06
414.928	265.06
415.151	268.06
415.374	234.06
415.597	226.06
415.821	253.06
416.044	260.06
416.267	254.06
416.49	260.06
416.713	255.06
416.936	249.06
417.159	238.06
417.382	271.06
417.605	244.06
417.828	251.06
418.051	226.06
418.274	269.06
418.497	257.06
418.72	236.06
418.943	253.06
419.166	252.06
419.389	268.06
419.611	268.06
419.834	254.06
420.057	262.06
420.28	277.06
420.503	267.06
420.726	257.06
420.948	260.06
421.171	301.06
421.394	300.06
421.617	267.06
421.839	276.06
422.062	268.06
422.285	274.06
422.507	278.06
422.73	325.06
422.953	305.06
423.175	268.06
423.398	273.06
423.621	272.06
423.843	289.06
424.066	279.06
424.288	284.06
424.511	279.06
424.733	290.06
424.956	327.06
425.178	330.06
425.401	317.06
425.623	337.06
425.846	299.06
426.068	290.06
426.291	286.06
426.513	280.06
426.735	290.06
426.958	287.06
427.18	332.06
427.402	373.06
427.625	419.06
427.847	383.06
428.069	326.06
428.292	299.06
428.514	256.06
428.736	264.06
428.958	261.06
429.181	272.06
429.403	241.06
429.625	266.06
429.847	285.06
430.069	286.06
430.292	297.06
430.514	256.06
430.736	246.06
430.958	251.06
431.18	244.06
431.402	236.06
431.624	240.06
431.846	245.06
432.068	235.06
432.29	273.06
432.512	248.06
432.734	254.06
432.956	240.06
433.178	244.06
433.4	250.06
433.622	251.06
433.844	248.06
434.066	247.06
434.287	268.06
434.509	247.06
434.731	258.06
434.953	260.06
435.175	278.06
435.397	271.06
435.618	263.06
435.84	290.06
436.062	319.06
436.284	357.06
436.505	298.06
436.727	260.06
436.949	266.06
437.17	259.06
437.392	266.06
437.614	250.06
437.835	275.06
438.057	322.06
438.278	368.06
438.5	353.06
438.721	398.06
438.943	360.06
439.165	302.06
439.386	286.06
439.608	279.06
439.829	271.06
440.05	289.06
440.272	306.06
440.493	293.06
440.715	270.06
440.936	264.06
441.158	264.06
441.379	252.06
441.6	268.06
441.822	261.06
442.043	289.06
442.264	343.06
442.486	356.06
442.707	302.06
442.928	271.06
443.149	289.06
443.371	289.06
443.592	323.06
443.813	349.06
444.034	364.06
444.255	299.06
444.476	273.06
444.698	282.06
444.919	276.06
445.14	363.06
445.361	330.06
445.582	304.06
445.803	332.06
446.024	356.06
446.245	355.06
446.466	346.06
446.687	301.06
446.908	263.06
447.129	252.06
447.35	251.06
447.571	267.06
447.792	249.06
448.013	253.06
448.234	274.06
448.455	290.06
448.675	327.06
448.896	359.06
449.117	331.06
449.338	313.06
449.559	365.06
449.779	390.06
450	305.06
450.221	274.06
450.442	247.06
450.662	253.06
450.883	269.06
451.104	269.06
451.324	250.06
451.545	235.06
451.766	234.06
451.986	241.06
452.207	225.06
452.428	232.06
452.648	217.06
452.869	238.06
453.089	241.06
453.31	247.06
453.53	246.06
453.751	220.06
453.971	224.06
454.192	241.06
454.412	239.06
454.633	227.06
454.853	227.06
455.073	226.06
455.294	252.06
455.514	272.06
455.734	255.06
455.955	256.06
456.175	239.06
456.395	213.06
456.616	222.06
456.836	230.06
457.056	227.06
457.276	210.06
457.497	236.06
457.717	244.06
457.937	214.06
458.157	219.06
458.377	237.06
458.598	238.06
458.818	271.06
459.038	329.06
459.258	310.06
459.478	266.06
459.698	250.06
459.918	248.06
460.138	264.06
460.358	234.06
460.578	253.06
460.798	248.06
461.018	250.06
461.238	253.06
461.458	244.06
461.678	245.06
461.898	222.06
462.118	250.06
462.338	257.06
462.558	250.06
462.777	270.06
462.997	257.06
463.217	268.06
463.437	264.06
463.657	271.06
463.876	254.06
464.096	263.06
464.316	280.06
464.536	264.06
464.755	263.06
464.975	285.06
465.195	318.06
465.414	350.06
465.634	297.06
465.854	269.06
466.073	246.06
466.293	236.06
466.512	236.06
466.732	234.06
466.951	217.06
467.171	247.06
467.391	235.06
467.61	244.06
467.829	249.06
468.049	244.06
468.268	240.06
468.488	252.06
468.707	234.06
468.927	238.06
469.146	237.06
469.365	235.06
469.585	238.06
469.804	249.06
470.023	258.06
470.243	252.06
470.462	262.06
470.681	263.06
470.901	236.06
471.12	255.06
471.339	229.06
471.558	262.06
471.777	236.06
471.997	232.06
472.216	254.06
472.435	278.06
472.654	240.06
472.873	258.06
473.092	239.06
473.311	235.06
473.53	235.06
473.749	240.06
473.968	273.06
474.187	309.06
474.406	324.06
474.625	268.06
474.844	246.06
475.063	237.06
475.282	244.06
475.501	232.06
475.72	252.06
475.939	232.06
476.158	245.06
476.377	233.06
476.596	254.06
476.814	258.06
477.033	237.06
477.252	254.06
477.471	248.06
477.69	256.06
477.908	261.06
478.127	272.06
478.346	265.06
478.564	262.06
478.783	255.06
479.002	275.06
479.22	267.06
479.439	279.06
479.658	287.06
479.876	303.06
480.095	284.06
480.313	315.06
480.532	310.06
480.751	306.06
480.969	308.06
481.188	352.06
481.406	379.06
481.624	317.06
481.843	289.06
482.061	280.06
482.28	276.06
482.498	269.06
482.717	273.06
482.935	294.06
483.153	277.06
483.372	271.06
483.59	279.06
483.808	268.06
484.027	293.06
484.245	266.06
484.463	271.06
484.681	296.06
484.9	295.06
485.118	297.06
485.336	283.06
485.554	276.06
485.772	288.06
485.99	278.06
486.209	283.06
486.427	294.06
486.645	283.06
486.863	314.06
487.081	300.06
487.299	303.06
487.517	294.06
487.735	294.06
487.953	288.06
488.171	305.06
488.389	308.06
488.607	298.06
488.825	304.06
489.043	284.06
489.261	293.06
489.479	290.06
489.696	300.06
489.914	288.06
490.132	304.06
490.35	319.06
490.568	310.06
490.786	296.06
491.003	318.06
491.221	332.06
491.439	329.06
491.657	359.06
491.874	326.06
492.092	337.06
492.31	351.06
492.527	345.06
492.745	345.06
492.963	338.06
493.18	335.06
493.398	336.06
493.615	372.06
493.833	346.06
494.05	359.06
494.268	349.06
494.485	349.06
494.703	338.06
494.92	338.06
495.138	348.06
495.355	345.06
495.573	367.06
495.79	337.06
496.008	333.06
496.225	330.06
496.442	332.06
496.66	337.06
496.877	341.06
497.094	319.06
497.312	358.06
497.529	363.06
497.746	348.06
497.963	359.06
498.181	368.06
498.398	359.06
498.615	367.06
498.832	368.06
499.049	376.06
499.267	369.06
499.484	386.06
499.701	412.06
499.918	421.06
500.135	440.06
500.352	448.06
500.569	446.06
500.786	467.06
501.003	447.06
501.22	443.06
501.437	439.06
501.654	431.06
501.871	404.06
502.088	412.06
502.305	399.06
502.522	356.06
