Data from 1966.PennyLincolnUp.Lamp.En5.5.200Scan.071719.P1._HRD10591_14-13-27-913.txt Node
Date: Thu Jul 18 14:13:27 EDT 2019
User: cochatt
Spectrometer: HR+D1059
Trigger mode: 1
Integration Time (sec): 1.000000E-1
Scans to average: 1
Electric dark correction enabled: true
Nonlinearity correction enabled: false
Boxcar width: 0
XAxis mode: Wavelengths
Number of Pixels in Spectrum: 2048
>>>>>Begin Spectral Data<<<<<
223.165	-12.5
223.4	-12.5
223.635	-12.5
223.869	-15.5
224.104	-7.5
224.338	-21.5
224.573	-9.5
224.808	-9.5
225.042	-14.5
225.277	-14.5
225.511	8.5
225.746	6.5
225.98	-3.5
226.215	15.5
226.449	-1.5
226.683	29.5
226.918	25.5
227.152	24.5
227.387	42.5
227.621	38.5
227.856	49.5
228.09	47.5
228.324	49.5
228.559	57.5
228.793	56.5
229.027	76.5
229.262	53.5
229.496	94.5
229.73	95.5
229.964	123.5
230.199	107.5
230.433	87.5
230.667	89.5
230.901	97.5
231.136	105.5
231.37	98.5
231.604	96.5
231.838	99.5
232.072	106.5
232.306	84.5
232.541	90.5
232.775	96.5
233.009	88.5
233.243	104.5
233.477	90.5
233.711	108.5
233.945	103.5
234.179	95.5
234.413	95.5
234.647	73.5
234.881	106.5
235.115	96.5
235.349	98.5
235.583	106.5
235.817	87.5
236.051	95.5
236.285	85.5
236.519	108.5
236.753	92.5
236.987	108.5
237.221	109.5
237.455	134.5
237.689	120.5
237.922	103.5
238.156	92.5
238.39	94.5
238.624	93.5
238.858	91.5
239.091	85.5
239.325	86.5
239.559	107.5
239.793	93.5
240.027	101.5
240.26	112.5
240.494	120.5
240.728	107.5
240.961	116.5
241.195	111.5
241.429	99.5
241.662	95.5
241.896	91.5
242.13	99.5
242.363	92.5
242.597	95.5
242.83	94.5
243.064	87.5
243.298	113.5
243.531	103.5
243.765	110.5
243.998	101.5
244.232	100.5
244.465	101.5
244.699	104.5
244.932	112.5
245.166	96.5
245.399	96.5
245.633	107.5
245.866	104.5
246.099	121.5
246.333	99.5
246.566	125.5
246.8	105.5
247.033	111.5
247.266	103.5
247.5	130.5
247.733	114.5
247.966	112.5
248.2	114.5
248.433	121.5
248.666	124.5
248.899	127.5
249.133	128.5
249.366	131.5
249.599	128.5
249.832	122.5
250.066	128.5
250.299	118.5
250.532	117.5
250.765	137.5
250.998	154.5
251.231	154.5
251.465	133.5
251.698	132.5
251.931	113.5
252.164	107.5
252.397	125.5
252.63	130.5
252.863	127.5
253.096	144.5
253.329	147.5
253.562	152.5
253.795	128.5
254.028	134.5
254.261	121.5
254.494	140.5
254.727	158.5
254.96	146.5
255.193	162.5
255.426	157.5
255.659	130.5
255.892	139.5
256.124	150.5
256.357	134.5
256.59	150.5
256.823	137.5
257.056	140.5
257.289	125.5
257.521	141.5
257.754	109.5
257.987	137.5
258.22	148.5
258.452	134.5
258.685	145.5
258.918	140.5
259.151	145.5
259.383	132.5
259.616	140.5
259.849	139.5
260.081	157.5
260.314	156.5
260.547	165.5
260.779	129.5
261.012	147.5
261.244	130.5
261.477	138.5
261.71	136.5
261.942	142.5
262.175	164.5
262.407	143.5
262.64	132.5
262.872	133.5
263.105	142.5
263.337	131.5
263.57	118.5
263.802	128.5
264.035	132.5
264.267	126.5
264.499	134.5
264.732	146.5
264.964	129.5
265.197	130.5
265.429	131.5
265.661	131.5
265.894	127.5
266.126	146.5
266.358	142.5
266.591	146.5
266.823	136.5
267.055	148.5
267.287	144.5
267.52	134.5
267.752	144.5
267.984	148.5
268.216	136.5
268.448	149.5
268.681	151.5
268.913	137.5
269.145	154.5
269.377	137.5
269.609	154.5
269.841	169.5
270.073	162.5
270.306	176.5
270.538	177.5
270.77	178.5
271.002	172.5
271.234	166.5
271.466	173.5
271.698	168.5
271.93	176.5
272.162	177.5
272.394	185.5
272.626	182.5
272.858	177.5
273.09	158.5
273.322	145.5
273.553	161.5
273.785	162.5
274.017	168.5
274.249	165.5
274.481	164.5
274.713	148.5
274.945	144.5
275.176	143.5
275.408	144.5
275.64	150.5
275.872	164.5
276.104	152.5
276.335	176.5
276.567	168.5
276.799	172.5
277.031	186.5
277.262	188.5
277.494	171.5
277.726	178.5
277.957	155.5
278.189	164.5
278.421	174.5
278.652	169.5
278.884	146.5
279.115	162.5
279.347	174.5
279.579	170.5
279.81	157.5
280.042	138.5
280.273	152.5
280.505	157.5
280.736	163.5
280.968	164.5
281.199	155.5
281.431	140.5
281.662	155.5
281.894	152.5
282.125	158.5
282.356	178.5
282.588	184.5
282.819	175.5
283.051	172.5
283.282	174.5
283.513	161.5
283.745	159.5
283.976	166.5
284.207	176.5
284.439	168.5
284.67	156.5
284.901	157.5
285.132	167.5
285.364	153.5
285.595	173.5
285.826	175.5
286.057	186.5
286.288	165.5
286.52	177.5
286.751	169.5
286.982	155.5
287.213	164.5
287.444	175.5
287.675	180.5
287.906	178.5
288.138	171.5
288.369	184.5
288.6	192.5
288.831	171.5
289.062	168.5
289.293	162.5
289.524	173.5
289.755	166.5
289.986	181.5
290.217	182.5
290.448	185.5
290.679	178.5
290.91	173.5
291.141	164.5
291.371	166.5
291.602	170.5
291.833	169.5
292.064	163.5
292.295	174.5
292.526	185.5
292.757	180.5
292.987	173.5
293.218	186.5
293.449	181.5
293.68	159.5
293.91	168.5
294.141	162.5
294.372	165.5
294.603	169.5
294.833	181.5
295.064	172.5
295.295	164.5
295.525	166.5
295.756	180.5
295.987	169.5
296.217	176.5
296.448	195.5
296.679	175.5
296.909	167.5
297.14	186.5
297.37	174.5
297.601	183.5
297.831	163.5
298.062	164.5
298.292	165.5
298.523	172.5
298.753	177.5
298.984	165.5
299.214	183.5
299.445	169.5
299.675	175.5
299.905	174.5
300.136	178.5
300.366	158.5
300.597	192.5
300.827	183.5
301.057	181.5
301.288	190.5
301.518	192.5
301.748	190.5
301.979	180.5
302.209	183.5
302.439	189.5
302.669	180.5
302.9	203.5
303.13	195.5
303.36	182.5
303.59	188.5
303.82	175.5
304.051	182.5
304.281	198.5
304.511	188.5
304.741	184.5
304.971	196.5
305.201	178.5
305.431	182.5
305.661	180.5
305.891	173.5
306.121	193.5
306.352	189.5
306.582	183.5
306.812	189.5
307.042	192.5
307.272	206.5
307.502	197.5
307.731	190.5
307.961	183.5
308.191	188.5
308.421	178.5
308.651	182.5
308.881	203.5
309.111	184.5
309.341	206.5
309.571	190.5
309.8	203.5
310.03	207.5
310.26	206.5
310.49	185.5
310.72	215.5
310.949	219.5
311.179	229.5
311.409	181.5
311.639	200.5
311.868	221.5
312.098	202.5
312.328	213.5
312.557	225.5
312.787	228.5
313.017	225.5
313.246	208.5
313.476	198.5
313.706	214.5
313.935	210.5
314.165	217.5
314.394	218.5
314.624	204.5
314.853	220.5
315.083	216.5
315.312	195.5
315.542	194.5
315.771	190.5
316.001	194.5
316.23	193.5
316.46	204.5
316.689	209.5
316.919	217.5
317.148	205.5
317.377	214.5
317.607	217.5
317.836	221.5
318.065	210.5
318.295	194.5
318.524	203.5
318.753	209.5
318.983	197.5
319.212	203.5
319.441	203.5
319.67	218.5
319.9	210.5
320.129	214.5
320.358	208.5
320.587	210.5
320.816	218.5
321.046	211.5
321.275	204.5
321.504	212.5
321.733	223.5
321.962	214.5
322.191	216.5
322.42	225.5
322.649	224.5
322.878	230.5
323.108	240.5
323.337	230.5
323.566	261.5
323.795	264.5
324.024	281.5
324.253	364.5
324.482	497.5
324.71	737.5
324.939	969.5
325.168	778.5
325.397	415.5
325.626	300.5
325.855	270.5
326.084	248.5
326.313	264.5
326.542	226.5
326.77	262.5
326.999	303.5
327.228	454.5
327.457	640.5
327.686	734.5
327.914	466.5
328.143	350.5
328.372	328.5
328.6	321.5
328.829	285.5
329.058	297.5
329.287	295.5
329.515	306.5
329.744	270.5
329.972	261.5
330.201	270.5
330.43	318.5
330.658	323.5
330.887	334.5
331.115	319.5
331.344	291.5
331.572	264.5
331.801	249.5
332.03	252.5
332.258	236.5
332.486	226.5
332.715	231.5
332.943	232.5
333.172	249.5
333.4	246.5
333.629	257.5
333.857	278.5
334.085	256.5
334.314	262.5
334.542	286.5
334.771	292.5
334.999	282.5
335.227	284.5
335.455	231.5
335.684	232.5
335.912	231.5
336.14	240.5
336.369	239.5
336.597	239.5
336.825	232.5
337.053	243.5
337.281	231.5
337.51	209.5
337.738	231.5
337.966	214.5
338.194	218.5
338.422	230.5
338.65	227.5
338.878	236.5
339.106	220.5
339.334	217.5
339.562	228.5
339.79	217.5
340.018	224.5
340.246	228.5
340.474	237.5
340.702	260.5
340.93	224.5
341.158	229.5
341.386	220.5
341.614	224.5
341.842	232.5
342.07	220.5
342.298	223.5
342.526	229.5
342.754	220.5
342.981	220.5
343.209	212.5
343.437	225.5
343.665	235.5
343.893	214.5
344.12	246.5
344.348	230.5
344.576	222.5
344.804	225.5
345.031	249.5
345.259	254.5
345.487	232.5
345.714	231.5
345.942	203.5
346.17	218.5
346.397	228.5
346.625	222.5
346.853	220.5
347.08	213.5
347.308	225.5
347.535	218.5
347.763	236.5
347.99	237.5
348.218	218.5
348.445	219.5
348.673	222.5
348.9	233.5
349.128	222.5
349.355	219.5
349.583	228.5
349.81	223.5
350.037	223.5
350.265	216.5
350.492	223.5
350.72	227.5
350.947	223.5
351.174	223.5
351.402	230.5
351.629	241.5
351.856	225.5
352.083	234.5
352.311	235.5
352.538	233.5
352.765	237.5
352.992	228.5
353.22	212.5
353.447	235.5
353.674	216.5
353.901	209.5
354.128	224.5
354.355	225.5
354.583	202.5
354.81	218.5
355.037	177.5
355.264	208.5
355.491	192.5
355.718	206.5
355.945	193.5
356.172	212.5
356.399	204.5
356.626	211.5
356.853	203.5
357.08	207.5
357.307	202.5
357.534	208.5
357.761	217.5
357.988	206.5
358.215	220.5
358.441	209.5
358.668	209.5
358.895	210.5
359.122	233.5
359.349	202.5
359.576	216.5
359.802	236.5
360.029	241.5
360.256	235.5
360.483	249.5
360.709	231.5
360.936	222.5
361.163	210.5
361.39	227.5
361.616	228.5
361.843	228.5
362.07	213.5
362.296	228.5
362.523	206.5
362.749	210.5
362.976	225.5
363.203	221.5
363.429	218.5
363.656	193.5
363.882	208.5
364.109	210.5
364.335	206.5
364.562	220.5
364.788	192.5
365.015	198.5
365.241	211.5
365.468	231.5
365.694	234.5
365.92	206.5
366.147	213.5
366.373	205.5
366.599	202.5
366.826	220.5
367.052	229.5
367.278	198.5
367.505	219.5
367.731	220.5
367.957	199.5
368.184	206.5
368.41	221.5
368.636	223.5
368.862	223.5
369.089	205.5
369.315	221.5
369.541	191.5
369.767	204.5
369.993	212.5
370.219	207.5
370.445	214.5
370.672	196.5
370.898	205.5
371.124	217.5
371.35	201.5
371.576	200.5
371.802	209.5
372.028	219.5
372.254	222.5
372.48	202.5
372.706	203.5
372.932	214.5
373.158	208.5
373.384	208.5
373.61	197.5
373.835	210.5
374.061	212.5
374.287	224.5
374.513	213.5
374.739	207.5
374.965	210.5
375.191	210.5
375.416	204.5
375.642	196.5
375.868	218.5
376.094	217.5
376.319	202.5
376.545	193.5
376.771	218.5
376.997	200.5
377.222	207.5
377.448	221.5
377.674	206.5
377.899	196.5
378.125	206.5
378.35	208.5
378.576	212.5
378.802	207.5
379.027	224.5
379.253	208.5
379.478	218.5
379.704	200.5
379.929	200.5
380.155	209.5
380.38	208.5
380.606	207.5
380.831	205.5
381.057	209.5
381.282	204.5
381.507	213.5
381.733	207.5
381.958	217.5
382.184	201.5
382.409	197.5
382.634	196.5
382.86	207.5
383.085	218.5
383.31	219.5
383.535	220.5
383.761	237.5
383.986	227.5
384.211	195.5
384.436	214.5
384.662	211.5
384.887	208.5
385.112	220.5
385.337	232.5
385.562	236.5
385.787	231.5
386.013	230.5
386.238	228.5
386.463	227.5
386.688	230.5
386.913	237.5
387.138	209.5
387.363	230.5
387.588	238.5
387.813	229.5
388.038	221.5
388.263	232.5
388.488	220.5
388.713	236.5
388.938	223.5
389.163	223.5
389.387	226.5
389.612	225.5
389.837	208.5
390.062	217.5
390.287	218.5
390.512	225.5
390.736	218.5
390.961	235.5
391.186	226.5
391.411	230.5
391.636	245.5
391.86	225.5
392.085	227.5
392.31	225.5
392.534	236.5
392.759	220.5
392.984	224.5
393.208	209.5
393.433	229.5
393.658	235.5
393.882	224.5
394.107	234.5
394.331	229.5
394.556	228.5
394.78	221.5
395.005	254.5
395.229	222.5
395.454	233.5
395.678	214.5
395.903	233.5
396.127	238.5
396.352	251.5
396.576	236.5
396.801	209.5
397.025	244.5
397.249	240.5
397.474	239.5
397.698	240.5
397.922	250.5
398.147	234.5
398.371	228.5
398.595	253.5
398.82	247.5
399.044	245.5
399.268	260.5
399.492	260.5
399.717	281.5
399.941	288.5
400.165	308.5
400.389	310.5
400.613	272.5
400.837	250.5
401.062	264.5
401.286	255.5
401.51	254.5
401.734	247.5
401.958	262.5
402.182	239.5
402.406	258.5
402.63	282.5
402.854	271.5
403.078	263.5
403.302	255.5
403.526	281.5
403.75	272.5
403.974	252.5
404.198	261.5
404.422	269.5
404.645	262.5
404.869	272.5
405.093	296.5
405.317	298.5
405.541	325.5
405.765	301.5
405.988	275.5
406.212	289.5
406.436	311.5
406.66	298.5
406.883	279.5
407.107	289.5
407.331	297.5
407.555	322.5
407.778	337.5
408.002	310.5
408.226	267.5
408.449	270.5
408.673	291.5
408.896	308.5
409.12	300.5
409.344	286.5
409.567	272.5
409.791	260.5
410.014	247.5
410.238	262.5
410.461	258.5
410.685	269.5
410.908	267.5
411.132	275.5
411.355	295.5
411.578	283.5
411.802	253.5
412.025	267.5
412.249	268.5
412.472	274.5
412.695	287.5
412.919	278.5
413.142	271.5
413.365	268.5
413.589	265.5
413.812	268.5
414.035	244.5
414.258	248.5
414.482	257.5
414.705	264.5
414.928	246.5
415.151	237.5
415.374	253.5
415.597	245.5
415.821	238.5
416.044	241.5
416.267	246.5
416.49	239.5
416.713	247.5
416.936	248.5
417.159	253.5
417.382	270.5
417.605	243.5
417.828	272.5
418.051	283.5
418.274	271.5
418.497	251.5
418.72	238.5
418.943	247.5
419.166	258.5
419.389	281.5
419.611	262.5
419.834	264.5
420.057	273.5
420.28	272.5
420.503	280.5
420.726	288.5
420.948	259.5
421.171	271.5
421.394	290.5
421.617	251.5
421.839	259.5
422.062	267.5
422.285	261.5
422.507	287.5
422.73	337.5
422.953	304.5
423.175	286.5
423.398	263.5
423.621	269.5
423.843	281.5
424.066	280.5
424.288	279.5
424.511	275.5
424.733	322.5
424.956	343.5
425.178	332.5
425.401	311.5
425.623	324.5
425.846	291.5
426.068	280.5
426.291	280.5
426.513	291.5
426.735	278.5
426.958	308.5
427.18	319.5
427.402	383.5
427.625	416.5
427.847	361.5
428.069	314.5
428.292	311.5
428.514	271.5
428.736	263.5
428.958	256.5
429.181	253.5
429.403	232.5
429.625	276.5
429.847	260.5
430.069	311.5
430.292	304.5
430.514	252.5
430.736	251.5
430.958	252.5
431.18	257.5
431.402	244.5
431.624	247.5
431.846	239.5
432.068	231.5
432.29	250.5
432.512	252.5
432.734	245.5
432.956	246.5
433.178	245.5
433.4	253.5
433.622	261.5
433.844	249.5
434.066	247.5
434.287	256.5
434.509	245.5
434.731	241.5
434.953	272.5
435.175	270.5
435.397	281.5
435.618	289.5
435.84	288.5
436.062	316.5
436.284	353.5
436.505	299.5
436.727	268.5
436.949	254.5
437.17	265.5
437.392	241.5
437.614	255.5
437.835	280.5
438.057	330.5
438.278	349.5
438.5	337.5
438.721	378.5
438.943	340.5
439.165	266.5
439.386	293.5
439.608	288.5
439.829	275.5
440.05	305.5
440.272	299.5
440.493	292.5
440.715	269.5
440.936	264.5
441.158	253.5
441.379	256.5
441.6	266.5
441.822	273.5
442.043	294.5
442.264	346.5
442.486	347.5
442.707	285.5
442.928	288.5
443.149	296.5
443.371	306.5
443.592	312.5
443.813	324.5
444.034	366.5
444.255	313.5
444.476	292.5
444.698	294.5
444.919	289.5
445.14	349.5
445.361	317.5
445.582	293.5
445.803	334.5
446.024	376.5
446.245	364.5
446.466	344.5
446.687	273.5
446.908	269.5
447.129	286.5
447.35	253.5
447.571	254.5
447.792	234.5
448.013	252.5
448.234	256.5
448.455	285.5
448.675	334.5
448.896	374.5
449.117	338.5
449.338	316.5
449.559	353.5
449.779	384.5
450	312.5
450.221	274.5
450.442	265.5
450.662	260.5
450.883	265.5
451.104	268.5
451.324	280.5
451.545	262.5
451.766	247.5
451.986	229.5
452.207	224.5
452.428	234.5
452.648	235.5
452.869	218.5
453.089	232.5
453.31	256.5
453.53	238.5
453.751	237.5
453.971	245.5
454.192	240.5
454.412	236.5
454.633	225.5
454.853	229.5
455.073	238.5
455.294	241.5
455.514	271.5
455.734	270.5
455.955	240.5
456.175	232.5
456.395	223.5
456.616	238.5
456.836	220.5
457.056	214.5
457.276	222.5
457.497	220.5
457.717	239.5
457.937	226.5
458.157	219.5
458.377	252.5
458.598	251.5
458.818	277.5
459.038	312.5
459.258	299.5
459.478	258.5
459.698	268.5
459.918	236.5
460.138	242.5
460.358	239.5
460.578	236.5
460.798	241.5
461.018	265.5
461.238	261.5
461.458	263.5
461.678	249.5
461.898	262.5
462.118	262.5
462.338	259.5
462.558	237.5
462.777	262.5
462.997	286.5
463.217	267.5
463.437	278.5
463.657	269.5
463.876	257.5
464.096	256.5
464.316	270.5
464.536	273.5
464.755	299.5
464.975	296.5
465.195	318.5
465.414	340.5
465.634	295.5
465.854	253.5
466.073	264.5
466.293	240.5
466.512	231.5
466.732	238.5
466.951	265.5
467.171	246.5
467.391	248.5
467.61	253.5
467.829	253.5
468.049	249.5
468.268	262.5
468.488	241.5
468.707	232.5
468.927	251.5
469.146	236.5
469.365	236.5
469.585	238.5
469.804	241.5
470.023	242.5
470.243	250.5
470.462	259.5
470.681	258.5
470.901	258.5
471.12	246.5
471.339	248.5
471.558	232.5
471.777	244.5
471.997	242.5
472.216	248.5
472.435	298.5
472.654	273.5
472.873	245.5
473.092	234.5
473.311	238.5
473.53	248.5
473.749	262.5
473.968	261.5
474.187	293.5
474.406	317.5
474.625	266.5
474.844	247.5
475.063	244.5
475.282	229.5
475.501	244.5
475.72	242.5
475.939	251.5
476.158	252.5
476.377	243.5
476.596	238.5
476.814	242.5
477.033	263.5
477.252	267.5
477.471	250.5
477.69	258.5
477.908	251.5
478.127	274.5
478.346	273.5
478.564	251.5
478.783	251.5
479.002	274.5
479.22	290.5
479.439	288.5
479.658	280.5
479.876	294.5
480.095	300.5
480.313	297.5
480.532	297.5
480.751	286.5
480.969	304.5
481.188	352.5
481.406	390.5
481.624	316.5
481.843	303.5
482.061	275.5
482.28	301.5
482.498	282.5
482.717	258.5
482.935	272.5
483.153	284.5
483.372	280.5
483.59	269.5
483.808	294.5
484.027	293.5
484.245	285.5
484.463	292.5
484.681	276.5
484.9	282.5
485.118	285.5
485.336	277.5
485.554	277.5
485.772	287.5
485.99	264.5
486.209	292.5
486.427	290.5
486.645	288.5
486.863	319.5
487.081	310.5
487.299	280.5
487.517	308.5
487.735	288.5
487.953	301.5
488.171	316.5
488.389	284.5
488.607	287.5
488.825	292.5
489.043	310.5
489.261	308.5
489.479	291.5
489.696	308.5
489.914	312.5
490.132	317.5
490.35	302.5
490.568	304.5
490.786	318.5
491.003	328.5
491.221	328.5
491.439	321.5
491.657	323.5
491.874	343.5
492.092	342.5
492.31	341.5
492.527	344.5
492.745	352.5
492.963	342.5
493.18	351.5
493.398	350.5
493.615	367.5
493.833	350.5
494.05	351.5
494.268	339.5
494.485	340.5
494.703	350.5
494.92	343.5
495.138	353.5
495.355	341.5
495.573	351.5
495.79	357.5
496.008	325.5
496.225	360.5
496.442	344.5
496.66	347.5
496.877	354.5
497.094	344.5
497.312	334.5
497.529	353.5
497.746	364.5
497.963	356.5
498.181	368.5
498.398	367.5
498.615	375.5
498.832	374.5
499.049	372.5
499.267	380.5
499.484	400.5
499.701	412.5
499.918	432.5
500.135	443.5
500.352	430.5
500.569	462.5
500.786	478.5
501.003	467.5
501.22	441.5
501.437	445.5
501.654	428.5
501.871	432.5
502.088	401.5
502.305	388.5
502.522	376.5
502.739	359.5
502.956	362.5
503.172	347.5
503.389	342.5
503.606	346.5
503.823	359.5
504.04	350.5
504.256	335.5
504.473	349.5
504.69	331.5
504.907	354.5
505.123	322.5
505.34	350.5
505.557	329.5
505.773	314.5
505.99	313.5
506.207	331.5
506.423	335.5
506.64	320.5
506.856	326.5
507.073	337.5
507.289	316.5
507.506	314.5
507.722	336.5
507.939	336.5
508.155	339.5
508.372	311.5
508.588	319.5
508.805	312.5
509.021	313.5
509.238	320.5
509.454	320.5
509.67	317.5
509.887	314.5
510.103	312.5
510.319	324.5
510.536	394.5
510.752	735.5
510.968	551.5
511.184	324.5
511.401	300.5
511.617	298.5
511.833	304.5
512.049	286.5
512.265	300.5
512.481	288.5
512.698	297.5
512.914	303.5
513.13	300.5
513.346	290.5
513.562	311.5
513.778	295.5
513.994	286.5
514.21	318.5
514.426	324.5
514.642	344.5
514.858	350.5
515.074	367.5
515.29	458.5
515.506	799.5
515.721	602.5
515.937	367.5
516.153	326.5
516.369	325.5
516.585	314.5
516.801	281.5
517.016	291.5
517.232	301.5
517.448	293.5
517.664	314.5
517.879	304.5
518.095	300.5
518.311	299.5
518.527	295.5
518.742	304.5
518.958	284.5
519.173	293.5
519.389	286.5
519.605	299.5
519.82	297.5
520.036	306.5
520.251	321.5
520.467	327.5
