Data from 1966.PennyLincolnUp.Lamp.En5.5.200Scan.071719.P1._HRD10591_14-14-20-914.txt Node
Date: Thu Jul 18 14:14:20 EDT 2019
User: cochatt
Spectrometer: HR+D1059
Trigger mode: 1
Integration Time (sec): 1.000000E-1
Scans to average: 1
Electric dark correction enabled: true
Nonlinearity correction enabled: false
Boxcar width: 0
XAxis mode: Wavelengths
Number of Pixels in Spectrum: 2048
>>>>>Begin Spectral Data<<<<<
223.165	-27.38
223.4	-27.38
223.635	-27.38
223.869	-12.38
224.104	-16.38
224.338	-20.38
224.573	-17.38
224.808	-9.38
225.042	-16.38
225.277	4.62
225.511	10.62
225.746	-3.38
225.98	-7.38
226.215	11.62
226.449	14.62
226.683	23.62
226.918	35.62
227.152	29.62
227.387	33.62
227.621	35.62
227.856	36.62
228.09	46.62
228.324	43.62
228.559	60.62
228.793	60.62
229.027	91.62
229.262	77.62
229.496	97.62
229.73	102.62
229.964	110.62
230.199	95.62
230.433	89.62
230.667	92.62
230.901	86.62
231.136	100.62
231.37	104.62
231.604	92.62
231.838	100.62
232.072	102.62
232.306	98.62
232.541	105.62
232.775	104.62
233.009	106.62
233.243	97.62
233.477	87.62
233.711	102.62
233.945	99.62
234.179	115.62
234.413	96.62
234.647	95.62
234.881	92.62
235.115	108.62
235.349	86.62
235.583	95.62
235.817	83.62
236.051	105.62
236.285	108.62
236.519	103.62
236.753	98.62
236.987	109.62
237.221	130.62
237.455	134.62
237.689	130.62
237.922	118.62
238.156	95.62
238.39	110.62
238.624	93.62
238.858	91.62
239.091	99.62
239.325	109.62
239.559	94.62
239.793	115.62
240.027	107.62
240.26	113.62
240.494	104.62
240.728	121.62
240.961	105.62
241.195	110.62
241.429	100.62
241.662	110.62
241.896	95.62
242.13	103.62
242.363	106.62
242.597	103.62
242.83	95.62
243.064	99.62
243.298	113.62
243.531	114.62
243.765	114.62
243.998	120.62
244.232	103.62
244.465	108.62
244.699	114.62
244.932	111.62
245.166	113.62
245.399	112.62
245.633	104.62
245.866	107.62
246.099	104.62
246.333	103.62
246.566	107.62
246.8	107.62
247.033	117.62
247.266	122.62
247.5	115.62
247.733	110.62
247.966	126.62
248.2	116.62
248.433	128.62
248.666	127.62
248.899	125.62
249.133	126.62
249.366	134.62
249.599	139.62
249.832	134.62
250.066	112.62
250.299	130.62
250.532	139.62
250.765	142.62
250.998	144.62
251.231	141.62
251.465	147.62
251.698	123.62
251.931	142.62
252.164	137.62
252.397	116.62
252.63	130.62
252.863	135.62
253.096	139.62
253.329	141.62
253.562	126.62
253.795	136.62
254.028	131.62
254.261	143.62
254.494	142.62
254.727	176.62
254.96	182.62
255.193	173.62
255.426	154.62
255.659	136.62
255.892	140.62
256.124	143.62
256.357	154.62
256.59	166.62
256.823	141.62
257.056	155.62
257.289	133.62
257.521	129.62
257.754	138.62
257.987	139.62
258.22	135.62
258.452	136.62
258.685	138.62
258.918	137.62
259.151	139.62
259.383	148.62
259.616	132.62
259.849	157.62
260.081	152.62
260.314	166.62
260.547	147.62
260.779	157.62
261.012	137.62
261.244	159.62
261.477	139.62
261.71	134.62
261.942	142.62
262.175	144.62
262.407	142.62
262.64	143.62
262.872	138.62
263.105	140.62
263.337	147.62
263.57	143.62
263.802	143.62
264.035	130.62
264.267	148.62
264.499	142.62
264.732	141.62
264.964	150.62
265.197	152.62
265.429	144.62
265.661	134.62
265.894	143.62
266.126	132.62
266.358	158.62
266.591	140.62
266.823	144.62
267.055	138.62
267.287	142.62
267.52	149.62
267.752	174.62
267.984	158.62
268.216	150.62
268.448	150.62
268.681	155.62
268.913	167.62
269.145	172.62
269.377	160.62
269.609	158.62
269.841	165.62
270.073	161.62
270.306	178.62
270.538	202.62
270.77	177.62
271.002	172.62
271.234	188.62
271.466	168.62
271.698	203.62
271.93	200.62
272.162	183.62
272.394	194.62
272.626	168.62
272.858	163.62
273.09	146.62
273.322	171.62
273.553	162.62
273.785	158.62
274.017	159.62
274.249	171.62
274.481	160.62
274.713	144.62
274.945	176.62
275.176	159.62
275.408	174.62
275.64	155.62
275.872	158.62
276.104	150.62
276.335	171.62
276.567	169.62
276.799	178.62
277.031	182.62
277.262	195.62
277.494	190.62
277.726	193.62
277.957	187.62
278.189	177.62
278.421	156.62
278.652	177.62
278.884	153.62
279.115	163.62
279.347	159.62
279.579	167.62
279.81	148.62
280.042	168.62
280.273	161.62
280.505	168.62
280.736	170.62
280.968	174.62
281.199	174.62
281.431	146.62
281.662	163.62
281.894	162.62
282.125	175.62
282.356	184.62
282.588	173.62
282.819	192.62
283.051	182.62
283.282	168.62
283.513	171.62
283.745	171.62
283.976	172.62
284.207	187.62
284.439	175.62
284.67	172.62
284.901	168.62
285.132	176.62
285.364	162.62
285.595	169.62
285.826	171.62
286.057	167.62
286.288	163.62
286.52	170.62
286.751	162.62
286.982	178.62
287.213	168.62
287.444	177.62
287.675	184.62
287.906	186.62
288.138	178.62
288.369	164.62
288.6	197.62
288.831	184.62
289.062	186.62
289.293	170.62
289.524	170.62
289.755	170.62
289.986	167.62
290.217	166.62
290.448	182.62
290.679	187.62
290.91	173.62
291.141	180.62
291.371	182.62
291.602	199.62
291.833	170.62
292.064	178.62
292.295	176.62
292.526	159.62
292.757	186.62
292.987	181.62
293.218	166.62
293.449	170.62
293.68	162.62
293.91	169.62
294.141	175.62
294.372	173.62
294.603	152.62
294.833	162.62
295.064	185.62
295.295	184.62
295.525	187.62
295.756	176.62
295.987	184.62
296.217	201.62
296.448	196.62
296.679	177.62
296.909	180.62
297.14	178.62
297.37	172.62
297.601	185.62
297.831	192.62
298.062	172.62
298.292	169.62
298.523	174.62
298.753	178.62
298.984	179.62
299.214	191.62
299.445	194.62
299.675	195.62
299.905	206.62
300.136	188.62
300.366	184.62
300.597	193.62
300.827	194.62
301.057	198.62
301.288	188.62
301.518	175.62
301.748	186.62
301.979	204.62
302.209	170.62
302.439	203.62
302.669	197.62
302.9	175.62
303.13	193.62
303.36	186.62
303.59	201.62
303.82	183.62
304.051	214.62
304.281	178.62
304.511	186.62
304.741	198.62
304.971	191.62
305.201	194.62
305.431	192.62
305.661	199.62
305.891	197.62
306.121	185.62
306.352	189.62
306.582	168.62
306.812	196.62
307.042	194.62
307.272	197.62
307.502	207.62
307.731	196.62
307.961	195.62
308.191	183.62
308.421	176.62
308.651	203.62
308.881	192.62
309.111	206.62
309.341	197.62
309.571	185.62
309.8	215.62
310.03	215.62
310.26	201.62
310.49	214.62
310.72	210.62
310.949	213.62
311.179	218.62
311.409	202.62
311.639	221.62
311.868	207.62
312.098	208.62
312.328	219.62
312.557	225.62
312.787	248.62
313.017	236.62
313.246	223.62
313.476	217.62
313.706	203.62
313.935	205.62
314.165	226.62
314.394	215.62
314.624	233.62
314.853	215.62
315.083	236.62
315.312	205.62
315.542	220.62
315.771	205.62
316.001	212.62
316.23	225.62
316.46	204.62
316.689	224.62
316.919	205.62
317.148	219.62
317.377	220.62
317.607	213.62
317.836	221.62
318.065	218.62
318.295	208.62
318.524	230.62
318.753	216.62
318.983	211.62
319.212	194.62
319.441	213.62
319.67	206.62
319.9	210.62
320.129	222.62
320.358	216.62
320.587	224.62
320.816	216.62
321.046	201.62
321.275	196.62
321.504	225.62
321.733	225.62
321.962	215.62
322.191	238.62
322.42	231.62
322.649	232.62
322.878	243.62
323.108	251.62
323.337	258.62
323.566	281.62
323.795	284.62
324.024	310.62
324.253	370.62
324.482	538.62
324.71	786.62
324.939	1017.62
325.168	847.62
325.397	433.62
325.626	336.62
325.855	275.62
326.084	264.62
326.313	267.62
326.542	250.62
326.77	288.62
326.999	322.62
327.228	463.62
327.457	685.62
327.686	750.62
327.914	518.62
328.143	362.62
328.372	332.62
328.6	304.62
328.829	297.62
329.058	324.62
329.287	340.62
329.515	297.62
329.744	269.62
329.972	287.62
330.201	305.62
330.43	317.62
330.658	332.62
330.887	354.62
331.115	305.62
331.344	294.62
331.572	279.62
331.801	269.62
332.03	265.62
332.258	254.62
332.486	266.62
332.715	237.62
332.943	232.62
333.172	237.62
333.4	238.62
333.629	275.62
333.857	267.62
334.085	274.62
334.314	288.62
334.542	301.62
334.771	315.62
334.999	282.62
335.227	260.62
335.455	242.62
335.684	244.62
335.912	247.62
336.14	228.62
336.369	238.62
336.597	252.62
336.825	249.62
337.053	250.62
337.281	223.62
337.51	238.62
337.738	240.62
337.966	241.62
338.194	249.62
338.422	249.62
338.65	228.62
338.878	230.62
339.106	236.62
339.334	252.62
339.562	234.62
339.79	224.62
340.018	232.62
340.246	222.62
340.474	240.62
340.702	225.62
340.93	227.62
341.158	231.62
341.386	226.62
341.614	240.62
341.842	227.62
342.07	231.62
342.298	223.62
342.526	226.62
342.754	217.62
342.981	211.62
343.209	229.62
343.437	230.62
343.665	216.62
343.893	244.62
344.12	237.62
344.348	236.62
344.576	247.62
344.804	243.62
345.031	249.62
345.259	255.62
345.487	253.62
345.714	251.62
345.942	233.62
346.17	225.62
346.397	212.62
346.625	242.62
346.853	214.62
347.08	207.62
347.308	208.62
347.535	228.62
347.763	216.62
347.99	228.62
348.218	229.62
348.445	226.62
348.673	236.62
348.9	238.62
349.128	219.62
349.355	215.62
349.583	205.62
349.81	209.62
350.037	224.62
350.265	219.62
350.492	241.62
350.72	234.62
350.947	230.62
351.174	220.62
351.402	232.62
351.629	221.62
351.856	219.62
352.083	239.62
352.311	226.62
352.538	236.62
352.765	243.62
352.992	235.62
353.22	229.62
353.447	220.62
353.674	221.62
353.901	200.62
354.128	214.62
354.355	216.62
354.583	211.62
354.81	216.62
355.037	221.62
355.264	209.62
355.491	216.62
355.718	218.62
355.945	216.62
356.172	211.62
356.399	211.62
356.626	222.62
356.853	200.62
357.08	212.62
357.307	195.62
357.534	201.62
357.761	202.62
357.988	208.62
358.215	207.62
358.441	203.62
358.668	219.62
358.895	221.62
359.122	224.62
359.349	225.62
359.576	239.62
359.802	254.62
360.029	250.62
360.256	268.62
360.483	249.62
360.709	243.62
360.936	231.62
361.163	211.62
361.39	230.62
361.616	212.62
361.843	222.62
362.07	243.62
362.296	223.62
362.523	228.62
362.749	225.62
362.976	231.62
363.203	212.62
363.429	217.62
363.656	227.62
363.882	204.62
364.109	215.62
364.335	219.62
364.562	221.62
364.788	227.62
365.015	211.62
365.241	204.62
365.468	210.62
365.694	223.62
365.92	236.62
366.147	198.62
366.373	202.62
366.599	215.62
366.826	209.62
367.052	215.62
367.278	222.62
367.505	222.62
367.731	225.62
367.957	217.62
368.184	195.62
368.41	224.62
368.636	251.62
368.862	214.62
369.089	222.62
369.315	230.62
369.541	205.62
369.767	216.62
369.993	203.62
370.219	223.62
370.445	220.62
370.672	220.62
370.898	218.62
371.124	211.62
371.35	202.62
371.576	201.62
371.802	200.62
372.028	223.62
372.254	202.62
372.48	201.62
372.706	199.62
372.932	220.62
373.158	218.62
373.384	210.62
373.61	229.62
373.835	230.62
374.061	210.62
374.287	217.62
374.513	202.62
374.739	209.62
374.965	218.62
375.191	210.62
375.416	225.62
375.642	204.62
375.868	216.62
376.094	201.62
376.319	201.62
376.545	199.62
376.771	201.62
376.997	213.62
377.222	225.62
377.448	206.62
377.674	207.62
377.899	197.62
378.125	205.62
378.35	218.62
378.576	189.62
378.802	205.62
379.027	221.62
379.253	222.62
379.478	208.62
379.704	225.62
379.929	206.62
380.155	221.62
380.38	208.62
380.606	224.62
380.831	235.62
381.057	210.62
381.282	211.62
381.507	215.62
381.733	216.62
381.958	196.62
382.184	208.62
382.409	218.62
382.634	223.62
382.86	205.62
383.085	212.62
383.31	224.62
383.535	219.62
383.761	216.62
383.986	215.62
384.211	219.62
384.436	222.62
384.662	212.62
384.887	220.62
385.112	224.62
385.337	243.62
385.562	223.62
385.787	239.62
386.013	236.62
386.238	231.62
386.463	222.62
386.688	234.62
386.913	215.62
387.138	216.62
387.363	231.62
387.588	226.62
387.813	238.62
388.038	237.62
388.263	218.62
388.488	235.62
388.713	219.62
388.938	221.62
389.163	203.62
389.387	232.62
389.612	204.62
389.837	212.62
390.062	231.62
390.287	223.62
390.512	213.62
390.736	231.62
390.961	207.62
391.186	220.62
391.411	209.62
391.636	223.62
391.86	215.62
392.085	225.62
392.31	235.62
392.534	239.62
392.759	228.62
392.984	215.62
393.208	239.62
393.433	224.62
393.658	232.62
393.882	232.62
394.107	224.62
394.331	218.62
394.556	235.62
394.78	238.62
395.005	214.62
395.229	232.62
395.454	236.62
395.678	234.62
395.903	247.62
396.127	227.62
396.352	235.62
396.576	229.62
396.801	230.62
397.025	242.62
397.249	239.62
397.474	241.62
397.698	245.62
397.922	251.62
398.147	240.62
398.371	268.62
398.595	263.62
398.82	243.62
399.044	262.62
399.268	272.62
399.492	272.62
399.717	276.62
399.941	301.62
400.165	305.62
400.389	301.62
400.613	260.62
400.837	260.62
401.062	252.62
401.286	238.62
401.51	264.62
401.734	249.62
401.958	266.62
402.182	268.62
402.406	258.62
402.63	276.62
402.854	264.62
403.078	277.62
403.302	269.62
403.526	282.62
403.75	278.62
403.974	254.62
404.198	267.62
404.422	261.62
404.645	278.62
404.869	274.62
405.093	297.62
405.317	297.62
405.541	313.62
405.765	286.62
405.988	299.62
406.212	301.62
406.436	290.62
406.66	321.62
406.883	280.62
407.107	297.62
407.331	312.62
407.555	328.62
407.778	324.62
408.002	294.62
408.226	300.62
408.449	290.62
408.673	296.62
408.896	291.62
409.12	321.62
409.344	297.62
409.567	292.62
409.791	266.62
410.014	282.62
410.238	257.62
410.461	255.62
410.685	277.62
410.908	284.62
411.132	283.62
411.355	299.62
411.578	273.62
411.802	268.62
412.025	289.62
412.249	260.62
412.472	275.62
412.695	302.62
412.919	297.62
413.142	273.62
413.365	252.62
413.589	255.62
413.812	264.62
414.035	243.62
414.258	264.62
414.482	248.62
414.705	249.62
414.928	254.62
415.151	261.62
415.374	246.62
415.597	250.62
415.821	264.62
416.044	243.62
416.267	257.62
416.49	238.62
416.713	247.62
416.936	260.62
417.159	234.62
417.382	259.62
417.605	261.62
417.828	266.62
418.051	259.62
418.274	252.62
418.497	244.62
418.72	258.62
418.943	246.62
419.166	271.62
419.389	276.62
419.611	265.62
419.834	268.62
420.057	265.62
420.28	268.62
420.503	265.62
420.726	267.62
420.948	259.62
421.171	290.62
421.394	304.62
421.617	282.62
421.839	262.62
422.062	283.62
422.285	276.62
422.507	285.62
422.73	322.62
422.953	320.62
423.175	285.62
423.398	270.62
423.621	264.62
423.843	279.62
424.066	271.62
424.288	276.62
424.511	282.62
424.733	311.62
424.956	343.62
425.178	328.62
425.401	324.62
425.623	350.62
425.846	291.62
426.068	270.62
426.291	277.62
426.513	290.62
426.735	297.62
426.958	305.62
427.18	328.62
427.402	375.62
427.625	404.62
427.847	378.62
428.069	332.62
428.292	288.62
428.514	282.62
428.736	275.62
428.958	254.62
429.181	268.62
429.403	241.62
429.625	272.62
429.847	283.62
430.069	314.62
430.292	298.62
430.514	263.62
430.736	254.62
430.958	256.62
431.18	251.62
431.402	234.62
431.624	261.62
431.846	255.62
432.068	236.62
432.29	233.62
432.512	246.62
432.734	249.62
432.956	251.62
433.178	258.62
433.4	258.62
433.622	257.62
433.844	245.62
434.066	243.62
434.287	266.62
434.509	248.62
434.731	268.62
434.953	263.62
435.175	287.62
435.397	290.62
435.618	293.62
435.84	304.62
436.062	320.62
436.284	356.62
436.505	318.62
436.727	282.62
436.949	264.62
437.17	257.62
437.392	268.62
437.614	266.62
437.835	274.62
438.057	326.62
438.278	355.62
438.5	358.62
438.721	381.62
438.943	372.62
439.165	300.62
439.386	299.62
439.608	283.62
439.829	305.62
440.05	285.62
440.272	306.62
440.493	299.62
440.715	286.62
440.936	266.62
441.158	261.62
441.379	268.62
441.6	279.62
441.822	306.62
442.043	310.62
442.264	336.62
442.486	349.62
442.707	302.62
442.928	281.62
443.149	285.62
443.371	315.62
443.592	326.62
443.813	355.62
444.034	387.62
444.255	315.62
444.476	290.62
444.698	286.62
444.919	301.62
445.14	401.62
445.361	335.62
445.582	320.62
445.803	330.62
446.024	380.62
446.245	384.62
446.466	318.62
446.687	312.62
446.908	304.62
447.129	276.62
447.35	264.62
447.571	255.62
447.792	265.62
448.013	250.62
448.234	239.62
448.455	305.62
448.675	337.62
448.896	386.62
449.117	310.62
449.338	294.62
449.559	370.62
449.779	382.62
450	319.62
450.221	272.62
450.442	270.62
450.662	269.62
450.883	276.62
451.104	288.62
451.324	269.62
451.545	268.62
451.766	264.62
451.986	239.62
452.207	232.62
452.428	232.62
452.648	256.62
452.869	225.62
453.089	242.62
453.31	241.62
453.53	243.62
453.751	235.62
453.971	253.62
454.192	268.62
454.412	240.62
454.633	250.62
454.853	230.62
455.073	222.62
455.294	248.62
455.514	276.62
455.734	283.62
455.955	251.62
456.175	235.62
456.395	243.62
456.616	222.62
456.836	236.62
457.056	231.62
457.276	235.62
457.497	229.62
457.717	226.62
457.937	231.62
458.157	210.62
458.377	217.62
458.598	231.62
458.818	298.62
459.038	334.62
459.258	319.62
459.478	282.62
459.698	243.62
459.918	257.62
460.138	246.62
460.358	254.62
460.578	255.62
460.798	268.62
461.018	271.62
461.238	258.62
461.458	249.62
461.678	249.62
461.898	268.62
462.118	250.62
462.338	274.62
462.558	252.62
462.777	243.62
462.997	275.62
463.217	273.62
463.437	256.62
463.657	260.62
463.876	275.62
464.096	258.62
464.316	266.62
464.536	283.62
464.755	285.62
464.975	281.62
465.195	319.62
465.414	358.62
465.634	306.62
465.854	264.62
466.073	260.62
466.293	257.62
466.512	247.62
466.732	236.62
466.951	239.62
467.171	234.62
467.391	259.62
467.61	270.62
467.829	273.62
468.049	243.62
468.268	247.62
468.488	262.62
468.707	236.62
468.927	246.62
469.146	240.62
469.365	226.62
469.585	241.62
469.804	243.62
470.023	250.62
470.243	252.62
470.462	250.62
470.681	254.62
470.901	254.62
471.12	233.62
471.339	250.62
471.558	238.62
471.777	250.62
471.997	265.62
472.216	263.62
472.435	282.62
472.654	268.62
472.873	248.62
473.092	244.62
473.311	236.62
473.53	246.62
473.749	239.62
473.968	277.62
474.187	315.62
474.406	318.62
474.625	276.62
474.844	248.62
475.063	246.62
475.282	263.62
475.501	242.62
475.72	255.62
475.939	252.62
476.158	258.62
476.377	267.62
476.596	254.62
476.814	258.62
477.033	256.62
477.252	242.62
477.471	243.62
477.69	277.62
477.908	274.62
478.127	257.62
478.346	252.62
478.564	262.62
478.783	276.62
479.002	279.62
479.22	289.62
479.439	286.62
479.658	304.62
479.876	297.62
480.095	306.62
480.313	289.62
480.532	303.62
480.751	294.62
480.969	294.62
481.188	376.62
481.406	385.62
481.624	305.62
481.843	300.62
482.061	291.62
482.28	281.62
482.498	283.62
482.717	280.62
482.935	294.62
483.153	276.62
483.372	268.62
483.59	279.62
483.808	276.62
484.027	280.62
484.245	270.62
484.463	272.62
484.681	291.62
484.9	290.62
485.118	305.62
485.336	308.62
485.554	297.62
485.772	298.62
485.99	304.62
486.209	281.62
486.427	299.62
486.645	305.62
486.863	312.62
487.081	331.62
487.299	322.62
487.517	314.62
487.735	292.62
487.953	313.62
488.171	297.62
488.389	304.62
488.607	295.62
488.825	321.62
489.043	298.62
489.261	299.62
489.479	298.62
489.696	316.62
489.914	315.62
490.132	318.62
490.35	304.62
490.568	320.62
490.786	323.62
491.003	321.62
491.221	323.62
491.439	342.62
491.657	366.62
491.874	323.62
492.092	346.62
492.31	368.62
492.527	347.62
492.745	366.62
492.963	358.62
493.18	345.62
493.398	367.62
493.615	372.62
493.833	379.62
494.05	356.62
494.268	376.62
494.485	351.62
494.703	338.62
494.92	349.62
495.138	364.62
495.355	350.62
495.573	355.62
495.79	351.62
496.008	351.62
496.225	360.62
496.442	354.62
496.66	367.62
496.877	338.62
497.094	355.62
497.312	344.62
497.529	350.62
497.746	368.62
497.963	381.62
498.181	359.62
498.398	346.62
498.615	367.62
498.832	380.62
499.049	396.62
499.267	397.62
499.484	417.62
499.701	415.62
499.918	428.62
500.135	464.62
500.352	462.62
500.569	464.62
500.786	451.62
501.003	472.62
501.22	463.62
501.437	450.62
501.654	439.62
501.871	424.62
502.088	414.62
502.305	389.62
