Data from 1966.PennyLincolnUp.Lamp.En5.5.200Scan.071719.P1.Scan2.head_HRD10591_14-19-32-276.txt Node
Date: Thu Jul 18 14:19:32 EDT 2019
User: cochatt
Spectrometer: HR+D1059
Trigger mode: 1
Integration Time (sec): 1.000000E-1
Scans to average: 1
Electric dark correction enabled: true
Nonlinearity correction enabled: false
Boxcar width: 0
XAxis mode: Wavelengths
Number of Pixels in Spectrum: 2048
>>>>>Begin Spectral Data<<<<<
223.165	-5.56
223.4	-5.56
223.635	-5.56
223.869	-26.56
224.104	-16.56
224.338	-15.56
224.573	-13.56
224.808	-13.56
225.042	-10.56
225.277	-10.56
225.511	-7.56
225.746	-0.56
225.98	15.44
226.215	21.44
226.449	31.44
226.683	14.44
226.918	17.44
227.152	20.44
227.387	45.44
227.621	38.44
227.856	42.44
228.09	61.44
228.324	33.44
228.559	55.44
228.793	82.44
229.027	120.44
229.262	118.44
229.496	112.44
229.73	145.44
229.964	149.44
230.199	127.44
230.433	128.44
230.667	134.44
230.901	131.44
231.136	124.44
231.37	95.44
231.604	120.44
231.838	107.44
232.072	123.44
232.306	121.44
232.541	126.44
232.775	124.44
233.009	131.44
233.243	119.44
233.477	125.44
233.711	133.44
233.945	125.44
234.179	128.44
234.413	124.44
234.647	122.44
234.881	126.44
235.115	114.44
235.349	137.44
235.583	136.44
235.817	117.44
236.051	121.44
236.285	126.44
236.519	135.44
236.753	154.44
236.987	162.44
237.221	199.44
237.455	238.44
237.689	195.44
237.922	158.44
238.156	141.44
238.39	141.44
238.624	130.44
238.858	121.44
239.091	137.44
239.325	134.44
239.559	117.44
239.793	156.44
240.027	146.44
240.26	149.44
240.494	179.44
240.728	165.44
240.961	144.44
241.195	147.44
241.429	145.44
241.662	152.44
241.896	140.44
242.13	162.44
242.363	152.44
242.597	147.44
242.83	162.44
243.064	151.44
243.298	161.44
243.531	145.44
243.765	149.44
243.998	161.44
244.232	153.44
244.465	161.44
244.699	140.44
244.932	152.44
245.166	164.44
245.399	151.44
245.633	161.44
245.866	165.44
246.099	171.44
246.333	165.44
246.566	153.44
246.8	168.44
247.033	164.44
247.266	172.44
247.5	174.44
247.733	182.44
247.966	163.44
248.2	189.44
248.433	171.44
248.666	195.44
248.899	211.44
249.133	210.44
249.366	216.44
249.599	231.44
249.832	191.44
250.066	177.44
250.299	189.44
250.532	215.44
250.765	220.44
250.998	227.44
251.231	231.44
251.465	235.44
251.698	210.44
251.931	225.44
252.164	211.44
252.397	202.44
252.63	187.44
252.863	209.44
253.096	236.44
253.329	233.44
253.562	247.44
253.795	237.44
254.028	232.44
254.261	219.44
254.494	242.44
254.727	271.44
254.96	290.44
255.193	294.44
255.426	265.44
255.659	254.44
255.892	239.44
256.124	246.44
256.357	277.44
256.59	247.44
256.823	247.44
257.056	216.44
257.289	222.44
257.521	223.44
257.754	227.44
257.987	222.44
258.22	226.44
258.452	220.44
258.685	208.44
258.918	228.44
259.151	235.44
259.383	238.44
259.616	224.44
259.849	242.44
260.081	254.44
260.314	273.44
260.547	293.44
260.779	257.44
261.012	239.44
261.244	243.44
261.477	255.44
261.71	254.44
261.942	228.44
262.175	263.44
262.407	244.44
262.64	219.44
262.872	238.44
263.105	232.44
263.337	232.44
263.57	247.44
263.802	224.44
264.035	238.44
264.267	231.44
264.499	234.44
264.732	227.44
264.964	219.44
265.197	215.44
265.429	220.44
265.661	237.44
265.894	229.44
266.126	242.44
266.358	235.44
266.591	221.44
266.823	245.44
267.055	220.44
267.287	233.44
267.52	223.44
267.752	241.44
267.984	231.44
268.216	259.44
268.448	249.44
268.681	269.44
268.913	265.44
269.145	278.44
269.377	301.44
269.609	296.44
269.841	279.44
270.073	293.44
270.306	295.44
270.538	332.44
270.77	338.44
271.002	341.44
271.234	297.44
271.466	312.44
271.698	325.44
271.93	331.44
272.162	319.44
272.394	325.44
272.626	329.44
272.858	302.44
273.09	282.44
273.322	279.44
273.553	279.44
273.785	270.44
274.017	286.44
274.249	297.44
274.481	269.44
274.713	283.44
274.945	269.44
275.176	293.44
275.408	290.44
275.64	302.44
275.872	277.44
276.104	294.44
276.335	287.44
276.567	296.44
276.799	294.44
277.031	311.44
277.262	358.44
277.494	347.44
277.726	312.44
277.957	303.44
278.189	305.44
278.421	287.44
278.652	284.44
278.884	296.44
279.115	278.44
279.347	291.44
279.579	282.44
279.81	280.44
280.042	275.44
280.273	261.44
280.505	273.44
280.736	294.44
280.968	290.44
281.199	290.44
281.431	292.44
281.662	296.44
281.894	272.44
282.125	293.44
282.356	321.44
282.588	303.44
282.819	306.44
283.051	285.44
283.282	283.44
283.513	296.44
283.745	287.44
283.976	291.44
284.207	302.44
284.439	300.44
284.67	293.44
284.901	295.44
285.132	288.44
285.364	290.44
285.595	300.44
285.826	300.44
286.057	297.44
286.288	291.44
286.52	291.44
286.751	300.44
286.982	305.44
287.213	296.44
287.444	307.44
287.675	306.44
287.906	297.44
288.138	317.44
288.369	332.44
288.6	329.44
288.831	317.44
289.062	315.44
289.293	310.44
289.524	318.44
289.755	294.44
289.986	306.44
290.217	309.44
290.448	327.44
290.679	327.44
290.91	310.44
291.141	306.44
291.371	315.44
291.602	295.44
291.833	283.44
292.064	290.44
292.295	303.44
292.526	318.44
292.757	290.44
292.987	313.44
293.218	298.44
293.449	303.44
293.68	299.44
293.91	311.44
294.141	286.44
294.372	317.44
294.603	317.44
294.833	315.44
295.064	292.44
295.295	319.44
295.525	300.44
295.756	311.44
295.987	321.44
296.217	341.44
296.448	355.44
296.679	309.44
296.909	319.44
297.14	304.44
297.37	325.44
297.601	303.44
297.831	315.44
298.062	329.44
298.292	312.44
298.523	325.44
298.753	326.44
298.984	329.44
299.214	318.44
299.445	298.44
299.675	333.44
299.905	330.44
300.136	333.44
300.366	339.44
300.597	334.44
300.827	337.44
301.057	340.44
301.288	354.44
301.518	336.44
301.748	349.44
301.979	354.44
302.209	341.44
302.439	343.44
302.669	343.44
302.9	350.44
303.13	347.44
303.36	342.44
303.59	347.44
303.82	349.44
304.051	372.44
304.281	349.44
304.511	331.44
304.741	328.44
304.971	341.44
305.201	347.44
305.431	344.44
305.661	354.44
305.891	345.44
306.121	348.44
306.352	336.44
306.582	362.44
306.812	332.44
307.042	367.44
307.272	353.44
307.502	385.44
307.731	346.44
307.961	364.44
308.191	368.44
308.421	364.44
308.651	341.44
308.881	360.44
309.111	345.44
309.341	357.44
309.571	367.44
309.8	391.44
310.03	399.44
310.26	393.44
310.49	402.44
310.72	409.44
310.949	408.44
311.179	409.44
311.409	394.44
311.639	399.44
311.868	396.44
312.098	386.44
312.328	418.44
312.557	422.44
312.787	432.44
313.017	446.44
313.246	439.44
313.476	395.44
313.706	390.44
313.935	419.44
314.165	422.44
314.394	419.44
314.624	410.44
314.853	403.44
315.083	389.44
315.312	405.44
315.542	402.44
315.771	395.44
316.001	408.44
316.23	393.44
316.46	391.44
316.689	415.44
316.919	397.44
317.148	431.44
317.377	400.44
317.607	426.44
317.836	403.44
318.065	394.44
318.295	385.44
318.524	395.44
318.753	402.44
318.983	377.44
319.212	395.44
319.441	405.44
319.67	410.44
319.9	404.44
320.129	414.44
320.358	401.44
320.587	412.44
320.816	426.44
321.046	413.44
321.275	417.44
321.504	430.44
321.733	424.44
321.962	438.44
322.191	457.44
322.42	466.44
322.649	464.44
322.878	490.44
323.108	460.44
323.337	508.44
323.566	521.44
323.795	545.44
324.024	599.44
324.253	723.44
324.482	1004.44
324.71	1589.44
324.939	2394.44
325.168	2061.44
325.397	1004.44
325.626	680.44
325.855	556.44
326.084	508.44
326.313	534.44
326.542	546.44
326.77	581.44
326.999	670.44
327.228	922.44
327.457	1417.44
327.686	1805.44
327.914	1161.44
328.143	773.44
328.372	650.44
328.6	621.44
328.829	575.44
329.058	601.44
329.287	617.44
329.515	580.44
329.744	573.44
329.972	538.44
330.201	592.44
330.43	595.44
330.658	645.44
330.887	645.44
331.115	637.44
331.344	531.44
331.572	527.44
331.801	525.44
332.03	531.44
332.258	513.44
332.486	499.44
332.715	485.44
332.943	504.44
333.172	483.44
333.4	507.44
333.629	506.44
333.857	494.44
334.085	535.44
334.314	559.44
334.542	606.44
334.771	611.44
334.999	524.44
335.227	525.44
335.455	495.44
335.684	491.44
335.912	504.44
336.14	479.44
336.369	485.44
336.597	498.44
336.825	490.44
337.053	484.44
337.281	465.44
337.51	471.44
337.738	470.44
337.966	491.44
338.194	477.44
338.422	492.44
338.65	481.44
338.878	462.44
339.106	449.44
339.334	475.44
339.562	466.44
339.79	472.44
340.018	466.44
340.246	460.44
340.474	480.44
340.702	473.44
340.93	448.44
341.158	437.44
341.386	464.44
341.614	463.44
341.842	454.44
342.07	463.44
342.298	464.44
342.526	456.44
342.754	442.44
342.981	438.44
343.209	462.44
343.437	459.44
343.665	464.44
343.893	466.44
344.12	477.44
344.348	473.44
344.576	471.44
344.804	466.44
345.031	492.44
345.259	481.44
345.487	493.44
345.714	476.44
345.942	443.44
346.17	449.44
346.397	448.44
346.625	453.44
346.853	442.44
347.08	446.44
347.308	446.44
347.535	454.44
347.763	470.44
347.99	470.44
348.218	473.44
348.445	466.44
348.673	471.44
348.9	464.44
349.128	429.44
349.355	427.44
349.583	431.44
349.81	430.44
350.037	418.44
350.265	442.44
350.492	429.44
350.72	431.44
350.947	449.44
351.174	454.44
351.402	449.44
351.629	470.44
351.856	446.44
352.083	485.44
352.311	467.44
352.538	463.44
352.765	497.44
352.992	466.44
353.22	449.44
353.447	448.44
353.674	445.44
353.901	442.44
354.128	431.44
354.355	447.44
354.583	443.44
354.81	439.44
355.037	430.44
355.264	419.44
355.491	416.44
355.718	437.44
355.945	426.44
356.172	439.44
356.399	402.44
356.626	437.44
356.853	447.44
357.08	427.44
357.307	405.44
357.534	405.44
357.761	434.44
357.988	431.44
358.215	434.44
358.441	408.44
358.668	417.44
358.895	441.44
359.122	443.44
359.349	444.44
359.576	456.44
359.802	492.44
360.029	505.44
360.256	515.44
360.483	506.44
360.709	478.44
360.936	461.44
361.163	451.44
361.39	452.44
361.616	465.44
361.843	439.44
362.07	458.44
362.296	483.44
362.523	464.44
362.749	457.44
362.976	448.44
363.203	444.44
363.429	430.44
363.656	455.44
363.882	443.44
364.109	433.44
364.335	430.44
364.562	449.44
364.788	441.44
365.015	442.44
365.241	452.44
365.468	458.44
365.694	433.44
365.92	454.44
366.147	455.44
366.373	449.44
366.599	442.44
366.826	421.44
367.052	443.44
367.278	431.44
367.505	430.44
367.731	458.44
367.957	443.44
368.184	449.44
368.41	455.44
368.636	456.44
368.862	463.44
369.089	456.44
369.315	461.44
369.541	452.44
369.767	449.44
369.993	444.44
370.219	452.44
370.445	432.44
370.672	445.44
370.898	441.44
371.124	442.44
371.35	447.44
371.576	475.44
371.802	438.44
372.028	449.44
372.254	438.44
372.48	450.44
372.706	440.44
372.932	442.44
373.158	457.44
373.384	462.44
373.61	421.44
373.835	460.44
374.061	441.44
374.287	442.44
374.513	439.44
374.739	461.44
374.965	460.44
375.191	476.44
375.416	470.44
375.642	460.44
375.868	465.44
376.094	467.44
376.319	438.44
376.545	444.44
376.771	441.44
376.997	442.44
377.222	438.44
377.448	441.44
377.674	442.44
377.899	451.44
378.125	447.44
378.35	442.44
378.576	466.44
378.802	449.44
379.027	442.44
379.253	464.44
379.478	453.44
379.704	441.44
379.929	457.44
380.155	444.44
380.38	440.44
380.606	457.44
380.831	468.44
381.057	460.44
381.282	466.44
381.507	457.44
381.733	453.44
381.958	445.44
382.184	449.44
382.409	465.44
382.634	431.44
382.86	466.44
383.085	441.44
383.31	457.44
383.535	471.44
383.761	467.44
383.986	463.44
384.211	476.44
384.436	460.44
384.662	485.44
384.887	479.44
385.112	483.44
385.337	488.44
385.562	480.44
385.787	495.44
386.013	496.44
386.238	490.44
386.463	508.44
386.688	510.44
386.913	477.44
387.138	484.44
387.363	511.44
387.588	502.44
387.813	515.44
388.038	478.44
388.263	487.44
388.488	488.44
388.713	490.44
388.938	494.44
389.163	499.44
389.387	520.44
389.612	501.44
389.837	501.44
390.062	490.44
390.287	506.44
390.512	501.44
390.736	507.44
390.961	510.44
391.186	507.44
391.411	521.44
391.636	499.44
391.86	516.44
392.085	505.44
392.31	508.44
392.534	526.44
392.759	532.44
392.984	506.44
393.208	523.44
393.433	542.44
393.658	503.44
393.882	497.44
394.107	507.44
394.331	487.44
394.556	481.44
394.78	492.44
395.005	508.44
395.229	509.44
395.454	526.44
395.678	526.44
395.903	541.44
396.127	566.44
396.352	546.44
396.576	521.44
396.801	505.44
397.025	515.44
397.249	523.44
397.474	526.44
397.698	522.44
397.922	566.44
398.147	544.44
398.371	567.44
398.595	573.44
398.82	561.44
399.044	590.44
399.268	588.44
399.492	639.44
399.717	651.44
399.941	705.44
400.165	732.44
400.389	724.44
400.613	706.44
400.837	634.44
401.062	599.44
401.286	557.44
401.51	584.44
401.734	565.44
401.958	592.44
402.182	577.44
402.406	606.44
402.63	591.44
402.854	602.44
403.078	605.44
403.302	607.44
403.526	620.44
403.75	613.44
403.974	600.44
404.198	567.44
404.422	609.44
404.645	642.44
404.869	618.44
405.093	642.44
405.317	699.44
405.541	746.44
405.765	672.44
405.988	629.44
406.212	623.44
406.436	661.44
406.66	667.44
406.883	673.44
407.107	687.44
407.331	727.44
407.555	837.44
407.778	802.44
408.002	751.44
408.226	666.44
408.449	661.44
408.673	653.44
408.896	714.44
409.12	741.44
409.344	707.44
409.567	637.44
409.791	607.44
410.014	618.44
410.238	598.44
410.461	608.44
410.685	627.44
410.908	628.44
411.132	643.44
411.355	702.44
411.578	668.44
411.802	605.44
412.025	605.44
412.249	618.44
412.472	637.44
412.695	686.44
412.919	711.44
413.142	637.44
413.365	615.44
413.589	606.44
413.812	573.44
414.035	591.44
414.258	578.44
414.482	571.44
414.705	588.44
414.928	549.44
415.151	585.44
415.374	584.44
415.597	575.44
415.821	561.44
416.044	566.44
416.267	587.44
416.49	600.44
416.713	571.44
416.936	557.44
417.159	575.44
417.382	566.44
417.605	578.44
417.828	584.44
418.051	611.44
418.274	606.44
418.497	567.44
418.72	578.44
418.943	584.44
419.166	588.44
419.389	620.44
419.611	623.44
419.834	607.44
420.057	599.44
420.28	615.44
420.503	599.44
420.726	584.44
420.948	637.44
421.171	652.44
421.394	708.44
421.617	614.44
421.839	573.44
422.062	619.44
422.285	605.44
422.507	693.44
422.73	805.44
422.953	770.44
423.175	663.44
423.398	617.44
423.621	621.44
423.843	649.44
424.066	647.44
424.288	645.44
424.511	645.44
424.733	721.44
424.956	830.44
425.178	805.44
425.401	789.44
425.623	826.44
425.846	693.44
426.068	630.44
426.291	665.44
426.513	645.44
426.735	645.44
426.958	697.44
427.18	793.44
427.402	943.44
427.625	1039.44
427.847	926.44
428.069	799.44
428.292	690.44
428.514	644.44
428.736	636.44
428.958	627.44
429.181	593.44
429.403	618.44
429.625	614.44
429.847	663.44
430.069	752.44
430.292	709.44
430.514	624.44
430.736	604.44
430.958	567.44
431.18	575.44
431.402	558.44
431.624	560.44
431.846	556.44
432.068	563.44
432.29	573.44
432.512	570.44
432.734	583.44
432.956	551.44
433.178	588.44
433.4	582.44
433.622	582.44
433.844	575.44
434.066	557.44
434.287	561.44
434.509	570.44
434.731	570.44
434.953	602.44
435.175	615.44
435.397	619.44
435.618	655.44
435.84	707.44
436.062	786.44
436.284	897.44
436.505	737.44
436.727	659.44
436.949	611.44
437.17	597.44
437.392	602.44
437.614	629.44
437.835	641.44
438.057	729.44
438.278	881.44
438.5	845.44
438.721	945.44
438.943	899.44
439.165	716.44
439.386	663.44
439.608	682.44
439.829	660.44
440.05	690.44
440.272	742.44
440.493	674.44
440.715	642.44
440.936	613.44
441.158	611.44
441.379	597.44
441.6	621.44
441.822	643.44
442.043	709.44
442.264	796.44
442.486	825.44
442.707	711.44
442.928	653.44
443.149	666.44
443.371	705.44
443.592	739.44
443.813	862.44
444.034	935.44
444.255	759.44
444.476	697.44
444.698	648.44
444.919	646.44
445.14	757.44
445.361	722.44
445.582	725.44
445.803	793.44
446.024	897.44
446.245	903.44
446.466	841.44
446.687	677.44
446.908	633.44
447.129	629.44
447.35	616.44
447.571	602.44
447.792	594.44
448.013	613.44
448.234	601.44
448.455	694.44
448.675	811.44
448.896	960.44
449.117	784.44
449.338	751.44
449.559	880.44
449.779	984.44
450	791.44
450.221	659.44
450.442	615.44
450.662	591.44
450.883	568.44
451.104	623.44
451.324	599.44
451.545	558.44
451.766	543.44
451.986	546.44
452.207	524.44
452.428	517.44
452.648	531.44
452.869	533.44
453.089	545.44
453.31	541.44
453.53	543.44
453.751	536.44
453.971	541.44
454.192	551.44
454.412	559.44
454.633	513.44
454.853	523.44
455.073	502.44
455.294	553.44
455.514	641.44
455.734	636.44
455.955	537.44
456.175	515.44
456.395	495.44
456.616	492.44
456.836	496.44
457.056	521.44
457.276	489.44
457.497	523.44
457.717	506.44
457.937	508.44
458.157	524.44
458.377	538.44
458.598	543.44
458.818	608.44
459.038	711.44
459.258	736.44
459.478	623.44
459.698	586.44
459.918	581.44
460.138	565.44
460.358	562.44
460.578	581.44
460.798	591.44
461.018	597.44
461.238	571.44
461.458	588.44
461.678	567.44
461.898	585.44
462.118	573.44
462.338	596.44
462.558	613.44
462.777	603.44
462.997	619.44
463.217	639.44
463.437	627.44
463.657	634.44
463.876	624.44
464.096	597.44
464.316	596.44
464.536	630.44
464.755	635.44
464.975	641.44
465.195	664.44
465.414	742.44
465.634	677.44
465.854	615.44
466.073	605.44
466.293	590.44
466.512	545.44
466.732	559.44
466.951	537.44
467.171	543.44
467.391	549.44
467.61	573.44
467.829	587.44
468.049	558.44
468.268	546.44
468.488	560.44
468.707	537.44
468.927	520.44
469.146	539.44
469.365	543.44
469.585	544.44
469.804	539.44
470.023	558.44
470.243	556.44
470.462	551.44
470.681	547.44
470.901	566.44
471.12	568.44
471.339	567.44
471.558	578.44
471.777	576.44
471.997	553.44
472.216	556.44
472.435	624.44
472.654	572.44
472.873	569.44
473.092	565.44
473.311	566.44
473.53	572.44
473.749	584.44
473.968	602.44
474.187	732.44
474.406	751.44
474.625	636.44
474.844	579.44
475.063	560.44
475.282	565.44
475.501	554.44
475.72	571.44
475.939	586.44
476.158	578.44
476.377	589.44
476.596	567.44
476.814	592.44
477.033	581.44
477.252	576.44
477.471	624.44
477.69	607.44
477.908	644.44
478.127	623.44
478.346	615.44
478.564	626.44
478.783	614.44
479.002	629.44
479.22	627.44
479.439	639.44
479.658	657.44
479.876	642.44
480.095	678.44
480.313	725.44
480.532	695.44
480.751	702.44
480.969	699.44
481.188	797.44
481.406	818.44
481.624	717.44
481.843	684.44
482.061	666.44
482.28	661.44
482.498	678.44
482.717	647.44
482.935	665.44
483.153	623.44
483.372	656.44
483.59	658.44
483.808	660.44
484.027	652.44
484.245	656.44
484.463	685.44
484.681	684.44
484.9	672.44
485.118	667.44
485.336	669.44
485.554	671.44
485.772	694.44
485.99	670.44
486.209	697.44
486.427	692.44
486.645	686.44
486.863	741.44
487.081	722.44
487.299	703.44
487.517	718.44
487.735	677.44
487.953	706.44
488.171	702.44
488.389	715.44
488.607	714.44
488.825	711.44
489.043	717.44
489.261	710.44
489.479	708.44
489.696	720.44
489.914	731.44
490.132	741.44
490.35	742.44
490.568	748.44
490.786	771.44
491.003	767.44
491.221	796.44
491.439	779.44
491.657	783.44
491.874	812.44
492.092	807.44
492.31	825.44
492.527	821.44
492.745	816.44
492.963	831.44
493.18	837.44
493.398	847.44
493.615	825.44
493.833	829.44
494.05	819.44
494.268	847.44
494.485	840.44
494.703	839.44
494.92	817.44
495.138	827.44
495.355	835.44
495.573	832.44
495.79	850.44
496.008	855.44
496.225	843.44
496.442	860.44
496.66	867.44
496.877	854.44
497.094	858.44
497.312	866.44
497.529	886.44
497.746	877.44
497.963	899.44
498.181	925.44
498.398	909.44
498.615	946.44
498.832	962.44
499.049	977.44
499.267	966.44
499.484	1031.44
499.701	1057.44
499.918	1132.44
500.135	1136.44
500.352	1189.44
500.569	1227.44
500.786	1222.44
501.003	1210.44
501.22	1169.44
501.437	1122.44
501.654	1102.44
