Data from 1966.PennyLincolnUp.Lamp.En5.5.200Scan.071719.P1._HRD10591_14-14-14-914.txt Node
Date: Thu Jul 18 14:14:14 EDT 2019
User: cochatt
Spectrometer: HR+D1059
Trigger mode: 1
Integration Time (sec): 1.000000E-1
Scans to average: 1
Electric dark correction enabled: true
Nonlinearity correction enabled: false
Boxcar width: 0
XAxis mode: Wavelengths
Number of Pixels in Spectrum: 2048
>>>>>Begin Spectral Data<<<<<
223.165	-17.06
223.4	-17.06
223.635	-17.06
223.869	-33.06
224.104	-7.06
224.338	-12.06
224.573	-17.06
224.808	-2.06
225.042	-4.06
225.277	-12.06
225.511	-7.06
225.746	2.94
225.98	1.94
226.215	2.94
226.449	24.94
226.683	17.94
226.918	27.94
227.152	32.94
227.387	47.94
227.621	40.94
227.856	54.94
228.09	47.94
228.324	40.94
228.559	53.94
228.793	71.94
229.027	68.94
229.262	83.94
229.496	78.94
229.73	98.94
229.964	94.94
230.199	102.94
230.433	93.94
230.667	100.94
230.901	100.94
231.136	99.94
231.37	89.94
231.604	112.94
231.838	79.94
232.072	95.94
232.306	88.94
232.541	87.94
232.775	98.94
233.009	94.94
233.243	97.94
233.477	96.94
233.711	97.94
233.945	102.94
234.179	98.94
234.413	95.94
234.647	97.94
234.881	92.94
235.115	101.94
235.349	105.94
235.583	115.94
235.817	72.94
236.051	114.94
236.285	94.94
236.519	113.94
236.753	108.94
236.987	104.94
237.221	141.94
237.455	136.94
237.689	134.94
237.922	89.94
238.156	98.94
238.39	79.94
238.624	89.94
238.858	82.94
239.091	93.94
239.325	88.94
239.559	96.94
239.793	92.94
240.027	100.94
240.26	103.94
240.494	106.94
240.728	105.94
240.961	93.94
241.195	99.94
241.429	116.94
241.662	87.94
241.896	95.94
242.13	100.94
242.363	107.94
242.597	85.94
242.83	107.94
243.064	109.94
243.298	109.94
243.531	99.94
243.765	111.94
243.998	102.94
244.232	99.94
244.465	97.94
244.699	124.94
244.932	99.94
245.166	101.94
245.399	115.94
245.633	109.94
245.866	108.94
246.099	106.94
246.333	115.94
246.566	118.94
246.8	117.94
247.033	114.94
247.266	124.94
247.5	108.94
247.733	116.94
247.966	131.94
248.2	120.94
248.433	121.94
248.666	113.94
248.899	123.94
249.133	118.94
249.366	149.94
249.599	130.94
249.832	125.94
250.066	130.94
250.299	118.94
250.532	140.94
250.765	139.94
250.998	159.94
251.231	148.94
251.465	134.94
251.698	132.94
251.931	134.94
252.164	137.94
252.397	114.94
252.63	150.94
252.863	144.94
253.096	141.94
253.329	141.94
253.562	128.94
253.795	148.94
254.028	143.94
254.261	142.94
254.494	138.94
254.727	156.94
254.96	166.94
255.193	172.94
255.426	154.94
255.659	134.94
255.892	130.94
256.124	163.94
256.357	157.94
256.59	140.94
256.823	136.94
257.056	133.94
257.289	134.94
257.521	133.94
257.754	133.94
257.987	127.94
258.22	136.94
258.452	128.94
258.685	131.94
258.918	133.94
259.151	148.94
259.383	149.94
259.616	140.94
259.849	145.94
260.081	145.94
260.314	162.94
260.547	148.94
260.779	150.94
261.012	148.94
261.244	150.94
261.477	153.94
261.71	144.94
261.942	153.94
262.175	160.94
262.407	152.94
262.64	128.94
262.872	130.94
263.105	142.94
263.337	149.94
263.57	146.94
263.802	127.94
264.035	135.94
264.267	128.94
264.499	145.94
264.732	134.94
264.964	131.94
265.197	138.94
265.429	137.94
265.661	128.94
265.894	130.94
266.126	127.94
266.358	138.94
266.591	126.94
266.823	142.94
267.055	144.94
267.287	139.94
267.52	149.94
267.752	154.94
267.984	127.94
268.216	148.94
268.448	140.94
268.681	130.94
268.913	150.94
269.145	174.94
269.377	178.94
269.609	156.94
269.841	166.94
270.073	169.94
270.306	180.94
270.538	194.94
270.77	195.94
271.002	172.94
271.234	184.94
271.466	178.94
271.698	178.94
271.93	175.94
272.162	186.94
272.394	198.94
272.626	162.94
272.858	174.94
273.09	157.94
273.322	153.94
273.553	151.94
273.785	159.94
274.017	152.94
274.249	148.94
274.481	162.94
274.713	156.94
274.945	169.94
275.176	168.94
275.408	143.94
275.64	150.94
275.872	148.94
276.104	157.94
276.335	168.94
276.567	189.94
276.799	168.94
277.031	195.94
277.262	191.94
277.494	195.94
277.726	202.94
277.957	172.94
278.189	162.94
278.421	154.94
278.652	152.94
278.884	169.94
279.115	174.94
279.347	172.94
279.579	158.94
279.81	163.94
280.042	175.94
280.273	160.94
280.505	165.94
280.736	166.94
280.968	152.94
281.199	162.94
281.431	168.94
281.662	160.94
281.894	162.94
282.125	176.94
282.356	152.94
282.588	187.94
282.819	172.94
283.051	162.94
283.282	173.94
283.513	162.94
283.745	184.94
283.976	184.94
284.207	164.94
284.439	166.94
284.67	168.94
284.901	159.94
285.132	159.94
285.364	170.94
285.595	170.94
285.826	157.94
286.057	170.94
286.288	167.94
286.52	158.94
286.751	174.94
286.982	160.94
287.213	167.94
287.444	174.94
287.675	175.94
287.906	174.94
288.138	186.94
288.369	175.94
288.6	183.94
288.831	175.94
289.062	163.94
289.293	165.94
289.524	185.94
289.755	170.94
289.986	159.94
290.217	169.94
290.448	184.94
290.679	167.94
290.91	164.94
291.141	170.94
291.371	175.94
291.602	170.94
291.833	155.94
292.064	188.94
292.295	166.94
292.526	170.94
292.757	163.94
292.987	178.94
293.218	162.94
293.449	189.94
293.68	186.94
293.91	170.94
294.141	162.94
294.372	170.94
294.603	176.94
294.833	163.94
295.064	175.94
295.295	174.94
295.525	190.94
295.756	173.94
295.987	173.94
296.217	183.94
296.448	199.94
296.679	191.94
296.909	187.94
297.14	166.94
297.37	188.94
297.601	154.94
297.831	176.94
298.062	162.94
298.292	198.94
298.523	192.94
298.753	165.94
298.984	181.94
299.214	176.94
299.445	182.94
299.675	172.94
299.905	196.94
300.136	190.94
300.366	182.94
300.597	183.94
300.827	179.94
301.057	192.94
301.288	193.94
301.518	183.94
301.748	194.94
301.979	203.94
302.209	195.94
302.439	192.94
302.669	196.94
302.9	195.94
303.13	179.94
303.36	199.94
303.59	185.94
303.82	194.94
304.051	189.94
304.281	184.94
304.511	179.94
304.741	189.94
304.971	184.94
305.201	179.94
305.431	191.94
305.661	196.94
305.891	178.94
306.121	209.94
306.352	187.94
306.582	190.94
306.812	191.94
307.042	185.94
307.272	198.94
307.502	184.94
307.731	198.94
307.961	180.94
308.191	182.94
308.421	184.94
308.651	199.94
308.881	202.94
309.111	178.94
309.341	187.94
309.571	206.94
309.8	202.94
310.03	187.94
310.26	219.94
310.49	219.94
310.72	204.94
310.949	227.94
311.179	213.94
311.409	209.94
311.639	198.94
311.868	206.94
312.098	208.94
312.328	198.94
312.557	212.94
312.787	214.94
313.017	222.94
313.246	224.94
313.476	216.94
313.706	215.94
313.935	219.94
314.165	219.94
314.394	217.94
314.624	224.94
314.853	219.94
315.083	216.94
315.312	217.94
315.542	226.94
315.771	216.94
316.001	207.94
316.23	205.94
316.46	207.94
316.689	203.94
316.919	226.94
317.148	203.94
317.377	224.94
317.607	222.94
317.836	219.94
318.065	211.94
318.295	219.94
318.524	202.94
318.753	208.94
318.983	211.94
319.212	212.94
319.441	208.94
319.67	210.94
319.9	205.94
320.129	207.94
320.358	204.94
320.587	212.94
320.816	223.94
321.046	195.94
321.275	215.94
321.504	210.94
321.733	227.94
321.962	233.94
322.191	211.94
322.42	217.94
322.649	255.94
322.878	235.94
323.108	235.94
323.337	243.94
323.566	264.94
323.795	296.94
324.024	316.94
324.253	386.94
324.482	527.94
324.71	764.94
324.939	1055.94
325.168	850.94
325.397	447.94
325.626	303.94
325.855	269.94
326.084	252.94
326.313	244.94
326.542	263.94
326.77	300.94
326.999	331.94
327.228	471.94
327.457	690.94
327.686	767.94
327.914	518.94
328.143	345.94
328.372	313.94
328.6	315.94
328.829	293.94
329.058	321.94
329.287	340.94
329.515	316.94
329.744	271.94
329.972	287.94
330.201	302.94
330.43	326.94
330.658	308.94
330.887	343.94
331.115	334.94
331.344	283.94
331.572	268.94
331.801	272.94
332.03	282.94
332.258	242.94
332.486	228.94
332.715	222.94
332.943	245.94
333.172	235.94
333.4	242.94
333.629	243.94
333.857	251.94
334.085	271.94
334.314	292.94
334.542	308.94
334.771	326.94
334.999	282.94
335.227	264.94
335.455	234.94
335.684	244.94
335.912	238.94
336.14	230.94
336.369	247.94
336.597	239.94
336.825	263.94
337.053	235.94
337.281	246.94
337.51	239.94
337.738	240.94
337.966	250.94
338.194	242.94
338.422	239.94
338.65	232.94
338.878	252.94
339.106	224.94
339.334	221.94
339.562	219.94
339.79	221.94
340.018	231.94
340.246	243.94
340.474	227.94
340.702	229.94
340.93	216.94
341.158	226.94
341.386	223.94
341.614	229.94
341.842	225.94
342.07	234.94
342.298	213.94
342.526	232.94
342.754	228.94
342.981	205.94
343.209	227.94
343.437	227.94
343.665	228.94
343.893	229.94
344.12	246.94
344.348	263.94
344.576	230.94
344.804	244.94
345.031	230.94
345.259	251.94
345.487	230.94
345.714	223.94
345.942	226.94
346.17	212.94
346.397	219.94
346.625	215.94
346.853	232.94
347.08	216.94
347.308	205.94
347.535	237.94
347.763	230.94
347.99	227.94
348.218	224.94
348.445	255.94
348.673	229.94
348.9	214.94
349.128	215.94
349.355	214.94
349.583	219.94
349.81	207.94
350.037	208.94
350.265	226.94
350.492	234.94
350.72	212.94
350.947	213.94
351.174	230.94
351.402	246.94
351.629	228.94
351.856	238.94
352.083	231.94
352.311	232.94
352.538	225.94
352.765	225.94
352.992	214.94
353.22	221.94
353.447	196.94
353.674	210.94
353.901	229.94
354.128	219.94
354.355	206.94
354.583	201.94
354.81	222.94
355.037	206.94
355.264	214.94
355.491	193.94
355.718	203.94
355.945	214.94
356.172	205.94
356.399	220.94
356.626	214.94
356.853	210.94
357.08	203.94
357.307	204.94
357.534	189.94
357.761	208.94
357.988	201.94
358.215	201.94
358.441	216.94
358.668	215.94
358.895	207.94
359.122	235.94
359.349	216.94
359.576	226.94
359.802	242.94
360.029	255.94
360.256	259.94
360.483	234.94
360.709	212.94
360.936	238.94
361.163	237.94
361.39	211.94
361.616	224.94
361.843	215.94
362.07	214.94
362.296	236.94
362.523	227.94
362.749	217.94
362.976	218.94
363.203	204.94
363.429	208.94
363.656	219.94
363.882	218.94
364.109	202.94
364.335	206.94
364.562	228.94
364.788	213.94
365.015	208.94
365.241	220.94
365.468	224.94
365.694	229.94
365.92	229.94
366.147	222.94
366.373	216.94
366.599	194.94
366.826	203.94
367.052	199.94
367.278	202.94
367.505	213.94
367.731	217.94
367.957	211.94
368.184	214.94
368.41	206.94
368.636	213.94
368.862	223.94
369.089	200.94
369.315	217.94
369.541	210.94
369.767	224.94
369.993	208.94
370.219	226.94
370.445	214.94
370.672	210.94
370.898	215.94
371.124	202.94
371.35	207.94
371.576	211.94
371.802	194.94
372.028	226.94
372.254	207.94
372.48	214.94
372.706	211.94
372.932	211.94
373.158	201.94
373.384	216.94
373.61	218.94
373.835	210.94
374.061	199.94
374.287	203.94
374.513	203.94
374.739	223.94
374.965	203.94
375.191	217.94
375.416	212.94
375.642	200.94
375.868	215.94
376.094	200.94
376.319	211.94
376.545	215.94
376.771	221.94
376.997	206.94
377.222	218.94
377.448	206.94
377.674	213.94
377.899	198.94
378.125	218.94
378.35	212.94
378.576	197.94
378.802	204.94
379.027	224.94
379.253	209.94
379.478	206.94
379.704	212.94
379.929	233.94
380.155	209.94
380.38	215.94
380.606	202.94
380.831	206.94
381.057	203.94
381.282	202.94
381.507	218.94
381.733	208.94
381.958	217.94
382.184	214.94
382.409	223.94
382.634	212.94
382.86	222.94
383.085	206.94
383.31	224.94
383.535	227.94
383.761	220.94
383.986	224.94
384.211	221.94
384.436	221.94
384.662	233.94
384.887	216.94
385.112	235.94
385.337	214.94
385.562	224.94
385.787	228.94
386.013	235.94
386.238	222.94
386.463	229.94
386.688	222.94
386.913	217.94
387.138	225.94
387.363	205.94
387.588	209.94
387.813	217.94
388.038	234.94
388.263	235.94
388.488	223.94
388.713	215.94
388.938	228.94
389.163	231.94
389.387	209.94
389.612	229.94
389.837	222.94
390.062	214.94
390.287	226.94
390.512	216.94
390.736	227.94
390.961	223.94
391.186	230.94
391.411	222.94
391.636	234.94
391.86	233.94
392.085	224.94
392.31	242.94
392.534	227.94
392.759	224.94
392.984	211.94
393.208	226.94
393.433	240.94
393.658	226.94
393.882	209.94
394.107	227.94
394.331	224.94
394.556	229.94
394.78	229.94
395.005	214.94
395.229	235.94
395.454	217.94
395.678	232.94
395.903	222.94
396.127	256.94
396.352	245.94
396.576	226.94
396.801	232.94
397.025	232.94
397.249	249.94
397.474	254.94
397.698	237.94
397.922	253.94
398.147	255.94
398.371	251.94
398.595	254.94
398.82	242.94
399.044	263.94
399.268	255.94
399.492	273.94
399.717	278.94
399.941	314.94
400.165	308.94
400.389	317.94
400.613	290.94
400.837	261.94
401.062	255.94
401.286	256.94
401.51	264.94
401.734	262.94
401.958	276.94
402.182	258.94
402.406	287.94
402.63	274.94
402.854	259.94
403.078	255.94
403.302	266.94
403.526	256.94
403.75	286.94
403.974	287.94
404.198	273.94
404.422	259.94
404.645	266.94
404.869	257.94
405.093	296.94
405.317	312.94
405.541	323.94
405.765	292.94
405.988	286.94
406.212	309.94
406.436	295.94
406.66	308.94
406.883	282.94
407.107	307.94
407.331	321.94
407.555	327.94
407.778	331.94
408.002	313.94
408.226	288.94
408.449	282.94
408.673	284.94
408.896	287.94
409.12	320.94
409.344	301.94
409.567	265.94
409.791	263.94
410.014	261.94
410.238	268.94
410.461	251.94
410.685	278.94
410.908	290.94
411.132	295.94
411.355	302.94
411.578	294.94
411.802	271.94
412.025	248.94
412.249	259.94
412.472	284.94
412.695	318.94
412.919	288.94
413.142	269.94
413.365	255.94
413.589	281.94
413.812	260.94
414.035	256.94
414.258	252.94
414.482	234.94
414.705	264.94
414.928	254.94
415.151	259.94
415.374	258.94
415.597	248.94
415.821	235.94
416.044	244.94
416.267	260.94
416.49	248.94
416.713	241.94
416.936	248.94
417.159	270.94
417.382	268.94
417.605	244.94
417.828	266.94
418.051	276.94
418.274	274.94
418.497	248.94
418.72	250.94
418.943	253.94
419.166	277.94
419.389	262.94
419.611	271.94
419.834	253.94
420.057	269.94
420.28	273.94
420.503	277.94
420.726	272.94
420.948	271.94
421.171	296.94
421.394	303.94
421.617	264.94
421.839	273.94
422.062	268.94
422.285	264.94
422.507	290.94
422.73	325.94
422.953	290.94
423.175	274.94
423.398	264.94
423.621	265.94
423.843	291.94
424.066	287.94
424.288	296.94
424.511	302.94
424.733	311.94
424.956	330.94
425.178	343.94
425.401	329.94
425.623	348.94
425.846	303.94
426.068	272.94
426.291	272.94
426.513	287.94
426.735	278.94
426.958	280.94
427.18	336.94
427.402	400.94
427.625	426.94
427.847	384.94
428.069	325.94
428.292	297.94
428.514	275.94
428.736	271.94
428.958	278.94
429.181	269.94
429.403	259.94
429.625	266.94
429.847	270.94
430.069	318.94
430.292	309.94
430.514	280.94
430.736	265.94
430.958	255.94
431.18	242.94
431.402	222.94
431.624	237.94
431.846	236.94
432.068	271.94
432.29	255.94
432.512	266.94
432.734	253.94
432.956	249.94
433.178	266.94
433.4	247.94
433.622	242.94
433.844	247.94
434.066	252.94
434.287	238.94
434.509	242.94
434.731	245.94
434.953	257.94
435.175	272.94
435.397	270.94
435.618	283.94
435.84	304.94
436.062	336.94
436.284	353.94
436.505	302.94
436.727	281.94
436.949	270.94
437.17	263.94
437.392	253.94
437.614	275.94
437.835	273.94
438.057	352.94
438.278	386.94
438.5	358.94
438.721	387.94
438.943	365.94
439.165	299.94
439.386	260.94
439.608	288.94
439.829	263.94
440.05	312.94
440.272	325.94
440.493	301.94
440.715	288.94
440.936	274.94
441.158	271.94
441.379	264.94
441.6	280.94
441.822	284.94
442.043	314.94
442.264	337.94
442.486	354.94
442.707	316.94
442.928	293.94
443.149	290.94
443.371	308.94
443.592	324.94
443.813	351.94
444.034	366.94
444.255	327.94
444.476	290.94
444.698	278.94
444.919	271.94
445.14	378.94
445.361	329.94
445.582	314.94
445.803	335.94
446.024	388.94
446.245	357.94
446.466	342.94
446.687	290.94
446.908	276.94
447.129	274.94
447.35	280.94
447.571	274.94
447.792	285.94
448.013	247.94
448.234	267.94
448.455	291.94
448.675	342.94
448.896	364.94
449.117	332.94
449.338	319.94
449.559	353.94
449.779	400.94
450	319.94
450.221	272.94
450.442	267.94
450.662	258.94
450.883	276.94
451.104	259.94
451.324	263.94
451.545	255.94
451.766	248.94
451.986	238.94
452.207	236.94
452.428	229.94
452.648	232.94
452.869	228.94
453.089	243.94
453.31	271.94
453.53	253.94
453.751	237.94
453.971	230.94
454.192	271.94
454.412	249.94
454.633	245.94
454.853	231.94
455.073	224.94
455.294	255.94
455.514	296.94
455.734	275.94
455.955	228.94
456.175	224.94
456.395	222.94
456.616	231.94
456.836	218.94
457.056	210.94
457.276	225.94
457.497	246.94
457.717	230.94
457.937	244.94
458.157	222.94
458.377	219.94
458.598	239.94
458.818	286.94
459.038	331.94
459.258	329.94
459.478	264.94
459.698	264.94
459.918	258.94
460.138	237.94
460.358	245.94
460.578	235.94
460.798	235.94
461.018	260.94
461.238	234.94
461.458	247.94
461.678	264.94
461.898	262.94
462.118	232.94
462.338	246.94
462.558	269.94
462.777	262.94
462.997	270.94
463.217	290.94
463.437	281.94
463.657	276.94
463.876	250.94
464.096	258.94
464.316	268.94
464.536	275.94
464.755	274.94
464.975	293.94
465.195	295.94
465.414	359.94
465.634	287.94
465.854	276.94
466.073	260.94
466.293	252.94
466.512	244.94
466.732	248.94
466.951	258.94
467.171	243.94
467.391	251.94
467.61	243.94
467.829	255.94
468.049	247.94
468.268	255.94
468.488	250.94
468.707	239.94
468.927	247.94
469.146	218.94
469.365	249.94
469.585	224.94
469.804	258.94
470.023	262.94
470.243	262.94
470.462	261.94
470.681	249.94
470.901	253.94
471.12	255.94
471.339	238.94
471.558	242.94
471.777	252.94
471.997	221.94
472.216	269.94
472.435	318.94
472.654	267.94
472.873	238.94
473.092	244.94
473.311	242.94
473.53	243.94
473.749	244.94
473.968	262.94
474.187	310.94
474.406	328.94
474.625	264.94
474.844	252.94
475.063	242.94
475.282	244.94
475.501	246.94
475.72	248.94
475.939	234.94
476.158	247.94
476.377	260.94
476.596	231.94
476.814	248.94
477.033	251.94
477.252	249.94
477.471	256.94
477.69	265.94
477.908	262.94
478.127	272.94
478.346	232.94
478.564	275.94
478.783	270.94
479.002	287.94
479.22	277.94
479.439	275.94
479.658	306.94
479.876	277.94
480.095	286.94
480.313	299.94
480.532	310.94
480.751	306.94
480.969	308.94
481.188	384.94
481.406	393.94
481.624	333.94
481.843	289.94
482.061	286.94
482.28	291.94
482.498	289.94
482.717	275.94
482.935	291.94
483.153	290.94
483.372	282.94
483.59	280.94
483.808	287.94
484.027	282.94
484.245	295.94
484.463	292.94
484.681	294.94
484.9	299.94
485.118	283.94
485.336	292.94
485.554	279.94
485.772	286.94
485.99	290.94
486.209	314.94
486.427	303.94
486.645	296.94
486.863	326.94
487.081	306.94
487.299	284.94
487.517	286.94
487.735	296.94
487.953	303.94
488.171	306.94
488.389	310.94
488.607	312.94
488.825	305.94
489.043	298.94
489.261	298.94
489.479	297.94
489.696	314.94
489.914	302.94
490.132	317.94
490.35	307.94
490.568	310.94
490.786	310.94
491.003	333.94
491.221	358.94
491.439	355.94
491.657	344.94
491.874	344.94
492.092	319.94
492.31	364.94
492.527	358.94
492.745	368.94
492.963	356.94
493.18	369.94
493.398	356.94
493.615	380.94
493.833	362.94
494.05	345.94
494.268	342.94
494.485	352.94
494.703	353.94
494.92	350.94
495.138	353.94
495.355	346.94
495.573	370.94
495.79	356.94
496.008	360.94
496.225	344.94
496.442	358.94
496.66	357.94
496.877	360.94
497.094	354.94
497.312	350.94
497.529	357.94
497.746	352.94
497.963	358.94
498.181	372.94
498.398	370.94
498.615	363.94
498.832	376.94
499.049	371.94
499.267	377.94
499.484	400.94
499.701	415.94
499.918	421.94
500.135	445.94
500.352	468.94
500.569	490.94
500.786	461.94
501.003	450.94
501.22	438.94
501.437	431.94
501.654	428.94
501.871	430.94
502.088	398.94
502.305	418.94
502.522	383.94
