Data from 1966.PennyLincolnUp.Lamp.En5.5.200Scan.071719.P1._HRD10591_14-12-14-913.txt Node
Date: Thu Jul 18 14:12:14 EDT 2019
User: cochatt
Spectrometer: HR+D1059
Trigger mode: 1
Integration Time (sec): 1.000000E-1
Scans to average: 1
Electric dark correction enabled: true
Nonlinearity correction enabled: false
Boxcar width: 0
XAxis mode: Wavelengths
Number of Pixels in Spectrum: 2048
>>>>>Begin Spectral Data<<<<<
223.165	-23.06
223.4	-23.06
223.635	-23.06
223.869	-15.06
224.104	-19.06
224.338	-27.06
224.573	-0.06
224.808	0.94
225.042	-7.06
225.277	2.94
225.511	-6.06
225.746	-6.06
225.98	-5.06
226.215	10.94
226.449	11.94
226.683	19.94
226.918	35.94
227.152	25.94
227.387	30.94
227.621	44.94
227.856	37.94
228.09	37.94
228.324	59.94
228.559	53.94
228.793	64.94
229.027	65.94
229.262	81.94
229.496	103.94
229.73	100.94
229.964	107.94
230.199	99.94
230.433	98.94
230.667	81.94
230.901	102.94
231.136	95.94
231.37	77.94
231.604	92.94
231.838	84.94
232.072	97.94
232.306	88.94
232.541	95.94
232.775	86.94
233.009	79.94
233.243	98.94
233.477	96.94
233.711	102.94
233.945	76.94
234.179	84.94
234.413	100.94
234.647	93.94
234.881	93.94
235.115	82.94
235.349	77.94
235.583	76.94
235.817	94.94
236.051	110.94
236.285	99.94
236.519	97.94
236.753	99.94
236.987	114.94
237.221	123.94
237.455	148.94
237.689	126.94
237.922	118.94
238.156	98.94
238.39	96.94
238.624	114.94
238.858	102.94
239.091	67.94
239.325	77.94
239.559	102.94
239.793	101.94
240.027	105.94
240.26	105.94
240.494	117.94
240.728	107.94
240.961	115.94
241.195	108.94
241.429	91.94
241.662	85.94
241.896	93.94
242.13	90.94
242.363	104.94
242.597	110.94
242.83	85.94
243.064	93.94
243.298	106.94
243.531	87.94
243.765	118.94
243.998	93.94
244.232	102.94
244.465	105.94
244.699	100.94
244.932	92.94
245.166	109.94
245.399	104.94
245.633	116.94
245.866	95.94
246.099	94.94
246.333	103.94
246.566	100.94
246.8	110.94
247.033	105.94
247.266	120.94
247.5	121.94
247.733	117.94
247.966	136.94
248.2	119.94
248.433	131.94
248.666	115.94
248.899	114.94
249.133	123.94
249.366	150.94
249.599	139.94
249.832	119.94
250.066	123.94
250.299	114.94
250.532	115.94
250.765	130.94
250.998	147.94
251.231	136.94
251.465	140.94
251.698	141.94
251.931	123.94
252.164	130.94
252.397	134.94
252.63	126.94
252.863	131.94
253.096	130.94
253.329	146.94
253.562	126.94
253.795	151.94
254.028	142.94
254.261	126.94
254.494	149.94
254.727	158.94
254.96	170.94
255.193	161.94
255.426	145.94
255.659	146.94
255.892	135.94
256.124	143.94
256.357	155.94
256.59	131.94
256.823	126.94
257.056	142.94
257.289	130.94
257.521	120.94
257.754	119.94
257.987	133.94
258.22	134.94
258.452	134.94
258.685	126.94
258.918	134.94
259.151	148.94
259.383	155.94
259.616	131.94
259.849	126.94
260.081	162.94
260.314	151.94
260.547	159.94
260.779	153.94
261.012	124.94
261.244	147.94
261.477	139.94
261.71	150.94
261.942	162.94
262.175	162.94
262.407	186.94
262.64	138.94
262.872	139.94
263.105	157.94
263.337	157.94
263.57	150.94
263.802	142.94
264.035	130.94
264.267	124.94
264.499	151.94
264.732	142.94
264.964	137.94
265.197	135.94
265.429	129.94
265.661	130.94
265.894	135.94
266.126	141.94
266.358	124.94
266.591	156.94
266.823	138.94
267.055	166.94
267.287	144.94
267.52	127.94
267.752	141.94
267.984	141.94
268.216	143.94
268.448	146.94
268.681	155.94
268.913	162.94
269.145	166.94
269.377	181.94
269.609	173.94
269.841	161.94
270.073	167.94
270.306	171.94
270.538	187.94
270.77	177.94
271.002	185.94
271.234	181.94
271.466	160.94
271.698	177.94
271.93	193.94
272.162	180.94
272.394	188.94
272.626	171.94
272.858	157.94
273.09	169.94
273.322	161.94
273.553	169.94
273.785	160.94
274.017	154.94
274.249	157.94
274.481	173.94
274.713	171.94
274.945	181.94
275.176	179.94
275.408	166.94
275.64	164.94
275.872	155.94
276.104	156.94
276.335	158.94
276.567	166.94
276.799	203.94
277.031	216.94
277.262	197.94
277.494	189.94
277.726	183.94
277.957	190.94
278.189	194.94
278.421	177.94
278.652	180.94
278.884	149.94
279.115	162.94
279.347	172.94
279.579	185.94
279.81	200.94
280.042	183.94
280.273	182.94
280.505	185.94
280.736	170.94
280.968	164.94
281.199	181.94
281.431	154.94
281.662	165.94
281.894	171.94
282.125	177.94
282.356	179.94
282.588	200.94
282.819	200.94
283.051	177.94
283.282	163.94
283.513	171.94
283.745	189.94
283.976	167.94
284.207	172.94
284.439	166.94
284.67	168.94
284.901	158.94
285.132	172.94
285.364	174.94
285.595	173.94
285.826	181.94
286.057	196.94
286.288	177.94
286.52	179.94
286.751	183.94
286.982	167.94
287.213	170.94
287.444	182.94
287.675	161.94
287.906	191.94
288.138	174.94
288.369	198.94
288.6	192.94
288.831	172.94
289.062	183.94
289.293	186.94
289.524	175.94
289.755	173.94
289.986	170.94
290.217	182.94
290.448	185.94
290.679	178.94
290.91	197.94
291.141	163.94
291.371	172.94
291.602	187.94
291.833	179.94
292.064	175.94
292.295	161.94
292.526	194.94
292.757	170.94
292.987	182.94
293.218	180.94
293.449	182.94
293.68	179.94
293.91	165.94
294.141	195.94
294.372	177.94
294.603	179.94
294.833	177.94
295.064	183.94
295.295	178.94
295.525	171.94
295.756	193.94
295.987	196.94
296.217	214.94
296.448	215.94
296.679	169.94
296.909	189.94
297.14	174.94
297.37	173.94
297.601	179.94
297.831	178.94
298.062	172.94
298.292	191.94
298.523	199.94
298.753	194.94
298.984	182.94
299.214	197.94
299.445	181.94
299.675	209.94
299.905	191.94
300.136	199.94
300.366	181.94
300.597	170.94
300.827	197.94
301.057	201.94
301.288	201.94
301.518	193.94
301.748	192.94
301.979	196.94
302.209	194.94
302.439	206.94
302.669	214.94
302.9	196.94
303.13	197.94
303.36	199.94
303.59	227.94
303.82	196.94
304.051	210.94
304.281	213.94
304.511	179.94
304.741	182.94
304.971	189.94
305.201	190.94
305.431	196.94
305.661	205.94
305.891	199.94
306.121	213.94
306.352	203.94
306.582	219.94
306.812	207.94
307.042	201.94
307.272	177.94
307.502	197.94
307.731	196.94
307.961	178.94
308.191	188.94
308.421	201.94
308.651	203.94
308.881	211.94
309.111	223.94
309.341	214.94
309.571	214.94
309.8	226.94
310.03	229.94
310.26	224.94
310.49	215.94
310.72	234.94
310.949	244.94
311.179	249.94
311.409	225.94
311.639	241.94
311.868	250.94
312.098	230.94
312.328	236.94
312.557	230.94
312.787	266.94
313.017	255.94
313.246	244.94
313.476	227.94
313.706	224.94
313.935	217.94
314.165	251.94
314.394	246.94
314.624	248.94
314.853	235.94
315.083	216.94
315.312	217.94
315.542	212.94
315.771	226.94
316.001	224.94
316.23	216.94
316.46	202.94
316.689	203.94
316.919	226.94
317.148	240.94
317.377	242.94
317.607	242.94
317.836	238.94
318.065	225.94
318.295	249.94
318.524	230.94
318.753	213.94
318.983	221.94
319.212	212.94
319.441	247.94
319.67	230.94
319.9	204.94
320.129	231.94
320.358	238.94
320.587	233.94
320.816	226.94
321.046	223.94
321.275	241.94
321.504	212.94
321.733	231.94
321.962	247.94
322.191	245.94
322.42	250.94
322.649	255.94
322.878	273.94
323.108	289.94
323.337	306.94
323.566	319.94
323.795	363.94
324.024	413.94
324.253	517.94
324.482	891.94
324.71	1420.94
324.939	1979.94
325.168	1535.94
325.397	665.94
325.626	413.94
325.855	337.94
326.084	305.94
326.313	302.94
326.542	315.94
326.77	373.94
326.999	491.94
327.228	777.94
327.457	1256.94
327.686	1417.94
327.914	811.94
328.143	518.94
328.372	420.94
328.6	389.94
328.829	354.94
329.058	393.94
329.287	404.94
329.515	357.94
329.744	319.94
329.972	325.94
330.201	352.94
330.43	411.94
330.658	434.94
330.887	446.94
331.115	415.94
331.344	340.94
331.572	317.94
331.801	323.94
332.03	325.94
332.258	278.94
332.486	262.94
332.715	265.94
332.943	254.94
333.172	247.94
333.4	278.94
333.629	287.94
333.857	295.94
334.085	281.94
334.314	327.94
334.542	372.94
334.771	389.94
334.999	344.94
335.227	302.94
335.455	270.94
335.684	249.94
335.912	274.94
336.14	260.94
336.369	243.94
336.597	279.94
336.825	281.94
337.053	227.94
337.281	263.94
337.51	237.94
337.738	253.94
337.966	268.94
338.194	265.94
338.422	280.94
338.65	254.94
338.878	249.94
339.106	223.94
339.334	221.94
339.562	236.94
339.79	244.94
340.018	246.94
340.246	234.94
340.474	243.94
340.702	250.94
340.93	244.94
341.158	231.94
341.386	247.94
341.614	246.94
341.842	252.94
342.07	244.94
342.298	242.94
342.526	232.94
342.754	232.94
342.981	221.94
343.209	210.94
343.437	229.94
343.665	237.94
343.893	246.94
344.12	225.94
344.348	249.94
344.576	268.94
344.804	265.94
345.031	271.94
345.259	279.94
345.487	258.94
345.714	243.94
345.942	237.94
346.17	224.94
346.397	234.94
346.625	233.94
346.853	225.94
347.08	228.94
347.308	233.94
347.535	241.94
347.763	255.94
347.99	254.94
348.218	253.94
348.445	266.94
348.673	259.94
348.9	257.94
349.128	239.94
349.355	221.94
349.583	234.94
349.81	230.94
350.037	228.94
350.265	221.94
350.492	212.94
350.72	215.94
350.947	242.94
351.174	253.94
351.402	252.94
351.629	262.94
351.856	257.94
352.083	270.94
352.311	263.94
352.538	265.94
352.765	272.94
352.992	265.94
353.22	238.94
353.447	233.94
353.674	251.94
353.901	242.94
354.128	222.94
354.355	217.94
354.583	217.94
354.81	220.94
355.037	223.94
355.264	212.94
355.491	210.94
355.718	211.94
355.945	219.94
356.172	222.94
356.399	207.94
356.626	189.94
356.853	223.94
357.08	204.94
357.307	211.94
357.534	229.94
357.761	221.94
357.988	209.94
358.215	222.94
358.441	223.94
358.668	235.94
358.895	221.94
359.122	222.94
359.349	227.94
359.576	229.94
359.802	265.94
360.029	287.94
360.256	306.94
360.483	303.94
360.709	248.94
360.936	244.94
361.163	246.94
361.39	262.94
361.616	247.94
361.843	247.94
362.07	248.94
362.296	233.94
362.523	257.94
362.749	238.94
362.976	230.94
363.203	234.94
363.429	244.94
363.656	218.94
363.882	231.94
364.109	216.94
364.335	239.94
364.562	225.94
364.788	219.94
365.015	223.94
365.241	235.94
365.468	228.94
365.694	232.94
365.92	256.94
366.147	230.94
366.373	241.94
366.599	220.94
366.826	222.94
367.052	224.94
367.278	213.94
367.505	232.94
367.731	229.94
367.957	237.94
368.184	216.94
368.41	229.94
368.636	262.94
368.862	248.94
369.089	228.94
369.315	223.94
369.541	225.94
369.767	226.94
369.993	213.94
370.219	225.94
370.445	217.94
370.672	199.94
370.898	218.94
371.124	221.94
371.35	218.94
371.576	226.94
371.802	222.94
372.028	226.94
372.254	204.94
372.48	187.94
372.706	211.94
372.932	225.94
373.158	213.94
373.384	206.94
373.61	233.94
373.835	218.94
374.061	227.94
374.287	242.94
374.513	225.94
374.739	221.94
374.965	214.94
375.191	210.94
375.416	218.94
375.642	219.94
375.868	229.94
376.094	213.94
376.319	207.94
376.545	204.94
376.771	227.94
376.997	230.94
377.222	228.94
377.448	194.94
377.674	213.94
377.899	185.94
378.125	227.94
378.35	211.94
378.576	210.94
378.802	201.94
379.027	221.94
379.253	218.94
379.478	222.94
379.704	214.94
379.929	219.94
380.155	205.94
380.38	234.94
380.606	212.94
380.831	206.94
381.057	223.94
381.282	229.94
381.507	226.94
381.733	207.94
381.958	222.94
382.184	227.94
382.409	222.94
382.634	230.94
382.86	225.94
383.085	217.94
383.31	236.94
383.535	265.94
383.761	234.94
383.986	233.94
384.211	239.94
384.436	224.94
384.662	228.94
384.887	233.94
385.112	238.94
385.337	241.94
385.562	247.94
385.787	268.94
386.013	274.94
386.238	262.94
386.463	267.94
386.688	255.94
386.913	237.94
387.138	266.94
387.363	242.94
387.588	237.94
387.813	238.94
388.038	245.94
388.263	233.94
388.488	247.94
388.713	237.94
388.938	219.94
389.163	228.94
389.387	232.94
389.612	214.94
389.837	228.94
390.062	227.94
390.287	212.94
390.512	221.94
390.736	217.94
390.961	230.94
391.186	228.94
391.411	247.94
391.636	242.94
391.86	241.94
392.085	218.94
392.31	243.94
392.534	256.94
392.759	242.94
392.984	283.94
393.208	370.94
393.433	514.94
393.658	535.94
393.882	317.94
394.107	271.94
394.331	242.94
394.556	245.94
394.78	249.94
395.005	239.94
395.229	228.94
395.454	243.94
395.678	238.94
395.903	259.94
396.127	263.94
396.352	285.94
396.576	307.94
396.801	359.94
397.025	450.94
397.249	371.94
397.474	265.94
397.698	268.94
397.922	252.94
398.147	265.94
398.371	265.94
398.595	268.94
398.82	242.94
399.044	273.94
399.268	294.94
399.492	272.94
399.717	291.94
399.941	302.94
400.165	322.94
400.389	330.94
400.613	294.94
400.837	286.94
401.062	268.94
401.286	262.94
401.51	272.94
401.734	280.94
401.958	278.94
402.182	281.94
402.406	288.94
402.63	309.94
402.854	282.94
403.078	289.94
403.302	278.94
403.526	271.94
403.75	289.94
403.974	282.94
404.198	267.94
404.422	292.94
404.645	295.94
404.869	292.94
405.093	300.94
405.317	336.94
405.541	353.94
405.765	328.94
405.988	325.94
406.212	322.94
406.436	343.94
406.66	370.94
406.883	326.94
407.107	332.94
407.331	334.94
407.555	352.94
407.778	357.94
408.002	334.94
408.226	305.94
408.449	315.94
408.673	309.94
408.896	301.94
409.12	331.94
409.344	309.94
409.567	287.94
409.791	263.94
410.014	267.94
410.238	264.94
410.461	271.94
410.685	268.94
410.908	276.94
411.132	299.94
411.355	316.94
411.578	291.94
411.802	273.94
412.025	277.94
412.249	286.94
412.472	292.94
412.695	301.94
412.919	297.94
413.142	289.94
413.365	263.94
413.589	278.94
413.812	268.94
414.035	259.94
414.258	271.94
414.482	263.94
414.705	264.94
414.928	263.94
415.151	251.94
415.374	252.94
415.597	250.94
415.821	246.94
416.044	272.94
416.267	279.94
416.49	260.94
416.713	261.94
416.936	285.94
417.159	273.94
417.382	261.94
417.605	287.94
417.828	269.94
418.051	281.94
418.274	274.94
418.497	265.94
418.72	259.94
418.943	262.94
419.166	258.94
419.389	274.94
419.611	287.94
419.834	275.94
420.057	278.94
420.28	284.94
420.503	248.94
420.726	268.94
420.948	278.94
421.171	307.94
421.394	310.94
421.617	278.94
421.839	271.94
422.062	276.94
422.285	291.94
422.507	321.94
422.73	405.94
422.953	397.94
423.175	302.94
423.398	294.94
423.621	297.94
423.843	301.94
424.066	280.94
424.288	272.94
424.511	322.94
424.733	321.94
424.956	366.94
425.178	342.94
425.401	350.94
425.623	357.94
425.846	325.94
426.068	287.94
426.291	286.94
426.513	308.94
426.735	286.94
426.958	323.94
427.18	350.94
427.402	449.94
427.625	520.94
427.847	483.94
428.069	378.94
428.292	315.94
428.514	306.94
428.736	285.94
428.958	277.94
429.181	276.94
429.403	269.94
429.625	266.94
429.847	290.94
430.069	340.94
430.292	343.94
430.514	288.94
430.736	289.94
430.958	269.94
431.18	263.94
431.402	258.94
431.624	254.94
431.846	252.94
432.068	265.94
432.29	263.94
432.512	264.94
432.734	257.94
432.956	257.94
433.178	269.94
433.4	290.94
433.622	286.94
433.844	282.94
434.066	261.94
434.287	254.94
434.509	242.94
434.731	261.94
434.953	277.94
435.175	276.94
435.397	305.94
435.618	295.94
435.84	319.94
436.062	373.94
436.284	397.94
436.505	339.94
436.727	317.94
436.949	283.94
437.17	289.94
437.392	277.94
437.614	263.94
437.835	316.94
438.057	375.94
438.278	413.94
438.5	403.94
438.721	415.94
438.943	393.94
439.165	341.94
439.386	305.94
439.608	293.94
439.829	306.94
440.05	338.94
440.272	364.94
440.493	340.94
440.715	309.94
440.936	272.94
441.158	288.94
441.379	285.94
441.6	287.94
441.822	301.94
442.043	299.94
442.264	368.94
442.486	369.94
442.707	332.94
442.928	308.94
443.149	336.94
443.371	363.94
443.592	365.94
443.813	403.94
444.034	417.94
444.255	335.94
444.476	300.94
444.698	282.94
444.919	279.94
445.14	393.94
445.361	358.94
445.582	333.94
445.803	386.94
446.024	449.94
446.245	433.94
446.466	383.94
446.687	327.94
446.908	290.94
447.129	278.94
447.35	285.94
447.571	283.94
447.792	295.94
448.013	276.94
448.234	306.94
448.455	318.94
448.675	376.94
448.896	411.94
449.117	348.94
449.338	341.94
449.559	408.94
449.779	428.94
450	360.94
450.221	305.94
450.442	295.94
450.662	266.94
450.883	296.94
451.104	342.94
451.324	319.94
451.545	273.94
451.766	266.94
451.986	260.94
452.207	266.94
452.428	254.94
452.648	246.94
452.869	263.94
453.089	287.94
453.31	290.94
453.53	290.94
453.751	276.94
453.971	284.94
454.192	301.94
454.412	294.94
454.633	267.94
454.853	238.94
455.073	248.94
455.294	256.94
455.514	306.94
455.734	290.94
455.955	251.94
456.175	232.94
456.395	245.94
456.616	245.94
456.836	244.94
457.056	242.94
457.276	219.94
457.497	228.94
457.717	215.94
457.937	244.94
458.157	269.94
458.377	237.94
458.598	264.94
458.818	348.94
459.038	435.94
459.258	385.94
459.478	313.94
459.698	270.94
459.918	248.94
460.138	268.94
460.358	255.94
460.578	281.94
460.798	255.94
461.018	257.94
461.238	251.94
461.458	256.94
461.678	262.94
461.898	258.94
462.118	256.94
462.338	286.94
462.558	285.94
462.777	281.94
462.997	276.94
463.217	269.94
463.437	294.94
463.657	274.94
463.876	281.94
464.096	291.94
464.316	305.94
464.536	299.94
464.755	299.94
464.975	312.94
465.195	389.94
465.414	485.94
465.634	351.94
465.854	302.94
466.073	281.94
466.293	265.94
466.512	258.94
466.732	251.94
466.951	265.94
467.171	245.94
467.391	256.94
467.61	289.94
467.829	288.94
468.049	281.94
468.268	292.94
468.488	282.94
468.707	253.94
468.927	232.94
469.146	257.94
469.365	256.94
469.585	252.94
469.804	275.94
470.023	269.94
470.243	280.94
470.462	276.94
470.681	301.94
470.901	298.94
471.12	249.94
471.339	253.94
471.558	264.94
471.777	259.94
471.997	244.94
472.216	293.94
472.435	379.94
472.654	307.94
472.873	272.94
473.092	267.94
473.311	267.94
473.53	251.94
473.749	264.94
473.968	286.94
474.187	354.94
474.406	334.94
474.625	267.94
474.844	277.94
475.063	261.94
475.282	233.94
475.501	242.94
475.72	265.94
475.939	267.94
476.158	269.94
476.377	264.94
476.596	260.94
476.814	267.94
477.033	287.94
477.252	281.94
477.471	289.94
477.69	299.94
477.908	306.94
478.127	301.94
478.346	288.94
478.564	298.94
478.783	305.94
479.002	307.94
479.22	305.94
479.439	338.94
479.658	330.94
479.876	320.94
480.095	311.94
480.313	354.94
480.532	319.94
480.751	317.94
480.969	339.94
481.188	461.94
481.406	553.94
481.624	379.94
481.843	330.94
482.061	299.94
482.28	297.94
482.498	290.94
482.717	284.94
482.935	295.94
483.153	302.94
483.372	301.94
483.59	294.94
483.808	319.94
484.027	301.94
484.245	311.94
484.463	320.94
484.681	327.94
484.9	319.94
485.118	309.94
485.336	301.94
485.554	313.94
485.772	315.94
485.99	320.94
486.209	309.94
486.427	331.94
486.645	332.94
486.863	360.94
487.081	350.94
487.299	322.94
487.517	334.94
487.735	318.94
487.953	322.94
488.171	319.94
488.389	322.94
488.607	321.94
488.825	308.94
489.043	318.94
489.261	334.94
489.479	322.94
489.696	338.94
489.914	317.94
490.132	331.94
490.35	334.94
490.568	338.94
490.786	343.94
491.003	339.94
491.221	356.94
491.439	344.94
491.657	365.94
491.874	358.94
492.092	350.94
492.31	369.94
492.527	386.94
492.745	382.94
492.963	381.94
493.18	374.94
493.398	372.94
493.615	365.94
493.833	369.94
494.05	378.94
494.268	371.94
494.485	349.94
494.703	351.94
494.92	361.94
495.138	366.94
495.355	377.94
495.573	387.94
495.79	385.94
496.008	392.94
496.225	369.94
496.442	360.94
496.66	346.94
496.877	365.94
497.094	370.94
497.312	369.94
497.529	364.94
497.746	372.94
497.963	380.94
498.181	376.94
498.398	398.94
498.615	393.94
498.832	391.94
499.049	392.94
499.267	409.94
499.484	411.94
499.701	422.94
499.918	440.94
500.135	444.94
500.352	470.94
500.569	476.94
500.786	481.94
501.003	474.94
501.22	464.94
501.437	460.94
501.654	465.94
501.871	460.94
502.088	449.94
502.305	414.94
502.522	393.94
