Data from 1968.PennyLincolnUp.Lamp.En5.5.200Scan.071719.P1._HRD10591_14-51-04-969.txt Node
Date: Thu Jul 18 14:51:04 EDT 2019
User: cochatt
Spectrometer: HR+D1059
Trigger mode: 1
Integration Time (sec): 1.000000E-1
Scans to average: 1
Electric dark correction enabled: true
Nonlinearity correction enabled: false
Boxcar width: 0
XAxis mode: Wavelengths
Number of Pixels in Spectrum: 2048
>>>>>Begin Spectral Data<<<<<
223.165	-15.88
223.4	-15.88
223.635	-15.88
223.869	-11.88
224.104	-19.88
224.338	-33.88
224.573	-7.88
224.808	-4.88
225.042	-5.88
225.277	-2.88
225.511	-11.88
225.746	10.12
225.98	5.12
226.215	24.12
226.449	11.12
226.683	10.12
226.918	22.12
227.152	32.12
227.387	34.12
227.621	27.12
227.856	48.12
228.09	37.12
228.324	50.12
228.559	53.12
228.793	57.12
229.027	75.12
229.262	73.12
229.496	63.12
229.73	77.12
229.964	73.12
230.199	75.12
230.433	81.12
230.667	82.12
230.901	76.12
231.136	92.12
231.37	77.12
231.604	93.12
231.838	90.12
232.072	98.12
232.306	82.12
232.541	93.12
232.775	78.12
233.009	81.12
233.243	94.12
233.477	104.12
233.711	97.12
233.945	91.12
234.179	84.12
234.413	86.12
234.647	97.12
234.881	78.12
235.115	88.12
235.349	95.12
235.583	88.12
235.817	94.12
236.051	83.12
236.285	78.12
236.519	88.12
236.753	82.12
236.987	96.12
237.221	86.12
237.455	82.12
237.689	77.12
237.922	60.12
238.156	63.12
238.39	82.12
238.624	81.12
238.858	71.12
239.091	79.12
239.325	77.12
239.559	84.12
239.793	86.12
240.027	85.12
240.26	80.12
240.494	80.12
240.728	77.12
240.961	77.12
241.195	73.12
241.429	86.12
241.662	83.12
241.896	85.12
242.13	83.12
242.363	88.12
242.597	76.12
242.83	82.12
243.064	101.12
243.298	73.12
243.531	96.12
243.765	100.12
243.998	84.12
244.232	82.12
244.465	86.12
244.699	76.12
244.932	95.12
245.166	96.12
245.399	85.12
245.633	88.12
245.866	96.12
246.099	87.12
246.333	86.12
246.566	88.12
246.8	65.12
247.033	72.12
247.266	94.12
247.5	86.12
247.733	87.12
247.966	100.12
248.2	76.12
248.433	92.12
248.666	88.12
248.899	98.12
249.133	88.12
249.366	102.12
249.599	95.12
249.832	86.12
250.066	97.12
250.299	84.12
250.532	92.12
250.765	107.12
250.998	92.12
251.231	101.12
251.465	90.12
251.698	95.12
251.931	96.12
252.164	76.12
252.397	96.12
252.63	86.12
252.863	86.12
253.096	82.12
253.329	90.12
253.562	104.12
253.795	102.12
254.028	89.12
254.261	89.12
254.494	87.12
254.727	92.12
254.96	105.12
255.193	94.12
255.426	100.12
255.659	89.12
255.892	93.12
256.124	81.12
256.357	88.12
256.59	107.12
256.823	96.12
257.056	88.12
257.289	97.12
257.521	97.12
257.754	87.12
257.987	87.12
258.22	95.12
258.452	103.12
258.685	100.12
258.918	91.12
259.151	91.12
259.383	87.12
259.616	99.12
259.849	98.12
260.081	85.12
260.314	85.12
260.547	102.12
260.779	102.12
261.012	87.12
261.244	97.12
261.477	92.12
261.71	69.12
261.942	104.12
262.175	86.12
262.407	80.12
262.64	87.12
262.872	93.12
263.105	106.12
263.337	97.12
263.57	91.12
263.802	105.12
264.035	84.12
264.267	82.12
264.499	103.12
264.732	82.12
264.964	90.12
265.197	95.12
265.429	79.12
265.661	93.12
265.894	111.12
266.126	83.12
266.358	95.12
266.591	87.12
266.823	94.12
267.055	88.12
267.287	90.12
267.52	101.12
267.752	100.12
267.984	109.12
268.216	101.12
268.448	98.12
268.681	84.12
268.913	85.12
269.145	100.12
269.377	112.12
269.609	104.12
269.841	105.12
270.073	110.12
270.306	97.12
270.538	96.12
270.77	95.12
271.002	100.12
271.234	105.12
271.466	100.12
271.698	104.12
271.93	90.12
272.162	107.12
272.394	107.12
272.626	96.12
272.858	98.12
273.09	93.12
273.322	109.12
273.553	103.12
273.785	91.12
274.017	100.12
274.249	93.12
274.481	99.12
274.713	98.12
274.945	96.12
275.176	88.12
275.408	96.12
275.64	91.12
275.872	105.12
276.104	100.12
276.335	103.12
276.567	111.12
276.799	110.12
277.031	105.12
277.262	106.12
277.494	109.12
277.726	114.12
277.957	92.12
278.189	103.12
278.421	97.12
278.652	97.12
278.884	108.12
279.115	104.12
279.347	105.12
279.579	93.12
279.81	105.12
280.042	101.12
280.273	102.12
280.505	109.12
280.736	91.12
280.968	107.12
281.199	110.12
281.431	107.12
281.662	111.12
281.894	101.12
282.125	99.12
282.356	105.12
282.588	114.12
282.819	109.12
283.051	108.12
283.282	102.12
283.513	107.12
283.745	111.12
283.976	85.12
284.207	98.12
284.439	116.12
284.67	106.12
284.901	96.12
285.132	124.12
285.364	108.12
285.595	107.12
285.826	109.12
286.057	109.12
286.288	101.12
286.52	117.12
286.751	100.12
286.982	93.12
287.213	103.12
287.444	109.12
287.675	96.12
287.906	102.12
288.138	96.12
288.369	114.12
288.6	113.12
288.831	89.12
289.062	108.12
289.293	100.12
289.524	103.12
289.755	85.12
289.986	102.12
290.217	111.12
290.448	105.12
290.679	90.12
290.91	90.12
291.141	110.12
291.371	109.12
291.602	125.12
291.833	114.12
292.064	107.12
292.295	100.12
292.526	104.12
292.757	105.12
292.987	90.12
293.218	102.12
293.449	102.12
293.68	114.12
293.91	102.12
294.141	115.12
294.372	120.12
294.603	111.12
294.833	123.12
295.064	103.12
295.295	102.12
295.525	97.12
295.756	114.12
295.987	113.12
296.217	103.12
296.448	96.12
296.679	108.12
296.909	118.12
297.14	99.12
297.37	111.12
297.601	101.12
297.831	101.12
298.062	107.12
298.292	94.12
298.523	96.12
298.753	106.12
298.984	108.12
299.214	109.12
299.445	126.12
299.675	114.12
299.905	102.12
300.136	106.12
300.366	104.12
300.597	109.12
300.827	105.12
301.057	101.12
301.288	112.12
301.518	103.12
301.748	98.12
301.979	109.12
302.209	110.12
302.439	108.12
302.669	113.12
302.9	99.12
303.13	96.12
303.36	120.12
303.59	108.12
303.82	100.12
304.051	101.12
304.281	108.12
304.511	108.12
304.741	110.12
304.971	108.12
305.201	106.12
305.431	109.12
305.661	96.12
305.891	108.12
306.121	113.12
306.352	119.12
306.582	103.12
306.812	99.12
307.042	114.12
307.272	91.12
307.502	110.12
307.731	108.12
307.961	122.12
308.191	112.12
308.421	100.12
308.651	105.12
308.881	98.12
309.111	109.12
309.341	109.12
309.571	94.12
309.8	104.12
310.03	121.12
310.26	99.12
310.49	108.12
310.72	107.12
310.949	111.12
311.179	105.12
311.409	96.12
311.639	108.12
311.868	100.12
312.098	104.12
312.328	98.12
312.557	108.12
312.787	113.12
313.017	113.12
313.246	117.12
313.476	96.12
313.706	105.12
313.935	117.12
314.165	110.12
314.394	129.12
314.624	110.12
314.853	130.12
315.083	121.12
315.312	101.12
315.542	106.12
315.771	116.12
316.001	120.12
316.23	102.12
316.46	110.12
316.689	107.12
316.919	109.12
317.148	118.12
317.377	120.12
317.607	112.12
317.836	113.12
318.065	101.12
318.295	108.12
318.524	111.12
318.753	114.12
318.983	111.12
319.212	113.12
319.441	117.12
319.67	109.12
319.9	123.12
320.129	103.12
320.358	112.12
320.587	116.12
320.816	110.12
321.046	105.12
321.275	119.12
321.504	104.12
321.733	129.12
321.962	120.12
322.191	119.12
322.42	111.12
322.649	113.12
322.878	131.12
323.108	110.12
323.337	128.12
323.566	107.12
323.795	116.12
324.024	124.12
324.253	129.12
324.482	150.12
324.71	182.12
324.939	183.12
325.168	161.12
325.397	122.12
325.626	126.12
325.855	125.12
326.084	116.12
326.313	122.12
326.542	120.12
326.77	113.12
326.999	118.12
327.228	125.12
327.457	171.12
327.686	167.12
327.914	138.12
328.143	117.12
328.372	122.12
328.6	120.12
328.829	130.12
329.058	130.12
329.287	125.12
329.515	129.12
329.744	125.12
329.972	117.12
330.201	107.12
330.43	127.12
330.658	112.12
330.887	116.12
331.115	116.12
331.344	121.12
331.572	119.12
331.801	137.12
332.03	109.12
332.258	123.12
332.486	117.12
332.715	125.12
332.943	107.12
333.172	123.12
333.4	116.12
333.629	127.12
333.857	130.12
334.085	124.12
334.314	126.12
334.542	121.12
334.771	132.12
334.999	122.12
335.227	123.12
335.455	129.12
335.684	129.12
335.912	125.12
336.14	126.12
336.369	112.12
336.597	103.12
336.825	120.12
337.053	120.12
337.281	112.12
337.51	114.12
337.738	129.12
337.966	112.12
338.194	127.12
338.422	118.12
338.65	125.12
338.878	109.12
339.106	122.12
339.334	124.12
339.562	114.12
339.79	117.12
340.018	114.12
340.246	111.12
340.474	109.12
340.702	130.12
340.93	108.12
341.158	119.12
341.386	101.12
341.614	115.12
341.842	116.12
342.07	130.12
342.298	110.12
342.526	121.12
342.754	120.12
342.981	112.12
343.209	112.12
343.437	109.12
343.665	116.12
343.893	116.12
344.12	130.12
344.348	110.12
344.576	118.12
344.804	127.12
345.031	120.12
345.259	137.12
345.487	116.12
345.714	127.12
345.942	114.12
346.17	118.12
346.397	114.12
346.625	111.12
346.853	109.12
347.08	107.12
347.308	122.12
347.535	122.12
347.763	98.12
347.99	106.12
348.218	121.12
348.445	108.12
348.673	105.12
348.9	120.12
349.128	113.12
349.355	118.12
349.583	102.12
349.81	121.12
350.037	113.12
350.265	99.12
350.492	121.12
350.72	116.12
350.947	116.12
351.174	101.12
351.402	130.12
351.629	103.12
351.856	101.12
352.083	111.12
352.311	118.12
352.538	129.12
352.765	116.12
352.992	126.12
353.22	107.12
353.447	89.12
353.674	108.12
353.901	101.12
354.128	112.12
354.355	123.12
354.583	116.12
354.81	111.12
355.037	124.12
355.264	106.12
355.491	106.12
355.718	126.12
355.945	102.12
356.172	97.12
356.399	107.12
356.626	128.12
356.853	122.12
357.08	96.12
357.307	97.12
357.534	101.12
357.761	116.12
357.988	123.12
358.215	122.12
358.441	113.12
358.668	108.12
358.895	121.12
359.122	104.12
359.349	118.12
359.576	103.12
359.802	118.12
360.029	111.12
360.256	105.12
360.483	124.12
360.709	108.12
360.936	117.12
361.163	113.12
361.39	107.12
361.616	117.12
361.843	112.12
362.07	118.12
362.296	120.12
362.523	122.12
362.749	106.12
362.976	119.12
363.203	122.12
363.429	116.12
363.656	128.12
363.882	111.12
364.109	113.12
364.335	108.12
364.562	111.12
364.788	129.12
365.015	117.12
365.241	116.12
365.468	115.12
365.694	107.12
365.92	116.12
366.147	100.12
366.373	100.12
366.599	119.12
366.826	120.12
367.052	106.12
367.278	102.12
367.505	116.12
367.731	128.12
367.957	124.12
368.184	118.12
368.41	122.12
368.636	120.12
368.862	127.12
369.089	112.12
369.315	111.12
369.541	112.12
369.767	108.12
369.993	116.12
370.219	112.12
370.445	111.12
370.672	123.12
370.898	109.12
371.124	126.12
371.35	101.12
371.576	108.12
371.802	121.12
372.028	118.12
372.254	114.12
372.48	114.12
372.706	104.12
372.932	107.12
373.158	119.12
373.384	111.12
373.61	130.12
373.835	118.12
374.061	113.12
374.287	118.12
374.513	108.12
374.739	127.12
374.965	116.12
375.191	125.12
375.416	113.12
375.642	125.12
375.868	125.12
376.094	128.12
376.319	118.12
376.545	122.12
376.771	118.12
376.997	106.12
377.222	111.12
377.448	124.12
377.674	104.12
377.899	112.12
378.125	116.12
378.35	111.12
378.576	110.12
378.802	111.12
379.027	93.12
379.253	99.12
379.478	116.12
379.704	114.12
379.929	118.12
380.155	117.12
380.38	111.12
380.606	125.12
380.831	127.12
381.057	120.12
381.282	116.12
381.507	121.12
381.733	110.12
381.958	117.12
382.184	105.12
382.409	120.12
382.634	113.12
382.86	118.12
383.085	137.12
383.31	110.12
383.535	127.12
383.761	116.12
383.986	117.12
384.211	111.12
384.436	106.12
384.662	132.12
384.887	126.12
385.112	106.12
385.337	120.12
385.562	120.12
385.787	97.12
386.013	128.12
386.238	132.12
386.463	116.12
386.688	120.12
386.913	125.12
387.138	132.12
387.363	128.12
387.588	125.12
387.813	110.12
388.038	125.12
388.263	116.12
388.488	124.12
388.713	120.12
388.938	129.12
389.163	136.12
389.387	115.12
389.612	114.12
389.837	114.12
390.062	119.12
390.287	123.12
390.512	124.12
390.736	129.12
390.961	127.12
391.186	125.12
391.411	118.12
391.636	136.12
391.86	130.12
392.085	124.12
392.31	113.12
392.534	112.12
392.759	120.12
392.984	118.12
393.208	123.12
393.433	121.12
393.658	108.12
393.882	124.12
394.107	124.12
394.331	137.12
394.556	132.12
394.78	129.12
395.005	117.12
395.229	116.12
395.454	133.12
395.678	126.12
395.903	127.12
396.127	125.12
396.352	130.12
396.576	130.12
396.801	119.12
397.025	120.12
397.249	126.12
397.474	125.12
397.698	126.12
397.922	129.12
398.147	132.12
398.371	142.12
398.595	131.12
398.82	130.12
399.044	130.12
399.268	146.12
399.492	140.12
399.717	150.12
399.941	150.12
400.165	160.12
400.389	148.12
400.613	152.12
400.837	125.12
401.062	114.12
401.286	129.12
401.51	120.12
401.734	123.12
401.958	140.12
402.182	133.12
402.406	139.12
402.63	132.12
402.854	135.12
403.078	126.12
403.302	125.12
403.526	138.12
403.75	142.12
403.974	133.12
404.198	144.12
404.422	150.12
404.645	149.12
404.869	129.12
405.093	137.12
405.317	141.12
405.541	150.12
405.765	134.12
405.988	128.12
406.212	139.12
406.436	118.12
406.66	161.12
406.883	133.12
407.107	141.12
407.331	141.12
407.555	134.12
407.778	143.12
408.002	143.12
408.226	146.12
408.449	141.12
408.673	138.12
408.896	132.12
409.12	149.12
409.344	138.12
409.567	132.12
409.791	152.12
410.014	136.12
410.238	132.12
410.461	136.12
410.685	137.12
410.908	127.12
411.132	144.12
411.355	135.12
411.578	142.12
411.802	135.12
412.025	146.12
412.249	136.12
412.472	128.12
412.695	138.12
412.919	145.12
413.142	145.12
413.365	132.12
413.589	144.12
413.812	136.12
414.035	137.12
414.258	125.12
414.482	127.12
414.705	120.12
414.928	134.12
415.151	132.12
415.374	128.12
415.597	135.12
415.821	122.12
416.044	142.12
416.267	130.12
416.49	139.12
416.713	133.12
416.936	129.12
417.159	130.12
417.382	139.12
417.605	134.12
417.828	121.12
418.051	137.12
418.274	146.12
418.497	129.12
418.72	126.12
418.943	126.12
419.166	138.12
419.389	140.12
419.611	138.12
419.834	126.12
420.057	134.12
420.28	124.12
420.503	142.12
420.726	129.12
420.948	129.12
421.171	140.12
421.394	152.12
421.617	119.12
421.839	124.12
422.062	136.12
422.285	135.12
422.507	132.12
422.73	137.12
422.953	138.12
423.175	138.12
423.398	142.12
423.621	134.12
423.843	141.12
424.066	134.12
424.288	136.12
424.511	151.12
424.733	132.12
424.956	150.12
425.178	138.12
425.401	156.12
425.623	129.12
425.846	132.12
426.068	146.12
426.291	144.12
426.513	136.12
426.735	138.12
426.958	151.12
427.18	142.12
427.402	152.12
427.625	142.12
427.847	138.12
428.069	119.12
428.292	142.12
428.514	136.12
428.736	129.12
428.958	133.12
429.181	129.12
429.403	126.12
429.625	132.12
429.847	136.12
430.069	135.12
430.292	136.12
430.514	126.12
430.736	126.12
430.958	139.12
431.18	123.12
431.402	119.12
431.624	128.12
431.846	121.12
432.068	129.12
432.29	128.12
432.512	124.12
432.734	122.12
432.956	133.12
433.178	128.12
433.4	137.12
433.622	129.12
433.844	125.12
434.066	121.12
434.287	125.12
434.509	114.12
434.731	132.12
434.953	126.12
435.175	129.12
435.397	137.12
435.618	128.12
435.84	138.12
436.062	144.12
436.284	144.12
436.505	131.12
436.727	150.12
436.949	134.12
437.17	134.12
437.392	141.12
437.614	151.12
437.835	124.12
438.057	139.12
438.278	135.12
438.5	135.12
438.721	127.12
438.943	140.12
439.165	142.12
439.386	130.12
439.608	114.12
439.829	145.12
440.05	142.12
440.272	120.12
440.493	145.12
440.715	130.12
440.936	145.12
441.158	122.12
441.379	133.12
441.6	138.12
441.822	133.12
442.043	126.12
442.264	144.12
442.486	140.12
442.707	142.12
442.928	125.12
443.149	130.12
443.371	143.12
443.592	142.12
443.813	148.12
444.034	143.12
444.255	144.12
444.476	153.12
444.698	139.12
444.919	125.12
445.14	210.12
445.361	171.12
445.582	144.12
445.803	139.12
446.024	142.12
446.245	171.12
446.466	150.12
446.687	134.12
446.908	138.12
447.129	139.12
447.35	141.12
447.571	131.12
447.792	121.12
448.013	137.12
448.234	140.12
448.455	122.12
448.675	144.12
448.896	136.12
449.117	138.12
449.338	127.12
449.559	143.12
449.779	151.12
450	136.12
450.221	121.12
450.442	128.12
450.662	129.12
450.883	136.12
451.104	123.12
451.324	126.12
451.545	118.12
451.766	123.12
451.986	127.12
452.207	107.12
452.428	121.12
452.648	114.12
452.869	134.12
453.089	109.12
453.31	133.12
453.53	120.12
453.751	122.12
453.971	126.12
454.192	131.12
454.412	120.12
454.633	119.12
454.853	124.12
455.073	136.12
455.294	133.12
455.514	136.12
455.734	130.12
455.955	124.12
456.175	118.12
456.395	124.12
456.616	127.12
456.836	117.12
457.056	104.12
457.276	109.12
457.497	135.12
457.717	120.12
457.937	124.12
458.157	117.12
458.377	130.12
458.598	126.12
458.818	120.12
459.038	133.12
459.258	148.12
459.478	132.12
459.698	117.12
459.918	129.12
460.138	123.12
460.358	133.12
460.578	144.12
460.798	134.12
461.018	111.12
461.238	127.12
461.458	144.12
461.678	133.12
461.898	124.12
462.118	133.12
462.338	137.12
462.558	136.12
462.777	137.12
462.997	150.12
463.217	150.12
463.437	141.12
463.657	147.12
463.876	128.12
464.096	140.12
464.316	138.12
464.536	137.12
464.755	143.12
464.975	123.12
465.195	135.12
465.414	146.12
465.634	127.12
465.854	134.12
466.073	135.12
466.293	118.12
466.512	118.12
466.732	121.12
466.951	133.12
467.171	128.12
467.391	122.12
467.61	130.12
467.829	131.12
468.049	129.12
468.268	117.12
468.488	128.12
468.707	114.12
468.927	131.12
469.146	123.12
469.365	131.12
469.585	129.12
469.804	125.12
470.023	122.12
470.243	112.12
470.462	136.12
470.681	120.12
470.901	134.12
471.12	135.12
471.339	134.12
471.558	133.12
471.777	127.12
471.997	132.12
472.216	130.12
472.435	147.12
472.654	128.12
472.873	126.12
473.092	136.12
473.311	133.12
473.53	130.12
473.749	125.12
473.968	128.12
474.187	123.12
474.406	128.12
474.625	120.12
474.844	122.12
475.063	127.12
475.282	128.12
475.501	120.12
475.72	128.12
475.939	129.12
476.158	134.12
476.377	122.12
476.596	108.12
476.814	130.12
477.033	129.12
477.252	127.12
477.471	109.12
477.69	127.12
477.908	134.12
478.127	144.12
478.346	128.12
478.564	134.12
478.783	139.12
479.002	136.12
479.22	145.12
479.439	128.12
479.658	143.12
479.876	139.12
480.095	140.12
480.313	132.12
480.532	144.12
480.751	148.12
480.969	134.12
481.188	139.12
481.406	153.12
481.624	152.12
481.843	132.12
482.061	132.12
482.28	132.12
482.498	116.12
482.717	130.12
482.935	126.12
483.153	137.12
483.372	132.12
483.59	130.12
483.808	116.12
484.027	136.12
484.245	128.12
484.463	139.12
484.681	144.12
484.9	112.12
485.118	123.12
485.336	138.12
485.554	139.12
485.772	142.12
485.99	139.12
486.209	134.12
486.427	142.12
486.645	138.12
486.863	138.12
487.081	145.12
487.299	134.12
487.517	142.12
487.735	148.12
487.953	142.12
488.171	134.12
488.389	153.12
488.607	135.12
488.825	130.12
489.043	136.12
489.261	132.12
489.479	131.12
489.696	141.12
489.914	124.12
490.132	140.12
490.35	143.12
490.568	130.12
490.786	148.12
491.003	150.12
491.221	134.12
491.439	150.12
491.657	134.12
491.874	157.12
492.092	154.12
492.31	123.12
492.527	142.12
492.745	140.12
492.963	155.12
493.18	139.12
493.398	137.12
493.615	138.12
493.833	142.12
494.05	153.12
494.268	136.12
494.485	142.12
494.703	147.12
494.92	145.12
495.138	142.12
495.355	142.12
495.573	149.12
495.79	141.12
496.008	159.12
496.225	146.12
496.442	150.12
496.66	142.12
496.877	162.12
497.094	155.12
497.312	157.12
497.529	152.12
497.746	162.12
497.963	149.12
498.181	150.12
498.398	157.12
498.615	146.12
498.832	168.12
499.049	190.12
499.267	179.12
499.484	185.12
499.701	185.12
499.918	182.12
500.135	194.12
500.352	204.12
500.569	231.12
500.786	229.12
501.003	201.12
501.22	196.12
501.437	186.12
501.654	176.12
501.871	175.12
502.088	178.12
502.305	161.12
502.522	167.12
502.739	167.12
502.956	155.12
503.172	153.12
503.389	148.12
503.606	150.12
503.823	144.12
504.04	165.12
504.256	148.12
504.473	161.12
504.69	153.12
