Data from 1968.PennyLincolnUp.Lamp.En5.5.200Scan.071719.P1._HRD10591_14-52-10-970.txt Node
Date: Thu Jul 18 14:52:10 EDT 2019
User: cochatt
Spectrometer: HR+D1059
Trigger mode: 1
Integration Time (sec): 1.000000E-1
Scans to average: 1
Electric dark correction enabled: true
Nonlinearity correction enabled: false
Boxcar width: 0
XAxis mode: Wavelengths
Number of Pixels in Spectrum: 2048
>>>>>Begin Spectral Data<<<<<
223.165	-14.44
223.4	-14.44
223.635	-14.44
223.869	-22.44
224.104	-19.44
224.338	-14.44
224.573	-7.44
224.808	-8.44
225.042	-12.44
225.277	-19.44
225.511	4.56
225.746	9.56
225.98	6.56
226.215	7.56
226.449	32.56
226.683	4.56
226.918	8.56
227.152	44.56
227.387	36.56
227.621	30.56
227.856	47.56
228.09	59.56
228.324	59.56
228.559	67.56
228.793	60.56
229.027	69.56
229.262	58.56
229.496	74.56
229.73	76.56
229.964	78.56
230.199	72.56
230.433	81.56
230.667	86.56
230.901	77.56
231.136	86.56
231.37	87.56
231.604	76.56
231.838	94.56
232.072	79.56
232.306	74.56
232.541	90.56
232.775	84.56
233.009	84.56
233.243	99.56
233.477	76.56
233.711	83.56
233.945	91.56
234.179	91.56
234.413	96.56
234.647	86.56
234.881	83.56
235.115	74.56
235.349	83.56
235.583	86.56
235.817	84.56
236.051	95.56
236.285	94.56
236.519	94.56
236.753	79.56
236.987	85.56
237.221	76.56
237.455	86.56
237.689	84.56
237.922	94.56
238.156	77.56
238.39	88.56
238.624	88.56
238.858	91.56
239.091	93.56
239.325	91.56
239.559	91.56
239.793	98.56
240.027	84.56
240.26	96.56
240.494	86.56
240.728	90.56
240.961	78.56
241.195	87.56
241.429	95.56
241.662	96.56
241.896	79.56
242.13	83.56
242.363	70.56
242.597	78.56
242.83	80.56
243.064	83.56
243.298	85.56
243.531	99.56
243.765	75.56
243.998	90.56
244.232	62.56
244.465	92.56
244.699	88.56
244.932	94.56
245.166	80.56
245.399	87.56
245.633	88.56
245.866	92.56
246.099	71.56
246.333	70.56
246.566	104.56
246.8	68.56
247.033	84.56
247.266	78.56
247.5	88.56
247.733	91.56
247.966	113.56
248.2	98.56
248.433	93.56
248.666	97.56
248.899	91.56
249.133	89.56
249.366	101.56
249.599	86.56
249.832	83.56
250.066	85.56
250.299	82.56
250.532	92.56
250.765	88.56
250.998	107.56
251.231	91.56
251.465	95.56
251.698	97.56
251.931	82.56
252.164	89.56
252.397	94.56
252.63	103.56
252.863	91.56
253.096	78.56
253.329	90.56
253.562	84.56
253.795	88.56
254.028	95.56
254.261	92.56
254.494	90.56
254.727	101.56
254.96	95.56
255.193	94.56
255.426	103.56
255.659	80.56
255.892	92.56
256.124	87.56
256.357	87.56
256.59	80.56
256.823	111.56
257.056	101.56
257.289	89.56
257.521	87.56
257.754	110.56
257.987	98.56
258.22	82.56
258.452	94.56
258.685	90.56
258.918	95.56
259.151	101.56
259.383	90.56
259.616	87.56
259.849	84.56
260.081	101.56
260.314	95.56
260.547	98.56
260.779	94.56
261.012	100.56
261.244	97.56
261.477	73.56
261.71	98.56
261.942	92.56
262.175	92.56
262.407	93.56
262.64	90.56
262.872	92.56
263.105	83.56
263.337	89.56
263.57	102.56
263.802	89.56
264.035	99.56
264.267	89.56
264.499	94.56
264.732	96.56
264.964	95.56
265.197	99.56
265.429	81.56
265.661	108.56
265.894	99.56
266.126	87.56
266.358	98.56
266.591	93.56
266.823	92.56
267.055	87.56
267.287	114.56
267.52	102.56
267.752	98.56
267.984	100.56
268.216	91.56
268.448	92.56
268.681	86.56
268.913	97.56
269.145	95.56
269.377	98.56
269.609	100.56
269.841	95.56
270.073	91.56
270.306	86.56
270.538	80.56
270.77	97.56
271.002	91.56
271.234	110.56
271.466	90.56
271.698	106.56
271.93	101.56
272.162	85.56
272.394	109.56
272.626	97.56
272.858	87.56
273.09	98.56
273.322	83.56
273.553	96.56
273.785	101.56
274.017	100.56
274.249	83.56
274.481	94.56
274.713	86.56
274.945	92.56
275.176	80.56
275.408	104.56
275.64	92.56
275.872	95.56
276.104	115.56
276.335	109.56
276.567	87.56
276.799	100.56
277.031	95.56
277.262	97.56
277.494	103.56
277.726	111.56
277.957	99.56
278.189	93.56
278.421	90.56
278.652	94.56
278.884	107.56
279.115	104.56
279.347	90.56
279.579	92.56
279.81	94.56
280.042	100.56
280.273	93.56
280.505	111.56
280.736	86.56
280.968	87.56
281.199	92.56
281.431	94.56
281.662	102.56
281.894	112.56
282.125	93.56
282.356	111.56
282.588	109.56
282.819	112.56
283.051	111.56
283.282	109.56
283.513	120.56
283.745	96.56
283.976	111.56
284.207	98.56
284.439	105.56
284.67	103.56
284.901	108.56
285.132	88.56
285.364	90.56
285.595	94.56
285.826	107.56
286.057	101.56
286.288	100.56
286.52	116.56
286.751	94.56
286.982	100.56
287.213	96.56
287.444	109.56
287.675	111.56
287.906	90.56
288.138	100.56
288.369	96.56
288.6	96.56
288.831	115.56
289.062	98.56
289.293	105.56
289.524	101.56
289.755	113.56
289.986	102.56
290.217	100.56
290.448	100.56
290.679	96.56
290.91	104.56
291.141	105.56
291.371	107.56
291.602	103.56
291.833	125.56
292.064	101.56
292.295	107.56
292.526	110.56
292.757	124.56
292.987	98.56
293.218	119.56
293.449	104.56
293.68	86.56
293.91	111.56
294.141	104.56
294.372	104.56
294.603	110.56
294.833	107.56
295.064	103.56
295.295	107.56
295.525	95.56
295.756	101.56
295.987	98.56
296.217	100.56
296.448	108.56
296.679	108.56
296.909	102.56
297.14	104.56
297.37	111.56
297.601	106.56
297.831	110.56
298.062	101.56
298.292	109.56
298.523	98.56
298.753	104.56
298.984	111.56
299.214	101.56
299.445	114.56
299.675	92.56
299.905	118.56
300.136	104.56
300.366	112.56
300.597	104.56
300.827	104.56
301.057	103.56
301.288	100.56
301.518	114.56
301.748	94.56
301.979	100.56
302.209	115.56
302.439	100.56
302.669	92.56
302.9	109.56
303.13	109.56
303.36	100.56
303.59	117.56
303.82	110.56
304.051	111.56
304.281	110.56
304.511	130.56
304.741	100.56
304.971	116.56
305.201	98.56
305.431	109.56
305.661	98.56
305.891	106.56
306.121	104.56
306.352	101.56
306.582	100.56
306.812	100.56
307.042	97.56
307.272	105.56
307.502	108.56
307.731	97.56
307.961	100.56
308.191	95.56
308.421	104.56
308.651	112.56
308.881	91.56
309.111	101.56
309.341	109.56
309.571	110.56
309.8	104.56
310.03	106.56
310.26	112.56
310.49	91.56
310.72	109.56
310.949	120.56
311.179	101.56
311.409	119.56
311.639	115.56
311.868	105.56
312.098	111.56
312.328	111.56
312.557	108.56
312.787	93.56
313.017	128.56
313.246	108.56
313.476	102.56
313.706	107.56
313.935	122.56
314.165	101.56
314.394	103.56
314.624	116.56
314.853	114.56
315.083	115.56
315.312	111.56
315.542	105.56
315.771	100.56
316.001	101.56
316.23	108.56
316.46	106.56
316.689	106.56
316.919	96.56
317.148	98.56
317.377	107.56
317.607	117.56
317.836	100.56
318.065	102.56
318.295	114.56
318.524	100.56
318.753	112.56
318.983	110.56
319.212	100.56
319.441	103.56
319.67	116.56
319.9	124.56
320.129	115.56
320.358	118.56
320.587	107.56
320.816	126.56
321.046	116.56
321.275	107.56
321.504	113.56
321.733	112.56
321.962	114.56
322.191	111.56
322.42	105.56
322.649	95.56
322.878	106.56
323.108	114.56
323.337	111.56
323.566	116.56
323.795	98.56
324.024	116.56
324.253	124.56
324.482	124.56
324.71	148.56
324.939	176.56
325.168	162.56
325.397	126.56
325.626	129.56
325.855	130.56
326.084	119.56
326.313	106.56
326.542	111.56
326.77	114.56
326.999	122.56
327.228	134.56
327.457	159.56
327.686	150.56
327.914	140.56
328.143	124.56
328.372	120.56
328.6	106.56
328.829	113.56
329.058	106.56
329.287	110.56
329.515	109.56
329.744	111.56
329.972	109.56
330.201	121.56
330.43	120.56
330.658	110.56
330.887	122.56
331.115	121.56
331.344	127.56
331.572	110.56
331.801	109.56
332.03	127.56
332.258	126.56
332.486	119.56
332.715	107.56
332.943	102.56
333.172	116.56
333.4	125.56
333.629	123.56
333.857	101.56
334.085	118.56
334.314	136.56
334.542	114.56
334.771	115.56
334.999	128.56
335.227	115.56
335.455	98.56
335.684	117.56
335.912	117.56
336.14	101.56
336.369	118.56
336.597	106.56
336.825	115.56
337.053	107.56
337.281	110.56
337.51	117.56
337.738	106.56
337.966	126.56
338.194	114.56
338.422	115.56
338.65	105.56
338.878	126.56
339.106	122.56
339.334	128.56
339.562	103.56
339.79	120.56
340.018	116.56
340.246	108.56
340.474	108.56
340.702	121.56
340.93	118.56
341.158	115.56
341.386	134.56
341.614	121.56
341.842	114.56
342.07	111.56
342.298	103.56
342.526	104.56
342.754	93.56
342.981	114.56
343.209	113.56
343.437	101.56
343.665	122.56
343.893	122.56
344.12	112.56
344.348	125.56
344.576	106.56
344.804	116.56
345.031	103.56
345.259	121.56
345.487	98.56
345.714	105.56
345.942	94.56
346.17	119.56
346.397	119.56
346.625	102.56
346.853	116.56
347.08	95.56
347.308	116.56
347.535	119.56
347.763	124.56
347.99	109.56
348.218	108.56
348.445	111.56
348.673	111.56
348.9	114.56
349.128	108.56
349.355	99.56
349.583	114.56
349.81	121.56
350.037	104.56
350.265	99.56
350.492	106.56
350.72	111.56
350.947	113.56
351.174	105.56
351.402	115.56
351.629	112.56
351.856	108.56
352.083	123.56
352.311	117.56
352.538	123.56
352.765	124.56
352.992	109.56
353.22	97.56
353.447	106.56
353.674	112.56
353.901	101.56
354.128	104.56
354.355	100.56
354.583	107.56
354.81	99.56
355.037	116.56
355.264	113.56
355.491	109.56
355.718	100.56
355.945	116.56
356.172	122.56
356.399	114.56
356.626	109.56
356.853	99.56
357.08	107.56
357.307	110.56
357.534	99.56
357.761	118.56
357.988	96.56
358.215	116.56
358.441	120.56
358.668	97.56
358.895	97.56
359.122	94.56
359.349	100.56
359.576	109.56
359.802	110.56
360.029	116.56
360.256	114.56
360.483	108.56
360.709	102.56
360.936	126.56
361.163	120.56
361.39	119.56
361.616	117.56
361.843	118.56
362.07	102.56
362.296	108.56
362.523	104.56
362.749	100.56
362.976	110.56
363.203	105.56
363.429	106.56
363.656	121.56
363.882	92.56
364.109	117.56
364.335	120.56
364.562	104.56
364.788	109.56
365.015	125.56
365.241	117.56
365.468	128.56
365.694	127.56
365.92	116.56
366.147	112.56
366.373	114.56
366.599	106.56
366.826	113.56
367.052	107.56
367.278	103.56
367.505	111.56
367.731	99.56
367.957	106.56
368.184	105.56
368.41	112.56
368.636	120.56
368.862	109.56
369.089	104.56
369.315	112.56
369.541	108.56
369.767	117.56
369.993	105.56
370.219	95.56
370.445	116.56
370.672	120.56
370.898	108.56
371.124	124.56
371.35	105.56
371.576	114.56
371.802	117.56
372.028	108.56
372.254	107.56
372.48	120.56
372.706	123.56
372.932	103.56
373.158	116.56
373.384	115.56
373.61	120.56
373.835	112.56
374.061	118.56
374.287	111.56
374.513	100.56
374.739	98.56
374.965	107.56
375.191	110.56
375.416	110.56
375.642	113.56
375.868	125.56
376.094	120.56
376.319	116.56
376.545	122.56
376.771	114.56
376.997	110.56
377.222	112.56
377.448	123.56
377.674	114.56
377.899	114.56
378.125	107.56
378.35	110.56
378.576	104.56
378.802	126.56
379.027	104.56
379.253	104.56
379.478	106.56
379.704	114.56
379.929	126.56
380.155	120.56
380.38	123.56
380.606	103.56
380.831	104.56
381.057	106.56
381.282	111.56
381.507	119.56
381.733	127.56
381.958	109.56
382.184	101.56
382.409	117.56
382.634	107.56
382.86	127.56
383.085	110.56
383.31	102.56
383.535	115.56
383.761	117.56
383.986	120.56
384.211	123.56
384.436	126.56
384.662	101.56
384.887	126.56
385.112	125.56
385.337	118.56
385.562	105.56
385.787	112.56
386.013	136.56
386.238	118.56
386.463	124.56
386.688	111.56
386.913	121.56
387.138	114.56
387.363	123.56
387.588	123.56
387.813	111.56
388.038	110.56
388.263	134.56
388.488	120.56
388.713	114.56
388.938	104.56
389.163	111.56
389.387	123.56
389.612	116.56
389.837	110.56
390.062	120.56
390.287	111.56
390.512	111.56
390.736	127.56
390.961	124.56
391.186	116.56
391.411	119.56
391.636	135.56
391.86	123.56
392.085	108.56
392.31	103.56
392.534	114.56
392.759	122.56
392.984	118.56
393.208	122.56
393.433	106.56
393.658	113.56
393.882	144.56
394.107	121.56
394.331	98.56
394.556	125.56
394.78	122.56
395.005	123.56
395.229	123.56
395.454	134.56
395.678	123.56
395.903	120.56
396.127	126.56
396.352	127.56
396.576	125.56
396.801	121.56
397.025	133.56
397.249	131.56
397.474	128.56
397.698	116.56
397.922	136.56
398.147	131.56
398.371	125.56
398.595	133.56
398.82	131.56
399.044	136.56
399.268	128.56
399.492	137.56
399.717	156.56
399.941	158.56
400.165	152.56
400.389	144.56
400.613	132.56
400.837	126.56
401.062	144.56
401.286	123.56
401.51	120.56
401.734	129.56
401.958	133.56
402.182	131.56
402.406	139.56
402.63	132.56
402.854	126.56
403.078	144.56
403.302	140.56
403.526	126.56
403.75	143.56
403.974	126.56
404.198	127.56
404.422	133.56
404.645	142.56
404.869	116.56
405.093	151.56
405.317	142.56
405.541	130.56
405.765	135.56
405.988	133.56
406.212	136.56
406.436	130.56
406.66	142.56
406.883	136.56
407.107	143.56
407.331	139.56
407.555	141.56
407.778	144.56
408.002	142.56
408.226	135.56
408.449	142.56
408.673	126.56
408.896	145.56
409.12	124.56
409.344	138.56
409.567	140.56
409.791	121.56
410.014	137.56
410.238	123.56
410.461	144.56
410.685	138.56
410.908	143.56
411.132	128.56
411.355	146.56
411.578	129.56
411.802	118.56
412.025	110.56
412.249	126.56
412.472	146.56
412.695	142.56
412.919	119.56
413.142	127.56
413.365	134.56
413.589	125.56
413.812	130.56
414.035	144.56
414.258	132.56
414.482	142.56
414.705	131.56
414.928	136.56
415.151	150.56
415.374	140.56
415.597	132.56
415.821	125.56
416.044	126.56
416.267	119.56
416.49	130.56
416.713	135.56
416.936	139.56
417.159	126.56
417.382	116.56
417.605	119.56
417.828	143.56
418.051	122.56
418.274	125.56
418.497	140.56
418.72	130.56
418.943	142.56
419.166	147.56
419.389	123.56
419.611	134.56
419.834	122.56
420.057	122.56
420.28	125.56
420.503	142.56
420.726	130.56
420.948	130.56
421.171	142.56
421.394	140.56
421.617	128.56
421.839	127.56
422.062	140.56
422.285	122.56
422.507	138.56
422.73	137.56
422.953	134.56
423.175	135.56
423.398	138.56
423.621	133.56
423.843	134.56
424.066	135.56
424.288	128.56
424.511	122.56
424.733	139.56
424.956	144.56
425.178	143.56
425.401	130.56
425.623	134.56
425.846	123.56
426.068	124.56
426.291	133.56
426.513	131.56
426.735	131.56
426.958	135.56
427.18	142.56
427.402	143.56
427.625	147.56
427.847	162.56
428.069	130.56
428.292	126.56
428.514	130.56
428.736	130.56
428.958	131.56
429.181	136.56
429.403	124.56
429.625	111.56
429.847	119.56
430.069	130.56
430.292	141.56
430.514	130.56
430.736	125.56
430.958	126.56
431.18	120.56
431.402	117.56
431.624	110.56
431.846	126.56
432.068	106.56
432.29	126.56
432.512	125.56
432.734	130.56
432.956	121.56
433.178	116.56
433.4	132.56
433.622	123.56
433.844	126.56
434.066	107.56
434.287	121.56
434.509	122.56
434.731	119.56
434.953	141.56
435.175	124.56
435.397	127.56
435.618	134.56
435.84	130.56
436.062	142.56
436.284	143.56
436.505	130.56
436.727	141.56
436.949	126.56
437.17	125.56
437.392	127.56
437.614	118.56
437.835	125.56
438.057	137.56
438.278	151.56
438.5	123.56
438.721	134.56
438.943	119.56
439.165	126.56
439.386	125.56
439.608	134.56
439.829	134.56
440.05	131.56
440.272	126.56
440.493	141.56
440.715	145.56
440.936	132.56
441.158	133.56
441.379	137.56
441.6	148.56
441.822	126.56
442.043	142.56
442.264	129.56
442.486	137.56
442.707	135.56
442.928	138.56
443.149	124.56
443.371	132.56
443.592	135.56
443.813	142.56
444.034	138.56
444.255	141.56
444.476	130.56
444.698	137.56
444.919	129.56
445.14	248.56
445.361	189.56
445.582	136.56
445.803	136.56
446.024	147.56
446.245	145.56
446.466	134.56
446.687	130.56
446.908	133.56
447.129	128.56
447.35	119.56
447.571	114.56
447.792	123.56
448.013	119.56
448.234	135.56
448.455	139.56
448.675	131.56
448.896	121.56
449.117	134.56
449.338	135.56
449.559	153.56
449.779	128.56
450	123.56
450.221	124.56
450.442	114.56
450.662	131.56
450.883	126.56
451.104	115.56
451.324	133.56
451.545	124.56
451.766	128.56
451.986	110.56
452.207	130.56
452.428	124.56
452.648	118.56
452.869	114.56
453.089	118.56
453.31	118.56
453.53	120.56
453.751	132.56
453.971	125.56
454.192	132.56
454.412	125.56
454.633	122.56
454.853	124.56
455.073	112.56
455.294	130.56
455.514	130.56
455.734	128.56
455.955	122.56
456.175	114.56
456.395	115.56
456.616	134.56
456.836	124.56
457.056	126.56
457.276	118.56
457.497	124.56
457.717	114.56
457.937	98.56
458.157	122.56
458.377	107.56
458.598	119.56
458.818	127.56
459.038	126.56
459.258	127.56
459.478	132.56
459.698	122.56
459.918	138.56
460.138	124.56
460.358	135.56
460.578	123.56
460.798	134.56
461.018	126.56
461.238	127.56
461.458	138.56
461.678	130.56
461.898	134.56
462.118	130.56
462.338	134.56
462.558	139.56
462.777	130.56
462.997	152.56
463.217	142.56
463.437	130.56
463.657	138.56
463.876	138.56
464.096	132.56
464.316	142.56
464.536	143.56
464.755	127.56
464.975	116.56
465.195	148.56
465.414	134.56
465.634	144.56
465.854	119.56
466.073	122.56
466.293	130.56
466.512	139.56
466.732	128.56
466.951	125.56
467.171	121.56
467.391	131.56
467.61	132.56
467.829	119.56
468.049	131.56
468.268	138.56
468.488	114.56
468.707	125.56
468.927	116.56
469.146	128.56
469.365	123.56
469.585	119.56
469.804	131.56
470.023	122.56
470.243	133.56
470.462	129.56
470.681	127.56
470.901	126.56
471.12	112.56
471.339	114.56
471.558	116.56
471.777	114.56
471.997	123.56
472.216	132.56
472.435	118.56
472.654	141.56
472.873	121.56
473.092	125.56
473.311	136.56
473.53	123.56
473.749	128.56
473.968	124.56
474.187	131.56
474.406	127.56
474.625	133.56
474.844	133.56
475.063	114.56
475.282	115.56
475.501	135.56
475.72	120.56
475.939	122.56
476.158	117.56
476.377	115.56
476.596	117.56
476.814	122.56
477.033	134.56
477.252	140.56
477.471	130.56
477.69	123.56
477.908	134.56
478.127	116.56
478.346	136.56
478.564	126.56
478.783	140.56
479.002	127.56
479.22	148.56
479.439	134.56
479.658	146.56
479.876	141.56
480.095	130.56
480.313	134.56
480.532	130.56
480.751	134.56
480.969	143.56
481.188	140.56
481.406	124.56
481.624	137.56
481.843	132.56
482.061	126.56
482.28	127.56
482.498	130.56
482.717	129.56
482.935	128.56
483.153	118.56
483.372	119.56
483.59	135.56
483.808	125.56
484.027	126.56
484.245	142.56
484.463	126.56
484.681	122.56
484.9	139.56
485.118	139.56
485.336	136.56
485.554	118.56
485.772	134.56
485.99	127.56
486.209	128.56
486.427	129.56
486.645	124.56
486.863	134.56
487.081	124.56
487.299	134.56
487.517	154.56
487.735	143.56
487.953	140.56
488.171	141.56
488.389	139.56
488.607	129.56
488.825	131.56
489.043	125.56
489.261	130.56
489.479	127.56
489.696	148.56
489.914	146.56
490.132	146.56
490.35	147.56
490.568	149.56
490.786	130.56
491.003	142.56
491.221	136.56
491.439	161.56
491.657	144.56
491.874	145.56
492.092	152.56
492.31	145.56
492.527	173.56
492.745	149.56
492.963	158.56
493.18	148.56
493.398	147.56
493.615	149.56
493.833	144.56
494.05	152.56
494.268	137.56
494.485	148.56
494.703	148.56
494.92	144.56
495.138	143.56
495.355	152.56
495.573	158.56
495.79	154.56
496.008	143.56
496.225	138.56
496.442	153.56
496.66	151.56
496.877	142.56
497.094	140.56
497.312	140.56
497.529	152.56
497.746	156.56
497.963	144.56
498.181	139.56
498.398	143.56
498.615	158.56
498.832	132.56
499.049	144.56
499.267	169.56
499.484	179.56
499.701	178.56
499.918	184.56
500.135	198.56
500.352	204.56
500.569	227.56
500.786	200.56
501.003	203.56
501.22	202.56
501.437	171.56
501.654	194.56
501.871	172.56
502.088	160.56
502.305	160.56
502.522	159.56
502.739	158.56
502.956	158.56
503.172	150.56
503.389	147.56
503.606	141.56
503.823	136.56
504.04	135.56
504.256	158.56
504.473	152.56
504.69	145.56
504.907	154.56
505.123	135.56
505.34	150.56
