Data from 1968.PennyLincolnUp.Lamp.En5.5.200Scan.071719.P1._HRD10591_14-52-09-970.txt Node
Date: Thu Jul 18 14:52:09 EDT 2019
User: cochatt
Spectrometer: HR+D1059
Trigger mode: 1
Integration Time (sec): 1.000000E-1
Scans to average: 1
Electric dark correction enabled: true
Nonlinearity correction enabled: false
Boxcar width: 0
XAxis mode: Wavelengths
Number of Pixels in Spectrum: 2048
>>>>>Begin Spectral Data<<<<<
223.165	-18
223.4	-18
223.635	-18
223.869	-30
224.104	-32
224.338	0
224.573	-12
224.808	-10
225.042	-32
225.277	-15
225.511	7
225.746	21
225.98	11
226.215	-4
226.449	26
226.683	29
226.918	15
227.152	44
227.387	47
227.621	42
227.856	46
228.09	46
228.324	49
228.559	64
228.793	63
229.027	74
229.262	73
229.496	69
229.73	73
229.964	92
230.199	74
230.433	77
230.667	83
230.901	69
231.136	92
231.37	91
231.604	91
231.838	94
232.072	79
232.306	86
232.541	81
232.775	87
233.009	111
233.243	74
233.477	79
233.711	73
233.945	87
234.179	89
234.413	82
234.647	82
234.881	90
235.115	78
235.349	89
235.583	89
235.817	70
236.051	80
236.285	74
236.519	88
236.753	79
236.987	70
237.221	73
237.455	88
237.689	90
237.922	82
238.156	83
238.39	71
238.624	89
238.858	90
239.091	83
239.325	86
239.559	89
239.793	80
240.027	84
240.26	91
240.494	81
240.728	87
240.961	63
241.195	81
241.429	84
241.662	88
241.896	79
242.13	71
242.363	68
242.597	97
242.83	89
243.064	88
243.298	91
243.531	101
243.765	90
243.998	91
244.232	96
244.465	87
244.699	91
244.932	87
245.166	88
245.399	84
245.633	88
245.866	86
246.099	78
246.333	99
246.566	63
246.8	96
247.033	76
247.266	85
247.5	100
247.733	85
247.966	93
248.2	78
248.433	84
248.666	90
248.899	93
249.133	88
249.366	105
249.599	99
249.832	88
250.066	96
250.299	89
250.532	73
250.765	75
250.998	81
251.231	109
251.465	101
251.698	97
251.931	78
252.164	79
252.397	101
252.63	91
252.863	99
253.096	86
253.329	99
253.562	91
253.795	99
254.028	92
254.261	102
254.494	80
254.727	100
254.96	87
255.193	95
255.426	97
255.659	97
255.892	79
256.124	80
256.357	93
256.59	100
256.823	76
257.056	100
257.289	96
257.521	80
257.754	80
257.987	89
258.22	102
258.452	93
258.685	106
258.918	77
259.151	92
259.383	88
259.616	99
259.849	82
260.081	97
260.314	85
260.547	78
260.779	95
261.012	94
261.244	90
261.477	82
261.71	95
261.942	78
262.175	90
262.407	83
262.64	107
262.872	90
263.105	93
263.337	89
263.57	101
263.802	95
264.035	91
264.267	93
264.499	78
264.732	113
264.964	87
265.197	96
265.429	92
265.661	102
265.894	102
266.126	95
266.358	96
266.591	99
266.823	96
267.055	101
267.287	96
267.52	103
267.752	85
267.984	102
268.216	94
268.448	90
268.681	95
268.913	100
269.145	107
269.377	90
269.609	106
269.841	90
270.073	97
270.306	100
270.538	99
270.77	106
271.002	101
271.234	93
271.466	101
271.698	96
271.93	88
272.162	99
272.394	106
272.626	105
272.858	106
273.09	101
273.322	105
273.553	98
273.785	103
274.017	94
274.249	91
274.481	109
274.713	96
274.945	102
275.176	99
275.408	97
275.64	104
275.872	101
276.104	106
276.335	103
276.567	102
276.799	106
277.031	104
277.262	112
277.494	106
277.726	99
277.957	103
278.189	94
278.421	79
278.652	99
278.884	92
279.115	100
279.347	102
279.579	110
279.81	105
280.042	93
280.273	115
280.505	87
280.736	88
280.968	107
281.199	89
281.431	108
281.662	102
281.894	101
282.125	101
282.356	88
282.588	103
282.819	101
283.051	103
283.282	101
283.513	94
283.745	89
283.976	100
284.207	101
284.439	124
284.67	95
284.901	109
285.132	112
285.364	105
285.595	92
285.826	105
286.057	107
286.288	101
286.52	98
286.751	100
286.982	103
287.213	103
287.444	107
287.675	107
287.906	112
288.138	115
288.369	101
288.6	107
288.831	109
289.062	88
289.293	102
289.524	117
289.755	109
289.986	110
290.217	96
290.448	104
290.679	112
290.91	100
291.141	84
291.371	104
291.602	105
291.833	100
292.064	92
292.295	112
292.526	93
292.757	100
292.987	96
293.218	115
293.449	114
293.68	113
293.91	98
294.141	113
294.372	89
294.603	104
294.833	108
295.064	108
295.295	99
295.525	109
295.756	108
295.987	104
296.217	94
296.448	96
296.679	95
296.909	97
297.14	106
297.37	106
297.601	114
297.831	115
298.062	119
298.292	119
298.523	116
298.753	97
298.984	112
299.214	108
299.445	114
299.675	104
299.905	118
300.136	113
300.366	107
300.597	119
300.827	121
301.057	108
301.288	100
301.518	107
301.748	103
301.979	105
302.209	112
302.439	110
302.669	119
302.9	109
303.13	108
303.36	108
303.59	112
303.82	95
304.051	109
304.281	101
304.511	108
304.741	108
304.971	97
305.201	99
305.431	115
305.661	100
305.891	113
306.121	107
306.352	104
306.582	109
306.812	106
307.042	101
307.272	117
307.502	90
307.731	105
307.961	96
308.191	100
308.421	113
308.651	128
308.881	102
309.111	103
309.341	98
309.571	118
309.8	104
310.03	105
310.26	109
310.49	133
310.72	109
310.949	115
311.179	111
311.409	102
311.639	112
311.868	115
312.098	113
312.328	127
312.557	118
312.787	119
313.017	108
313.246	115
313.476	103
313.706	113
313.935	102
314.165	95
314.394	117
314.624	125
314.853	115
315.083	100
315.312	117
315.542	122
315.771	119
316.001	112
316.23	111
316.46	92
316.689	116
316.919	117
317.148	114
317.377	120
317.607	124
317.836	105
318.065	99
318.295	119
318.524	115
318.753	109
318.983	117
319.212	121
319.441	113
319.67	124
319.9	115
320.129	106
320.358	102
320.587	105
320.816	104
321.046	111
321.275	108
321.504	125
321.733	127
321.962	112
322.191	117
322.42	105
322.649	99
322.878	109
323.108	112
323.337	102
323.566	110
323.795	125
324.024	122
324.253	132
324.482	137
324.71	155
324.939	189
325.168	160
325.397	143
325.626	113
325.855	109
326.084	124
326.313	115
326.542	107
326.77	108
326.999	129
327.228	131
327.457	155
327.686	176
327.914	161
328.143	127
328.372	119
328.6	112
328.829	119
329.058	125
329.287	116
329.515	113
329.744	120
329.972	105
330.201	115
330.43	129
330.658	112
330.887	119
331.115	103
331.344	124
331.572	125
331.801	117
332.03	112
332.258	106
332.486	108
332.715	120
332.943	124
333.172	126
333.4	112
333.629	116
333.857	135
334.085	126
334.314	116
334.542	116
334.771	129
334.999	130
335.227	131
335.455	133
335.684	119
335.912	128
336.14	123
336.369	116
336.597	109
336.825	104
337.053	112
337.281	125
337.51	111
337.738	111
337.966	111
338.194	116
338.422	104
338.65	123
338.878	117
339.106	124
339.334	111
339.562	112
339.79	107
340.018	109
340.246	128
340.474	121
340.702	119
340.93	102
341.158	120
341.386	123
341.614	117
341.842	119
342.07	119
342.298	117
342.526	116
342.754	113
342.981	107
343.209	114
343.437	123
343.665	118
343.893	107
344.12	132
344.348	122
344.576	131
344.804	105
345.031	101
345.259	110
345.487	109
345.714	121
345.942	131
346.17	119
346.397	119
346.625	109
346.853	119
347.08	111
347.308	126
347.535	94
347.763	110
347.99	109
348.218	108
348.445	107
348.673	131
348.9	113
349.128	115
349.355	127
349.583	116
349.81	110
350.037	101
350.265	99
350.492	108
350.72	107
350.947	118
351.174	105
351.402	104
351.629	102
351.856	108
352.083	110
352.311	117
352.538	114
352.765	129
352.992	106
353.22	125
353.447	112
353.674	107
353.901	110
354.128	95
354.355	117
354.583	122
354.81	108
355.037	124
355.264	108
355.491	107
355.718	119
355.945	125
356.172	101
356.399	114
356.626	108
356.853	115
357.08	119
357.307	111
357.534	111
357.761	108
357.988	126
358.215	111
358.441	120
358.668	89
358.895	123
359.122	124
359.349	117
359.576	116
359.802	126
360.029	104
360.256	116
360.483	112
360.709	108
360.936	122
361.163	110
361.39	109
361.616	104
361.843	106
362.07	112
362.296	101
362.523	120
362.749	119
362.976	122
363.203	111
363.429	121
363.656	117
363.882	104
364.109	103
364.335	113
364.562	104
364.788	110
365.015	110
365.241	126
365.468	109
365.694	117
365.92	116
366.147	111
366.373	124
366.599	109
366.826	116
367.052	103
367.278	119
367.505	120
367.731	111
367.957	119
368.184	107
368.41	110
368.636	109
368.862	113
369.089	104
369.315	107
369.541	103
369.767	120
369.993	119
370.219	119
370.445	101
370.672	115
370.898	117
371.124	123
371.35	119
371.576	113
371.802	108
372.028	104
372.254	108
372.48	120
372.706	115
372.932	111
373.158	108
373.384	118
373.61	107
373.835	117
374.061	109
374.287	110
374.513	127
374.739	103
374.965	125
375.191	126
375.416	120
375.642	120
375.868	104
376.094	129
376.319	109
376.545	101
376.771	119
376.997	107
377.222	122
377.448	102
377.674	132
377.899	125
378.125	126
378.35	108
378.576	112
378.802	121
379.027	115
379.253	123
379.478	120
379.704	106
379.929	117
380.155	102
380.38	122
380.606	119
380.831	105
381.057	120
381.282	121
381.507	117
381.733	108
381.958	104
382.184	118
382.409	101
382.634	125
382.86	119
383.085	133
383.31	92
383.535	107
383.761	108
383.986	115
384.211	127
384.436	118
384.662	121
384.887	111
385.112	117
385.337	126
385.562	121
385.787	124
386.013	137
386.238	136
386.463	125
386.688	129
386.913	123
387.138	126
387.363	115
387.588	115
387.813	116
388.038	135
388.263	110
388.488	123
388.713	114
388.938	126
389.163	124
389.387	99
389.612	131
389.837	111
390.062	117
390.287	109
390.512	124
390.736	125
390.961	104
391.186	112
391.411	127
391.636	132
391.86	126
392.085	129
392.31	131
392.534	135
392.759	127
392.984	127
393.208	106
393.433	142
393.658	109
393.882	133
394.107	122
394.331	126
394.556	123
394.78	121
395.005	109
395.229	137
395.454	133
395.678	119
395.903	125
396.127	135
396.352	133
396.576	136
396.801	113
397.025	122
397.249	115
397.474	124
397.698	130
397.922	115
398.147	128
398.371	123
398.595	134
398.82	136
399.044	131
399.268	130
399.492	134
399.717	157
399.941	146
400.165	139
400.389	150
400.613	127
400.837	130
401.062	124
401.286	128
401.51	124
401.734	124
401.958	140
402.182	122
402.406	143
402.63	130
402.854	124
403.078	132
403.302	125
403.526	137
403.75	153
403.974	146
404.198	129
404.422	131
404.645	139
404.869	146
405.093	144
405.317	139
405.541	118
405.765	137
405.988	138
406.212	141
406.436	134
406.66	143
406.883	133
407.107	139
407.331	145
407.555	155
407.778	126
408.002	149
408.226	139
408.449	139
408.673	137
408.896	132
409.12	160
409.344	137
409.567	132
409.791	130
410.014	137
410.238	136
410.461	133
410.685	140
410.908	132
411.132	132
411.355	132
411.578	125
411.802	142
412.025	133
412.249	144
412.472	144
412.695	145
412.919	149
413.142	129
413.365	135
413.589	117
413.812	124
414.035	136
414.258	128
414.482	121
414.705	130
414.928	135
415.151	134
415.374	126
415.597	140
415.821	116
416.044	121
416.267	126
416.49	118
416.713	138
416.936	130
417.159	140
417.382	127
417.605	132
417.828	141
418.051	126
418.274	136
418.497	139
418.72	128
418.943	133
419.166	130
419.389	139
419.611	125
419.834	135
420.057	119
420.28	142
420.503	136
420.726	135
420.948	126
421.171	135
421.394	141
421.617	120
421.839	135
422.062	128
422.285	145
422.507	136
422.73	142
422.953	160
423.175	142
423.398	137
423.621	136
423.843	140
424.066	123
424.288	142
424.511	129
424.733	132
424.956	141
425.178	127
425.401	126
425.623	140
425.846	126
426.068	125
426.291	117
426.513	127
426.735	131
426.958	141
427.18	142
427.402	149
427.625	146
427.847	172
428.069	130
428.292	137
428.514	144
428.736	127
428.958	135
429.181	117
429.403	126
429.625	115
429.847	119
430.069	121
430.292	133
430.514	142
430.736	131
430.958	128
431.18	144
431.402	127
431.624	109
431.846	119
432.068	129
432.29	133
432.512	123
432.734	126
432.956	132
433.178	129
433.4	120
433.622	129
433.844	116
434.066	141
434.287	126
434.509	112
434.731	118
434.953	129
435.175	136
435.397	134
435.618	138
435.84	125
436.062	156
436.284	139
436.505	131
436.727	138
436.949	138
437.17	132
437.392	143
437.614	132
437.835	122
438.057	112
438.278	131
438.5	144
438.721	151
438.943	134
439.165	133
439.386	126
439.608	131
439.829	128
440.05	139
440.272	141
440.493	123
440.715	136
440.936	132
441.158	126
441.379	130
441.6	146
441.822	138
442.043	149
442.264	147
442.486	148
442.707	140
442.928	128
443.149	136
443.371	134
443.592	139
443.813	151
444.034	151
444.255	155
444.476	127
444.698	140
444.919	135
445.14	263
445.361	197
445.582	141
445.803	148
446.024	140
446.245	154
446.466	145
446.687	136
446.908	134
447.129	138
447.35	123
447.571	125
447.792	128
448.013	140
448.234	133
448.455	139
448.675	129
448.896	145
449.117	141
449.338	139
449.559	142
449.779	158
450	144
450.221	125
450.442	140
450.662	118
450.883	121
451.104	115
451.324	124
451.545	135
451.766	116
451.986	128
452.207	134
452.428	126
452.648	112
452.869	120
453.089	125
453.31	127
453.53	109
453.751	119
453.971	119
454.192	126
454.412	118
454.633	127
454.853	127
455.073	111
455.294	121
455.514	135
455.734	138
455.955	135
456.175	120
456.395	112
456.616	107
456.836	121
457.056	113
457.276	109
457.497	119
457.717	119
457.937	127
458.157	118
458.377	127
458.598	117
458.818	114
459.038	127
459.258	136
459.478	124
459.698	125
459.918	129
460.138	122
460.358	139
460.578	114
460.798	121
461.018	129
461.238	119
461.458	129
461.678	137
461.898	123
462.118	139
462.338	122
462.558	116
462.777	137
462.997	134
463.217	152
463.437	140
463.657	121
463.876	127
464.096	135
464.316	130
464.536	129
464.755	143
464.975	122
465.195	142
465.414	126
465.634	125
465.854	134
466.073	117
466.293	131
466.512	122
466.732	128
466.951	128
467.171	124
467.391	125
467.61	127
467.829	127
468.049	130
468.268	128
468.488	123
468.707	133
468.927	143
469.146	123
469.365	125
469.585	129
469.804	122
470.023	124
470.243	126
470.462	134
470.681	127
470.901	115
471.12	117
471.339	107
471.558	127
471.777	116
471.997	129
472.216	109
472.435	126
472.654	123
472.873	128
473.092	129
473.311	124
473.53	120
473.749	120
473.968	116
474.187	123
474.406	121
474.625	143
474.844	139
475.063	116
475.282	126
475.501	135
475.72	112
475.939	133
476.158	127
476.377	137
476.596	125
476.814	125
477.033	116
477.252	122
477.471	125
477.69	119
477.908	127
478.127	138
478.346	128
478.564	143
478.783	125
479.002	129
479.22	134
479.439	140
479.658	132
479.876	123
480.095	130
480.313	139
480.532	136
480.751	137
480.969	139
481.188	148
481.406	139
481.624	135
481.843	129
482.061	133
482.28	118
482.498	135
482.717	121
482.935	132
483.153	128
483.372	119
483.59	149
483.808	125
484.027	133
484.245	147
484.463	128
484.681	138
484.9	121
485.118	131
485.336	141
485.554	145
485.772	139
485.99	140
486.209	129
486.427	124
486.645	126
486.863	126
487.081	122
487.299	143
487.517	127
487.735	132
487.953	131
488.171	140
488.389	119
488.607	135
488.825	143
489.043	136
489.261	143
489.479	133
489.696	132
489.914	152
490.132	141
490.35	150
490.568	140
490.786	149
491.003	149
491.221	136
491.439	147
491.657	137
491.874	158
492.092	140
492.31	141
492.527	149
492.745	148
492.963	149
493.18	138
493.398	137
493.615	149
493.833	151
494.05	142
494.268	150
494.485	137
494.703	140
494.92	145
495.138	143
495.355	145
495.573	150
495.79	135
496.008	148
496.225	150
496.442	157
496.66	150
496.877	113
497.094	152
497.312	145
497.529	145
497.746	163
497.963	151
498.181	146
498.398	149
498.615	166
498.832	143
499.049	157
499.267	164
499.484	178
499.701	185
499.918	193
500.135	200
500.352	193
500.569	233
500.786	217
501.003	212
501.22	179
501.437	187
501.654	188
501.871	175
502.088	175
502.305	180
502.522	168
502.739	156
502.956	140
503.172	132
503.389	139
503.606	163
503.823	145
504.04	145
504.256	151
504.473	132
504.69	151
504.907	154
505.123	143
505.34	153
505.557	149
505.773	146
505.99	140
506.207	144
506.423	138
506.64	142
506.856	127
507.073	134
507.289	138
507.506	144
507.722	146
507.939	131
508.155	123
508.372	128
508.588	134
508.805	131
509.021	125
509.238	125
509.454	141
509.67	126
509.887	133
510.103	139
510.319	121
510.536	139
510.752	167
510.968	146
511.184	138
511.401	124
511.617	125
511.833	132
512.049	131
512.265	117
512.481	142
512.698	131
512.914	131
513.13	127
513.346	132
513.562	121
513.778	121
513.994	134
514.21	135
514.426	122
514.642	127
514.858	131
515.074	119
515.29	152
515.506	163
515.721	153
515.937	129
516.153	125
516.369	128
516.585	124
516.801	145
517.016	135
517.232	153
517.448	137
517.664	148
517.879	143
518.095	142
518.311	139
518.527	134
518.742	135
518.958	149
519.173	145
519.389	125
519.605	142
519.82	136
520.036	125
520.251	136
520.467	139
520.682	131
520.898	144
521.113	127
521.329	129
521.544	132
521.76	134
521.975	180
522.19	191
522.406	139
522.621	128
522.836	133
523.052	125
523.267	141
523.482	129
523.698	140
523.913	129
524.128	113
524.343	143
524.559	135
524.774	137
524.989	136
525.204	124
525.419	129
525.634	132
525.849	135
526.064	124
526.28	130
526.495	114
526.71	123
526.925	135
527.14	140
527.355	134
527.57	132
527.785	120
527.999	118
528.214	139
528.429	136
528.644	127
528.859	122
529.074	118
529.289	129
529.503	136
529.718	115
529.933	135
530.148	122
530.363	136
530.577	128
530.792	126
531.007	111
531.221	108
531.436	133
531.651	126
531.865	130
532.08	134
532.295	118
532.509	122
532.724	125
532.938	112
533.153	135
533.367	135
533.582	114
533.796	110
534.011	113
534.225	130
534.44	115
534.654	129
534.868	126
535.083	115
535.297	127
535.511	125
535.726	142
535.94	125
536.154	131
536.369	139
536.583	107
536.797	133
537.011	126
537.225	123
537.44	125
537.654	121
537.868	126
538.082	124
538.296	124
538.51	108
538.724	109
538.938	115
539.153	120
539.367	128
539.581	131
539.795	125
540.009	119
540.222	118
540.436	128
540.65	122
540.864	119
541.078	133
541.292	140
541.506	135
541.72	132
541.934	137
542.147	124
542.361	151
542.575	139
542.789	142
543.002	129
543.216	132
543.43	119
543.644	146
543.857	139
544.071	134
544.285	153
544.498	143
544.712	137
544.925	128
545.139	133
545.352	149
545.566	131
545.779	135
545.993	131
546.206	152
546.42	144
546.633	129
546.847	140
547.06	139
547.274	138
547.487	140
547.7	135
547.914	127
548.127	120
548.34	119
548.554	116
548.767	123
548.98	113
549.193	125
549.407	128
549.62	126
549.833	122
550.046	127
550.259	111
550.473	124
550.686	117
550.899	127
551.112	130
551.325	121
551.538	125
551.751	124
551.964	137
552.177	129
552.39	120
552.603	139
552.816	149
553.029	134
553.242	125
553.455	131
553.667	141
553.88	133
554.093	156
554.306	133
554.519	111
554.732	122
554.944	123
555.157	128
555.37	115
555.583	119
555.795	112
556.008	119
556.221	115
556.433	108
556.646	124
556.859	112
557.071	115
557.284	118
557.496	102
557.709	107
557.921	121
558.134	129
558.346	129
558.559	113
558.771	119
558.984	122
559.196	125
559.409	123
559.621	123
559.833	122
560.046	125
560.258	134
560.47	113
560.683	115
560.895	120
561.107	117
561.32	124
561.532	124
561.744	120
561.956	119
562.168	112
562.381	135
562.593	117
562.805	129
563.017	121
563.229	115
563.441	119
563.653	119
563.865	109
564.077	120
564.289	105
564.501	127
564.713	119
564.925	126
565.137	116
565.349	125
565.561	120
565.773	139
565.985	127
566.197	132
566.408	123
566.62	125
566.832	141
567.044	134
