Data from 1968.PennyLincolnUp.Lamp.En5.5.200Scan.071719.P1._HRD10591_14-49-31-968.txt Node
Date: Thu Jul 18 14:49:31 EDT 2019
User: cochatt
Spectrometer: HR+D1059
Trigger mode: 1
Integration Time (sec): 1.000000E-1
Scans to average: 1
Electric dark correction enabled: true
Nonlinearity correction enabled: false
Boxcar width: 0
XAxis mode: Wavelengths
Number of Pixels in Spectrum: 2048
>>>>>Begin Spectral Data<<<<<
223.165	-18.19
223.4	-18.19
223.635	-18.19
223.869	-24.19
224.104	-38.19
224.338	-6.19
224.573	-8.19
224.808	-20.19
225.042	-15.19
225.277	-9.19
225.511	-4.19
225.746	11.81
225.98	10.81
226.215	12.81
226.449	21.81
226.683	13.81
226.918	38.81
227.152	33.81
227.387	31.81
227.621	39.81
227.856	45.81
228.09	39.81
228.324	57.81
228.559	55.81
228.793	49.81
229.027	70.81
229.262	71.81
229.496	71.81
229.73	78.81
229.964	71.81
230.199	68.81
230.433	79.81
230.667	75.81
230.901	88.81
231.136	84.81
231.37	80.81
231.604	78.81
231.838	78.81
232.072	86.81
232.306	94.81
232.541	90.81
232.775	80.81
233.009	94.81
233.243	92.81
233.477	89.81
233.711	75.81
233.945	87.81
234.179	91.81
234.413	80.81
234.647	78.81
234.881	82.81
235.115	67.81
235.349	99.81
235.583	87.81
235.817	85.81
236.051	85.81
236.285	72.81
236.519	71.81
236.753	83.81
236.987	89.81
237.221	87.81
237.455	96.81
237.689	86.81
237.922	68.81
238.156	75.81
238.39	81.81
238.624	83.81
238.858	75.81
239.091	85.81
239.325	87.81
239.559	79.81
239.793	82.81
240.027	92.81
240.26	87.81
240.494	79.81
240.728	57.81
240.961	89.81
241.195	80.81
241.429	93.81
241.662	83.81
241.896	95.81
242.13	87.81
242.363	95.81
242.597	94.81
242.83	88.81
243.064	101.81
243.298	81.81
243.531	92.81
243.765	93.81
243.998	86.81
244.232	89.81
244.465	82.81
244.699	76.81
244.932	98.81
245.166	92.81
245.399	79.81
245.633	81.81
245.866	92.81
246.099	73.81
246.333	69.81
246.566	95.81
246.8	89.81
247.033	92.81
247.266	71.81
247.5	87.81
247.733	80.81
247.966	85.81
248.2	76.81
248.433	71.81
248.666	91.81
248.899	93.81
249.133	90.81
249.366	93.81
249.599	83.81
249.832	85.81
250.066	92.81
250.299	83.81
250.532	94.81
250.765	101.81
250.998	85.81
251.231	88.81
251.465	87.81
251.698	93.81
251.931	88.81
252.164	73.81
252.397	90.81
252.63	94.81
252.863	92.81
253.096	94.81
253.329	94.81
253.562	93.81
253.795	100.81
254.028	93.81
254.261	83.81
254.494	89.81
254.727	83.81
254.96	88.81
255.193	83.81
255.426	74.81
255.659	81.81
255.892	94.81
256.124	93.81
256.357	86.81
256.59	93.81
256.823	89.81
257.056	93.81
257.289	82.81
257.521	89.81
257.754	96.81
257.987	100.81
258.22	95.81
258.452	93.81
258.685	92.81
258.918	94.81
259.151	100.81
259.383	92.81
259.616	98.81
259.849	95.81
260.081	91.81
260.314	89.81
260.547	87.81
260.779	96.81
261.012	85.81
261.244	92.81
261.477	105.81
261.71	97.81
261.942	87.81
262.175	100.81
262.407	94.81
262.64	92.81
262.872	97.81
263.105	77.81
263.337	91.81
263.57	101.81
263.802	88.81
264.035	101.81
264.267	86.81
264.499	101.81
264.732	97.81
264.964	102.81
265.197	95.81
265.429	103.81
265.661	102.81
265.894	95.81
266.126	81.81
266.358	97.81
266.591	89.81
266.823	99.81
267.055	87.81
267.287	96.81
267.52	92.81
267.752	95.81
267.984	97.81
268.216	113.81
268.448	102.81
268.681	95.81
268.913	85.81
269.145	93.81
269.377	89.81
269.609	92.81
269.841	103.81
270.073	106.81
270.306	100.81
270.538	96.81
270.77	100.81
271.002	85.81
271.234	97.81
271.466	87.81
271.698	87.81
271.93	90.81
272.162	97.81
272.394	99.81
272.626	90.81
272.858	105.81
273.09	99.81
273.322	117.81
273.553	96.81
273.785	100.81
274.017	85.81
274.249	84.81
274.481	83.81
274.713	99.81
274.945	99.81
275.176	88.81
275.408	80.81
275.64	107.81
275.872	98.81
276.104	91.81
276.335	92.81
276.567	97.81
276.799	92.81
277.031	110.81
277.262	93.81
277.494	98.81
277.726	94.81
277.957	96.81
278.189	92.81
278.421	99.81
278.652	95.81
278.884	97.81
279.115	97.81
279.347	100.81
279.579	98.81
279.81	103.81
280.042	97.81
280.273	89.81
280.505	100.81
280.736	85.81
280.968	102.81
281.199	89.81
281.431	91.81
281.662	101.81
281.894	106.81
282.125	102.81
282.356	93.81
282.588	88.81
282.819	93.81
283.051	107.81
283.282	102.81
283.513	111.81
283.745	102.81
283.976	109.81
284.207	100.81
284.439	113.81
284.67	99.81
284.901	92.81
285.132	113.81
285.364	95.81
285.595	109.81
285.826	106.81
286.057	110.81
286.288	103.81
286.52	94.81
286.751	111.81
286.982	111.81
287.213	104.81
287.444	98.81
287.675	104.81
287.906	102.81
288.138	89.81
288.369	110.81
288.6	104.81
288.831	99.81
289.062	113.81
289.293	100.81
289.524	101.81
289.755	104.81
289.986	89.81
290.217	107.81
290.448	116.81
290.679	100.81
290.91	98.81
291.141	102.81
291.371	109.81
291.602	98.81
291.833	99.81
292.064	115.81
292.295	102.81
292.526	85.81
292.757	96.81
292.987	101.81
293.218	98.81
293.449	99.81
293.68	119.81
293.91	93.81
294.141	104.81
294.372	101.81
294.603	104.81
294.833	100.81
295.064	104.81
295.295	99.81
295.525	113.81
295.756	104.81
295.987	97.81
296.217	106.81
296.448	102.81
296.679	101.81
296.909	113.81
297.14	99.81
297.37	102.81
297.601	101.81
297.831	95.81
298.062	101.81
298.292	107.81
298.523	112.81
298.753	105.81
298.984	89.81
299.214	103.81
299.445	101.81
299.675	102.81
299.905	95.81
300.136	122.81
300.366	109.81
300.597	100.81
300.827	107.81
301.057	107.81
301.288	104.81
301.518	107.81
301.748	107.81
301.979	108.81
302.209	100.81
302.439	117.81
302.669	110.81
302.9	115.81
303.13	94.81
303.36	101.81
303.59	104.81
303.82	115.81
304.051	106.81
304.281	115.81
304.511	100.81
304.741	102.81
304.971	98.81
305.201	106.81
305.431	129.81
305.661	110.81
305.891	92.81
306.121	100.81
306.352	107.81
306.582	94.81
306.812	92.81
307.042	116.81
307.272	88.81
307.502	103.81
307.731	113.81
307.961	112.81
308.191	119.81
308.421	99.81
308.651	102.81
308.881	110.81
309.111	105.81
309.341	96.81
309.571	98.81
309.8	109.81
310.03	107.81
310.26	119.81
310.49	103.81
310.72	111.81
310.949	100.81
311.179	123.81
311.409	126.81
311.639	114.81
311.868	117.81
312.098	109.81
312.328	105.81
312.557	112.81
312.787	115.81
313.017	105.81
313.246	114.81
313.476	115.81
313.706	111.81
313.935	115.81
314.165	107.81
314.394	108.81
314.624	107.81
314.853	108.81
315.083	93.81
315.312	107.81
315.542	104.81
315.771	101.81
316.001	97.81
316.23	105.81
316.46	111.81
316.689	104.81
316.919	108.81
317.148	103.81
317.377	122.81
317.607	111.81
317.836	112.81
318.065	99.81
318.295	100.81
318.524	103.81
318.753	120.81
318.983	123.81
319.212	115.81
319.441	115.81
319.67	103.81
319.9	112.81
320.129	100.81
320.358	112.81
320.587	105.81
320.816	123.81
321.046	102.81
321.275	118.81
321.504	118.81
321.733	89.81
321.962	93.81
322.191	117.81
322.42	108.81
322.649	108.81
322.878	101.81
323.108	112.81
323.337	111.81
323.566	101.81
323.795	117.81
324.024	126.81
324.253	111.81
324.482	128.81
324.71	145.81
324.939	153.81
325.168	154.81
325.397	135.81
325.626	122.81
325.855	121.81
326.084	110.81
326.313	121.81
326.542	107.81
326.77	115.81
326.999	127.81
327.228	135.81
327.457	149.81
327.686	147.81
327.914	140.81
328.143	93.81
328.372	110.81
328.6	108.81
328.829	107.81
329.058	124.81
329.287	123.81
329.515	109.81
329.744	100.81
329.972	124.81
330.201	125.81
330.43	103.81
330.658	125.81
330.887	101.81
331.115	112.81
331.344	114.81
331.572	110.81
331.801	117.81
332.03	123.81
332.258	113.81
332.486	116.81
332.715	119.81
332.943	125.81
333.172	127.81
333.4	123.81
333.629	119.81
333.857	125.81
334.085	119.81
334.314	120.81
334.542	117.81
334.771	110.81
334.999	117.81
335.227	110.81
335.455	118.81
335.684	137.81
335.912	111.81
336.14	108.81
336.369	90.81
336.597	117.81
336.825	117.81
337.053	127.81
337.281	126.81
337.51	111.81
337.738	104.81
337.966	106.81
338.194	112.81
338.422	120.81
338.65	111.81
338.878	111.81
339.106	117.81
339.334	117.81
339.562	127.81
339.79	113.81
340.018	100.81
340.246	105.81
340.474	109.81
340.702	131.81
340.93	125.81
341.158	117.81
341.386	119.81
341.614	101.81
341.842	116.81
342.07	99.81
342.298	121.81
342.526	112.81
342.754	116.81
342.981	105.81
343.209	120.81
343.437	124.81
343.665	118.81
343.893	105.81
344.12	115.81
344.348	126.81
344.576	122.81
344.804	101.81
345.031	108.81
345.259	104.81
345.487	105.81
345.714	115.81
345.942	104.81
346.17	112.81
346.397	120.81
346.625	102.81
346.853	110.81
347.08	110.81
347.308	98.81
347.535	104.81
347.763	120.81
347.99	103.81
348.218	112.81
348.445	120.81
348.673	120.81
348.9	112.81
349.128	123.81
349.355	109.81
349.583	113.81
349.81	115.81
350.037	100.81
350.265	104.81
350.492	100.81
350.72	115.81
350.947	110.81
351.174	119.81
351.402	104.81
351.629	106.81
351.856	124.81
352.083	118.81
352.311	125.81
352.538	120.81
352.765	106.81
352.992	119.81
353.22	117.81
353.447	115.81
353.674	105.81
353.901	117.81
354.128	111.81
354.355	113.81
354.583	119.81
354.81	108.81
355.037	104.81
355.264	114.81
355.491	120.81
355.718	103.81
355.945	109.81
356.172	105.81
356.399	121.81
356.626	102.81
356.853	125.81
357.08	116.81
357.307	128.81
357.534	111.81
357.761	107.81
357.988	113.81
358.215	98.81
358.441	107.81
358.668	108.81
358.895	119.81
359.122	111.81
359.349	118.81
359.576	111.81
359.802	102.81
360.029	112.81
360.256	119.81
360.483	127.81
360.709	119.81
360.936	115.81
361.163	121.81
361.39	117.81
361.616	110.81
361.843	117.81
362.07	126.81
362.296	99.81
362.523	125.81
362.749	106.81
362.976	113.81
363.203	108.81
363.429	115.81
363.656	123.81
363.882	110.81
364.109	113.81
364.335	109.81
364.562	109.81
364.788	105.81
365.015	109.81
365.241	99.81
365.468	99.81
365.694	108.81
365.92	121.81
366.147	95.81
366.373	101.81
366.599	99.81
366.826	113.81
367.052	102.81
367.278	126.81
367.505	118.81
367.731	108.81
367.957	119.81
368.184	108.81
368.41	110.81
368.636	120.81
368.862	118.81
369.089	116.81
369.315	113.81
369.541	119.81
369.767	115.81
369.993	106.81
370.219	107.81
370.445	100.81
370.672	118.81
370.898	125.81
371.124	104.81
371.35	93.81
371.576	123.81
371.802	114.81
372.028	130.81
372.254	124.81
372.48	118.81
372.706	111.81
372.932	110.81
373.158	120.81
373.384	117.81
373.61	125.81
373.835	112.81
374.061	113.81
374.287	115.81
374.513	109.81
374.739	104.81
374.965	118.81
375.191	128.81
375.416	115.81
375.642	104.81
375.868	124.81
376.094	120.81
376.319	112.81
376.545	118.81
376.771	117.81
376.997	105.81
377.222	106.81
377.448	112.81
377.674	113.81
377.899	116.81
378.125	95.81
378.35	105.81
378.576	108.81
378.802	121.81
379.027	131.81
379.253	116.81
379.478	129.81
379.704	115.81
379.929	107.81
380.155	128.81
380.38	122.81
380.606	125.81
380.831	120.81
381.057	129.81
381.282	131.81
381.507	124.81
381.733	115.81
381.958	118.81
382.184	119.81
382.409	103.81
382.634	111.81
382.86	114.81
383.085	109.81
383.31	125.81
383.535	121.81
383.761	121.81
383.986	129.81
384.211	117.81
384.436	111.81
384.662	121.81
384.887	105.81
385.112	104.81
385.337	119.81
385.562	114.81
385.787	118.81
386.013	121.81
386.238	132.81
386.463	109.81
386.688	128.81
386.913	112.81
387.138	129.81
387.363	115.81
387.588	126.81
387.813	112.81
388.038	113.81
388.263	126.81
388.488	112.81
388.713	132.81
388.938	120.81
389.163	121.81
389.387	113.81
389.612	115.81
389.837	119.81
390.062	130.81
390.287	117.81
390.512	117.81
390.736	118.81
390.961	136.81
391.186	133.81
391.411	109.81
391.636	119.81
391.86	113.81
392.085	133.81
392.31	127.81
392.534	113.81
392.759	126.81
392.984	133.81
393.208	126.81
393.433	129.81
393.658	106.81
393.882	127.81
394.107	109.81
394.331	105.81
394.556	117.81
394.78	118.81
395.005	117.81
395.229	124.81
395.454	119.81
395.678	138.81
395.903	128.81
396.127	137.81
396.352	122.81
396.576	114.81
396.801	129.81
397.025	118.81
397.249	115.81
397.474	131.81
397.698	125.81
397.922	130.81
398.147	118.81
398.371	125.81
398.595	131.81
398.82	121.81
399.044	125.81
399.268	139.81
399.492	133.81
399.717	139.81
399.941	135.81
400.165	152.81
400.389	128.81
400.613	151.81
400.837	141.81
401.062	125.81
401.286	128.81
401.51	131.81
401.734	138.81
401.958	144.81
402.182	138.81
402.406	135.81
402.63	140.81
402.854	122.81
403.078	138.81
403.302	118.81
403.526	131.81
403.75	143.81
403.974	151.81
404.198	141.81
404.422	140.81
404.645	139.81
404.869	117.81
405.093	131.81
405.317	135.81
405.541	148.81
405.765	149.81
405.988	129.81
406.212	140.81
406.436	142.81
406.66	139.81
406.883	139.81
407.107	133.81
407.331	128.81
407.555	156.81
407.778	149.81
408.002	151.81
408.226	135.81
408.449	150.81
408.673	137.81
408.896	133.81
409.12	133.81
409.344	146.81
409.567	120.81
409.791	116.81
410.014	116.81
410.238	133.81
410.461	132.81
410.685	145.81
410.908	129.81
411.132	139.81
411.355	127.81
411.578	135.81
411.802	134.81
412.025	121.81
412.249	134.81
412.472	125.81
412.695	131.81
412.919	136.81
413.142	126.81
413.365	134.81
413.589	134.81
413.812	127.81
414.035	129.81
414.258	144.81
414.482	135.81
414.705	127.81
414.928	127.81
415.151	136.81
415.374	142.81
415.597	117.81
415.821	136.81
416.044	129.81
416.267	129.81
416.49	135.81
416.713	123.81
416.936	145.81
417.159	128.81
417.382	111.81
417.605	113.81
417.828	118.81
418.051	135.81
418.274	136.81
418.497	131.81
418.72	145.81
418.943	130.81
419.166	129.81
419.389	132.81
419.611	121.81
419.834	133.81
420.057	128.81
420.28	111.81
420.503	122.81
420.726	127.81
420.948	122.81
421.171	135.81
421.394	135.81
421.617	133.81
421.839	128.81
422.062	144.81
422.285	142.81
422.507	142.81
422.73	130.81
422.953	134.81
423.175	130.81
423.398	136.81
423.621	122.81
423.843	127.81
424.066	131.81
424.288	127.81
424.511	129.81
424.733	121.81
424.956	135.81
425.178	140.81
425.401	151.81
425.623	147.81
425.846	135.81
426.068	120.81
426.291	121.81
426.513	127.81
426.735	141.81
426.958	122.81
427.18	138.81
427.402	152.81
427.625	143.81
427.847	123.81
428.069	122.81
428.292	122.81
428.514	128.81
428.736	133.81
428.958	127.81
429.181	110.81
429.403	115.81
429.625	123.81
429.847	122.81
430.069	132.81
430.292	126.81
430.514	119.81
430.736	122.81
430.958	112.81
431.18	117.81
431.402	118.81
431.624	113.81
431.846	120.81
432.068	129.81
432.29	139.81
432.512	126.81
432.734	126.81
432.956	146.81
433.178	120.81
433.4	121.81
433.622	117.81
433.844	122.81
434.066	119.81
434.287	131.81
434.509	127.81
434.731	126.81
434.953	126.81
435.175	122.81
435.397	135.81
435.618	127.81
435.84	125.81
436.062	133.81
436.284	144.81
436.505	116.81
436.727	122.81
436.949	135.81
437.17	129.81
437.392	121.81
437.614	120.81
437.835	135.81
438.057	126.81
438.278	133.81
438.5	121.81
438.721	131.81
438.943	152.81
439.165	131.81
439.386	117.81
439.608	133.81
439.829	126.81
440.05	133.81
440.272	133.81
440.493	133.81
440.715	133.81
440.936	138.81
441.158	131.81
441.379	134.81
441.6	140.81
441.822	133.81
442.043	143.81
442.264	145.81
442.486	129.81
442.707	135.81
442.928	131.81
443.149	127.81
443.371	143.81
443.592	136.81
443.813	143.81
444.034	154.81
444.255	131.81
444.476	141.81
444.698	128.81
444.919	146.81
445.14	259.81
445.361	199.81
445.582	143.81
445.803	139.81
446.024	151.81
446.245	131.81
446.466	125.81
446.687	115.81
446.908	151.81
447.129	126.81
447.35	124.81
447.571	125.81
447.792	116.81
448.013	131.81
448.234	126.81
448.455	131.81
448.675	123.81
448.896	133.81
449.117	146.81
449.338	136.81
449.559	140.81
449.779	132.81
450	136.81
450.221	133.81
450.442	127.81
450.662	120.81
450.883	119.81
451.104	115.81
451.324	118.81
451.545	133.81
451.766	134.81
451.986	122.81
452.207	125.81
452.428	124.81
452.648	128.81
452.869	129.81
453.089	113.81
453.31	113.81
453.53	120.81
453.751	117.81
453.971	112.81
454.192	115.81
454.412	123.81
454.633	101.81
454.853	117.81
455.073	109.81
455.294	113.81
455.514	130.81
455.734	122.81
455.955	123.81
456.175	126.81
456.395	141.81
456.616	122.81
456.836	125.81
457.056	109.81
457.276	110.81
457.497	126.81
457.717	109.81
457.937	134.81
458.157	129.81
458.377	127.81
458.598	126.81
458.818	108.81
459.038	129.81
459.258	135.81
459.478	127.81
459.698	122.81
459.918	115.81
460.138	140.81
460.358	127.81
460.578	121.81
460.798	122.81
461.018	143.81
461.238	127.81
461.458	143.81
461.678	141.81
461.898	126.81
462.118	122.81
462.338	121.81
462.558	131.81
462.777	128.81
462.997	121.81
463.217	145.81
463.437	141.81
463.657	138.81
463.876	146.81
464.096	139.81
464.316	137.81
464.536	138.81
464.755	137.81
464.975	142.81
465.195	141.81
465.414	143.81
465.634	131.81
465.854	118.81
466.073	121.81
466.293	131.81
466.512	125.81
466.732	135.81
466.951	137.81
467.171	132.81
467.391	117.81
467.61	133.81
467.829	120.81
468.049	121.81
468.268	129.81
468.488	120.81
468.707	123.81
468.927	119.81
469.146	109.81
469.365	118.81
469.585	129.81
469.804	131.81
470.023	129.81
470.243	126.81
470.462	119.81
470.681	125.81
470.901	108.81
471.12	120.81
471.339	139.81
471.558	119.81
471.777	132.81
471.997	140.81
472.216	133.81
472.435	137.81
472.654	133.81
472.873	128.81
473.092	137.81
473.311	124.81
473.53	108.81
473.749	119.81
473.968	135.81
474.187	129.81
474.406	135.81
474.625	113.81
474.844	115.81
475.063	119.81
475.282	119.81
475.501	127.81
475.72	133.81
475.939	121.81
476.158	114.81
476.377	129.81
476.596	146.81
476.814	124.81
477.033	114.81
477.252	119.81
477.471	119.81
477.69	133.81
477.908	123.81
478.127	124.81
478.346	131.81
478.564	133.81
478.783	132.81
479.002	135.81
479.22	131.81
479.439	130.81
479.658	139.81
479.876	120.81
480.095	141.81
480.313	142.81
480.532	140.81
480.751	135.81
480.969	126.81
481.188	124.81
481.406	142.81
481.624	140.81
481.843	111.81
482.061	129.81
482.28	139.81
482.498	147.81
482.717	125.81
482.935	122.81
483.153	128.81
483.372	133.81
483.59	131.81
483.808	140.81
484.027	137.81
484.245	134.81
484.463	122.81
484.681	127.81
484.9	128.81
485.118	141.81
485.336	145.81
485.554	140.81
485.772	130.81
485.99	134.81
486.209	140.81
486.427	139.81
486.645	135.81
486.863	123.81
487.081	129.81
487.299	141.81
487.517	142.81
487.735	134.81
487.953	152.81
488.171	131.81
488.389	128.81
488.607	147.81
488.825	145.81
489.043	132.81
489.261	134.81
489.479	142.81
489.696	149.81
489.914	130.81
490.132	153.81
490.35	134.81
490.568	131.81
490.786	133.81
491.003	148.81
491.221	141.81
491.439	143.81
491.657	151.81
491.874	127.81
492.092	135.81
492.31	142.81
492.527	144.81
492.745	143.81
492.963	156.81
493.18	137.81
493.398	147.81
493.615	139.81
493.833	137.81
494.05	142.81
494.268	137.81
494.485	140.81
494.703	137.81
494.92	146.81
495.138	139.81
495.355	147.81
495.573	141.81
495.79	139.81
496.008	130.81
496.225	149.81
496.442	145.81
496.66	141.81
496.877	156.81
497.094	153.81
497.312	147.81
497.529	136.81
497.746	150.81
497.963	154.81
498.181	168.81
498.398	150.81
498.615	159.81
498.832	169.81
499.049	163.81
499.267	169.81
499.484	181.81
499.701	161.81
499.918	193.81
500.135	188.81
500.352	215.81
500.569	215.81
500.786	207.81
501.003	200.81
501.22	195.81
501.437	176.81
501.654	183.81
501.871	171.81
502.088	158.81
502.305	153.81
502.522	155.81
502.739	166.81
502.956	157.81
503.172	142.81
503.389	147.81
503.606	142.81
503.823	157.81
504.04	163.81
504.256	149.81
504.473	152.81
504.69	164.81
504.907	151.81
505.123	142.81
505.34	135.81
