Data from 1968.PennyLincolnUp.Lamp.En5.5.200Scan.071719.P1._HRD10591_14-50-50-969.txt Node
Date: Thu Jul 18 14:50:50 EDT 2019
User: cochatt
Spectrometer: HR+D1059
Trigger mode: 1
Integration Time (sec): 1.000000E-1
Scans to average: 1
Electric dark correction enabled: true
Nonlinearity correction enabled: false
Boxcar width: 0
XAxis mode: Wavelengths
Number of Pixels in Spectrum: 2048
>>>>>Begin Spectral Data<<<<<
223.165	-25.19
223.4	-25.19
223.635	-25.19
223.869	-11.19
224.104	-18.19
224.338	-4.19
224.573	-12.19
224.808	-16.19
225.042	-12.19
225.277	-8.19
225.511	-1.19
225.746	1.81
225.98	-6.19
226.215	12.81
226.449	18.81
226.683	29.81
226.918	24.81
227.152	26.81
227.387	26.81
227.621	37.81
227.856	43.81
228.09	46.81
228.324	47.81
228.559	47.81
228.793	60.81
229.027	69.81
229.262	65.81
229.496	73.81
229.73	66.81
229.964	59.81
230.199	78.81
230.433	93.81
230.667	83.81
230.901	77.81
231.136	85.81
231.37	78.81
231.604	95.81
231.838	79.81
232.072	93.81
232.306	94.81
232.541	87.81
232.775	90.81
233.009	95.81
233.243	82.81
233.477	87.81
233.711	95.81
233.945	84.81
234.179	97.81
234.413	74.81
234.647	90.81
234.881	90.81
235.115	80.81
235.349	88.81
235.583	89.81
235.817	85.81
236.051	72.81
236.285	82.81
236.519	77.81
236.753	91.81
236.987	84.81
237.221	92.81
237.455	88.81
237.689	79.81
237.922	80.81
238.156	86.81
238.39	82.81
238.624	81.81
238.858	88.81
239.091	91.81
239.325	79.81
239.559	86.81
239.793	84.81
240.027	86.81
240.26	86.81
240.494	82.81
240.728	83.81
240.961	84.81
241.195	88.81
241.429	89.81
241.662	88.81
241.896	65.81
242.13	67.81
242.363	75.81
242.597	89.81
242.83	71.81
243.064	90.81
243.298	70.81
243.531	67.81
243.765	76.81
243.998	97.81
244.232	87.81
244.465	88.81
244.699	69.81
244.932	77.81
245.166	80.81
245.399	81.81
245.633	75.81
245.866	84.81
246.099	82.81
246.333	91.81
246.566	94.81
246.8	74.81
247.033	88.81
247.266	85.81
247.5	79.81
247.733	81.81
247.966	76.81
248.2	87.81
248.433	94.81
248.666	94.81
248.899	80.81
249.133	96.81
249.366	90.81
249.599	91.81
249.832	87.81
250.066	89.81
250.299	92.81
250.532	94.81
250.765	88.81
250.998	92.81
251.231	94.81
251.465	94.81
251.698	87.81
251.931	94.81
252.164	82.81
252.397	93.81
252.63	108.81
252.863	91.81
253.096	100.81
253.329	80.81
253.562	102.81
253.795	88.81
254.028	88.81
254.261	97.81
254.494	97.81
254.727	100.81
254.96	84.81
255.193	75.81
255.426	91.81
255.659	100.81
255.892	106.81
256.124	87.81
256.357	87.81
256.59	97.81
256.823	84.81
257.056	76.81
257.289	79.81
257.521	109.81
257.754	93.81
257.987	90.81
258.22	97.81
258.452	83.81
258.685	88.81
258.918	93.81
259.151	92.81
259.383	88.81
259.616	94.81
259.849	89.81
260.081	84.81
260.314	92.81
260.547	87.81
260.779	91.81
261.012	103.81
261.244	91.81
261.477	120.81
261.71	99.81
261.942	87.81
262.175	100.81
262.407	108.81
262.64	104.81
262.872	90.81
263.105	100.81
263.337	104.81
263.57	91.81
263.802	89.81
264.035	98.81
264.267	101.81
264.499	93.81
264.732	92.81
264.964	93.81
265.197	81.81
265.429	90.81
265.661	88.81
265.894	101.81
266.126	97.81
266.358	96.81
266.591	83.81
266.823	83.81
267.055	98.81
267.287	86.81
267.52	85.81
267.752	101.81
267.984	93.81
268.216	92.81
268.448	97.81
268.681	100.81
268.913	101.81
269.145	96.81
269.377	109.81
269.609	105.81
269.841	88.81
270.073	96.81
270.306	102.81
270.538	96.81
270.77	99.81
271.002	89.81
271.234	106.81
271.466	108.81
271.698	95.81
271.93	95.81
272.162	92.81
272.394	98.81
272.626	119.81
272.858	98.81
273.09	91.81
273.322	111.81
273.553	92.81
273.785	113.81
274.017	84.81
274.249	101.81
274.481	91.81
274.713	105.81
274.945	114.81
275.176	82.81
275.408	96.81
275.64	112.81
275.872	109.81
276.104	108.81
276.335	89.81
276.567	99.81
276.799	95.81
277.031	97.81
277.262	107.81
277.494	99.81
277.726	105.81
277.957	96.81
278.189	112.81
278.421	102.81
278.652	88.81
278.884	97.81
279.115	97.81
279.347	106.81
279.579	95.81
279.81	103.81
280.042	104.81
280.273	96.81
280.505	112.81
280.736	97.81
280.968	98.81
281.199	109.81
281.431	110.81
281.662	118.81
281.894	89.81
282.125	93.81
282.356	105.81
282.588	105.81
282.819	102.81
283.051	109.81
283.282	99.81
283.513	108.81
283.745	102.81
283.976	89.81
284.207	99.81
284.439	103.81
284.67	93.81
284.901	89.81
285.132	108.81
285.364	115.81
285.595	104.81
285.826	92.81
286.057	101.81
286.288	104.81
286.52	91.81
286.751	107.81
286.982	121.81
287.213	96.81
287.444	112.81
287.675	115.81
287.906	111.81
288.138	110.81
288.369	98.81
288.6	95.81
288.831	99.81
289.062	96.81
289.293	90.81
289.524	96.81
289.755	96.81
289.986	102.81
290.217	104.81
290.448	99.81
290.679	107.81
290.91	108.81
291.141	102.81
291.371	104.81
291.602	102.81
291.833	95.81
292.064	92.81
292.295	99.81
292.526	89.81
292.757	102.81
292.987	105.81
293.218	96.81
293.449	99.81
293.68	104.81
293.91	99.81
294.141	122.81
294.372	96.81
294.603	105.81
294.833	104.81
295.064	95.81
295.295	117.81
295.525	104.81
295.756	113.81
295.987	102.81
296.217	100.81
296.448	110.81
296.679	91.81
296.909	116.81
297.14	100.81
297.37	106.81
297.601	112.81
297.831	91.81
298.062	100.81
298.292	103.81
298.523	99.81
298.753	100.81
298.984	113.81
299.214	104.81
299.445	89.81
299.675	108.81
299.905	102.81
300.136	105.81
300.366	108.81
300.597	100.81
300.827	111.81
301.057	111.81
301.288	112.81
301.518	119.81
301.748	93.81
301.979	103.81
302.209	107.81
302.439	115.81
302.669	104.81
302.9	125.81
303.13	115.81
303.36	121.81
303.59	96.81
303.82	108.81
304.051	108.81
304.281	109.81
304.511	116.81
304.741	115.81
304.971	108.81
305.201	111.81
305.431	107.81
305.661	113.81
305.891	90.81
306.121	110.81
306.352	103.81
306.582	104.81
306.812	107.81
307.042	133.81
307.272	115.81
307.502	100.81
307.731	100.81
307.961	93.81
308.191	100.81
308.421	116.81
308.651	108.81
308.881	107.81
309.111	94.81
309.341	107.81
309.571	96.81
309.8	103.81
310.03	121.81
310.26	109.81
310.49	112.81
310.72	107.81
310.949	119.81
311.179	106.81
311.409	101.81
311.639	123.81
311.868	105.81
312.098	110.81
312.328	119.81
312.557	119.81
312.787	107.81
313.017	103.81
313.246	99.81
313.476	111.81
313.706	115.81
313.935	103.81
314.165	113.81
314.394	101.81
314.624	110.81
314.853	128.81
315.083	106.81
315.312	96.81
315.542	108.81
315.771	105.81
316.001	96.81
316.23	115.81
316.46	107.81
316.689	103.81
316.919	97.81
317.148	99.81
317.377	117.81
317.607	108.81
317.836	109.81
318.065	111.81
318.295	133.81
318.524	117.81
318.753	108.81
318.983	105.81
319.212	113.81
319.441	112.81
319.67	105.81
319.9	121.81
320.129	119.81
320.358	104.81
320.587	110.81
320.816	112.81
321.046	119.81
321.275	112.81
321.504	129.81
321.733	107.81
321.962	112.81
322.191	118.81
322.42	117.81
322.649	132.81
322.878	107.81
323.108	111.81
323.337	108.81
323.566	115.81
323.795	119.81
324.024	123.81
324.253	128.81
324.482	131.81
324.71	160.81
324.939	175.81
325.168	177.81
325.397	111.81
325.626	131.81
325.855	113.81
326.084	106.81
326.313	102.81
326.542	111.81
326.77	115.81
326.999	124.81
327.228	132.81
327.457	139.81
327.686	140.81
327.914	131.81
328.143	121.81
328.372	132.81
328.6	102.81
328.829	122.81
329.058	110.81
329.287	129.81
329.515	112.81
329.744	105.81
329.972	111.81
330.201	104.81
330.43	109.81
330.658	127.81
330.887	123.81
331.115	124.81
331.344	109.81
331.572	110.81
331.801	109.81
332.03	122.81
332.258	126.81
332.486	130.81
332.715	115.81
332.943	110.81
333.172	109.81
333.4	129.81
333.629	127.81
333.857	120.81
334.085	121.81
334.314	118.81
334.542	118.81
334.771	128.81
334.999	109.81
335.227	104.81
335.455	123.81
335.684	109.81
335.912	127.81
336.14	128.81
336.369	122.81
336.597	127.81
336.825	126.81
337.053	119.81
337.281	117.81
337.51	129.81
337.738	118.81
337.966	110.81
338.194	115.81
338.422	108.81
338.65	121.81
338.878	103.81
339.106	118.81
339.334	119.81
339.562	108.81
339.79	116.81
340.018	117.81
340.246	118.81
340.474	113.81
340.702	124.81
340.93	112.81
341.158	109.81
341.386	129.81
341.614	110.81
341.842	118.81
342.07	120.81
342.298	123.81
342.526	113.81
342.754	109.81
342.981	115.81
343.209	103.81
343.437	112.81
343.665	118.81
343.893	111.81
344.12	119.81
344.348	129.81
344.576	115.81
344.804	117.81
345.031	110.81
345.259	99.81
345.487	96.81
345.714	109.81
345.942	103.81
346.17	112.81
346.397	129.81
346.625	103.81
346.853	106.81
347.08	110.81
347.308	103.81
347.535	104.81
347.763	124.81
347.99	120.81
348.218	116.81
348.445	127.81
348.673	109.81
348.9	111.81
349.128	124.81
349.355	109.81
349.583	106.81
349.81	112.81
350.037	130.81
350.265	123.81
350.492	105.81
350.72	119.81
350.947	110.81
351.174	119.81
351.402	113.81
351.629	109.81
351.856	110.81
352.083	117.81
352.311	116.81
352.538	113.81
352.765	114.81
352.992	107.81
353.22	109.81
353.447	102.81
353.674	117.81
353.901	120.81
354.128	120.81
354.355	104.81
354.583	105.81
354.81	104.81
355.037	110.81
355.264	103.81
355.491	118.81
355.718	97.81
355.945	109.81
356.172	101.81
356.399	102.81
356.626	103.81
356.853	99.81
357.08	113.81
357.307	101.81
357.534	104.81
357.761	92.81
357.988	93.81
358.215	87.81
358.441	123.81
358.668	124.81
358.895	107.81
359.122	110.81
359.349	108.81
359.576	93.81
359.802	99.81
360.029	110.81
360.256	123.81
360.483	104.81
360.709	105.81
360.936	111.81
361.163	111.81
361.39	95.81
361.616	100.81
361.843	121.81
362.07	118.81
362.296	100.81
362.523	106.81
362.749	108.81
362.976	97.81
363.203	129.81
363.429	109.81
363.656	121.81
363.882	112.81
364.109	102.81
364.335	132.81
364.562	113.81
364.788	110.81
365.015	105.81
365.241	128.81
365.468	97.81
365.694	108.81
365.92	106.81
366.147	104.81
366.373	111.81
366.599	107.81
366.826	111.81
367.052	117.81
367.278	96.81
367.505	115.81
367.731	119.81
367.957	107.81
368.184	116.81
368.41	119.81
368.636	103.81
368.862	124.81
369.089	119.81
369.315	104.81
369.541	112.81
369.767	126.81
369.993	105.81
370.219	109.81
370.445	109.81
370.672	117.81
370.898	116.81
371.124	126.81
371.35	107.81
371.576	107.81
371.802	132.81
372.028	115.81
372.254	112.81
372.48	102.81
372.706	117.81
372.932	115.81
373.158	109.81
373.384	116.81
373.61	102.81
373.835	125.81
374.061	100.81
374.287	124.81
374.513	114.81
374.739	119.81
374.965	119.81
375.191	103.81
375.416	112.81
375.642	100.81
375.868	132.81
376.094	128.81
376.319	107.81
376.545	106.81
376.771	105.81
376.997	121.81
377.222	124.81
377.448	117.81
377.674	132.81
377.899	102.81
378.125	115.81
378.35	121.81
378.576	113.81
378.802	110.81
379.027	100.81
379.253	114.81
379.478	105.81
379.704	120.81
379.929	110.81
380.155	99.81
380.38	102.81
380.606	121.81
380.831	119.81
381.057	115.81
381.282	109.81
381.507	116.81
381.733	125.81
381.958	110.81
382.184	123.81
382.409	121.81
382.634	105.81
382.86	120.81
383.085	120.81
383.31	132.81
383.535	126.81
383.761	110.81
383.986	108.81
384.211	94.81
384.436	122.81
384.662	119.81
384.887	122.81
385.112	111.81
385.337	111.81
385.562	110.81
385.787	126.81
386.013	132.81
386.238	119.81
386.463	133.81
386.688	107.81
386.913	121.81
387.138	120.81
387.363	112.81
387.588	116.81
387.813	113.81
388.038	112.81
388.263	115.81
388.488	113.81
388.713	117.81
388.938	112.81
389.163	127.81
389.387	112.81
389.612	117.81
389.837	125.81
390.062	116.81
390.287	120.81
390.512	125.81
390.736	128.81
390.961	107.81
391.186	111.81
391.411	107.81
391.636	118.81
391.86	120.81
392.085	116.81
392.31	121.81
392.534	125.81
392.759	128.81
392.984	129.81
393.208	116.81
393.433	131.81
393.658	113.81
393.882	107.81
394.107	112.81
394.331	110.81
394.556	117.81
394.78	121.81
395.005	107.81
395.229	109.81
395.454	127.81
395.678	125.81
395.903	132.81
396.127	135.81
396.352	121.81
396.576	135.81
396.801	114.81
397.025	121.81
397.249	120.81
397.474	133.81
397.698	142.81
397.922	135.81
398.147	141.81
398.371	131.81
398.595	131.81
398.82	130.81
399.044	126.81
399.268	133.81
399.492	131.81
399.717	121.81
399.941	136.81
400.165	146.81
400.389	124.81
400.613	130.81
400.837	134.81
401.062	134.81
401.286	123.81
401.51	138.81
401.734	122.81
401.958	124.81
402.182	126.81
402.406	132.81
402.63	130.81
402.854	132.81
403.078	128.81
403.302	146.81
403.526	126.81
403.75	134.81
403.974	133.81
404.198	139.81
404.422	134.81
404.645	135.81
404.869	151.81
405.093	140.81
405.317	148.81
405.541	137.81
405.765	141.81
405.988	133.81
406.212	138.81
406.436	123.81
406.66	131.81
406.883	136.81
407.107	136.81
407.331	129.81
407.555	136.81
407.778	125.81
408.002	157.81
408.226	145.81
408.449	131.81
408.673	125.81
408.896	139.81
409.12	135.81
409.344	135.81
409.567	134.81
409.791	139.81
410.014	145.81
410.238	131.81
410.461	121.81
410.685	125.81
410.908	132.81
411.132	136.81
411.355	134.81
411.578	123.81
411.802	130.81
412.025	143.81
412.249	156.81
412.472	140.81
412.695	138.81
412.919	127.81
413.142	136.81
413.365	135.81
413.589	117.81
413.812	126.81
414.035	125.81
414.258	117.81
414.482	140.81
414.705	131.81
414.928	131.81
415.151	121.81
415.374	134.81
415.597	144.81
415.821	149.81
416.044	121.81
416.267	120.81
416.49	109.81
416.713	119.81
416.936	141.81
417.159	136.81
417.382	129.81
417.605	132.81
417.828	123.81
418.051	126.81
418.274	145.81
418.497	125.81
418.72	119.81
418.943	139.81
419.166	123.81
419.389	128.81
419.611	132.81
419.834	121.81
420.057	115.81
420.28	133.81
420.503	123.81
420.726	133.81
420.948	131.81
421.171	147.81
421.394	124.81
421.617	123.81
421.839	132.81
422.062	121.81
422.285	131.81
422.507	131.81
422.73	139.81
422.953	134.81
423.175	123.81
423.398	129.81
423.621	140.81
423.843	147.81
424.066	135.81
424.288	149.81
424.511	145.81
424.733	137.81
424.956	141.81
425.178	127.81
425.401	119.81
425.623	135.81
425.846	136.81
426.068	115.81
426.291	126.81
426.513	141.81
426.735	127.81
426.958	122.81
427.18	116.81
427.402	151.81
427.625	150.81
427.847	149.81
428.069	127.81
428.292	126.81
428.514	135.81
428.736	105.81
428.958	147.81
429.181	112.81
429.403	131.81
429.625	129.81
429.847	129.81
430.069	132.81
430.292	120.81
430.514	113.81
430.736	130.81
430.958	119.81
431.18	127.81
431.402	126.81
431.624	128.81
431.846	130.81
432.068	133.81
432.29	128.81
432.512	135.81
432.734	127.81
432.956	128.81
433.178	126.81
433.4	127.81
433.622	127.81
433.844	141.81
434.066	121.81
434.287	131.81
434.509	125.81
434.731	128.81
434.953	128.81
435.175	122.81
435.397	115.81
435.618	129.81
435.84	123.81
436.062	136.81
436.284	137.81
436.505	137.81
436.727	113.81
436.949	127.81
437.17	125.81
437.392	127.81
437.614	128.81
437.835	128.81
438.057	133.81
438.278	145.81
438.5	135.81
438.721	153.81
438.943	135.81
439.165	140.81
439.386	134.81
439.608	128.81
439.829	133.81
440.05	125.81
440.272	137.81
440.493	145.81
440.715	141.81
440.936	139.81
441.158	150.81
441.379	135.81
441.6	121.81
441.822	125.81
442.043	132.81
442.264	130.81
442.486	143.81
442.707	138.81
442.928	133.81
443.149	136.81
443.371	141.81
443.592	147.81
443.813	163.81
444.034	132.81
444.255	118.81
444.476	125.81
444.698	145.81
444.919	131.81
445.14	217.81
445.361	199.81
445.582	128.81
445.803	112.81
446.024	138.81
446.245	147.81
446.466	144.81
446.687	135.81
446.908	140.81
447.129	116.81
447.35	124.81
447.571	136.81
447.792	124.81
448.013	137.81
448.234	128.81
448.455	131.81
448.675	143.81
448.896	133.81
449.117	144.81
449.338	143.81
449.559	120.81
449.779	145.81
450	135.81
450.221	122.81
450.442	118.81
450.662	120.81
450.883	119.81
451.104	125.81
451.324	122.81
451.545	128.81
451.766	135.81
451.986	120.81
452.207	121.81
452.428	128.81
452.648	122.81
452.869	122.81
453.089	119.81
453.31	130.81
453.53	138.81
453.751	128.81
453.971	110.81
454.192	126.81
454.412	129.81
454.633	121.81
454.853	119.81
455.073	110.81
455.294	113.81
455.514	139.81
455.734	120.81
455.955	126.81
456.175	125.81
456.395	120.81
456.616	110.81
456.836	110.81
457.056	117.81
457.276	108.81
457.497	129.81
457.717	122.81
457.937	127.81
458.157	129.81
458.377	119.81
458.598	107.81
458.818	138.81
459.038	127.81
459.258	139.81
459.478	100.81
459.698	131.81
459.918	116.81
460.138	129.81
460.358	120.81
460.578	126.81
460.798	127.81
461.018	137.81
461.238	143.81
461.458	137.81
461.678	123.81
461.898	133.81
462.118	130.81
462.338	126.81
462.558	139.81
462.777	143.81
462.997	142.81
463.217	150.81
463.437	128.81
463.657	161.81
463.876	140.81
464.096	128.81
464.316	140.81
464.536	135.81
464.755	141.81
464.975	125.81
465.195	132.81
465.414	146.81
465.634	129.81
465.854	127.81
466.073	125.81
466.293	119.81
466.512	121.81
466.732	118.81
466.951	126.81
467.171	123.81
467.391	124.81
467.61	123.81
467.829	134.81
468.049	136.81
468.268	110.81
468.488	127.81
468.707	132.81
468.927	126.81
469.146	125.81
469.365	135.81
469.585	125.81
469.804	127.81
470.023	116.81
470.243	132.81
470.462	109.81
470.681	124.81
470.901	135.81
471.12	130.81
471.339	127.81
471.558	113.81
471.777	115.81
471.997	133.81
472.216	129.81
472.435	122.81
472.654	124.81
472.873	125.81
473.092	131.81
473.311	119.81
473.53	118.81
473.749	122.81
473.968	111.81
474.187	130.81
474.406	139.81
474.625	128.81
474.844	136.81
475.063	119.81
475.282	122.81
475.501	127.81
475.72	132.81
475.939	127.81
476.158	129.81
476.377	123.81
476.596	122.81
476.814	124.81
477.033	134.81
477.252	125.81
477.471	124.81
477.69	128.81
477.908	134.81
478.127	128.81
478.346	125.81
478.564	123.81
478.783	137.81
479.002	129.81
479.22	140.81
479.439	133.81
479.658	151.81
479.876	143.81
480.095	131.81
480.313	150.81
480.532	151.81
480.751	140.81
480.969	143.81
481.188	135.81
481.406	135.81
481.624	130.81
481.843	141.81
482.061	128.81
482.28	124.81
482.498	129.81
482.717	118.81
482.935	127.81
483.153	143.81
483.372	138.81
483.59	140.81
483.808	125.81
484.027	129.81
484.245	126.81
484.463	137.81
484.681	123.81
484.9	118.81
485.118	132.81
485.336	134.81
485.554	144.81
485.772	130.81
485.99	139.81
486.209	152.81
486.427	139.81
486.645	135.81
486.863	139.81
487.081	137.81
487.299	132.81
487.517	132.81
487.735	136.81
487.953	141.81
488.171	128.81
488.389	136.81
488.607	141.81
488.825	144.81
489.043	141.81
489.261	112.81
489.479	119.81
489.696	125.81
489.914	128.81
490.132	136.81
490.35	149.81
490.568	142.81
490.786	143.81
491.003	131.81
491.221	133.81
491.439	144.81
491.657	139.81
491.874	145.81
492.092	147.81
492.31	140.81
492.527	149.81
492.745	154.81
492.963	155.81
493.18	157.81
493.398	135.81
493.615	147.81
493.833	152.81
494.05	149.81
494.268	146.81
494.485	149.81
494.703	149.81
494.92	125.81
495.138	139.81
495.355	143.81
495.573	134.81
495.79	143.81
496.008	157.81
496.225	154.81
496.442	145.81
496.66	135.81
496.877	148.81
497.094	154.81
497.312	131.81
497.529	150.81
497.746	153.81
497.963	157.81
498.181	158.81
498.398	151.81
498.615	155.81
498.832	163.81
499.049	171.81
499.267	183.81
499.484	173.81
499.701	165.81
499.918	203.81
500.135	209.81
500.352	208.81
500.569	203.81
500.786	215.81
501.003	206.81
501.22	200.81
501.437	193.81
501.654	172.81
501.871	179.81
502.088	169.81
502.305	173.81
502.522	154.81
502.739	139.81
502.956	148.81
503.172	147.81
503.389	136.81
503.606	135.81
503.823	151.81
504.04	149.81
504.256	153.81
504.473	134.81
504.69	146.81
504.907	142.81
505.123	146.81
505.34	139.81
