Data from 1968.PennyLincolnUp.Lamp.En5.5.200Scan.071719.P1._HRD10591_14-51-49-969.txt Node
Date: Thu Jul 18 14:51:49 EDT 2019
User: cochatt
Spectrometer: HR+D1059
Trigger mode: 1
Integration Time (sec): 1.000000E-1
Scans to average: 1
Electric dark correction enabled: true
Nonlinearity correction enabled: false
Boxcar width: 0
XAxis mode: Wavelengths
Number of Pixels in Spectrum: 2048
>>>>>Begin Spectral Data<<<<<
223.165	-11.94
223.4	-11.94
223.635	-11.94
223.869	-12.94
224.104	-26.94
224.338	-16.94
224.573	-26.94
224.808	-7.94
225.042	-4.94
225.277	-5.94
225.511	3.06
225.746	-3.94
225.98	14.06
226.215	10.06
226.449	10.06
226.683	31.06
226.918	27.06
227.152	23.06
227.387	33.06
227.621	43.06
227.856	37.06
228.09	30.06
228.324	53.06
228.559	59.06
228.793	68.06
229.027	79.06
229.262	70.06
229.496	86.06
229.73	66.06
229.964	90.06
230.199	79.06
230.433	78.06
230.667	80.06
230.901	84.06
231.136	75.06
231.37	77.06
231.604	83.06
231.838	98.06
232.072	74.06
232.306	102.06
232.541	99.06
232.775	87.06
233.009	93.06
233.243	72.06
233.477	85.06
233.711	97.06
233.945	96.06
234.179	72.06
234.413	104.06
234.647	80.06
234.881	75.06
235.115	72.06
235.349	84.06
235.583	81.06
235.817	87.06
236.051	87.06
236.285	104.06
236.519	77.06
236.753	102.06
236.987	85.06
237.221	80.06
237.455	89.06
237.689	100.06
237.922	87.06
238.156	103.06
238.39	85.06
238.624	77.06
238.858	95.06
239.091	73.06
239.325	83.06
239.559	82.06
239.793	83.06
240.027	81.06
240.26	87.06
240.494	87.06
240.728	85.06
240.961	91.06
241.195	90.06
241.429	78.06
241.662	81.06
241.896	77.06
242.13	92.06
242.363	79.06
242.597	88.06
242.83	81.06
243.064	83.06
243.298	82.06
243.531	93.06
243.765	78.06
243.998	96.06
244.232	84.06
244.465	90.06
244.699	85.06
244.932	94.06
245.166	103.06
245.399	102.06
245.633	100.06
245.866	95.06
246.099	89.06
246.333	94.06
246.566	95.06
246.8	91.06
247.033	91.06
247.266	82.06
247.5	86.06
247.733	95.06
247.966	83.06
248.2	84.06
248.433	94.06
248.666	94.06
248.899	80.06
249.133	83.06
249.366	103.06
249.599	94.06
249.832	101.06
250.066	77.06
250.299	108.06
250.532	86.06
250.765	84.06
250.998	86.06
251.231	99.06
251.465	85.06
251.698	92.06
251.931	95.06
252.164	99.06
252.397	85.06
252.63	90.06
252.863	96.06
253.096	82.06
253.329	84.06
253.562	91.06
253.795	97.06
254.028	91.06
254.261	83.06
254.494	90.06
254.727	91.06
254.96	106.06
255.193	92.06
255.426	96.06
255.659	87.06
255.892	102.06
256.124	102.06
256.357	106.06
256.59	96.06
256.823	111.06
257.056	89.06
257.289	87.06
257.521	84.06
257.754	108.06
257.987	86.06
258.22	93.06
258.452	92.06
258.685	89.06
258.918	97.06
259.151	77.06
259.383	94.06
259.616	99.06
259.849	83.06
260.081	89.06
260.314	91.06
260.547	96.06
260.779	89.06
261.012	96.06
261.244	91.06
261.477	101.06
261.71	97.06
261.942	108.06
262.175	110.06
262.407	113.06
262.64	101.06
262.872	103.06
263.105	94.06
263.337	99.06
263.57	111.06
263.802	80.06
264.035	87.06
264.267	106.06
264.499	97.06
264.732	87.06
264.964	87.06
265.197	103.06
265.429	102.06
265.661	102.06
265.894	113.06
266.126	112.06
266.358	102.06
266.591	97.06
266.823	90.06
267.055	95.06
267.287	88.06
267.52	89.06
267.752	85.06
267.984	95.06
268.216	101.06
268.448	101.06
268.681	104.06
268.913	100.06
269.145	99.06
269.377	96.06
269.609	97.06
269.841	117.06
270.073	94.06
270.306	88.06
270.538	111.06
270.77	95.06
271.002	101.06
271.234	98.06
271.466	111.06
271.698	101.06
271.93	114.06
272.162	117.06
272.394	108.06
272.626	99.06
272.858	100.06
273.09	108.06
273.322	97.06
273.553	87.06
273.785	111.06
274.017	96.06
274.249	91.06
274.481	95.06
274.713	94.06
274.945	82.06
275.176	96.06
275.408	99.06
275.64	106.06
275.872	96.06
276.104	99.06
276.335	100.06
276.567	88.06
276.799	103.06
277.031	108.06
277.262	103.06
277.494	111.06
277.726	114.06
277.957	103.06
278.189	111.06
278.421	106.06
278.652	101.06
278.884	95.06
279.115	95.06
279.347	107.06
279.579	108.06
279.81	96.06
280.042	95.06
280.273	90.06
280.505	102.06
280.736	102.06
280.968	101.06
281.199	94.06
281.431	111.06
281.662	111.06
281.894	106.06
282.125	101.06
282.356	108.06
282.588	105.06
282.819	114.06
283.051	94.06
283.282	96.06
283.513	112.06
283.745	111.06
283.976	92.06
284.207	112.06
284.439	102.06
284.67	97.06
284.901	119.06
285.132	108.06
285.364	98.06
285.595	94.06
285.826	82.06
286.057	118.06
286.288	103.06
286.52	105.06
286.751	105.06
286.982	91.06
287.213	89.06
287.444	102.06
287.675	102.06
287.906	117.06
288.138	99.06
288.369	100.06
288.6	107.06
288.831	78.06
289.062	117.06
289.293	102.06
289.524	102.06
289.755	101.06
289.986	120.06
290.217	108.06
290.448	102.06
290.679	113.06
290.91	117.06
291.141	110.06
291.371	117.06
291.602	123.06
291.833	121.06
292.064	108.06
292.295	113.06
292.526	94.06
292.757	106.06
292.987	106.06
293.218	104.06
293.449	107.06
293.68	104.06
293.91	111.06
294.141	111.06
294.372	110.06
294.603	107.06
294.833	104.06
295.064	111.06
295.295	109.06
295.525	107.06
295.756	106.06
295.987	96.06
296.217	103.06
296.448	110.06
296.679	109.06
296.909	103.06
297.14	102.06
297.37	96.06
297.601	120.06
297.831	107.06
298.062	113.06
298.292	106.06
298.523	114.06
298.753	91.06
298.984	111.06
299.214	103.06
299.445	92.06
299.675	107.06
299.905	110.06
300.136	105.06
300.366	119.06
300.597	121.06
300.827	121.06
301.057	117.06
301.288	113.06
301.518	104.06
301.748	88.06
301.979	110.06
302.209	107.06
302.439	113.06
302.669	117.06
302.9	111.06
303.13	119.06
303.36	112.06
303.59	101.06
303.82	114.06
304.051	117.06
304.281	104.06
304.511	110.06
304.741	105.06
304.971	107.06
305.201	105.06
305.431	103.06
305.661	110.06
305.891	123.06
306.121	121.06
306.352	115.06
306.582	125.06
306.812	118.06
307.042	109.06
307.272	114.06
307.502	109.06
307.731	101.06
307.961	118.06
308.191	123.06
308.421	101.06
308.651	99.06
308.881	98.06
309.111	99.06
309.341	113.06
309.571	126.06
309.8	113.06
310.03	100.06
310.26	118.06
310.49	107.06
310.72	109.06
310.949	98.06
311.179	112.06
311.409	118.06
311.639	114.06
311.868	106.06
312.098	107.06
312.328	129.06
312.557	98.06
312.787	123.06
313.017	111.06
313.246	114.06
313.476	112.06
313.706	115.06
313.935	109.06
314.165	102.06
314.394	113.06
314.624	122.06
314.853	127.06
315.083	134.06
315.312	121.06
315.542	118.06
315.771	119.06
316.001	111.06
316.23	97.06
316.46	98.06
316.689	114.06
316.919	112.06
317.148	104.06
317.377	113.06
317.607	103.06
317.836	111.06
318.065	115.06
318.295	109.06
318.524	121.06
318.753	111.06
318.983	97.06
319.212	110.06
319.441	117.06
319.67	125.06
319.9	124.06
320.129	111.06
320.358	112.06
320.587	108.06
320.816	113.06
321.046	107.06
321.275	106.06
321.504	114.06
321.733	108.06
321.962	126.06
322.191	113.06
322.42	123.06
322.649	116.06
322.878	112.06
323.108	129.06
323.337	103.06
323.566	117.06
323.795	113.06
324.024	120.06
324.253	123.06
324.482	133.06
324.71	165.06
324.939	187.06
325.168	169.06
325.397	131.06
325.626	129.06
325.855	122.06
326.084	120.06
326.313	123.06
326.542	117.06
326.77	116.06
326.999	136.06
327.228	143.06
327.457	156.06
327.686	166.06
327.914	132.06
328.143	132.06
328.372	123.06
328.6	123.06
328.829	112.06
329.058	114.06
329.287	107.06
329.515	112.06
329.744	128.06
329.972	125.06
330.201	119.06
330.43	123.06
330.658	121.06
330.887	110.06
331.115	117.06
331.344	110.06
331.572	126.06
331.801	126.06
332.03	117.06
332.258	128.06
332.486	118.06
332.715	120.06
332.943	126.06
333.172	111.06
333.4	115.06
333.629	123.06
333.857	130.06
334.085	130.06
334.314	131.06
334.542	119.06
334.771	112.06
334.999	113.06
335.227	124.06
335.455	122.06
335.684	130.06
335.912	114.06
336.14	131.06
336.369	133.06
336.597	118.06
336.825	130.06
337.053	106.06
337.281	123.06
337.51	120.06
337.738	117.06
337.966	106.06
338.194	112.06
338.422	120.06
338.65	107.06
338.878	129.06
339.106	122.06
339.334	112.06
339.562	114.06
339.79	118.06
340.018	118.06
340.246	119.06
340.474	117.06
340.702	117.06
340.93	120.06
341.158	123.06
341.386	114.06
341.614	110.06
341.842	129.06
342.07	127.06
342.298	125.06
342.526	92.06
342.754	103.06
342.981	128.06
343.209	107.06
343.437	117.06
343.665	133.06
343.893	114.06
344.12	114.06
344.348	124.06
344.576	105.06
344.804	121.06
345.031	123.06
345.259	118.06
345.487	114.06
345.714	119.06
345.942	124.06
346.17	108.06
346.397	109.06
346.625	126.06
346.853	121.06
347.08	110.06
347.308	128.06
347.535	123.06
347.763	121.06
347.99	130.06
348.218	120.06
348.445	113.06
348.673	117.06
348.9	97.06
349.128	98.06
349.355	112.06
349.583	109.06
349.81	123.06
350.037	115.06
350.265	117.06
350.492	113.06
350.72	104.06
350.947	107.06
351.174	107.06
351.402	106.06
351.629	98.06
351.856	114.06
352.083	119.06
352.311	129.06
352.538	119.06
352.765	104.06
352.992	106.06
353.22	114.06
353.447	94.06
353.674	115.06
353.901	121.06
354.128	120.06
354.355	106.06
354.583	103.06
354.81	111.06
355.037	114.06
355.264	107.06
355.491	108.06
355.718	111.06
355.945	110.06
356.172	111.06
356.399	120.06
356.626	117.06
356.853	103.06
357.08	117.06
357.307	129.06
357.534	120.06
357.761	123.06
357.988	122.06
358.215	113.06
358.441	121.06
358.668	103.06
358.895	130.06
359.122	111.06
359.349	129.06
359.576	120.06
359.802	104.06
360.029	107.06
360.256	103.06
360.483	103.06
360.709	104.06
360.936	117.06
361.163	121.06
361.39	105.06
361.616	122.06
361.843	96.06
362.07	112.06
362.296	119.06
362.523	117.06
362.749	116.06
362.976	117.06
363.203	125.06
363.429	113.06
363.656	119.06
363.882	120.06
364.109	119.06
364.335	110.06
364.562	126.06
364.788	109.06
365.015	101.06
365.241	118.06
365.468	112.06
365.694	118.06
365.92	123.06
366.147	106.06
366.373	123.06
366.599	107.06
366.826	105.06
367.052	122.06
367.278	105.06
367.505	117.06
367.731	105.06
367.957	124.06
368.184	113.06
368.41	96.06
368.636	101.06
368.862	104.06
369.089	112.06
369.315	117.06
369.541	124.06
369.767	104.06
369.993	106.06
370.219	112.06
370.445	118.06
370.672	121.06
370.898	126.06
371.124	96.06
371.35	117.06
371.576	115.06
371.802	108.06
372.028	117.06
372.254	106.06
372.48	111.06
372.706	117.06
372.932	124.06
373.158	107.06
373.384	111.06
373.61	111.06
373.835	117.06
374.061	110.06
374.287	117.06
374.513	123.06
374.739	131.06
374.965	114.06
375.191	121.06
375.416	107.06
375.642	128.06
375.868	121.06
376.094	115.06
376.319	107.06
376.545	118.06
376.771	110.06
376.997	120.06
377.222	114.06
377.448	126.06
377.674	125.06
377.899	110.06
378.125	122.06
378.35	124.06
378.576	122.06
378.802	123.06
379.027	119.06
379.253	113.06
379.478	118.06
379.704	111.06
379.929	123.06
380.155	112.06
380.38	99.06
380.606	114.06
380.831	109.06
381.057	112.06
381.282	124.06
381.507	113.06
381.733	112.06
381.958	112.06
382.184	105.06
382.409	122.06
382.634	119.06
382.86	109.06
383.085	127.06
383.31	124.06
383.535	111.06
383.761	125.06
383.986	112.06
384.211	119.06
384.436	112.06
384.662	121.06
384.887	133.06
385.112	127.06
385.337	121.06
385.562	115.06
385.787	135.06
386.013	106.06
386.238	123.06
386.463	119.06
386.688	118.06
386.913	119.06
387.138	133.06
387.363	126.06
387.588	116.06
387.813	108.06
388.038	123.06
388.263	114.06
388.488	114.06
388.713	119.06
388.938	123.06
389.163	117.06
389.387	119.06
389.612	114.06
389.837	125.06
390.062	119.06
390.287	125.06
390.512	132.06
390.736	124.06
390.961	118.06
391.186	125.06
391.411	118.06
391.636	113.06
391.86	104.06
392.085	121.06
392.31	133.06
392.534	121.06
392.759	114.06
392.984	129.06
393.208	119.06
393.433	126.06
393.658	116.06
393.882	121.06
394.107	128.06
394.331	122.06
394.556	140.06
394.78	127.06
395.005	126.06
395.229	114.06
395.454	124.06
395.678	127.06
395.903	152.06
396.127	139.06
396.352	129.06
396.576	133.06
396.801	125.06
397.025	122.06
397.249	133.06
397.474	134.06
397.698	120.06
397.922	117.06
398.147	140.06
398.371	139.06
398.595	130.06
398.82	129.06
399.044	125.06
399.268	151.06
399.492	142.06
399.717	156.06
399.941	151.06
400.165	152.06
400.389	145.06
400.613	138.06
400.837	115.06
401.062	125.06
401.286	127.06
401.51	123.06
401.734	134.06
401.958	133.06
402.182	121.06
402.406	128.06
402.63	126.06
402.854	141.06
403.078	129.06
403.302	134.06
403.526	140.06
403.75	137.06
403.974	128.06
404.198	135.06
404.422	137.06
404.645	123.06
404.869	147.06
405.093	139.06
405.317	129.06
405.541	127.06
405.765	135.06
405.988	139.06
406.212	137.06
406.436	133.06
406.66	150.06
406.883	127.06
407.107	131.06
407.331	134.06
407.555	142.06
407.778	153.06
408.002	156.06
408.226	144.06
408.449	137.06
408.673	134.06
408.896	144.06
409.12	145.06
409.344	145.06
409.567	137.06
409.791	127.06
410.014	139.06
410.238	152.06
410.461	135.06
410.685	141.06
410.908	138.06
411.132	125.06
411.355	152.06
411.578	149.06
411.802	141.06
412.025	136.06
412.249	136.06
412.472	144.06
412.695	148.06
412.919	141.06
413.142	146.06
413.365	121.06
413.589	122.06
413.812	136.06
414.035	135.06
414.258	137.06
414.482	129.06
414.705	132.06
414.928	135.06
415.151	136.06
415.374	133.06
415.597	120.06
415.821	128.06
416.044	130.06
416.267	134.06
416.49	141.06
416.713	133.06
416.936	130.06
417.159	130.06
417.382	123.06
417.605	131.06
417.828	134.06
418.051	146.06
418.274	137.06
418.497	126.06
418.72	137.06
418.943	135.06
419.166	125.06
419.389	138.06
419.611	141.06
419.834	137.06
420.057	127.06
420.28	137.06
420.503	146.06
420.726	128.06
420.948	128.06
421.171	143.06
421.394	135.06
421.617	125.06
421.839	124.06
422.062	140.06
422.285	135.06
422.507	137.06
422.73	131.06
422.953	130.06
423.175	137.06
423.398	130.06
423.621	137.06
423.843	130.06
424.066	123.06
424.288	143.06
424.511	139.06
424.733	132.06
424.956	143.06
425.178	134.06
425.401	133.06
425.623	121.06
425.846	142.06
426.068	127.06
426.291	134.06
426.513	145.06
426.735	135.06
426.958	138.06
427.18	148.06
427.402	140.06
427.625	145.06
427.847	129.06
428.069	143.06
428.292	133.06
428.514	130.06
428.736	121.06
428.958	138.06
429.181	129.06
429.403	119.06
429.625	138.06
429.847	122.06
430.069	135.06
430.292	136.06
430.514	131.06
430.736	130.06
430.958	133.06
431.18	129.06
431.402	133.06
431.624	117.06
431.846	126.06
432.068	125.06
432.29	133.06
432.512	126.06
432.734	128.06
432.956	123.06
433.178	129.06
433.4	121.06
433.622	138.06
433.844	133.06
434.066	118.06
434.287	112.06
434.509	133.06
434.731	129.06
434.953	125.06
435.175	137.06
435.397	129.06
435.618	131.06
435.84	140.06
436.062	139.06
436.284	149.06
436.505	134.06
436.727	135.06
436.949	126.06
437.17	126.06
437.392	118.06
437.614	111.06
437.835	133.06
438.057	125.06
438.278	134.06
438.5	151.06
438.721	159.06
438.943	149.06
439.165	121.06
439.386	140.06
439.608	141.06
439.829	133.06
440.05	127.06
440.272	123.06
440.493	137.06
440.715	119.06
440.936	133.06
441.158	142.06
441.379	130.06
441.6	134.06
441.822	130.06
442.043	151.06
442.264	129.06
442.486	141.06
442.707	129.06
442.928	123.06
443.149	129.06
443.371	125.06
443.592	139.06
443.813	136.06
444.034	160.06
444.255	136.06
444.476	147.06
444.698	133.06
444.919	131.06
445.14	262.06
445.361	171.06
445.582	125.06
445.803	142.06
446.024	138.06
446.245	140.06
446.466	141.06
446.687	149.06
446.908	120.06
447.129	129.06
447.35	121.06
447.571	117.06
447.792	123.06
448.013	131.06
448.234	142.06
448.455	133.06
448.675	133.06
448.896	129.06
449.117	129.06
449.338	128.06
449.559	124.06
449.779	130.06
450	130.06
450.221	114.06
450.442	129.06
450.662	123.06
450.883	122.06
451.104	138.06
451.324	113.06
451.545	131.06
451.766	119.06
451.986	99.06
452.207	133.06
452.428	121.06
452.648	134.06
452.869	126.06
453.089	114.06
453.31	118.06
453.53	129.06
453.751	131.06
453.971	131.06
454.192	118.06
454.412	115.06
454.633	109.06
454.853	139.06
455.073	132.06
455.294	127.06
455.514	133.06
455.734	130.06
455.955	128.06
456.175	123.06
456.395	118.06
456.616	119.06
456.836	121.06
457.056	109.06
457.276	111.06
457.497	115.06
457.717	115.06
457.937	119.06
458.157	120.06
458.377	120.06
458.598	120.06
458.818	121.06
459.038	140.06
459.258	148.06
459.478	127.06
459.698	129.06
459.918	124.06
460.138	118.06
460.358	123.06
460.578	120.06
460.798	132.06
461.018	140.06
461.238	134.06
461.458	137.06
461.678	133.06
461.898	128.06
462.118	143.06
462.338	151.06
462.558	133.06
462.777	141.06
462.997	137.06
463.217	139.06
463.437	142.06
463.657	146.06
463.876	144.06
464.096	137.06
464.316	140.06
464.536	138.06
464.755	157.06
464.975	141.06
465.195	156.06
465.414	144.06
465.634	139.06
465.854	128.06
466.073	126.06
466.293	134.06
466.512	117.06
466.732	119.06
466.951	122.06
467.171	121.06
467.391	124.06
467.61	127.06
467.829	128.06
468.049	125.06
468.268	129.06
468.488	107.06
468.707	145.06
468.927	129.06
469.146	127.06
469.365	126.06
469.585	113.06
469.804	122.06
470.023	133.06
470.243	132.06
470.462	121.06
470.681	113.06
470.901	122.06
471.12	130.06
471.339	137.06
471.558	121.06
471.777	129.06
471.997	126.06
472.216	121.06
472.435	116.06
472.654	130.06
472.873	126.06
473.092	118.06
473.311	130.06
473.53	137.06
473.749	131.06
473.968	131.06
474.187	136.06
474.406	135.06
474.625	120.06
474.844	119.06
475.063	135.06
475.282	126.06
475.501	133.06
475.72	130.06
475.939	133.06
476.158	127.06
476.377	121.06
476.596	128.06
476.814	137.06
477.033	118.06
477.252	121.06
477.471	127.06
477.69	131.06
477.908	136.06
478.127	141.06
478.346	138.06
478.564	146.06
478.783	148.06
479.002	138.06
479.22	136.06
479.439	137.06
479.658	124.06
479.876	119.06
480.095	133.06
480.313	147.06
480.532	140.06
480.751	135.06
480.969	141.06
481.188	146.06
481.406	135.06
481.624	119.06
481.843	124.06
482.061	122.06
482.28	132.06
482.498	137.06
482.717	128.06
482.935	147.06
483.153	126.06
483.372	128.06
483.59	145.06
483.808	133.06
484.027	135.06
484.245	142.06
484.463	139.06
484.681	136.06
484.9	130.06
485.118	143.06
485.336	141.06
485.554	137.06
485.772	132.06
485.99	130.06
486.209	134.06
486.427	131.06
486.645	139.06
486.863	147.06
487.081	144.06
487.299	121.06
487.517	137.06
487.735	136.06
487.953	150.06
488.171	136.06
488.389	128.06
488.607	141.06
488.825	112.06
489.043	133.06
489.261	139.06
489.479	145.06
489.696	141.06
489.914	140.06
490.132	131.06
490.35	143.06
490.568	137.06
490.786	139.06
491.003	160.06
491.221	143.06
491.439	146.06
491.657	147.06
491.874	147.06
492.092	143.06
492.31	142.06
492.527	137.06
492.745	150.06
492.963	157.06
493.18	151.06
493.398	145.06
493.615	155.06
493.833	149.06
494.05	154.06
494.268	148.06
494.485	145.06
494.703	158.06
494.92	154.06
495.138	140.06
495.355	153.06
495.573	148.06
495.79	143.06
496.008	144.06
496.225	159.06
496.442	157.06
496.66	151.06
496.877	155.06
497.094	145.06
497.312	124.06
497.529	154.06
497.746	144.06
497.963	149.06
498.181	154.06
498.398	165.06
498.615	149.06
498.832	155.06
499.049	162.06
499.267	166.06
499.484	175.06
499.701	182.06
499.918	188.06
500.135	201.06
500.352	215.06
500.569	217.06
500.786	224.06
501.003	208.06
501.22	208.06
501.437	175.06
501.654	189.06
501.871	184.06
502.088	154.06
502.305	165.06
502.522	170.06
502.739	153.06
502.956	139.06
503.172	147.06
503.389	140.06
503.606	152.06
503.823	152.06
504.04	146.06
504.256	143.06
504.473	157.06
504.69	155.06
