Data from 1968.PennyLincolnUp.Lamp.En5.5.200Scan.071719.P1._HRD10591_14-51-52-970.txt Node
Date: Thu Jul 18 14:51:52 EDT 2019
User: cochatt
Spectrometer: HR+D1059
Trigger mode: 1
Integration Time (sec): 1.000000E-1
Scans to average: 1
Electric dark correction enabled: true
Nonlinearity correction enabled: false
Boxcar width: 0
XAxis mode: Wavelengths
Number of Pixels in Spectrum: 2048
>>>>>Begin Spectral Data<<<<<
223.165	-14.75
223.4	-14.75
223.635	-14.75
223.869	-24.75
224.104	5.25
224.338	-7.75
224.573	-11.75
224.808	-13.75
225.042	-5.75
225.277	-31.75
225.511	-9.75
225.746	7.25
225.98	0.25
226.215	5.25
226.449	21.25
226.683	23.25
226.918	32.25
227.152	25.25
227.387	43.25
227.621	29.25
227.856	42.25
228.09	56.25
228.324	47.25
228.559	53.25
228.793	57.25
229.027	60.25
229.262	69.25
229.496	74.25
229.73	68.25
229.964	78.25
230.199	80.25
230.433	96.25
230.667	72.25
230.901	84.25
231.136	79.25
231.37	82.25
231.604	102.25
231.838	96.25
232.072	81.25
232.306	75.25
232.541	75.25
232.775	97.25
233.009	89.25
233.243	83.25
233.477	81.25
233.711	78.25
233.945	85.25
234.179	82.25
234.413	83.25
234.647	77.25
234.881	109.25
235.115	86.25
235.349	87.25
235.583	93.25
235.817	82.25
236.051	71.25
236.285	90.25
236.519	82.25
236.753	86.25
236.987	87.25
237.221	82.25
237.455	87.25
237.689	82.25
237.922	74.25
238.156	86.25
238.39	76.25
238.624	83.25
238.858	83.25
239.091	83.25
239.325	74.25
239.559	88.25
239.793	104.25
240.027	95.25
240.26	89.25
240.494	77.25
240.728	74.25
240.961	93.25
241.195	97.25
241.429	90.25
241.662	84.25
241.896	90.25
242.13	73.25
242.363	90.25
242.597	98.25
242.83	80.25
243.064	75.25
243.298	74.25
243.531	80.25
243.765	84.25
243.998	74.25
244.232	86.25
244.465	79.25
244.699	85.25
244.932	83.25
245.166	82.25
245.399	73.25
245.633	83.25
245.866	92.25
246.099	87.25
246.333	83.25
246.566	87.25
246.8	83.25
247.033	93.25
247.266	78.25
247.5	91.25
247.733	86.25
247.966	88.25
248.2	81.25
248.433	82.25
248.666	88.25
248.899	80.25
249.133	102.25
249.366	76.25
249.599	99.25
249.832	85.25
250.066	86.25
250.299	88.25
250.532	78.25
250.765	90.25
250.998	82.25
251.231	85.25
251.465	78.25
251.698	97.25
251.931	83.25
252.164	67.25
252.397	91.25
252.63	95.25
252.863	76.25
253.096	99.25
253.329	99.25
253.562	99.25
253.795	91.25
254.028	86.25
254.261	86.25
254.494	89.25
254.727	84.25
254.96	93.25
255.193	87.25
255.426	90.25
255.659	81.25
255.892	87.25
256.124	105.25
256.357	99.25
256.59	91.25
256.823	104.25
257.056	107.25
257.289	89.25
257.521	75.25
257.754	84.25
257.987	84.25
258.22	91.25
258.452	86.25
258.685	87.25
258.918	98.25
259.151	92.25
259.383	95.25
259.616	85.25
259.849	89.25
260.081	97.25
260.314	98.25
260.547	93.25
260.779	101.25
261.012	93.25
261.244	90.25
261.477	93.25
261.71	89.25
261.942	101.25
262.175	93.25
262.407	92.25
262.64	98.25
262.872	99.25
263.105	86.25
263.337	77.25
263.57	101.25
263.802	106.25
264.035	101.25
264.267	91.25
264.499	85.25
264.732	79.25
264.964	76.25
265.197	91.25
265.429	85.25
265.661	101.25
265.894	90.25
266.126	85.25
266.358	98.25
266.591	88.25
266.823	90.25
267.055	87.25
267.287	86.25
267.52	88.25
267.752	97.25
267.984	77.25
268.216	78.25
268.448	102.25
268.681	100.25
268.913	81.25
269.145	103.25
269.377	94.25
269.609	100.25
269.841	102.25
270.073	91.25
270.306	93.25
270.538	104.25
270.77	74.25
271.002	92.25
271.234	103.25
271.466	105.25
271.698	109.25
271.93	91.25
272.162	110.25
272.394	104.25
272.626	97.25
272.858	84.25
273.09	98.25
273.322	92.25
273.553	99.25
273.785	89.25
274.017	92.25
274.249	95.25
274.481	100.25
274.713	98.25
274.945	94.25
275.176	106.25
275.408	102.25
275.64	95.25
275.872	105.25
276.104	98.25
276.335	90.25
276.567	103.25
276.799	94.25
277.031	100.25
277.262	97.25
277.494	94.25
277.726	103.25
277.957	105.25
278.189	95.25
278.421	93.25
278.652	107.25
278.884	90.25
279.115	87.25
279.347	99.25
279.579	110.25
279.81	90.25
280.042	86.25
280.273	111.25
280.505	103.25
280.736	97.25
280.968	96.25
281.199	103.25
281.431	112.25
281.662	88.25
281.894	100.25
282.125	100.25
282.356	102.25
282.588	97.25
282.819	89.25
283.051	119.25
283.282	93.25
283.513	116.25
283.745	103.25
283.976	107.25
284.207	92.25
284.439	96.25
284.67	108.25
284.901	109.25
285.132	99.25
285.364	94.25
285.595	100.25
285.826	102.25
286.057	103.25
286.288	86.25
286.52	96.25
286.751	104.25
286.982	110.25
287.213	106.25
287.444	105.25
287.675	95.25
287.906	98.25
288.138	108.25
288.369	97.25
288.6	99.25
288.831	99.25
289.062	99.25
289.293	104.25
289.524	105.25
289.755	101.25
289.986	103.25
290.217	101.25
290.448	100.25
290.679	92.25
290.91	109.25
291.141	100.25
291.371	113.25
291.602	117.25
291.833	104.25
292.064	89.25
292.295	94.25
292.526	95.25
292.757	109.25
292.987	116.25
293.218	117.25
293.449	93.25
293.68	109.25
293.91	98.25
294.141	113.25
294.372	103.25
294.603	91.25
294.833	94.25
295.064	99.25
295.295	113.25
295.525	105.25
295.756	89.25
295.987	105.25
296.217	115.25
296.448	113.25
296.679	102.25
296.909	111.25
297.14	122.25
297.37	114.25
297.601	100.25
297.831	110.25
298.062	95.25
298.292	97.25
298.523	89.25
298.753	105.25
298.984	101.25
299.214	97.25
299.445	110.25
299.675	106.25
299.905	92.25
300.136	97.25
300.366	111.25
300.597	94.25
300.827	107.25
301.057	97.25
301.288	98.25
301.518	97.25
301.748	114.25
301.979	109.25
302.209	98.25
302.439	109.25
302.669	79.25
302.9	92.25
303.13	102.25
303.36	105.25
303.59	110.25
303.82	94.25
304.051	92.25
304.281	88.25
304.511	110.25
304.741	107.25
304.971	107.25
305.201	107.25
305.431	102.25
305.661	113.25
305.891	105.25
306.121	113.25
306.352	107.25
306.582	106.25
306.812	99.25
307.042	97.25
307.272	110.25
307.502	98.25
307.731	106.25
307.961	106.25
308.191	91.25
308.421	98.25
308.651	116.25
308.881	107.25
309.111	107.25
309.341	94.25
309.571	99.25
309.8	99.25
310.03	99.25
310.26	106.25
310.49	93.25
310.72	99.25
310.949	108.25
311.179	102.25
311.409	106.25
311.639	90.25
311.868	89.25
312.098	110.25
312.328	118.25
312.557	118.25
312.787	102.25
313.017	98.25
313.246	99.25
313.476	108.25
313.706	104.25
313.935	103.25
314.165	110.25
314.394	101.25
314.624	99.25
314.853	113.25
315.083	113.25
315.312	111.25
315.542	91.25
315.771	121.25
316.001	117.25
316.23	112.25
316.46	104.25
316.689	113.25
316.919	103.25
317.148	114.25
317.377	100.25
317.607	111.25
317.836	111.25
318.065	118.25
318.295	110.25
318.524	98.25
318.753	100.25
318.983	118.25
319.212	121.25
319.441	106.25
319.67	115.25
319.9	109.25
320.129	106.25
320.358	119.25
320.587	117.25
320.816	118.25
321.046	105.25
321.275	115.25
321.504	105.25
321.733	99.25
321.962	100.25
322.191	110.25
322.42	103.25
322.649	119.25
322.878	108.25
323.108	118.25
323.337	122.25
323.566	119.25
323.795	104.25
324.024	117.25
324.253	112.25
324.482	138.25
324.71	162.25
324.939	178.25
325.168	147.25
325.397	133.25
325.626	122.25
325.855	115.25
326.084	113.25
326.313	111.25
326.542	118.25
326.77	107.25
326.999	119.25
327.228	131.25
327.457	140.25
327.686	150.25
327.914	125.25
328.143	117.25
328.372	133.25
328.6	114.25
328.829	125.25
329.058	106.25
329.287	110.25
329.515	110.25
329.744	113.25
329.972	119.25
330.201	122.25
330.43	107.25
330.658	115.25
330.887	120.25
331.115	105.25
331.344	123.25
331.572	106.25
331.801	115.25
332.03	94.25
332.258	103.25
332.486	109.25
332.715	118.25
332.943	129.25
333.172	124.25
333.4	105.25
333.629	121.25
333.857	103.25
334.085	123.25
334.314	117.25
334.542	105.25
334.771	127.25
334.999	117.25
335.227	117.25
335.455	119.25
335.684	118.25
335.912	111.25
336.14	127.25
336.369	126.25
336.597	111.25
336.825	115.25
337.053	116.25
337.281	98.25
337.51	106.25
337.738	110.25
337.966	110.25
338.194	105.25
338.422	105.25
338.65	118.25
338.878	113.25
339.106	94.25
339.334	102.25
339.562	111.25
339.79	111.25
340.018	108.25
340.246	100.25
340.474	113.25
340.702	118.25
340.93	116.25
341.158	99.25
341.386	127.25
341.614	103.25
341.842	106.25
342.07	126.25
342.298	111.25
342.526	112.25
342.754	108.25
342.981	111.25
343.209	114.25
343.437	124.25
343.665	117.25
343.893	119.25
344.12	110.25
344.348	124.25
344.576	103.25
344.804	124.25
345.031	113.25
345.259	119.25
345.487	109.25
345.714	119.25
345.942	117.25
346.17	100.25
346.397	107.25
346.625	107.25
346.853	103.25
347.08	112.25
347.308	115.25
347.535	105.25
347.763	104.25
347.99	113.25
348.218	109.25
348.445	105.25
348.673	107.25
348.9	117.25
349.128	115.25
349.355	124.25
349.583	122.25
349.81	114.25
350.037	98.25
350.265	108.25
350.492	97.25
350.72	125.25
350.947	101.25
351.174	103.25
351.402	109.25
351.629	104.25
351.856	110.25
352.083	108.25
352.311	119.25
352.538	106.25
352.765	106.25
352.992	120.25
353.22	94.25
353.447	102.25
353.674	112.25
353.901	118.25
354.128	114.25
354.355	102.25
354.583	111.25
354.81	127.25
355.037	114.25
355.264	110.25
355.491	107.25
355.718	114.25
355.945	101.25
356.172	102.25
356.399	89.25
356.626	102.25
356.853	105.25
357.08	115.25
357.307	105.25
357.534	106.25
357.761	99.25
357.988	110.25
358.215	110.25
358.441	106.25
358.668	121.25
358.895	108.25
359.122	109.25
359.349	120.25
359.576	107.25
359.802	98.25
360.029	122.25
360.256	111.25
360.483	117.25
360.709	103.25
360.936	124.25
361.163	115.25
361.39	126.25
361.616	100.25
361.843	115.25
362.07	115.25
362.296	106.25
362.523	117.25
362.749	98.25
362.976	105.25
363.203	113.25
363.429	113.25
363.656	105.25
363.882	111.25
364.109	117.25
364.335	100.25
364.562	95.25
364.788	108.25
365.015	116.25
365.241	121.25
365.468	106.25
365.694	107.25
365.92	114.25
366.147	111.25
366.373	114.25
366.599	105.25
366.826	102.25
367.052	122.25
367.278	101.25
367.505	122.25
367.731	102.25
367.957	113.25
368.184	114.25
368.41	106.25
368.636	113.25
368.862	123.25
369.089	109.25
369.315	105.25
369.541	114.25
369.767	121.25
369.993	124.25
370.219	99.25
370.445	131.25
370.672	111.25
370.898	106.25
371.124	122.25
371.35	102.25
371.576	101.25
371.802	118.25
372.028	113.25
372.254	126.25
372.48	112.25
372.706	111.25
372.932	109.25
373.158	87.25
373.384	130.25
373.61	120.25
373.835	113.25
374.061	117.25
374.287	120.25
374.513	116.25
374.739	113.25
374.965	118.25
375.191	131.25
375.416	114.25
375.642	113.25
375.868	118.25
376.094	102.25
376.319	123.25
376.545	108.25
376.771	104.25
376.997	109.25
377.222	98.25
377.448	107.25
377.674	115.25
377.899	98.25
378.125	109.25
378.35	110.25
378.576	105.25
378.802	116.25
379.027	99.25
379.253	114.25
379.478	111.25
379.704	102.25
379.929	123.25
380.155	125.25
380.38	118.25
380.606	108.25
380.831	105.25
381.057	134.25
381.282	128.25
381.507	120.25
381.733	113.25
381.958	119.25
382.184	128.25
382.409	123.25
382.634	131.25
382.86	111.25
383.085	118.25
383.31	115.25
383.535	119.25
383.761	111.25
383.986	110.25
384.211	131.25
384.436	121.25
384.662	110.25
384.887	116.25
385.112	103.25
385.337	100.25
385.562	113.25
385.787	115.25
386.013	115.25
386.238	109.25
386.463	117.25
386.688	125.25
386.913	113.25
387.138	117.25
387.363	110.25
387.588	104.25
387.813	118.25
388.038	112.25
388.263	113.25
388.488	116.25
388.713	103.25
388.938	118.25
389.163	129.25
389.387	109.25
389.612	117.25
389.837	126.25
390.062	127.25
390.287	118.25
390.512	116.25
390.736	106.25
390.961	105.25
391.186	109.25
391.411	116.25
391.636	129.25
391.86	103.25
392.085	106.25
392.31	114.25
392.534	137.25
392.759	122.25
392.984	116.25
393.208	120.25
393.433	122.25
393.658	117.25
393.882	131.25
394.107	133.25
394.331	119.25
394.556	114.25
394.78	107.25
395.005	115.25
395.229	106.25
395.454	124.25
395.678	113.25
395.903	121.25
396.127	129.25
396.352	122.25
396.576	130.25
396.801	109.25
397.025	104.25
397.249	117.25
397.474	121.25
397.698	133.25
397.922	123.25
398.147	121.25
398.371	122.25
398.595	138.25
398.82	127.25
399.044	128.25
399.268	137.25
399.492	144.25
399.717	136.25
399.941	159.25
400.165	146.25
400.389	144.25
400.613	128.25
400.837	130.25
401.062	127.25
401.286	127.25
401.51	131.25
401.734	128.25
401.958	136.25
402.182	114.25
402.406	121.25
402.63	125.25
402.854	126.25
403.078	129.25
403.302	127.25
403.526	134.25
403.75	131.25
403.974	129.25
404.198	125.25
404.422	143.25
404.645	135.25
404.869	127.25
405.093	128.25
405.317	139.25
405.541	150.25
405.765	129.25
405.988	131.25
406.212	149.25
406.436	131.25
406.66	134.25
406.883	131.25
407.107	125.25
407.331	138.25
407.555	144.25
407.778	137.25
408.002	145.25
408.226	136.25
408.449	130.25
408.673	122.25
408.896	132.25
409.12	123.25
409.344	131.25
409.567	130.25
409.791	134.25
410.014	122.25
410.238	135.25
410.461	131.25
410.685	137.25
410.908	132.25
411.132	130.25
411.355	129.25
411.578	136.25
411.802	133.25
412.025	124.25
412.249	121.25
412.472	141.25
412.695	132.25
412.919	133.25
413.142	123.25
413.365	137.25
413.589	129.25
413.812	125.25
414.035	126.25
414.258	131.25
414.482	125.25
414.705	133.25
414.928	122.25
415.151	127.25
415.374	134.25
415.597	104.25
415.821	120.25
416.044	131.25
416.267	117.25
416.49	138.25
416.713	128.25
416.936	127.25
417.159	143.25
417.382	114.25
417.605	128.25
417.828	129.25
418.051	142.25
418.274	139.25
418.497	129.25
418.72	126.25
418.943	123.25
419.166	127.25
419.389	120.25
419.611	115.25
419.834	133.25
420.057	120.25
420.28	131.25
420.503	137.25
420.726	124.25
420.948	127.25
421.171	140.25
421.394	119.25
421.617	134.25
421.839	127.25
422.062	132.25
422.285	128.25
422.507	126.25
422.73	135.25
422.953	126.25
423.175	126.25
423.398	139.25
423.621	145.25
423.843	110.25
424.066	125.25
424.288	132.25
424.511	135.25
424.733	131.25
424.956	146.25
425.178	136.25
425.401	138.25
425.623	122.25
425.846	136.25
426.068	118.25
426.291	121.25
426.513	123.25
426.735	139.25
426.958	136.25
427.18	124.25
427.402	142.25
427.625	144.25
427.847	155.25
428.069	124.25
428.292	119.25
428.514	129.25
428.736	121.25
428.958	122.25
429.181	135.25
429.403	128.25
429.625	115.25
429.847	133.25
430.069	113.25
430.292	126.25
430.514	131.25
430.736	127.25
430.958	123.25
431.18	105.25
431.402	117.25
431.624	119.25
431.846	125.25
432.068	132.25
432.29	123.25
432.512	126.25
432.734	124.25
432.956	125.25
433.178	129.25
433.4	122.25
433.622	132.25
433.844	133.25
434.066	133.25
434.287	137.25
434.509	121.25
434.731	136.25
434.953	116.25
435.175	125.25
435.397	140.25
435.618	119.25
435.84	127.25
436.062	142.25
436.284	140.25
436.505	128.25
436.727	126.25
436.949	125.25
437.17	118.25
437.392	127.25
437.614	127.25
437.835	137.25
438.057	141.25
438.278	131.25
438.5	149.25
438.721	151.25
438.943	125.25
439.165	109.25
439.386	135.25
439.608	134.25
439.829	125.25
440.05	124.25
440.272	133.25
440.493	125.25
440.715	131.25
440.936	125.25
441.158	129.25
441.379	123.25
441.6	118.25
441.822	118.25
442.043	127.25
442.264	136.25
442.486	130.25
442.707	118.25
442.928	121.25
443.149	134.25
443.371	124.25
443.592	137.25
443.813	141.25
444.034	148.25
444.255	145.25
444.476	124.25
444.698	134.25
444.919	134.25
445.14	264.25
445.361	182.25
445.582	144.25
445.803	124.25
446.024	145.25
446.245	147.25
446.466	136.25
446.687	131.25
446.908	126.25
447.129	131.25
447.35	126.25
447.571	115.25
447.792	115.25
448.013	126.25
448.234	121.25
448.455	133.25
448.675	150.25
448.896	133.25
449.117	137.25
449.338	137.25
449.559	146.25
449.779	137.25
450	142.25
450.221	130.25
450.442	121.25
450.662	134.25
450.883	123.25
451.104	131.25
451.324	128.25
451.545	118.25
451.766	132.25
451.986	124.25
452.207	113.25
452.428	120.25
452.648	120.25
452.869	120.25
453.089	115.25
453.31	121.25
453.53	130.25
453.751	117.25
453.971	127.25
454.192	123.25
454.412	127.25
454.633	118.25
454.853	131.25
455.073	135.25
455.294	113.25
455.514	121.25
455.734	122.25
455.955	117.25
456.175	121.25
456.395	124.25
456.616	117.25
456.836	124.25
457.056	119.25
457.276	118.25
457.497	114.25
457.717	97.25
457.937	106.25
458.157	107.25
458.377	114.25
458.598	122.25
458.818	126.25
459.038	119.25
459.258	136.25
459.478	125.25
459.698	135.25
459.918	137.25
460.138	123.25
460.358	129.25
460.578	135.25
460.798	118.25
461.018	134.25
461.238	126.25
461.458	117.25
461.678	119.25
461.898	125.25
462.118	127.25
462.338	130.25
462.558	139.25
462.777	119.25
462.997	133.25
463.217	140.25
463.437	159.25
463.657	133.25
463.876	142.25
464.096	119.25
464.316	129.25
464.536	125.25
464.755	126.25
464.975	134.25
465.195	125.25
465.414	125.25
465.634	127.25
465.854	108.25
466.073	117.25
466.293	115.25
466.512	126.25
466.732	127.25
466.951	122.25
467.171	134.25
467.391	124.25
467.61	134.25
467.829	124.25
468.049	121.25
468.268	125.25
468.488	133.25
468.707	122.25
468.927	105.25
469.146	115.25
469.365	124.25
469.585	129.25
469.804	134.25
470.023	112.25
470.243	124.25
470.462	134.25
470.681	126.25
470.901	117.25
471.12	133.25
471.339	129.25
471.558	118.25
471.777	118.25
471.997	123.25
472.216	130.25
472.435	117.25
472.654	124.25
472.873	119.25
473.092	122.25
473.311	117.25
473.53	112.25
473.749	124.25
473.968	123.25
474.187	140.25
474.406	121.25
474.625	118.25
474.844	114.25
475.063	111.25
475.282	107.25
475.501	117.25
475.72	137.25
475.939	117.25
476.158	122.25
476.377	126.25
476.596	111.25
476.814	114.25
477.033	126.25
477.252	115.25
477.471	127.25
477.69	116.25
477.908	122.25
478.127	141.25
478.346	129.25
478.564	134.25
478.783	133.25
479.002	134.25
479.22	118.25
479.439	132.25
479.658	136.25
479.876	149.25
480.095	121.25
480.313	117.25
480.532	134.25
480.751	129.25
480.969	126.25
481.188	143.25
481.406	141.25
481.624	119.25
481.843	114.25
482.061	115.25
482.28	135.25
482.498	141.25
482.717	122.25
482.935	132.25
483.153	117.25
483.372	117.25
483.59	132.25
483.808	147.25
484.027	120.25
484.245	123.25
484.463	137.25
484.681	134.25
484.9	126.25
485.118	131.25
485.336	132.25
485.554	130.25
485.772	118.25
485.99	137.25
486.209	125.25
486.427	137.25
486.645	145.25
486.863	137.25
487.081	124.25
487.299	121.25
487.517	143.25
487.735	134.25
487.953	127.25
488.171	140.25
488.389	129.25
488.607	133.25
488.825	123.25
489.043	129.25
489.261	128.25
489.479	138.25
489.696	141.25
489.914	129.25
490.132	137.25
490.35	127.25
490.568	133.25
490.786	133.25
491.003	135.25
491.221	134.25
491.439	143.25
491.657	138.25
491.874	134.25
492.092	137.25
492.31	133.25
492.527	149.25
492.745	149.25
492.963	144.25
493.18	132.25
493.398	143.25
493.615	147.25
493.833	132.25
494.05	138.25
494.268	142.25
494.485	161.25
494.703	137.25
494.92	146.25
495.138	142.25
495.355	151.25
495.573	150.25
495.79	152.25
496.008	140.25
496.225	131.25
496.442	135.25
496.66	155.25
496.877	136.25
497.094	156.25
497.312	142.25
497.529	159.25
497.746	138.25
497.963	152.25
498.181	144.25
498.398	150.25
498.615	150.25
498.832	156.25
499.049	160.25
499.267	159.25
499.484	173.25
499.701	169.25
499.918	179.25
500.135	194.25
500.352	200.25
500.569	195.25
500.786	196.25
501.003	201.25
501.22	204.25
501.437	201.25
501.654	170.25
501.871	171.25
502.088	174.25
502.305	167.25
502.522	170.25
502.739	142.25
502.956	137.25
503.172	160.25
503.389	152.25
503.606	151.25
503.823	146.25
504.04	137.25
504.256	134.25
504.473	163.25
504.69	152.25
504.907	147.25
505.123	144.25
505.34	143.25
505.557	143.25
505.773	149.25
