Data from 1968.PennyLincolnUp.Lamp.En5.5.200Scan.071719.P1._HRD10591_14-50-58-969.txt Node
Date: Thu Jul 18 14:50:58 EDT 2019
User: cochatt
Spectrometer: HR+D1059
Trigger mode: 1
Integration Time (sec): 1.000000E-1
Scans to average: 1
Electric dark correction enabled: true
Nonlinearity correction enabled: false
Boxcar width: 0
XAxis mode: Wavelengths
Number of Pixels in Spectrum: 2048
>>>>>Begin Spectral Data<<<<<
223.165	-6.88
223.4	-6.88
223.635	-6.88
223.869	-8.88
224.104	-20.88
224.338	-18.88
224.573	-11.88
224.808	-15.88
225.042	-17.88
225.277	-11.88
225.511	-6.88
225.746	12.12
225.98	-3.88
226.215	20.12
226.449	16.12
226.683	21.12
226.918	31.12
227.152	23.12
227.387	30.12
227.621	30.12
227.856	41.12
228.09	48.12
228.324	57.12
228.559	62.12
228.793	48.12
229.027	64.12
229.262	80.12
229.496	66.12
229.73	73.12
229.964	56.12
230.199	79.12
230.433	72.12
230.667	68.12
230.901	81.12
231.136	77.12
231.37	84.12
231.604	92.12
231.838	81.12
232.072	81.12
232.306	86.12
232.541	86.12
232.775	79.12
233.009	79.12
233.243	82.12
233.477	92.12
233.711	83.12
233.945	85.12
234.179	84.12
234.413	90.12
234.647	89.12
234.881	78.12
235.115	89.12
235.349	102.12
235.583	83.12
235.817	83.12
236.051	84.12
236.285	78.12
236.519	81.12
236.753	94.12
236.987	92.12
237.221	89.12
237.455	80.12
237.689	82.12
237.922	86.12
238.156	76.12
238.39	84.12
238.624	91.12
238.858	80.12
239.091	88.12
239.325	97.12
239.559	81.12
239.793	80.12
240.027	80.12
240.26	79.12
240.494	85.12
240.728	85.12
240.961	76.12
241.195	78.12
241.429	89.12
241.662	81.12
241.896	81.12
242.13	75.12
242.363	59.12
242.597	80.12
242.83	80.12
243.064	77.12
243.298	82.12
243.531	67.12
243.765	86.12
243.998	80.12
244.232	89.12
244.465	97.12
244.699	73.12
244.932	86.12
245.166	86.12
245.399	89.12
245.633	89.12
245.866	82.12
246.099	76.12
246.333	77.12
246.566	88.12
246.8	81.12
247.033	99.12
247.266	81.12
247.5	94.12
247.733	94.12
247.966	94.12
248.2	78.12
248.433	80.12
248.666	79.12
248.899	87.12
249.133	87.12
249.366	88.12
249.599	96.12
249.832	79.12
250.066	95.12
250.299	104.12
250.532	93.12
250.765	95.12
250.998	86.12
251.231	85.12
251.465	92.12
251.698	95.12
251.931	85.12
252.164	90.12
252.397	81.12
252.63	79.12
252.863	79.12
253.096	94.12
253.329	91.12
253.562	72.12
253.795	89.12
254.028	91.12
254.261	88.12
254.494	84.12
254.727	99.12
254.96	83.12
255.193	83.12
255.426	81.12
255.659	85.12
255.892	78.12
256.124	85.12
256.357	95.12
256.59	68.12
256.823	96.12
257.056	81.12
257.289	93.12
257.521	107.12
257.754	81.12
257.987	73.12
258.22	92.12
258.452	88.12
258.685	105.12
258.918	99.12
259.151	93.12
259.383	92.12
259.616	96.12
259.849	90.12
260.081	93.12
260.314	87.12
260.547	90.12
260.779	95.12
261.012	96.12
261.244	101.12
261.477	95.12
261.71	115.12
261.942	87.12
262.175	97.12
262.407	84.12
262.64	85.12
262.872	91.12
263.105	99.12
263.337	85.12
263.57	87.12
263.802	81.12
264.035	90.12
264.267	87.12
264.499	81.12
264.732	97.12
264.964	83.12
265.197	90.12
265.429	99.12
265.661	90.12
265.894	100.12
266.126	105.12
266.358	95.12
266.591	85.12
266.823	88.12
267.055	108.12
267.287	94.12
267.52	96.12
267.752	100.12
267.984	102.12
268.216	93.12
268.448	104.12
268.681	89.12
268.913	102.12
269.145	70.12
269.377	99.12
269.609	99.12
269.841	95.12
270.073	81.12
270.306	95.12
270.538	91.12
270.77	107.12
271.002	94.12
271.234	102.12
271.466	105.12
271.698	109.12
271.93	92.12
272.162	102.12
272.394	97.12
272.626	81.12
272.858	84.12
273.09	92.12
273.322	84.12
273.553	92.12
273.785	79.12
274.017	97.12
274.249	105.12
274.481	90.12
274.713	97.12
274.945	105.12
275.176	108.12
275.408	100.12
275.64	100.12
275.872	106.12
276.104	102.12
276.335	101.12
276.567	90.12
276.799	86.12
277.031	110.12
277.262	94.12
277.494	100.12
277.726	94.12
277.957	92.12
278.189	97.12
278.421	100.12
278.652	87.12
278.884	109.12
279.115	109.12
279.347	95.12
279.579	106.12
279.81	87.12
280.042	106.12
280.273	110.12
280.505	91.12
280.736	100.12
280.968	107.12
281.199	109.12
281.431	102.12
281.662	117.12
281.894	108.12
282.125	96.12
282.356	96.12
282.588	100.12
282.819	96.12
283.051	93.12
283.282	89.12
283.513	118.12
283.745	95.12
283.976	107.12
284.207	98.12
284.439	92.12
284.67	97.12
284.901	101.12
285.132	113.12
285.364	100.12
285.595	105.12
285.826	119.12
286.057	101.12
286.288	101.12
286.52	104.12
286.751	99.12
286.982	109.12
287.213	102.12
287.444	99.12
287.675	89.12
287.906	114.12
288.138	115.12
288.369	96.12
288.6	115.12
288.831	109.12
289.062	101.12
289.293	111.12
289.524	97.12
289.755	101.12
289.986	113.12
290.217	107.12
290.448	112.12
290.679	110.12
290.91	104.12
291.141	112.12
291.371	100.12
291.602	102.12
291.833	117.12
292.064	103.12
292.295	105.12
292.526	106.12
292.757	104.12
292.987	96.12
293.218	92.12
293.449	95.12
293.68	101.12
293.91	106.12
294.141	99.12
294.372	98.12
294.603	110.12
294.833	103.12
295.064	96.12
295.295	102.12
295.525	103.12
295.756	103.12
295.987	105.12
296.217	123.12
296.448	103.12
296.679	117.12
296.909	103.12
297.14	114.12
297.37	99.12
297.601	99.12
297.831	107.12
298.062	105.12
298.292	104.12
298.523	96.12
298.753	105.12
298.984	108.12
299.214	93.12
299.445	99.12
299.675	91.12
299.905	112.12
300.136	109.12
300.366	105.12
300.597	108.12
300.827	106.12
301.057	111.12
301.288	101.12
301.518	111.12
301.748	107.12
301.979	118.12
302.209	117.12
302.439	113.12
302.669	112.12
302.9	90.12
303.13	102.12
303.36	111.12
303.59	95.12
303.82	112.12
304.051	105.12
304.281	117.12
304.511	100.12
304.741	108.12
304.971	111.12
305.201	123.12
305.431	105.12
305.661	88.12
305.891	98.12
306.121	105.12
306.352	104.12
306.582	113.12
306.812	104.12
307.042	106.12
307.272	100.12
307.502	107.12
307.731	112.12
307.961	112.12
308.191	105.12
308.421	117.12
308.651	99.12
308.881	100.12
309.111	83.12
309.341	101.12
309.571	104.12
309.8	96.12
310.03	121.12
310.26	109.12
310.49	104.12
310.72	91.12
310.949	107.12
311.179	102.12
311.409	94.12
311.639	115.12
311.868	101.12
312.098	103.12
312.328	88.12
312.557	108.12
312.787	104.12
313.017	129.12
313.246	111.12
313.476	124.12
313.706	103.12
313.935	109.12
314.165	117.12
314.394	110.12
314.624	115.12
314.853	115.12
315.083	107.12
315.312	110.12
315.542	118.12
315.771	126.12
316.001	121.12
316.23	118.12
316.46	99.12
316.689	106.12
316.919	105.12
317.148	102.12
317.377	120.12
317.607	104.12
317.836	98.12
318.065	113.12
318.295	117.12
318.524	110.12
318.753	111.12
318.983	96.12
319.212	120.12
319.441	112.12
319.67	107.12
319.9	97.12
320.129	105.12
320.358	117.12
320.587	112.12
320.816	118.12
321.046	115.12
321.275	115.12
321.504	112.12
321.733	106.12
321.962	109.12
322.191	127.12
322.42	105.12
322.649	111.12
322.878	121.12
323.108	123.12
323.337	104.12
323.566	99.12
323.795	109.12
324.024	128.12
324.253	132.12
324.482	141.12
324.71	159.12
324.939	179.12
325.168	189.12
325.397	121.12
325.626	116.12
325.855	119.12
326.084	112.12
326.313	119.12
326.542	123.12
326.77	112.12
326.999	126.12
327.228	127.12
327.457	147.12
327.686	162.12
327.914	142.12
328.143	113.12
328.372	133.12
328.6	117.12
328.829	115.12
329.058	113.12
329.287	109.12
329.515	121.12
329.744	113.12
329.972	110.12
330.201	121.12
330.43	129.12
330.658	116.12
330.887	127.12
331.115	117.12
331.344	125.12
331.572	129.12
331.801	125.12
332.03	129.12
332.258	127.12
332.486	120.12
332.715	113.12
332.943	117.12
333.172	121.12
333.4	125.12
333.629	127.12
333.857	126.12
334.085	107.12
334.314	108.12
334.542	111.12
334.771	126.12
334.999	125.12
335.227	110.12
335.455	117.12
335.684	117.12
335.912	136.12
336.14	122.12
336.369	130.12
336.597	131.12
336.825	123.12
337.053	127.12
337.281	104.12
337.51	120.12
337.738	127.12
337.966	121.12
338.194	126.12
338.422	133.12
338.65	95.12
338.878	118.12
339.106	110.12
339.334	122.12
339.562	122.12
339.79	104.12
340.018	125.12
340.246	119.12
340.474	124.12
340.702	121.12
340.93	119.12
341.158	108.12
341.386	121.12
341.614	108.12
341.842	108.12
342.07	108.12
342.298	131.12
342.526	116.12
342.754	121.12
342.981	121.12
343.209	127.12
343.437	126.12
343.665	119.12
343.893	105.12
344.12	128.12
344.348	103.12
344.576	110.12
344.804	111.12
345.031	106.12
345.259	111.12
345.487	124.12
345.714	119.12
345.942	126.12
346.17	111.12
346.397	106.12
346.625	112.12
346.853	116.12
347.08	107.12
347.308	105.12
347.535	114.12
347.763	115.12
347.99	117.12
348.218	109.12
348.445	105.12
348.673	116.12
348.9	102.12
349.128	117.12
349.355	99.12
349.583	112.12
349.81	110.12
350.037	121.12
350.265	125.12
350.492	119.12
350.72	112.12
350.947	121.12
351.174	112.12
351.402	119.12
351.629	111.12
351.856	106.12
352.083	111.12
352.311	108.12
352.538	115.12
352.765	112.12
352.992	105.12
353.22	101.12
353.447	114.12
353.674	99.12
353.901	122.12
354.128	110.12
354.355	100.12
354.583	119.12
354.81	116.12
355.037	106.12
355.264	112.12
355.491	106.12
355.718	117.12
355.945	95.12
356.172	111.12
356.399	107.12
356.626	109.12
356.853	120.12
357.08	112.12
357.307	119.12
357.534	125.12
357.761	104.12
357.988	129.12
358.215	101.12
358.441	116.12
358.668	109.12
358.895	109.12
359.122	105.12
359.349	115.12
359.576	105.12
359.802	104.12
360.029	121.12
360.256	117.12
360.483	124.12
360.709	119.12
360.936	115.12
361.163	120.12
361.39	104.12
361.616	115.12
361.843	119.12
362.07	121.12
362.296	108.12
362.523	107.12
362.749	113.12
362.976	112.12
363.203	115.12
363.429	115.12
363.656	101.12
363.882	129.12
364.109	123.12
364.335	124.12
364.562	120.12
364.788	121.12
365.015	124.12
365.241	110.12
365.468	113.12
365.694	118.12
365.92	112.12
366.147	106.12
366.373	109.12
366.599	108.12
366.826	87.12
367.052	97.12
367.278	101.12
367.505	108.12
367.731	117.12
367.957	129.12
368.184	124.12
368.41	115.12
368.636	100.12
368.862	105.12
369.089	107.12
369.315	110.12
369.541	111.12
369.767	108.12
369.993	106.12
370.219	136.12
370.445	112.12
370.672	115.12
370.898	109.12
371.124	102.12
371.35	112.12
371.576	113.12
371.802	104.12
372.028	104.12
372.254	115.12
372.48	121.12
372.706	116.12
372.932	123.12
373.158	109.12
373.384	106.12
373.61	109.12
373.835	103.12
374.061	118.12
374.287	121.12
374.513	111.12
374.739	116.12
374.965	111.12
375.191	115.12
375.416	98.12
375.642	97.12
375.868	118.12
376.094	117.12
376.319	110.12
376.545	98.12
376.771	117.12
376.997	116.12
377.222	98.12
377.448	118.12
377.674	92.12
377.899	110.12
378.125	104.12
378.35	119.12
378.576	109.12
378.802	106.12
379.027	116.12
379.253	108.12
379.478	126.12
379.704	110.12
379.929	110.12
380.155	101.12
380.38	114.12
380.606	108.12
380.831	117.12
381.057	113.12
381.282	125.12
381.507	117.12
381.733	115.12
381.958	118.12
382.184	119.12
382.409	109.12
382.634	120.12
382.86	109.12
383.085	119.12
383.31	123.12
383.535	117.12
383.761	100.12
383.986	109.12
384.211	109.12
384.436	122.12
384.662	123.12
384.887	124.12
385.112	99.12
385.337	116.12
385.562	124.12
385.787	130.12
386.013	124.12
386.238	111.12
386.463	119.12
386.688	104.12
386.913	129.12
387.138	98.12
387.363	117.12
387.588	132.12
387.813	121.12
388.038	107.12
388.263	120.12
388.488	128.12
388.713	124.12
388.938	110.12
389.163	118.12
389.387	119.12
389.612	112.12
389.837	121.12
390.062	132.12
390.287	132.12
390.512	127.12
390.736	128.12
390.961	112.12
391.186	131.12
391.411	135.12
391.636	110.12
391.86	143.12
392.085	115.12
392.31	125.12
392.534	124.12
392.759	129.12
392.984	115.12
393.208	108.12
393.433	127.12
393.658	130.12
393.882	129.12
394.107	127.12
394.331	124.12
394.556	120.12
394.78	122.12
395.005	116.12
395.229	136.12
395.454	128.12
395.678	135.12
395.903	117.12
396.127	113.12
396.352	129.12
396.576	123.12
396.801	132.12
397.025	122.12
397.249	124.12
397.474	139.12
397.698	114.12
397.922	132.12
398.147	135.12
398.371	129.12
398.595	127.12
398.82	134.12
399.044	128.12
399.268	139.12
399.492	145.12
399.717	123.12
399.941	147.12
400.165	137.12
400.389	133.12
400.613	140.12
400.837	139.12
401.062	122.12
401.286	140.12
401.51	115.12
401.734	135.12
401.958	125.12
402.182	124.12
402.406	132.12
402.63	121.12
402.854	117.12
403.078	125.12
403.302	129.12
403.526	124.12
403.75	135.12
403.974	123.12
404.198	126.12
404.422	143.12
404.645	140.12
404.869	136.12
405.093	134.12
405.317	137.12
405.541	142.12
405.765	145.12
405.988	138.12
406.212	132.12
406.436	134.12
406.66	142.12
406.883	141.12
407.107	148.12
407.331	143.12
407.555	140.12
407.778	138.12
408.002	140.12
408.226	127.12
408.449	145.12
408.673	145.12
408.896	147.12
409.12	141.12
409.344	144.12
409.567	137.12
409.791	124.12
410.014	132.12
410.238	131.12
410.461	130.12
410.685	122.12
410.908	128.12
411.132	137.12
411.355	131.12
411.578	131.12
411.802	135.12
412.025	131.12
412.249	140.12
412.472	133.12
412.695	132.12
412.919	130.12
413.142	132.12
413.365	127.12
413.589	119.12
413.812	119.12
414.035	123.12
414.258	134.12
414.482	132.12
414.705	135.12
414.928	123.12
415.151	133.12
415.374	121.12
415.597	127.12
415.821	134.12
416.044	133.12
416.267	129.12
416.49	131.12
416.713	128.12
416.936	132.12
417.159	131.12
417.382	125.12
417.605	124.12
417.828	134.12
418.051	145.12
418.274	133.12
418.497	131.12
418.72	133.12
418.943	152.12
419.166	131.12
419.389	120.12
419.611	127.12
419.834	133.12
420.057	122.12
420.28	140.12
420.503	132.12
420.726	145.12
420.948	138.12
421.171	141.12
421.394	137.12
421.617	136.12
421.839	127.12
422.062	138.12
422.285	131.12
422.507	141.12
422.73	152.12
422.953	137.12
423.175	145.12
423.398	134.12
423.621	142.12
423.843	123.12
424.066	145.12
424.288	137.12
424.511	150.12
424.733	140.12
424.956	127.12
425.178	132.12
425.401	131.12
425.623	133.12
425.846	132.12
426.068	149.12
426.291	142.12
426.513	129.12
426.735	131.12
426.958	144.12
427.18	133.12
427.402	163.12
427.625	157.12
427.847	142.12
428.069	125.12
428.292	145.12
428.514	132.12
428.736	132.12
428.958	108.12
429.181	121.12
429.403	125.12
429.625	125.12
429.847	130.12
430.069	120.12
430.292	125.12
430.514	131.12
430.736	129.12
430.958	131.12
431.18	128.12
431.402	119.12
431.624	104.12
431.846	133.12
432.068	132.12
432.29	137.12
432.512	138.12
432.734	132.12
432.956	120.12
433.178	129.12
433.4	120.12
433.622	120.12
433.844	135.12
434.066	117.12
434.287	131.12
434.509	131.12
434.731	134.12
434.953	135.12
435.175	131.12
435.397	140.12
435.618	127.12
435.84	148.12
436.062	154.12
436.284	137.12
436.505	132.12
436.727	126.12
436.949	129.12
437.17	132.12
437.392	122.12
437.614	141.12
437.835	122.12
438.057	129.12
438.278	129.12
438.5	156.12
438.721	150.12
438.943	148.12
439.165	125.12
439.386	117.12
439.608	141.12
439.829	122.12
440.05	117.12
440.272	131.12
440.493	130.12
440.715	128.12
440.936	149.12
441.158	139.12
441.379	133.12
441.6	131.12
441.822	133.12
442.043	127.12
442.264	137.12
442.486	135.12
442.707	128.12
442.928	137.12
443.149	124.12
443.371	127.12
443.592	126.12
443.813	128.12
444.034	144.12
444.255	133.12
444.476	143.12
444.698	127.12
444.919	126.12
445.14	224.12
445.361	187.12
445.582	141.12
445.803	132.12
446.024	142.12
446.245	159.12
446.466	153.12
446.687	140.12
446.908	141.12
447.129	114.12
447.35	133.12
447.571	141.12
447.792	131.12
448.013	131.12
448.234	125.12
448.455	125.12
448.675	148.12
448.896	143.12
449.117	143.12
449.338	126.12
449.559	125.12
449.779	138.12
450	129.12
450.221	122.12
450.442	121.12
450.662	127.12
450.883	128.12
451.104	129.12
451.324	125.12
451.545	117.12
451.766	124.12
451.986	123.12
452.207	123.12
452.428	134.12
452.648	123.12
452.869	117.12
453.089	117.12
453.31	128.12
453.53	116.12
453.751	131.12
453.971	119.12
454.192	128.12
454.412	132.12
454.633	127.12
454.853	127.12
455.073	123.12
455.294	117.12
455.514	131.12
455.734	128.12
455.955	112.12
456.175	128.12
456.395	113.12
456.616	126.12
456.836	112.12
457.056	93.12
457.276	119.12
457.497	105.12
457.717	109.12
457.937	125.12
458.157	125.12
458.377	105.12
458.598	118.12
458.818	139.12
459.038	123.12
459.258	138.12
459.478	131.12
459.698	128.12
459.918	121.12
460.138	124.12
460.358	123.12
460.578	135.12
460.798	116.12
461.018	127.12
461.238	127.12
461.458	136.12
461.678	147.12
461.898	131.12
462.118	133.12
462.338	125.12
462.558	136.12
462.777	133.12
462.997	140.12
463.217	146.12
463.437	143.12
463.657	126.12
463.876	125.12
464.096	134.12
464.316	147.12
464.536	135.12
464.755	141.12
464.975	141.12
465.195	140.12
465.414	126.12
465.634	127.12
465.854	128.12
466.073	120.12
466.293	120.12
466.512	125.12
466.732	116.12
466.951	118.12
467.171	112.12
467.391	134.12
467.61	103.12
467.829	113.12
468.049	130.12
468.268	133.12
468.488	133.12
468.707	125.12
468.927	127.12
469.146	143.12
469.365	119.12
469.585	125.12
469.804	120.12
470.023	112.12
470.243	124.12
470.462	122.12
470.681	124.12
470.901	146.12
471.12	132.12
471.339	118.12
471.558	131.12
471.777	124.12
471.997	112.12
472.216	129.12
472.435	124.12
472.654	116.12
472.873	116.12
473.092	132.12
473.311	110.12
473.53	122.12
473.749	145.12
473.968	122.12
474.187	118.12
474.406	131.12
474.625	138.12
474.844	127.12
475.063	125.12
475.282	127.12
475.501	120.12
475.72	129.12
475.939	112.12
476.158	131.12
476.377	128.12
476.596	132.12
476.814	141.12
477.033	120.12
477.252	129.12
477.471	127.12
477.69	122.12
477.908	143.12
478.127	140.12
478.346	127.12
478.564	132.12
478.783	128.12
479.002	130.12
479.22	143.12
479.439	121.12
479.658	123.12
479.876	135.12
480.095	136.12
480.313	133.12
480.532	138.12
480.751	135.12
480.969	122.12
481.188	115.12
481.406	136.12
481.624	137.12
481.843	127.12
482.061	134.12
482.28	136.12
482.498	128.12
482.717	127.12
482.935	129.12
483.153	128.12
483.372	126.12
483.59	133.12
483.808	136.12
484.027	142.12
484.245	133.12
484.463	127.12
484.681	135.12
484.9	132.12
485.118	131.12
485.336	142.12
485.554	133.12
485.772	134.12
485.99	134.12
486.209	129.12
486.427	126.12
486.645	135.12
486.863	145.12
487.081	127.12
487.299	129.12
487.517	127.12
487.735	138.12
487.953	141.12
488.171	147.12
488.389	133.12
488.607	135.12
488.825	131.12
489.043	135.12
489.261	130.12
489.479	127.12
489.696	138.12
489.914	129.12
490.132	154.12
490.35	137.12
490.568	141.12
490.786	129.12
491.003	135.12
491.221	135.12
491.439	129.12
491.657	137.12
491.874	145.12
492.092	138.12
492.31	131.12
492.527	165.12
492.745	136.12
492.963	139.12
493.18	156.12
493.398	139.12
493.615	127.12
493.833	143.12
494.05	133.12
494.268	135.12
494.485	142.12
494.703	140.12
494.92	158.12
495.138	146.12
495.355	156.12
495.573	161.12
495.79	141.12
496.008	143.12
496.225	144.12
496.442	135.12
496.66	140.12
496.877	151.12
497.094	159.12
497.312	148.12
497.529	156.12
497.746	157.12
497.963	142.12
498.181	151.12
498.398	149.12
498.615	153.12
498.832	166.12
499.049	167.12
499.267	167.12
499.484	178.12
499.701	181.12
499.918	186.12
500.135	196.12
500.352	193.12
500.569	204.12
500.786	203.12
501.003	204.12
501.22	215.12
501.437	198.12
501.654	176.12
501.871	154.12
502.088	176.12
502.305	159.12
502.522	177.12
502.739	161.12
502.956	155.12
503.172	150.12
503.389	158.12
503.606	150.12
503.823	156.12
504.04	148.12
504.256	146.12
504.473	141.12
504.69	137.12
504.907	161.12
505.123	142.12
505.34	141.12
