Data from 1968.PennyLincolnUp.Lamp.En5.5.200Scan.071719.P1._HRD10591_14-50-55-969.txt Node
Date: Thu Jul 18 14:50:55 EDT 2019
User: cochatt
Spectrometer: HR+D1059
Trigger mode: 1
Integration Time (sec): 1.000000E-1
Scans to average: 1
Electric dark correction enabled: true
Nonlinearity correction enabled: false
Boxcar width: 0
XAxis mode: Wavelengths
Number of Pixels in Spectrum: 2048
>>>>>Begin Spectral Data<<<<<
223.165	-8.38
223.4	-8.38
223.635	-8.38
223.869	-6.38
224.104	-20.38
224.338	-21.38
224.573	-16.38
224.808	-13.38
225.042	-8.38
225.277	-10.38
225.511	-4.38
225.746	3.62
225.98	5.62
226.215	24.62
226.449	11.62
226.683	20.62
226.918	13.62
227.152	29.62
227.387	34.62
227.621	45.62
227.856	28.62
228.09	44.62
228.324	42.62
228.559	50.62
228.793	64.62
229.027	63.62
229.262	83.62
229.496	65.62
229.73	82.62
229.964	67.62
230.199	65.62
230.433	74.62
230.667	63.62
230.901	85.62
231.136	84.62
231.37	85.62
231.604	70.62
231.838	81.62
232.072	81.62
232.306	83.62
232.541	96.62
232.775	90.62
233.009	78.62
233.243	76.62
233.477	85.62
233.711	86.62
233.945	85.62
234.179	84.62
234.413	86.62
234.647	73.62
234.881	93.62
235.115	81.62
235.349	87.62
235.583	84.62
235.817	79.62
236.051	72.62
236.285	86.62
236.519	85.62
236.753	85.62
236.987	93.62
237.221	71.62
237.455	76.62
237.689	87.62
237.922	79.62
238.156	85.62
238.39	73.62
238.624	91.62
238.858	84.62
239.091	101.62
239.325	77.62
239.559	75.62
239.793	89.62
240.027	67.62
240.26	78.62
240.494	79.62
240.728	89.62
240.961	84.62
241.195	98.62
241.429	85.62
241.662	81.62
241.896	86.62
242.13	82.62
242.363	85.62
242.597	69.62
242.83	81.62
243.064	65.62
243.298	93.62
243.531	82.62
243.765	79.62
243.998	95.62
244.232	81.62
244.465	75.62
244.699	80.62
244.932	81.62
245.166	84.62
245.399	79.62
245.633	82.62
245.866	83.62
246.099	79.62
246.333	91.62
246.566	98.62
246.8	76.62
247.033	84.62
247.266	81.62
247.5	86.62
247.733	87.62
247.966	83.62
248.2	89.62
248.433	85.62
248.666	91.62
248.899	77.62
249.133	85.62
249.366	82.62
249.599	92.62
249.832	83.62
250.066	84.62
250.299	97.62
250.532	78.62
250.765	75.62
250.998	86.62
251.231	99.62
251.465	98.62
251.698	83.62
251.931	93.62
252.164	93.62
252.397	91.62
252.63	102.62
252.863	90.62
253.096	90.62
253.329	98.62
253.562	95.62
253.795	87.62
254.028	78.62
254.261	97.62
254.494	87.62
254.727	90.62
254.96	75.62
255.193	79.62
255.426	90.62
255.659	98.62
255.892	89.62
256.124	72.62
256.357	79.62
256.59	88.62
256.823	102.62
257.056	101.62
257.289	86.62
257.521	85.62
257.754	88.62
257.987	83.62
258.22	102.62
258.452	103.62
258.685	82.62
258.918	90.62
259.151	81.62
259.383	83.62
259.616	84.62
259.849	85.62
260.081	94.62
260.314	91.62
260.547	86.62
260.779	93.62
261.012	88.62
261.244	87.62
261.477	101.62
261.71	92.62
261.942	97.62
262.175	92.62
262.407	107.62
262.64	104.62
262.872	98.62
263.105	88.62
263.337	95.62
263.57	107.62
263.802	84.62
264.035	93.62
264.267	95.62
264.499	91.62
264.732	104.62
264.964	100.62
265.197	82.62
265.429	79.62
265.661	93.62
265.894	95.62
266.126	97.62
266.358	84.62
266.591	97.62
266.823	93.62
267.055	92.62
267.287	87.62
267.52	102.62
267.752	102.62
267.984	100.62
268.216	98.62
268.448	106.62
268.681	104.62
268.913	93.62
269.145	93.62
269.377	89.62
269.609	93.62
269.841	108.62
270.073	90.62
270.306	90.62
270.538	91.62
270.77	80.62
271.002	92.62
271.234	103.62
271.466	97.62
271.698	101.62
271.93	95.62
272.162	82.62
272.394	101.62
272.626	103.62
272.858	99.62
273.09	105.62
273.322	88.62
273.553	105.62
273.785	91.62
274.017	90.62
274.249	90.62
274.481	93.62
274.713	103.62
274.945	93.62
275.176	98.62
275.408	87.62
275.64	92.62
275.872	94.62
276.104	92.62
276.335	110.62
276.567	95.62
276.799	100.62
277.031	99.62
277.262	109.62
277.494	102.62
277.726	104.62
277.957	101.62
278.189	91.62
278.421	97.62
278.652	99.62
278.884	93.62
279.115	96.62
279.347	105.62
279.579	103.62
279.81	92.62
280.042	90.62
280.273	97.62
280.505	98.62
280.736	102.62
280.968	102.62
281.199	98.62
281.431	102.62
281.662	112.62
281.894	101.62
282.125	101.62
282.356	81.62
282.588	94.62
282.819	95.62
283.051	91.62
283.282	116.62
283.513	99.62
283.745	100.62
283.976	93.62
284.207	97.62
284.439	97.62
284.67	100.62
284.901	103.62
285.132	113.62
285.364	98.62
285.595	98.62
285.826	101.62
286.057	97.62
286.288	109.62
286.52	91.62
286.751	110.62
286.982	101.62
287.213	99.62
287.444	108.62
287.675	121.62
287.906	98.62
288.138	99.62
288.369	102.62
288.6	94.62
288.831	92.62
289.062	92.62
289.293	101.62
289.524	85.62
289.755	83.62
289.986	115.62
290.217	101.62
290.448	110.62
290.679	84.62
290.91	104.62
291.141	98.62
291.371	106.62
291.602	93.62
291.833	106.62
292.064	100.62
292.295	94.62
292.526	92.62
292.757	98.62
292.987	108.62
293.218	110.62
293.449	107.62
293.68	92.62
293.91	116.62
294.141	104.62
294.372	94.62
294.603	96.62
294.833	102.62
295.064	105.62
295.295	105.62
295.525	103.62
295.756	98.62
295.987	92.62
296.217	91.62
296.448	100.62
296.679	106.62
296.909	98.62
297.14	90.62
297.37	99.62
297.601	99.62
297.831	99.62
298.062	96.62
298.292	109.62
298.523	103.62
298.753	105.62
298.984	103.62
299.214	104.62
299.445	102.62
299.675	114.62
299.905	101.62
300.136	113.62
300.366	105.62
300.597	95.62
300.827	105.62
301.057	101.62
301.288	106.62
301.518	104.62
301.748	110.62
301.979	99.62
302.209	97.62
302.439	113.62
302.669	109.62
302.9	92.62
303.13	115.62
303.36	96.62
303.59	95.62
303.82	94.62
304.051	103.62
304.281	108.62
304.511	104.62
304.741	102.62
304.971	107.62
305.201	99.62
305.431	108.62
305.661	97.62
305.891	108.62
306.121	87.62
306.352	106.62
306.582	106.62
306.812	114.62
307.042	120.62
307.272	92.62
307.502	111.62
307.731	106.62
307.961	100.62
308.191	107.62
308.421	119.62
308.651	120.62
308.881	124.62
309.111	94.62
309.341	98.62
309.571	101.62
309.8	102.62
310.03	114.62
310.26	113.62
310.49	108.62
310.72	111.62
310.949	107.62
311.179	110.62
311.409	114.62
311.639	115.62
311.868	105.62
312.098	101.62
312.328	104.62
312.557	119.62
312.787	110.62
313.017	87.62
313.246	118.62
313.476	107.62
313.706	118.62
313.935	103.62
314.165	99.62
314.394	110.62
314.624	97.62
314.853	108.62
315.083	106.62
315.312	121.62
315.542	125.62
315.771	107.62
316.001	115.62
316.23	113.62
316.46	95.62
316.689	106.62
316.919	93.62
317.148	106.62
317.377	106.62
317.607	113.62
317.836	93.62
318.065	105.62
318.295	95.62
318.524	106.62
318.753	104.62
318.983	121.62
319.212	103.62
319.441	110.62
319.67	90.62
319.9	101.62
320.129	107.62
320.358	105.62
320.587	110.62
320.816	109.62
321.046	99.62
321.275	127.62
321.504	125.62
321.733	106.62
321.962	113.62
322.191	107.62
322.42	97.62
322.649	116.62
322.878	111.62
323.108	106.62
323.337	116.62
323.566	102.62
323.795	102.62
324.024	113.62
324.253	106.62
324.482	145.62
324.71	151.62
324.939	181.62
325.168	159.62
325.397	126.62
325.626	116.62
325.855	113.62
326.084	110.62
326.313	117.62
326.542	116.62
326.77	135.62
326.999	125.62
327.228	136.62
327.457	143.62
327.686	147.62
327.914	136.62
328.143	123.62
328.372	125.62
328.6	109.62
328.829	118.62
329.058	108.62
329.287	111.62
329.515	111.62
329.744	115.62
329.972	120.62
330.201	116.62
330.43	110.62
330.658	117.62
330.887	103.62
331.115	105.62
331.344	128.62
331.572	100.62
331.801	98.62
332.03	123.62
332.258	123.62
332.486	124.62
332.715	108.62
332.943	120.62
333.172	124.62
333.4	120.62
333.629	123.62
333.857	106.62
334.085	107.62
334.314	110.62
334.542	117.62
334.771	107.62
334.999	100.62
335.227	124.62
335.455	104.62
335.684	113.62
335.912	117.62
336.14	121.62
336.369	113.62
336.597	125.62
336.825	121.62
337.053	117.62
337.281	113.62
337.51	120.62
337.738	118.62
337.966	120.62
338.194	124.62
338.422	104.62
338.65	117.62
338.878	108.62
339.106	107.62
339.334	116.62
339.562	105.62
339.79	105.62
340.018	114.62
340.246	105.62
340.474	106.62
340.702	102.62
340.93	122.62
341.158	116.62
341.386	116.62
341.614	102.62
341.842	114.62
342.07	106.62
342.298	118.62
342.526	112.62
342.754	98.62
342.981	101.62
343.209	110.62
343.437	122.62
343.665	129.62
343.893	121.62
344.12	122.62
344.348	115.62
344.576	119.62
344.804	122.62
345.031	103.62
345.259	113.62
345.487	117.62
345.714	129.62
345.942	111.62
346.17	106.62
346.397	116.62
346.625	107.62
346.853	100.62
347.08	116.62
347.308	73.62
347.535	99.62
347.763	103.62
347.99	109.62
348.218	102.62
348.445	111.62
348.673	121.62
348.9	113.62
349.128	94.62
349.355	95.62
349.583	118.62
349.81	105.62
350.037	113.62
350.265	107.62
350.492	101.62
350.72	107.62
350.947	122.62
351.174	89.62
351.402	103.62
351.629	101.62
351.856	107.62
352.083	108.62
352.311	114.62
352.538	113.62
352.765	105.62
352.992	116.62
353.22	105.62
353.447	110.62
353.674	105.62
353.901	99.62
354.128	109.62
354.355	109.62
354.583	106.62
354.81	109.62
355.037	99.62
355.264	111.62
355.491	95.62
355.718	111.62
355.945	102.62
356.172	100.62
356.399	104.62
356.626	112.62
356.853	130.62
357.08	113.62
357.307	109.62
357.534	119.62
357.761	90.62
357.988	114.62
358.215	112.62
358.441	103.62
358.668	115.62
358.895	107.62
359.122	108.62
359.349	117.62
359.576	106.62
359.802	122.62
360.029	114.62
360.256	118.62
360.483	108.62
360.709	102.62
360.936	107.62
361.163	106.62
361.39	117.62
361.616	106.62
361.843	109.62
362.07	91.62
362.296	98.62
362.523	115.62
362.749	108.62
362.976	95.62
363.203	107.62
363.429	93.62
363.656	111.62
363.882	103.62
364.109	116.62
364.335	102.62
364.562	110.62
364.788	95.62
365.015	105.62
365.241	110.62
365.468	124.62
365.694	114.62
365.92	93.62
366.147	104.62
366.373	114.62
366.599	108.62
366.826	105.62
367.052	113.62
367.278	116.62
367.505	113.62
367.731	113.62
367.957	94.62
368.184	94.62
368.41	124.62
368.636	126.62
368.862	118.62
369.089	95.62
369.315	127.62
369.541	110.62
369.767	109.62
369.993	101.62
370.219	121.62
370.445	95.62
370.672	99.62
370.898	119.62
371.124	113.62
371.35	107.62
371.576	113.62
371.802	110.62
372.028	105.62
372.254	111.62
372.48	102.62
372.706	117.62
372.932	113.62
373.158	110.62
373.384	125.62
373.61	119.62
373.835	101.62
374.061	104.62
374.287	103.62
374.513	111.62
374.739	109.62
374.965	110.62
375.191	116.62
375.416	100.62
375.642	109.62
375.868	107.62
376.094	114.62
376.319	99.62
376.545	103.62
376.771	102.62
376.997	103.62
377.222	106.62
377.448	119.62
377.674	110.62
377.899	104.62
378.125	106.62
378.35	117.62
378.576	113.62
378.802	98.62
379.027	125.62
379.253	105.62
379.478	121.62
379.704	103.62
379.929	107.62
380.155	101.62
380.38	122.62
380.606	125.62
380.831	118.62
381.057	113.62
381.282	116.62
381.507	111.62
381.733	123.62
381.958	122.62
382.184	113.62
382.409	122.62
382.634	117.62
382.86	97.62
383.085	101.62
383.31	120.62
383.535	123.62
383.761	111.62
383.986	105.62
384.211	118.62
384.436	128.62
384.662	115.62
384.887	104.62
385.112	121.62
385.337	111.62
385.562	117.62
385.787	112.62
386.013	113.62
386.238	125.62
386.463	115.62
386.688	123.62
386.913	123.62
387.138	119.62
387.363	114.62
387.588	113.62
387.813	109.62
388.038	124.62
388.263	101.62
388.488	119.62
388.713	109.62
388.938	112.62
389.163	115.62
389.387	122.62
389.612	111.62
389.837	117.62
390.062	115.62
390.287	118.62
390.512	118.62
390.736	126.62
390.961	119.62
391.186	121.62
391.411	123.62
391.636	122.62
391.86	121.62
392.085	123.62
392.31	134.62
392.534	123.62
392.759	133.62
392.984	124.62
393.208	127.62
393.433	131.62
393.658	108.62
393.882	121.62
394.107	109.62
394.331	141.62
394.556	116.62
394.78	107.62
395.005	103.62
395.229	118.62
395.454	131.62
395.678	120.62
395.903	117.62
396.127	129.62
396.352	124.62
396.576	102.62
396.801	125.62
397.025	120.62
397.249	136.62
397.474	125.62
397.698	122.62
397.922	118.62
398.147	123.62
398.371	125.62
398.595	130.62
398.82	141.62
399.044	114.62
399.268	130.62
399.492	134.62
399.717	146.62
399.941	151.62
400.165	144.62
400.389	128.62
400.613	121.62
400.837	117.62
401.062	127.62
401.286	125.62
401.51	143.62
401.734	123.62
401.958	127.62
402.182	132.62
402.406	141.62
402.63	128.62
402.854	135.62
403.078	134.62
403.302	123.62
403.526	131.62
403.75	137.62
403.974	138.62
404.198	139.62
404.422	111.62
404.645	123.62
404.869	135.62
405.093	116.62
405.317	129.62
405.541	132.62
405.765	125.62
405.988	142.62
406.212	129.62
406.436	143.62
406.66	143.62
406.883	137.62
407.107	131.62
407.331	134.62
407.555	159.62
407.778	146.62
408.002	146.62
408.226	136.62
408.449	133.62
408.673	147.62
408.896	152.62
409.12	147.62
409.344	141.62
409.567	119.62
409.791	138.62
410.014	139.62
410.238	125.62
410.461	121.62
410.685	135.62
410.908	128.62
411.132	127.62
411.355	135.62
411.578	113.62
411.802	128.62
412.025	121.62
412.249	115.62
412.472	122.62
412.695	119.62
412.919	130.62
413.142	131.62
413.365	118.62
413.589	123.62
413.812	111.62
414.035	121.62
414.258	125.62
414.482	117.62
414.705	130.62
414.928	135.62
415.151	137.62
415.374	143.62
415.597	127.62
415.821	128.62
416.044	117.62
416.267	131.62
416.49	117.62
416.713	121.62
416.936	121.62
417.159	119.62
417.382	132.62
417.605	132.62
417.828	121.62
418.051	113.62
418.274	112.62
418.497	123.62
418.72	146.62
418.943	129.62
419.166	137.62
419.389	142.62
419.611	142.62
419.834	122.62
420.057	127.62
420.28	137.62
420.503	135.62
420.726	131.62
420.948	136.62
421.171	134.62
421.394	136.62
421.617	140.62
421.839	137.62
422.062	137.62
422.285	129.62
422.507	142.62
422.73	136.62
422.953	137.62
423.175	139.62
423.398	131.62
423.621	122.62
423.843	123.62
424.066	140.62
424.288	134.62
424.511	121.62
424.733	139.62
424.956	126.62
425.178	145.62
425.401	129.62
425.623	126.62
425.846	119.62
426.068	120.62
426.291	120.62
426.513	148.62
426.735	122.62
426.958	129.62
427.18	145.62
427.402	145.62
427.625	150.62
427.847	121.62
428.069	127.62
428.292	136.62
428.514	122.62
428.736	114.62
428.958	115.62
429.181	126.62
429.403	130.62
429.625	131.62
429.847	108.62
430.069	125.62
430.292	128.62
430.514	117.62
430.736	143.62
430.958	117.62
431.18	121.62
431.402	121.62
431.624	118.62
431.846	114.62
432.068	135.62
432.29	126.62
432.512	129.62
432.734	129.62
432.956	132.62
433.178	135.62
433.4	146.62
433.622	126.62
433.844	133.62
434.066	117.62
434.287	116.62
434.509	123.62
434.731	130.62
434.953	123.62
435.175	117.62
435.397	129.62
435.618	127.62
435.84	132.62
436.062	141.62
436.284	134.62
436.505	134.62
436.727	124.62
436.949	134.62
437.17	121.62
437.392	117.62
437.614	134.62
437.835	121.62
438.057	117.62
438.278	133.62
438.5	134.62
438.721	131.62
438.943	138.62
439.165	137.62
439.386	127.62
439.608	125.62
439.829	118.62
440.05	138.62
440.272	136.62
440.493	122.62
440.715	131.62
440.936	133.62
441.158	126.62
441.379	130.62
441.6	126.62
441.822	134.62
442.043	143.62
442.264	133.62
442.486	117.62
442.707	129.62
442.928	135.62
443.149	122.62
443.371	135.62
443.592	114.62
443.813	143.62
444.034	151.62
444.255	142.62
444.476	126.62
444.698	140.62
444.919	131.62
445.14	217.62
445.361	184.62
445.582	140.62
445.803	133.62
446.024	131.62
446.245	142.62
446.466	127.62
446.687	129.62
446.908	128.62
447.129	119.62
447.35	130.62
447.571	122.62
447.792	122.62
448.013	124.62
448.234	125.62
448.455	131.62
448.675	121.62
448.896	134.62
449.117	126.62
449.338	131.62
449.559	129.62
449.779	141.62
450	127.62
450.221	121.62
450.442	130.62
450.662	132.62
450.883	121.62
451.104	125.62
451.324	131.62
451.545	121.62
451.766	133.62
451.986	110.62
452.207	126.62
452.428	109.62
452.648	118.62
452.869	116.62
453.089	111.62
453.31	125.62
453.53	116.62
453.751	105.62
453.971	100.62
454.192	122.62
454.412	117.62
454.633	123.62
454.853	121.62
455.073	107.62
455.294	122.62
455.514	118.62
455.734	114.62
455.955	118.62
456.175	111.62
456.395	125.62
456.616	120.62
456.836	122.62
457.056	115.62
457.276	113.62
457.497	119.62
457.717	130.62
457.937	109.62
458.157	113.62
458.377	116.62
458.598	126.62
458.818	113.62
459.038	120.62
459.258	134.62
459.478	119.62
459.698	122.62
459.918	111.62
460.138	129.62
460.358	119.62
460.578	122.62
460.798	126.62
461.018	131.62
461.238	125.62
461.458	129.62
461.678	133.62
461.898	129.62
462.118	127.62
462.338	130.62
462.558	135.62
462.777	139.62
462.997	142.62
463.217	143.62
463.437	134.62
463.657	130.62
463.876	121.62
464.096	137.62
464.316	133.62
464.536	133.62
464.755	127.62
464.975	128.62
465.195	133.62
465.414	137.62
465.634	121.62
465.854	135.62
466.073	117.62
466.293	113.62
466.512	109.62
466.732	124.62
466.951	120.62
467.171	133.62
467.391	118.62
467.61	128.62
467.829	122.62
468.049	123.62
468.268	124.62
468.488	118.62
468.707	125.62
468.927	125.62
469.146	113.62
469.365	103.62
469.585	119.62
469.804	125.62
470.023	132.62
470.243	127.62
470.462	133.62
470.681	123.62
470.901	124.62
471.12	134.62
471.339	117.62
471.558	126.62
471.777	117.62
471.997	139.62
472.216	122.62
472.435	121.62
472.654	129.62
472.873	132.62
473.092	126.62
473.311	121.62
473.53	123.62
473.749	118.62
473.968	125.62
474.187	121.62
474.406	134.62
474.625	115.62
474.844	134.62
475.063	136.62
475.282	123.62
475.501	122.62
475.72	117.62
475.939	113.62
476.158	119.62
476.377	121.62
476.596	115.62
476.814	116.62
477.033	137.62
477.252	131.62
477.471	139.62
477.69	131.62
477.908	121.62
478.127	132.62
478.346	130.62
478.564	128.62
478.783	141.62
479.002	126.62
479.22	139.62
479.439	117.62
479.658	142.62
479.876	129.62
480.095	126.62
480.313	143.62
480.532	141.62
480.751	130.62
480.969	147.62
481.188	132.62
481.406	128.62
481.624	134.62
481.843	131.62
482.061	137.62
482.28	119.62
482.498	105.62
482.717	119.62
482.935	121.62
483.153	119.62
483.372	132.62
483.59	138.62
483.808	113.62
484.027	125.62
484.245	142.62
484.463	121.62
484.681	134.62
484.9	124.62
485.118	125.62
485.336	145.62
485.554	134.62
485.772	124.62
485.99	131.62
486.209	139.62
486.427	126.62
486.645	147.62
486.863	132.62
487.081	154.62
487.299	136.62
487.517	126.62
487.735	139.62
487.953	149.62
488.171	129.62
488.389	132.62
488.607	128.62
488.825	121.62
489.043	141.62
489.261	139.62
489.479	139.62
489.696	126.62
489.914	137.62
490.132	127.62
490.35	144.62
490.568	152.62
490.786	139.62
491.003	125.62
491.221	143.62
491.439	155.62
491.657	143.62
491.874	139.62
492.092	148.62
492.31	147.62
492.527	148.62
492.745	134.62
492.963	141.62
493.18	150.62
493.398	147.62
493.615	136.62
493.833	141.62
494.05	152.62
494.268	151.62
494.485	137.62
494.703	154.62
494.92	159.62
495.138	129.62
495.355	149.62
495.573	137.62
495.79	137.62
496.008	143.62
496.225	142.62
496.442	141.62
496.66	136.62
496.877	134.62
497.094	149.62
497.312	153.62
497.529	165.62
497.746	150.62
497.963	145.62
498.181	155.62
498.398	144.62
498.615	166.62
498.832	164.62
499.049	158.62
499.267	164.62
499.484	163.62
499.701	184.62
499.918	179.62
500.135	214.62
500.352	209.62
500.569	221.62
500.786	204.62
501.003	220.62
501.22	179.62
501.437	177.62
501.654	181.62
501.871	170.62
502.088	166.62
502.305	147.62
502.522	148.62
502.739	153.62
502.956	154.62
503.172	149.62
503.389	134.62
503.606	155.62
503.823	143.62
504.04	145.62
504.256	151.62
504.473	154.62
504.69	154.62
504.907	157.62
505.123	146.62
505.34	151.62
505.557	139.62
505.773	153.62
