Data from 1968.PennyLincolnUp.Lamp.En5.5.200Scan.071719.P1._HRD10591_14-50-12-969.txt Node
Date: Thu Jul 18 14:50:12 EDT 2019
User: cochatt
Spectrometer: HR+D1059
Trigger mode: 1
Integration Time (sec): 1.000000E-1
Scans to average: 1
Electric dark correction enabled: true
Nonlinearity correction enabled: false
Boxcar width: 0
XAxis mode: Wavelengths
Number of Pixels in Spectrum: 2048
>>>>>Begin Spectral Data<<<<<
223.165	-20.69
223.4	-20.69
223.635	-20.69
223.869	-17.69
224.104	-13.69
224.338	-19.69
224.573	-5.69
224.808	-10.69
225.042	-23.69
225.277	-4.69
225.511	-0.69
225.746	2.31
225.98	17.31
226.215	12.31
226.449	12.31
226.683	24.31
226.918	30.31
227.152	18.31
227.387	36.31
227.621	33.31
227.856	39.31
228.09	36.31
228.324	52.31
228.559	50.31
228.793	61.31
229.027	55.31
229.262	51.31
229.496	67.31
229.73	65.31
229.964	60.31
230.199	70.31
230.433	75.31
230.667	80.31
230.901	71.31
231.136	73.31
231.37	77.31
231.604	70.31
231.838	82.31
232.072	89.31
232.306	87.31
232.541	83.31
232.775	85.31
233.009	74.31
233.243	93.31
233.477	84.31
233.711	87.31
233.945	85.31
234.179	84.31
234.413	71.31
234.647	87.31
234.881	99.31
235.115	84.31
235.349	75.31
235.583	75.31
235.817	71.31
236.051	84.31
236.285	89.31
236.519	72.31
236.753	81.31
236.987	91.31
237.221	83.31
237.455	86.31
237.689	88.31
237.922	72.31
238.156	89.31
238.39	79.31
238.624	80.31
238.858	85.31
239.091	71.31
239.325	64.31
239.559	75.31
239.793	84.31
240.027	84.31
240.26	81.31
240.494	85.31
240.728	63.31
240.961	72.31
241.195	73.31
241.429	69.31
241.662	87.31
241.896	89.31
242.13	82.31
242.363	75.31
242.597	88.31
242.83	94.31
243.064	73.31
243.298	98.31
243.531	81.31
243.765	92.31
243.998	80.31
244.232	82.31
244.465	82.31
244.699	79.31
244.932	76.31
245.166	84.31
245.399	90.31
245.633	70.31
245.866	89.31
246.099	95.31
246.333	81.31
246.566	74.31
246.8	71.31
247.033	62.31
247.266	86.31
247.5	78.31
247.733	93.31
247.966	90.31
248.2	85.31
248.433	90.31
248.666	95.31
248.899	74.31
249.133	85.31
249.366	93.31
249.599	74.31
249.832	80.31
250.066	91.31
250.299	97.31
250.532	108.31
250.765	76.31
250.998	83.31
251.231	92.31
251.465	76.31
251.698	83.31
251.931	86.31
252.164	96.31
252.397	103.31
252.63	93.31
252.863	84.31
253.096	95.31
253.329	94.31
253.562	97.31
253.795	100.31
254.028	95.31
254.261	67.31
254.494	87.31
254.727	94.31
254.96	79.31
255.193	102.31
255.426	78.31
255.659	92.31
255.892	86.31
256.124	83.31
256.357	86.31
256.59	107.31
256.823	89.31
257.056	99.31
257.289	91.31
257.521	90.31
257.754	88.31
257.987	85.31
258.22	91.31
258.452	94.31
258.685	87.31
258.918	83.31
259.151	93.31
259.383	90.31
259.616	87.31
259.849	83.31
260.081	84.31
260.314	76.31
260.547	80.31
260.779	101.31
261.012	97.31
261.244	92.31
261.477	81.31
261.71	86.31
261.942	106.31
262.175	96.31
262.407	88.31
262.64	82.31
262.872	87.31
263.105	91.31
263.337	78.31
263.57	100.31
263.802	98.31
264.035	85.31
264.267	98.31
264.499	114.31
264.732	84.31
264.964	97.31
265.197	81.31
265.429	59.31
265.661	98.31
265.894	86.31
266.126	90.31
266.358	85.31
266.591	93.31
266.823	89.31
267.055	95.31
267.287	90.31
267.52	84.31
267.752	96.31
267.984	89.31
268.216	102.31
268.448	92.31
268.681	103.31
268.913	84.31
269.145	80.31
269.377	99.31
269.609	94.31
269.841	93.31
270.073	77.31
270.306	95.31
270.538	96.31
270.77	105.31
271.002	90.31
271.234	86.31
271.466	92.31
271.698	94.31
271.93	87.31
272.162	91.31
272.394	95.31
272.626	92.31
272.858	104.31
273.09	102.31
273.322	99.31
273.553	107.31
273.785	95.31
274.017	108.31
274.249	102.31
274.481	98.31
274.713	93.31
274.945	106.31
275.176	96.31
275.408	73.31
275.64	80.31
275.872	89.31
276.104	106.31
276.335	95.31
276.567	94.31
276.799	83.31
277.031	104.31
277.262	97.31
277.494	92.31
277.726	100.31
277.957	94.31
278.189	98.31
278.421	88.31
278.652	96.31
278.884	89.31
279.115	87.31
279.347	101.31
279.579	87.31
279.81	91.31
280.042	93.31
280.273	99.31
280.505	89.31
280.736	93.31
280.968	92.31
281.199	92.31
281.431	89.31
281.662	99.31
281.894	92.31
282.125	98.31
282.356	83.31
282.588	90.31
282.819	98.31
283.051	92.31
283.282	91.31
283.513	97.31
283.745	108.31
283.976	101.31
284.207	106.31
284.439	96.31
284.67	98.31
284.901	100.31
285.132	94.31
285.364	98.31
285.595	102.31
285.826	92.31
286.057	87.31
286.288	121.31
286.52	82.31
286.751	95.31
286.982	101.31
287.213	97.31
287.444	93.31
287.675	88.31
287.906	99.31
288.138	92.31
288.369	85.31
288.6	84.31
288.831	89.31
289.062	105.31
289.293	101.31
289.524	104.31
289.755	115.31
289.986	103.31
290.217	97.31
290.448	103.31
290.679	107.31
290.91	96.31
291.141	114.31
291.371	106.31
291.602	100.31
291.833	101.31
292.064	103.31
292.295	89.31
292.526	103.31
292.757	100.31
292.987	94.31
293.218	80.31
293.449	104.31
293.68	104.31
293.91	89.31
294.141	105.31
294.372	90.31
294.603	90.31
294.833	111.31
295.064	111.31
295.295	88.31
295.525	99.31
295.756	99.31
295.987	92.31
296.217	87.31
296.448	100.31
296.679	83.31
296.909	88.31
297.14	102.31
297.37	92.31
297.601	95.31
297.831	95.31
298.062	103.31
298.292	92.31
298.523	106.31
298.753	108.31
298.984	108.31
299.214	97.31
299.445	112.31
299.675	94.31
299.905	95.31
300.136	91.31
300.366	99.31
300.597	107.31
300.827	90.31
301.057	97.31
301.288	101.31
301.518	87.31
301.748	93.31
301.979	99.31
302.209	99.31
302.439	113.31
302.669	113.31
302.9	106.31
303.13	101.31
303.36	109.31
303.59	108.31
303.82	105.31
304.051	113.31
304.281	92.31
304.511	98.31
304.741	104.31
304.971	92.31
305.201	101.31
305.431	96.31
305.661	113.31
305.891	97.31
306.121	111.31
306.352	99.31
306.582	108.31
306.812	103.31
307.042	104.31
307.272	100.31
307.502	89.31
307.731	94.31
307.961	100.31
308.191	106.31
308.421	110.31
308.651	99.31
308.881	108.31
309.111	81.31
309.341	101.31
309.571	104.31
309.8	114.31
310.03	111.31
310.26	97.31
310.49	107.31
310.72	95.31
310.949	93.31
311.179	91.31
311.409	103.31
311.639	103.31
311.868	93.31
312.098	100.31
312.328	90.31
312.557	120.31
312.787	93.31
313.017	97.31
313.246	102.31
313.476	96.31
313.706	89.31
313.935	108.31
314.165	89.31
314.394	90.31
314.624	103.31
314.853	107.31
315.083	114.31
315.312	104.31
315.542	109.31
315.771	111.31
316.001	96.31
316.23	95.31
316.46	93.31
316.689	102.31
316.919	102.31
317.148	107.31
317.377	125.31
317.607	116.31
317.836	107.31
318.065	103.31
318.295	110.31
318.524	108.31
318.753	99.31
318.983	100.31
319.212	95.31
319.441	104.31
319.67	97.31
319.9	110.31
320.129	119.31
320.358	104.31
320.587	95.31
320.816	105.31
321.046	123.31
321.275	115.31
321.504	103.31
321.733	107.31
321.962	103.31
322.191	103.31
322.42	105.31
322.649	111.31
322.878	118.31
323.108	105.31
323.337	112.31
323.566	105.31
323.795	113.31
324.024	117.31
324.253	113.31
324.482	133.31
324.71	131.31
324.939	179.31
325.168	146.31
325.397	120.31
325.626	111.31
325.855	125.31
326.084	117.31
326.313	116.31
326.542	110.31
326.77	111.31
326.999	112.31
327.228	115.31
327.457	133.31
327.686	147.31
327.914	127.31
328.143	123.31
328.372	113.31
328.6	105.31
328.829	113.31
329.058	100.31
329.287	101.31
329.515	109.31
329.744	120.31
329.972	123.31
330.201	119.31
330.43	108.31
330.658	118.31
330.887	113.31
331.115	125.31
331.344	103.31
331.572	108.31
331.801	131.31
332.03	105.31
332.258	106.31
332.486	127.31
332.715	113.31
332.943	117.31
333.172	108.31
333.4	121.31
333.629	119.31
333.857	115.31
334.085	126.31
334.314	127.31
334.542	124.31
334.771	114.31
334.999	123.31
335.227	116.31
335.455	100.31
335.684	115.31
335.912	120.31
336.14	105.31
336.369	106.31
336.597	115.31
336.825	113.31
337.053	106.31
337.281	108.31
337.51	103.31
337.738	122.31
337.966	105.31
338.194	104.31
338.422	117.31
338.65	105.31
338.878	114.31
339.106	121.31
339.334	100.31
339.562	111.31
339.79	116.31
340.018	111.31
340.246	112.31
340.474	107.31
340.702	115.31
340.93	106.31
341.158	89.31
341.386	108.31
341.614	120.31
341.842	91.31
342.07	103.31
342.298	103.31
342.526	107.31
342.754	116.31
342.981	102.31
343.209	97.31
343.437	102.31
343.665	104.31
343.893	109.31
344.12	113.31
344.348	113.31
344.576	88.31
344.804	116.31
345.031	118.31
345.259	111.31
345.487	102.31
345.714	106.31
345.942	98.31
346.17	111.31
346.397	105.31
346.625	112.31
346.853	97.31
347.08	103.31
347.308	100.31
347.535	113.31
347.763	104.31
347.99	104.31
348.218	108.31
348.445	101.31
348.673	106.31
348.9	97.31
349.128	110.31
349.355	105.31
349.583	95.31
349.81	102.31
350.037	115.31
350.265	113.31
350.492	117.31
350.72	109.31
350.947	103.31
351.174	110.31
351.402	103.31
351.629	104.31
351.856	103.31
352.083	112.31
352.311	105.31
352.538	83.31
352.765	105.31
352.992	117.31
353.22	108.31
353.447	95.31
353.674	86.31
353.901	116.31
354.128	99.31
354.355	92.31
354.583	96.31
354.81	109.31
355.037	111.31
355.264	102.31
355.491	118.31
355.718	99.31
355.945	103.31
356.172	100.31
356.399	93.31
356.626	114.31
356.853	113.31
357.08	111.31
357.307	115.31
357.534	103.31
357.761	96.31
357.988	95.31
358.215	111.31
358.441	111.31
358.668	88.31
358.895	108.31
359.122	111.31
359.349	113.31
359.576	109.31
359.802	113.31
360.029	120.31
360.256	107.31
360.483	98.31
360.709	93.31
360.936	104.31
361.163	111.31
361.39	119.31
361.616	118.31
361.843	98.31
362.07	111.31
362.296	95.31
362.523	95.31
362.749	82.31
362.976	97.31
363.203	111.31
363.429	104.31
363.656	101.31
363.882	98.31
364.109	91.31
364.335	104.31
364.562	96.31
364.788	108.31
365.015	104.31
365.241	98.31
365.468	98.31
365.694	108.31
365.92	102.31
366.147	103.31
366.373	100.31
366.599	116.31
366.826	100.31
367.052	99.31
367.278	102.31
367.505	113.31
367.731	104.31
367.957	97.31
368.184	88.31
368.41	96.31
368.636	103.31
368.862	101.31
369.089	114.31
369.315	103.31
369.541	115.31
369.767	101.31
369.993	115.31
370.219	91.31
370.445	101.31
370.672	111.31
370.898	115.31
371.124	107.31
371.35	107.31
371.576	113.31
371.802	105.31
372.028	102.31
372.254	98.31
372.48	121.31
372.706	116.31
372.932	105.31
373.158	115.31
373.384	111.31
373.61	108.31
373.835	103.31
374.061	107.31
374.287	107.31
374.513	120.31
374.739	123.31
374.965	106.31
375.191	128.31
375.416	112.31
375.642	105.31
375.868	105.31
376.094	120.31
376.319	119.31
376.545	117.31
376.771	88.31
376.997	96.31
377.222	111.31
377.448	119.31
377.674	112.31
377.899	95.31
378.125	87.31
378.35	112.31
378.576	104.31
378.802	98.31
379.027	110.31
379.253	111.31
379.478	97.31
379.704	105.31
379.929	121.31
380.155	113.31
380.38	118.31
380.606	111.31
380.831	107.31
381.057	108.31
381.282	99.31
381.507	107.31
381.733	108.31
381.958	117.31
382.184	96.31
382.409	117.31
382.634	116.31
382.86	96.31
383.085	123.31
383.31	115.31
383.535	104.31
383.761	122.31
383.986	104.31
384.211	101.31
384.436	124.31
384.662	104.31
384.887	127.31
385.112	97.31
385.337	111.31
385.562	114.31
385.787	116.31
386.013	121.31
386.238	102.31
386.463	108.31
386.688	115.31
386.913	131.31
387.138	119.31
387.363	103.31
387.588	111.31
387.813	123.31
388.038	104.31
388.263	107.31
388.488	126.31
388.713	92.31
388.938	111.31
389.163	111.31
389.387	124.31
389.612	121.31
389.837	115.31
390.062	113.31
390.287	122.31
390.512	111.31
390.736	116.31
390.961	108.31
391.186	109.31
391.411	112.31
391.636	127.31
391.86	117.31
392.085	123.31
392.31	121.31
392.534	98.31
392.759	100.31
392.984	123.31
393.208	117.31
393.433	127.31
393.658	128.31
393.882	117.31
394.107	113.31
394.331	115.31
394.556	112.31
394.78	99.31
395.005	115.31
395.229	117.31
395.454	127.31
395.678	123.31
395.903	127.31
396.127	129.31
396.352	129.31
396.576	99.31
396.801	121.31
397.025	115.31
397.249	122.31
397.474	124.31
397.698	112.31
397.922	117.31
398.147	123.31
398.371	104.31
398.595	106.31
398.82	112.31
399.044	133.31
399.268	138.31
399.492	132.31
399.717	139.31
399.941	147.31
400.165	138.31
400.389	133.31
400.613	113.31
400.837	129.31
401.062	126.31
401.286	122.31
401.51	123.31
401.734	128.31
401.958	115.31
402.182	119.31
402.406	132.31
402.63	131.31
402.854	112.31
403.078	116.31
403.302	123.31
403.526	134.31
403.75	149.31
403.974	127.31
404.198	131.31
404.422	124.31
404.645	123.31
404.869	124.31
405.093	126.31
405.317	135.31
405.541	131.31
405.765	124.31
405.988	123.31
406.212	140.31
406.436	133.31
406.66	136.31
406.883	126.31
407.107	131.31
407.331	135.31
407.555	135.31
407.778	130.31
408.002	125.31
408.226	134.31
408.449	134.31
408.673	125.31
408.896	135.31
409.12	135.31
409.344	135.31
409.567	123.31
409.791	130.31
410.014	131.31
410.238	112.31
410.461	104.31
410.685	117.31
410.908	127.31
411.132	134.31
411.355	123.31
411.578	129.31
411.802	104.31
412.025	136.31
412.249	98.31
412.472	119.31
412.695	110.31
412.919	124.31
413.142	115.31
413.365	130.31
413.589	120.31
413.812	135.31
414.035	127.31
414.258	121.31
414.482	132.31
414.705	120.31
414.928	111.31
415.151	119.31
415.374	125.31
415.597	124.31
415.821	122.31
416.044	125.31
416.267	121.31
416.49	123.31
416.713	119.31
416.936	129.31
417.159	123.31
417.382	123.31
417.605	122.31
417.828	131.31
418.051	135.31
418.274	118.31
418.497	114.31
418.72	122.31
418.943	128.31
419.166	125.31
419.389	137.31
419.611	127.31
419.834	124.31
420.057	133.31
420.28	120.31
420.503	131.31
420.726	118.31
420.948	127.31
421.171	120.31
421.394	123.31
421.617	120.31
421.839	126.31
422.062	120.31
422.285	122.31
422.507	131.31
422.73	131.31
422.953	132.31
423.175	113.31
423.398	128.31
423.621	115.31
423.843	121.31
424.066	124.31
424.288	141.31
424.511	135.31
424.733	125.31
424.956	145.31
425.178	131.31
425.401	147.31
425.623	131.31
425.846	129.31
426.068	122.31
426.291	144.31
426.513	127.31
426.735	139.31
426.958	131.31
427.18	130.31
427.402	138.31
427.625	134.31
427.847	131.31
428.069	122.31
428.292	126.31
428.514	120.31
428.736	106.31
428.958	122.31
429.181	111.31
429.403	120.31
429.625	123.31
429.847	101.31
430.069	151.31
430.292	121.31
430.514	123.31
430.736	124.31
430.958	115.31
431.18	104.31
431.402	124.31
431.624	106.31
431.846	111.31
432.068	124.31
432.29	115.31
432.512	123.31
432.734	116.31
432.956	122.31
433.178	137.31
433.4	116.31
433.622	114.31
433.844	133.31
434.066	119.31
434.287	122.31
434.509	109.31
434.731	139.31
434.953	117.31
435.175	112.31
435.397	121.31
435.618	130.31
435.84	130.31
436.062	131.31
436.284	146.31
436.505	108.31
436.727	120.31
436.949	111.31
437.17	129.31
437.392	115.31
437.614	129.31
437.835	114.31
438.057	139.31
438.278	126.31
438.5	122.31
438.721	139.31
438.943	137.31
439.165	129.31
439.386	128.31
439.608	126.31
439.829	127.31
440.05	133.31
440.272	134.31
440.493	127.31
440.715	139.31
440.936	126.31
441.158	123.31
441.379	110.31
441.6	125.31
441.822	108.31
442.043	133.31
442.264	132.31
442.486	135.31
442.707	120.31
442.928	120.31
443.149	133.31
443.371	134.31
443.592	131.31
443.813	139.31
444.034	138.31
444.255	140.31
444.476	129.31
444.698	131.31
444.919	129.31
445.14	246.31
445.361	203.31
445.582	132.31
445.803	125.31
446.024	132.31
446.245	133.31
446.466	131.31
446.687	112.31
446.908	119.31
447.129	124.31
447.35	120.31
447.571	125.31
447.792	120.31
448.013	130.31
448.234	122.31
448.455	135.31
448.675	132.31
448.896	137.31
449.117	127.31
449.338	117.31
449.559	135.31
449.779	135.31
450	132.31
450.221	123.31
450.442	117.31
450.662	120.31
450.883	117.31
451.104	117.31
451.324	106.31
451.545	116.31
451.766	114.31
451.986	119.31
452.207	118.31
452.428	108.31
452.648	117.31
452.869	127.31
453.089	108.31
453.31	119.31
453.53	120.31
453.751	127.31
453.971	119.31
454.192	129.31
454.412	119.31
454.633	108.31
454.853	118.31
455.073	111.31
455.294	123.31
455.514	113.31
455.734	119.31
455.955	100.31
456.175	115.31
456.395	95.31
456.616	123.31
456.836	97.31
457.056	117.31
457.276	113.31
457.497	89.31
457.717	110.31
457.937	111.31
458.157	112.31
458.377	102.31
458.598	115.31
458.818	122.31
459.038	104.31
459.258	126.31
459.478	125.31
459.698	125.31
459.918	139.31
460.138	116.31
460.358	127.31
460.578	118.31
460.798	129.31
461.018	120.31
461.238	122.31
461.458	129.31
461.678	119.31
461.898	121.31
462.118	138.31
462.338	127.31
462.558	128.31
462.777	119.31
462.997	140.31
463.217	134.31
463.437	128.31
463.657	124.31
463.876	131.31
464.096	121.31
464.316	135.31
464.536	127.31
464.755	126.31
464.975	136.31
465.195	150.31
465.414	112.31
465.634	122.31
465.854	113.31
466.073	134.31
466.293	120.31
466.512	114.31
466.732	127.31
466.951	95.31
467.171	124.31
467.391	120.31
467.61	119.31
467.829	117.31
468.049	122.31
468.268	116.31
468.488	108.31
468.707	117.31
468.927	118.31
469.146	119.31
469.365	126.31
469.585	128.31
469.804	131.31
470.023	129.31
470.243	123.31
470.462	119.31
470.681	137.31
470.901	125.31
471.12	134.31
471.339	125.31
471.558	100.31
471.777	131.31
471.997	136.31
472.216	119.31
472.435	120.31
472.654	129.31
472.873	115.31
473.092	124.31
473.311	127.31
473.53	109.31
473.749	133.31
473.968	133.31
474.187	127.31
474.406	118.31
474.625	93.31
474.844	111.31
475.063	113.31
475.282	118.31
475.501	112.31
475.72	112.31
475.939	116.31
476.158	124.31
476.377	121.31
476.596	111.31
476.814	117.31
477.033	117.31
477.252	121.31
477.471	112.31
477.69	127.31
477.908	123.31
478.127	127.31
478.346	116.31
478.564	120.31
478.783	131.31
479.002	121.31
479.22	123.31
479.439	128.31
479.658	120.31
479.876	122.31
480.095	128.31
480.313	126.31
480.532	115.31
480.751	127.31
480.969	123.31
481.188	133.31
481.406	123.31
481.624	114.31
481.843	122.31
482.061	114.31
482.28	126.31
482.498	120.31
482.717	115.31
482.935	108.31
483.153	124.31
483.372	125.31
483.59	139.31
483.808	124.31
484.027	121.31
484.245	135.31
484.463	129.31
484.681	146.31
484.9	140.31
485.118	130.31
485.336	125.31
485.554	135.31
485.772	137.31
485.99	113.31
486.209	119.31
486.427	120.31
486.645	123.31
486.863	131.31
487.081	132.31
487.299	121.31
487.517	130.31
487.735	139.31
487.953	124.31
488.171	135.31
488.389	138.31
488.607	143.31
488.825	127.31
489.043	127.31
489.261	124.31
489.479	127.31
489.696	131.31
489.914	136.31
490.132	135.31
490.35	125.31
490.568	137.31
490.786	136.31
491.003	146.31
491.221	137.31
491.439	147.31
491.657	137.31
491.874	129.31
492.092	130.31
492.31	141.31
492.527	134.31
492.745	153.31
492.963	153.31
493.18	132.31
493.398	135.31
493.615	147.31
493.833	135.31
494.05	139.31
494.268	118.31
494.485	155.31
494.703	135.31
494.92	136.31
495.138	128.31
495.355	146.31
495.573	132.31
495.79	147.31
496.008	138.31
496.225	129.31
496.442	145.31
496.66	145.31
496.877	143.31
497.094	154.31
497.312	143.31
497.529	151.31
497.746	140.31
497.963	139.31
498.181	162.31
498.398	163.31
498.615	162.31
498.832	143.31
499.049	131.31
499.267	163.31
499.484	165.31
499.701	172.31
499.918	181.31
500.135	199.31
500.352	200.31
500.569	203.31
500.786	209.31
501.003	196.31
501.22	191.31
501.437	172.31
501.654	161.31
501.871	169.31
502.088	163.31
502.305	155.31
502.522	151.31
502.739	151.31
502.956	155.31
503.172	152.31
503.389	122.31
503.606	153.31
503.823	147.31
504.04	144.31
504.256	125.31
504.473	143.31
504.69	141.31
504.907	153.31
505.123	143.31
505.34	140.31
505.557	127.31
505.773	138.31
505.99	133.31
506.207	132.31
506.423	128.31
506.64	131.31
