Data from 1968.PennyLincolnUp.Lamp.En5.5.200Scan.071719.P1._HRD10591_14-52-23-970.txt Node
Date: Thu Jul 18 14:52:23 EDT 2019
User: cochatt
Spectrometer: HR+D1059
Trigger mode: 1
Integration Time (sec): 1.000000E-1
Scans to average: 1
Electric dark correction enabled: true
Nonlinearity correction enabled: false
Boxcar width: 0
XAxis mode: Wavelengths
Number of Pixels in Spectrum: 2048
>>>>>Begin Spectral Data<<<<<
223.165	-13.75
223.4	-13.75
223.635	-13.75
223.869	-12.75
224.104	-23.75
224.338	-6.75
224.573	-2.75
224.808	-12.75
225.042	0.25
225.277	-6.75
225.511	-17.75
225.746	5.25
225.98	-0.75
226.215	14.25
226.449	30.25
226.683	5.25
226.918	15.25
227.152	27.25
227.387	39.25
227.621	45.25
227.856	54.25
228.09	41.25
228.324	57.25
228.559	56.25
228.793	69.25
229.027	70.25
229.262	69.25
229.496	52.25
229.73	73.25
229.964	83.25
230.199	78.25
230.433	74.25
230.667	82.25
230.901	89.25
231.136	85.25
231.37	82.25
231.604	85.25
231.838	89.25
232.072	76.25
232.306	78.25
232.541	81.25
232.775	73.25
233.009	84.25
233.243	75.25
233.477	75.25
233.711	94.25
233.945	82.25
234.179	82.25
234.413	90.25
234.647	88.25
234.881	79.25
235.115	79.25
235.349	83.25
235.583	101.25
235.817	100.25
236.051	86.25
236.285	80.25
236.519	90.25
236.753	82.25
236.987	83.25
237.221	85.25
237.455	91.25
237.689	75.25
237.922	79.25
238.156	83.25
238.39	75.25
238.624	91.25
238.858	104.25
239.091	70.25
239.325	66.25
239.559	72.25
239.793	90.25
240.027	90.25
240.26	87.25
240.494	88.25
240.728	84.25
240.961	78.25
241.195	90.25
241.429	83.25
241.662	85.25
241.896	77.25
242.13	80.25
242.363	81.25
242.597	75.25
242.83	85.25
243.064	79.25
243.298	84.25
243.531	74.25
243.765	87.25
243.998	82.25
244.232	70.25
244.465	82.25
244.699	71.25
244.932	67.25
245.166	84.25
245.399	78.25
245.633	93.25
245.866	84.25
246.099	90.25
246.333	74.25
246.566	73.25
246.8	88.25
247.033	87.25
247.266	85.25
247.5	81.25
247.733	83.25
247.966	88.25
248.2	84.25
248.433	90.25
248.666	83.25
248.899	81.25
249.133	90.25
249.366	96.25
249.599	88.25
249.832	87.25
250.066	70.25
250.299	93.25
250.532	81.25
250.765	99.25
250.998	99.25
251.231	90.25
251.465	78.25
251.698	86.25
251.931	76.25
252.164	79.25
252.397	89.25
252.63	96.25
252.863	96.25
253.096	96.25
253.329	93.25
253.562	82.25
253.795	86.25
254.028	85.25
254.261	78.25
254.494	84.25
254.727	88.25
254.96	103.25
255.193	93.25
255.426	85.25
255.659	88.25
255.892	105.25
256.124	102.25
256.357	93.25
256.59	101.25
256.823	95.25
257.056	89.25
257.289	80.25
257.521	83.25
257.754	73.25
257.987	94.25
258.22	90.25
258.452	77.25
258.685	93.25
258.918	76.25
259.151	90.25
259.383	97.25
259.616	89.25
259.849	92.25
260.081	91.25
260.314	82.25
260.547	99.25
260.779	89.25
261.012	87.25
261.244	79.25
261.477	100.25
261.71	92.25
261.942	104.25
262.175	100.25
262.407	99.25
262.64	83.25
262.872	93.25
263.105	98.25
263.337	91.25
263.57	80.25
263.802	92.25
264.035	78.25
264.267	91.25
264.499	91.25
264.732	91.25
264.964	103.25
265.197	99.25
265.429	85.25
265.661	93.25
265.894	95.25
266.126	84.25
266.358	103.25
266.591	91.25
266.823	85.25
267.055	83.25
267.287	99.25
267.52	96.25
267.752	101.25
267.984	84.25
268.216	101.25
268.448	94.25
268.681	95.25
268.913	102.25
269.145	94.25
269.377	94.25
269.609	97.25
269.841	97.25
270.073	92.25
270.306	102.25
270.538	104.25
270.77	103.25
271.002	78.25
271.234	86.25
271.466	97.25
271.698	76.25
271.93	100.25
272.162	85.25
272.394	88.25
272.626	100.25
272.858	97.25
273.09	108.25
273.322	88.25
273.553	94.25
273.785	97.25
274.017	96.25
274.249	98.25
274.481	102.25
274.713	100.25
274.945	97.25
275.176	94.25
275.408	91.25
275.64	98.25
275.872	100.25
276.104	90.25
276.335	89.25
276.567	87.25
276.799	98.25
277.031	111.25
277.262	120.25
277.494	108.25
277.726	119.25
277.957	99.25
278.189	109.25
278.421	97.25
278.652	95.25
278.884	95.25
279.115	102.25
279.347	106.25
279.579	85.25
279.81	106.25
280.042	89.25
280.273	94.25
280.505	85.25
280.736	93.25
280.968	102.25
281.199	93.25
281.431	89.25
281.662	102.25
281.894	92.25
282.125	96.25
282.356	97.25
282.588	99.25
282.819	105.25
283.051	107.25
283.282	111.25
283.513	95.25
283.745	107.25
283.976	96.25
284.207	95.25
284.439	106.25
284.67	98.25
284.901	103.25
285.132	101.25
285.364	122.25
285.595	104.25
285.826	94.25
286.057	87.25
286.288	96.25
286.52	100.25
286.751	103.25
286.982	102.25
287.213	103.25
287.444	99.25
287.675	106.25
287.906	103.25
288.138	88.25
288.369	105.25
288.6	96.25
288.831	106.25
289.062	100.25
289.293	106.25
289.524	110.25
289.755	100.25
289.986	90.25
290.217	101.25
290.448	95.25
290.679	92.25
290.91	103.25
291.141	97.25
291.371	111.25
291.602	100.25
291.833	116.25
292.064	105.25
292.295	101.25
292.526	99.25
292.757	97.25
292.987	98.25
293.218	94.25
293.449	91.25
293.68	106.25
293.91	105.25
294.141	107.25
294.372	107.25
294.603	103.25
294.833	87.25
295.064	98.25
295.295	111.25
295.525	102.25
295.756	105.25
295.987	99.25
296.217	92.25
296.448	97.25
296.679	107.25
296.909	91.25
297.14	105.25
297.37	90.25
297.601	90.25
297.831	105.25
298.062	96.25
298.292	102.25
298.523	112.25
298.753	107.25
298.984	88.25
299.214	106.25
299.445	105.25
299.675	110.25
299.905	104.25
300.136	94.25
300.366	109.25
300.597	104.25
300.827	122.25
301.057	93.25
301.288	97.25
301.518	107.25
301.748	113.25
301.979	115.25
302.209	108.25
302.439	111.25
302.669	104.25
302.9	98.25
303.13	112.25
303.36	108.25
303.59	95.25
303.82	112.25
304.051	109.25
304.281	117.25
304.511	105.25
304.741	100.25
304.971	107.25
305.201	100.25
305.431	109.25
305.661	97.25
305.891	104.25
306.121	102.25
306.352	106.25
306.582	105.25
306.812	100.25
307.042	98.25
307.272	110.25
307.502	100.25
307.731	112.25
307.961	99.25
308.191	101.25
308.421	111.25
308.651	105.25
308.881	106.25
309.111	102.25
309.341	107.25
309.571	102.25
309.8	97.25
310.03	115.25
310.26	105.25
310.49	106.25
310.72	114.25
310.949	117.25
311.179	95.25
311.409	102.25
311.639	109.25
311.868	106.25
312.098	114.25
312.328	112.25
312.557	89.25
312.787	117.25
313.017	102.25
313.246	115.25
313.476	100.25
313.706	101.25
313.935	114.25
314.165	97.25
314.394	119.25
314.624	106.25
314.853	101.25
315.083	110.25
315.312	108.25
315.542	111.25
315.771	107.25
316.001	105.25
316.23	105.25
316.46	108.25
316.689	104.25
316.919	124.25
317.148	99.25
317.377	121.25
317.607	119.25
317.836	108.25
318.065	121.25
318.295	113.25
318.524	104.25
318.753	102.25
318.983	121.25
319.212	109.25
319.441	113.25
319.67	117.25
319.9	111.25
320.129	127.25
320.358	99.25
320.587	96.25
320.816	94.25
321.046	111.25
321.275	121.25
321.504	102.25
321.733	101.25
321.962	114.25
322.191	121.25
322.42	111.25
322.649	117.25
322.878	111.25
323.108	114.25
323.337	120.25
323.566	122.25
323.795	107.25
324.024	115.25
324.253	125.25
324.482	141.25
324.71	185.25
324.939	176.25
325.168	151.25
325.397	144.25
325.626	122.25
325.855	121.25
326.084	115.25
326.313	124.25
326.542	116.25
326.77	117.25
326.999	129.25
327.228	129.25
327.457	142.25
327.686	149.25
327.914	132.25
328.143	124.25
328.372	119.25
328.6	118.25
328.829	118.25
329.058	107.25
329.287	114.25
329.515	106.25
329.744	109.25
329.972	130.25
330.201	114.25
330.43	106.25
330.658	113.25
330.887	113.25
331.115	113.25
331.344	105.25
331.572	108.25
331.801	127.25
332.03	121.25
332.258	114.25
332.486	119.25
332.715	110.25
332.943	110.25
333.172	106.25
333.4	115.25
333.629	114.25
333.857	111.25
334.085	116.25
334.314	112.25
334.542	122.25
334.771	119.25
334.999	125.25
335.227	123.25
335.455	117.25
335.684	118.25
335.912	125.25
336.14	109.25
336.369	110.25
336.597	120.25
336.825	119.25
337.053	110.25
337.281	108.25
337.51	105.25
337.738	115.25
337.966	108.25
338.194	99.25
338.422	110.25
338.65	122.25
338.878	122.25
339.106	115.25
339.334	102.25
339.562	110.25
339.79	113.25
340.018	119.25
340.246	116.25
340.474	106.25
340.702	101.25
340.93	106.25
341.158	105.25
341.386	121.25
341.614	113.25
341.842	109.25
342.07	98.25
342.298	110.25
342.526	107.25
342.754	82.25
342.981	113.25
343.209	115.25
343.437	107.25
343.665	121.25
343.893	114.25
344.12	124.25
344.348	113.25
344.576	116.25
344.804	99.25
345.031	109.25
345.259	103.25
345.487	116.25
345.714	115.25
345.942	109.25
346.17	105.25
346.397	122.25
346.625	99.25
346.853	106.25
347.08	116.25
347.308	123.25
347.535	120.25
347.763	105.25
347.99	105.25
348.218	98.25
348.445	110.25
348.673	109.25
348.9	111.25
349.128	121.25
349.355	90.25
349.583	126.25
349.81	112.25
350.037	108.25
350.265	105.25
350.492	99.25
350.72	123.25
350.947	121.25
351.174	122.25
351.402	103.25
351.629	97.25
351.856	103.25
352.083	110.25
352.311	124.25
352.538	114.25
352.765	95.25
352.992	103.25
353.22	102.25
353.447	118.25
353.674	117.25
353.901	112.25
354.128	99.25
354.355	109.25
354.583	109.25
354.81	110.25
355.037	105.25
355.264	119.25
355.491	108.25
355.718	126.25
355.945	118.25
356.172	111.25
356.399	96.25
356.626	109.25
356.853	110.25
357.08	110.25
357.307	106.25
357.534	110.25
357.761	108.25
357.988	109.25
358.215	116.25
358.441	106.25
358.668	103.25
358.895	114.25
359.122	103.25
359.349	109.25
359.576	110.25
359.802	103.25
360.029	108.25
360.256	108.25
360.483	102.25
360.709	121.25
360.936	113.25
361.163	107.25
361.39	113.25
361.616	109.25
361.843	100.25
362.07	109.25
362.296	113.25
362.523	115.25
362.749	106.25
362.976	113.25
363.203	115.25
363.429	108.25
363.656	109.25
363.882	99.25
364.109	108.25
364.335	113.25
364.562	115.25
364.788	120.25
365.015	118.25
365.241	109.25
365.468	111.25
365.694	113.25
365.92	110.25
366.147	110.25
366.373	120.25
366.599	110.25
366.826	124.25
367.052	125.25
367.278	116.25
367.505	110.25
367.731	105.25
367.957	107.25
368.184	102.25
368.41	109.25
368.636	113.25
368.862	109.25
369.089	115.25
369.315	115.25
369.541	109.25
369.767	102.25
369.993	119.25
370.219	115.25
370.445	110.25
370.672	109.25
370.898	113.25
371.124	104.25
371.35	119.25
371.576	107.25
371.802	108.25
372.028	111.25
372.254	118.25
372.48	114.25
372.706	98.25
372.932	115.25
373.158	104.25
373.384	105.25
373.61	125.25
373.835	113.25
374.061	95.25
374.287	103.25
374.513	111.25
374.739	100.25
374.965	97.25
375.191	102.25
375.416	118.25
375.642	110.25
375.868	121.25
376.094	111.25
376.319	110.25
376.545	110.25
376.771	115.25
376.997	125.25
377.222	101.25
377.448	104.25
377.674	127.25
377.899	105.25
378.125	101.25
378.35	124.25
378.576	117.25
378.802	113.25
379.027	102.25
379.253	115.25
379.478	95.25
379.704	101.25
379.929	113.25
380.155	117.25
380.38	113.25
380.606	120.25
380.831	118.25
381.057	96.25
381.282	100.25
381.507	102.25
381.733	103.25
381.958	110.25
382.184	121.25
382.409	97.25
382.634	103.25
382.86	135.25
383.085	126.25
383.31	115.25
383.535	123.25
383.761	116.25
383.986	117.25
384.211	120.25
384.436	107.25
384.662	125.25
384.887	118.25
385.112	100.25
385.337	110.25
385.562	125.25
385.787	116.25
386.013	107.25
386.238	110.25
386.463	105.25
386.688	134.25
386.913	117.25
387.138	131.25
387.363	106.25
387.588	113.25
387.813	129.25
388.038	117.25
388.263	130.25
388.488	124.25
388.713	105.25
388.938	104.25
389.163	125.25
389.387	123.25
389.612	118.25
389.837	110.25
390.062	103.25
390.287	122.25
390.512	118.25
390.736	118.25
390.961	118.25
391.186	126.25
391.411	95.25
391.636	130.25
391.86	117.25
392.085	114.25
392.31	111.25
392.534	119.25
392.759	114.25
392.984	125.25
393.208	117.25
393.433	110.25
393.658	130.25
393.882	105.25
394.107	133.25
394.331	120.25
394.556	134.25
394.78	114.25
395.005	121.25
395.229	122.25
395.454	123.25
395.678	118.25
395.903	108.25
396.127	129.25
396.352	127.25
396.576	100.25
396.801	117.25
397.025	121.25
397.249	123.25
397.474	129.25
397.698	126.25
397.922	121.25
398.147	120.25
398.371	138.25
398.595	113.25
398.82	117.25
399.044	130.25
399.268	133.25
399.492	133.25
399.717	140.25
399.941	143.25
400.165	137.25
400.389	145.25
400.613	125.25
400.837	133.25
401.062	125.25
401.286	126.25
401.51	124.25
401.734	117.25
401.958	131.25
402.182	139.25
402.406	135.25
402.63	127.25
402.854	132.25
403.078	133.25
403.302	125.25
403.526	125.25
403.75	127.25
403.974	131.25
404.198	125.25
404.422	135.25
404.645	122.25
404.869	140.25
405.093	127.25
405.317	134.25
405.541	147.25
405.765	121.25
405.988	124.25
406.212	128.25
406.436	117.25
406.66	126.25
406.883	135.25
407.107	139.25
407.331	138.25
407.555	137.25
407.778	138.25
408.002	143.25
408.226	119.25
408.449	133.25
408.673	119.25
408.896	142.25
409.12	132.25
409.344	131.25
409.567	132.25
409.791	127.25
410.014	129.25
410.238	134.25
410.461	135.25
410.685	128.25
410.908	124.25
411.132	127.25
411.355	127.25
411.578	137.25
411.802	133.25
412.025	127.25
412.249	128.25
412.472	120.25
412.695	140.25
412.919	125.25
413.142	139.25
413.365	122.25
413.589	124.25
413.812	146.25
414.035	123.25
414.258	140.25
414.482	125.25
414.705	114.25
414.928	129.25
415.151	122.25
415.374	118.25
415.597	127.25
415.821	109.25
416.044	129.25
416.267	135.25
416.49	121.25
416.713	110.25
416.936	111.25
417.159	120.25
417.382	123.25
417.605	123.25
417.828	122.25
418.051	130.25
418.274	121.25
418.497	125.25
418.72	136.25
418.943	137.25
419.166	135.25
419.389	133.25
419.611	120.25
419.834	125.25
420.057	126.25
420.28	145.25
420.503	127.25
420.726	131.25
420.948	123.25
421.171	123.25
421.394	126.25
421.617	126.25
421.839	127.25
422.062	136.25
422.285	121.25
422.507	139.25
422.73	136.25
422.953	125.25
423.175	135.25
423.398	121.25
423.621	121.25
423.843	125.25
424.066	129.25
424.288	142.25
424.511	124.25
424.733	135.25
424.956	131.25
425.178	139.25
425.401	140.25
425.623	144.25
425.846	144.25
426.068	113.25
426.291	131.25
426.513	130.25
426.735	142.25
426.958	141.25
427.18	126.25
427.402	128.25
427.625	135.25
427.847	129.25
428.069	142.25
428.292	117.25
428.514	120.25
428.736	120.25
428.958	124.25
429.181	126.25
429.403	109.25
429.625	116.25
429.847	133.25
430.069	118.25
430.292	124.25
430.514	119.25
430.736	121.25
430.958	131.25
431.18	131.25
431.402	118.25
431.624	125.25
431.846	117.25
432.068	113.25
432.29	128.25
432.512	115.25
432.734	127.25
432.956	125.25
433.178	120.25
433.4	123.25
433.622	141.25
433.844	123.25
434.066	124.25
434.287	117.25
434.509	138.25
434.731	131.25
434.953	117.25
435.175	117.25
435.397	123.25
435.618	122.25
435.84	143.25
436.062	137.25
436.284	115.25
436.505	137.25
436.727	128.25
436.949	129.25
437.17	128.25
437.392	104.25
437.614	122.25
437.835	129.25
438.057	131.25
438.278	134.25
438.5	146.25
438.721	131.25
438.943	142.25
439.165	126.25
439.386	146.25
439.608	130.25
439.829	132.25
440.05	140.25
440.272	140.25
440.493	126.25
440.715	123.25
440.936	118.25
441.158	126.25
441.379	114.25
441.6	130.25
441.822	116.25
442.043	129.25
442.264	139.25
442.486	135.25
442.707	126.25
442.928	121.25
443.149	124.25
443.371	111.25
443.592	129.25
443.813	129.25
444.034	124.25
444.255	143.25
444.476	136.25
444.698	133.25
444.919	142.25
445.14	202.25
445.361	169.25
445.582	137.25
445.803	138.25
446.024	133.25
446.245	157.25
446.466	135.25
446.687	142.25
446.908	125.25
447.129	114.25
447.35	141.25
447.571	127.25
447.792	113.25
448.013	119.25
448.234	127.25
448.455	141.25
448.675	125.25
448.896	128.25
449.117	126.25
449.338	129.25
449.559	157.25
449.779	125.25
450	141.25
450.221	127.25
450.442	117.25
450.662	110.25
450.883	137.25
451.104	129.25
451.324	107.25
451.545	106.25
451.766	109.25
451.986	134.25
452.207	125.25
452.428	117.25
452.648	121.25
452.869	104.25
453.089	125.25
453.31	125.25
453.53	123.25
453.751	124.25
453.971	119.25
454.192	114.25
454.412	97.25
454.633	117.25
454.853	126.25
455.073	116.25
455.294	135.25
455.514	125.25
455.734	105.25
455.955	106.25
456.175	106.25
456.395	123.25
456.616	120.25
456.836	132.25
457.056	116.25
457.276	116.25
457.497	121.25
457.717	119.25
457.937	118.25
458.157	129.25
458.377	129.25
458.598	122.25
458.818	117.25
459.038	117.25
459.258	117.25
459.478	118.25
459.698	106.25
459.918	139.25
460.138	118.25
460.358	131.25
460.578	117.25
460.798	125.25
461.018	132.25
461.238	123.25
461.458	110.25
461.678	126.25
461.898	126.25
462.118	122.25
462.338	120.25
462.558	130.25
462.777	123.25
462.997	134.25
463.217	155.25
463.437	149.25
463.657	135.25
463.876	142.25
464.096	143.25
464.316	146.25
464.536	116.25
464.755	130.25
464.975	137.25
465.195	122.25
465.414	133.25
465.634	133.25
465.854	130.25
466.073	129.25
466.293	134.25
466.512	122.25
466.732	122.25
466.951	107.25
467.171	117.25
467.391	133.25
467.61	128.25
467.829	122.25
468.049	115.25
468.268	121.25
468.488	110.25
468.707	111.25
468.927	130.25
469.146	97.25
469.365	118.25
469.585	130.25
469.804	126.25
470.023	114.25
470.243	114.25
470.462	135.25
470.681	131.25
470.901	139.25
471.12	127.25
471.339	126.25
471.558	130.25
471.777	125.25
471.997	109.25
472.216	124.25
472.435	110.25
472.654	115.25
472.873	124.25
473.092	126.25
473.311	123.25
473.53	107.25
473.749	133.25
473.968	137.25
474.187	137.25
474.406	119.25
474.625	122.25
474.844	131.25
475.063	123.25
475.282	110.25
475.501	117.25
475.72	125.25
475.939	129.25
476.158	126.25
476.377	114.25
476.596	125.25
476.814	133.25
477.033	118.25
477.252	125.25
477.471	125.25
477.69	132.25
477.908	128.25
478.127	141.25
478.346	137.25
478.564	132.25
478.783	114.25
479.002	128.25
479.22	117.25
479.439	125.25
479.658	138.25
479.876	137.25
480.095	133.25
480.313	133.25
480.532	140.25
480.751	129.25
480.969	139.25
481.188	140.25
481.406	144.25
481.624	127.25
481.843	119.25
482.061	150.25
482.28	132.25
482.498	143.25
482.717	138.25
482.935	118.25
483.153	119.25
483.372	124.25
483.59	118.25
483.808	128.25
484.027	131.25
484.245	110.25
484.463	129.25
484.681	136.25
484.9	130.25
485.118	137.25
485.336	132.25
485.554	127.25
485.772	135.25
485.99	133.25
486.209	117.25
486.427	127.25
486.645	140.25
486.863	140.25
487.081	121.25
487.299	135.25
487.517	139.25
487.735	137.25
487.953	141.25
488.171	151.25
488.389	129.25
488.607	134.25
488.825	125.25
489.043	147.25
489.261	145.25
489.479	145.25
489.696	137.25
489.914	118.25
490.132	129.25
490.35	137.25
490.568	119.25
490.786	121.25
491.003	150.25
491.221	122.25
491.439	129.25
491.657	141.25
491.874	129.25
492.092	143.25
492.31	139.25
492.527	141.25
492.745	151.25
492.963	133.25
493.18	137.25
493.398	140.25
493.615	167.25
493.833	147.25
494.05	145.25
494.268	157.25
494.485	138.25
494.703	158.25
494.92	142.25
495.138	136.25
495.355	139.25
495.573	147.25
495.79	137.25
496.008	140.25
496.225	143.25
496.442	143.25
496.66	134.25
496.877	146.25
497.094	141.25
497.312	142.25
497.529	146.25
497.746	149.25
497.963	138.25
498.181	164.25
498.398	145.25
498.615	159.25
498.832	146.25
499.049	161.25
499.267	165.25
499.484	170.25
499.701	173.25
499.918	177.25
500.135	201.25
500.352	215.25
500.569	205.25
500.786	193.25
501.003	217.25
501.22	187.25
501.437	186.25
501.654	167.25
501.871	167.25
502.088	170.25
502.305	156.25
502.522	147.25
502.739	150.25
502.956	143.25
503.172	165.25
503.389	136.25
503.606	130.25
503.823	145.25
504.04	135.25
504.256	156.25
504.473	149.25
504.69	149.25
504.907	143.25
505.123	133.25
505.34	133.25
505.557	144.25
