Data from 1968.PennyLincolnUp.Lamp.En5.5.200Scan.071719.P1._HRD10591_14-49-35-969.txt Node
Date: Thu Jul 18 14:49:35 EDT 2019
User: cochatt
Spectrometer: HR+D1059
Trigger mode: 1
Integration Time (sec): 1.000000E-1
Scans to average: 1
Electric dark correction enabled: true
Nonlinearity correction enabled: false
Boxcar width: 0
XAxis mode: Wavelengths
Number of Pixels in Spectrum: 2048
>>>>>Begin Spectral Data<<<<<
223.165	-4.88
223.4	-4.88
223.635	-4.88
223.869	-28.88
224.104	-20.88
224.338	-11.88
224.573	-13.88
224.808	-18.88
225.042	-5.88
225.277	-5.88
225.511	-13.88
225.746	24.12
225.98	7.12
226.215	14.12
226.449	-2.88
226.683	30.12
226.918	26.12
227.152	26.12
227.387	36.12
227.621	28.12
227.856	47.12
228.09	38.12
228.324	36.12
228.559	43.12
228.793	51.12
229.027	52.12
229.262	66.12
229.496	76.12
229.73	68.12
229.964	70.12
230.199	71.12
230.433	87.12
230.667	70.12
230.901	90.12
231.136	78.12
231.37	86.12
231.604	87.12
231.838	91.12
232.072	63.12
232.306	81.12
232.541	95.12
232.775	86.12
233.009	84.12
233.243	92.12
233.477	77.12
233.711	85.12
233.945	83.12
234.179	90.12
234.413	89.12
234.647	92.12
234.881	84.12
235.115	86.12
235.349	82.12
235.583	92.12
235.817	97.12
236.051	86.12
236.285	84.12
236.519	78.12
236.753	88.12
236.987	94.12
237.221	87.12
237.455	78.12
237.689	86.12
237.922	78.12
238.156	79.12
238.39	80.12
238.624	99.12
238.858	77.12
239.091	91.12
239.325	87.12
239.559	75.12
239.793	85.12
240.027	80.12
240.26	74.12
240.494	76.12
240.728	85.12
240.961	86.12
241.195	93.12
241.429	91.12
241.662	92.12
241.896	77.12
242.13	69.12
242.363	84.12
242.597	80.12
242.83	78.12
243.064	90.12
243.298	80.12
243.531	85.12
243.765	86.12
243.998	78.12
244.232	85.12
244.465	103.12
244.699	99.12
244.932	84.12
245.166	85.12
245.399	78.12
245.633	84.12
245.866	98.12
246.099	82.12
246.333	91.12
246.566	85.12
246.8	96.12
247.033	91.12
247.266	77.12
247.5	100.12
247.733	86.12
247.966	77.12
248.2	87.12
248.433	94.12
248.666	79.12
248.899	94.12
249.133	91.12
249.366	92.12
249.599	94.12
249.832	104.12
250.066	87.12
250.299	95.12
250.532	91.12
250.765	95.12
250.998	89.12
251.231	91.12
251.465	106.12
251.698	80.12
251.931	89.12
252.164	94.12
252.397	101.12
252.63	88.12
252.863	74.12
253.096	92.12
253.329	86.12
253.562	89.12
253.795	84.12
254.028	89.12
254.261	96.12
254.494	94.12
254.727	83.12
254.96	89.12
255.193	93.12
255.426	98.12
255.659	89.12
255.892	89.12
256.124	80.12
256.357	87.12
256.59	82.12
256.823	80.12
257.056	91.12
257.289	93.12
257.521	90.12
257.754	93.12
257.987	76.12
258.22	86.12
258.452	96.12
258.685	81.12
258.918	93.12
259.151	87.12
259.383	91.12
259.616	94.12
259.849	91.12
260.081	95.12
260.314	111.12
260.547	101.12
260.779	92.12
261.012	91.12
261.244	98.12
261.477	84.12
261.71	94.12
261.942	94.12
262.175	96.12
262.407	71.12
262.64	85.12
262.872	103.12
263.105	106.12
263.337	97.12
263.57	99.12
263.802	91.12
264.035	96.12
264.267	77.12
264.499	88.12
264.732	106.12
264.964	95.12
265.197	108.12
265.429	92.12
265.661	85.12
265.894	100.12
266.126	90.12
266.358	96.12
266.591	96.12
266.823	107.12
267.055	85.12
267.287	106.12
267.52	99.12
267.752	86.12
267.984	102.12
268.216	95.12
268.448	89.12
268.681	95.12
268.913	107.12
269.145	97.12
269.377	111.12
269.609	100.12
269.841	107.12
270.073	94.12
270.306	81.12
270.538	92.12
270.77	100.12
271.002	87.12
271.234	99.12
271.466	101.12
271.698	102.12
271.93	111.12
272.162	95.12
272.394	101.12
272.626	87.12
272.858	91.12
273.09	105.12
273.322	94.12
273.553	95.12
273.785	93.12
274.017	83.12
274.249	84.12
274.481	93.12
274.713	109.12
274.945	106.12
275.176	98.12
275.408	91.12
275.64	95.12
275.872	117.12
276.104	96.12
276.335	108.12
276.567	101.12
276.799	98.12
277.031	98.12
277.262	91.12
277.494	93.12
277.726	99.12
277.957	108.12
278.189	95.12
278.421	93.12
278.652	102.12
278.884	86.12
279.115	95.12
279.347	100.12
279.579	95.12
279.81	89.12
280.042	103.12
280.273	105.12
280.505	104.12
280.736	92.12
280.968	107.12
281.199	95.12
281.431	96.12
281.662	96.12
281.894	102.12
282.125	99.12
282.356	100.12
282.588	99.12
282.819	96.12
283.051	111.12
283.282	89.12
283.513	107.12
283.745	97.12
283.976	94.12
284.207	99.12
284.439	101.12
284.67	91.12
284.901	104.12
285.132	105.12
285.364	87.12
285.595	99.12
285.826	106.12
286.057	109.12
286.288	104.12
286.52	117.12
286.751	95.12
286.982	105.12
287.213	96.12
287.444	110.12
287.675	108.12
287.906	112.12
288.138	92.12
288.369	100.12
288.6	103.12
288.831	100.12
289.062	120.12
289.293	107.12
289.524	102.12
289.755	107.12
289.986	107.12
290.217	105.12
290.448	103.12
290.679	89.12
290.91	100.12
291.141	109.12
291.371	99.12
291.602	97.12
291.833	117.12
292.064	115.12
292.295	99.12
292.526	116.12
292.757	97.12
292.987	101.12
293.218	99.12
293.449	116.12
293.68	104.12
293.91	99.12
294.141	110.12
294.372	108.12
294.603	94.12
294.833	100.12
295.064	106.12
295.295	111.12
295.525	119.12
295.756	109.12
295.987	114.12
296.217	95.12
296.448	108.12
296.679	100.12
296.909	116.12
297.14	105.12
297.37	105.12
297.601	112.12
297.831	82.12
298.062	117.12
298.292	95.12
298.523	118.12
298.753	102.12
298.984	119.12
299.214	118.12
299.445	112.12
299.675	116.12
299.905	96.12
300.136	114.12
300.366	87.12
300.597	108.12
300.827	98.12
301.057	102.12
301.288	112.12
301.518	108.12
301.748	126.12
301.979	104.12
302.209	114.12
302.439	102.12
302.669	98.12
302.9	109.12
303.13	110.12
303.36	124.12
303.59	103.12
303.82	116.12
304.051	118.12
304.281	103.12
304.511	114.12
304.741	115.12
304.971	116.12
305.201	105.12
305.431	106.12
305.661	113.12
305.891	103.12
306.121	118.12
306.352	120.12
306.582	107.12
306.812	105.12
307.042	119.12
307.272	103.12
307.502	109.12
307.731	100.12
307.961	91.12
308.191	106.12
308.421	105.12
308.651	105.12
308.881	105.12
309.111	107.12
309.341	105.12
309.571	99.12
309.8	90.12
310.03	102.12
310.26	105.12
310.49	112.12
310.72	94.12
310.949	112.12
311.179	101.12
311.409	102.12
311.639	106.12
311.868	98.12
312.098	108.12
312.328	123.12
312.557	118.12
312.787	96.12
313.017	116.12
313.246	95.12
313.476	97.12
313.706	106.12
313.935	116.12
314.165	102.12
314.394	100.12
314.624	109.12
314.853	116.12
315.083	109.12
315.312	104.12
315.542	115.12
315.771	109.12
316.001	103.12
316.23	119.12
316.46	108.12
316.689	106.12
316.919	110.12
317.148	107.12
317.377	114.12
317.607	85.12
317.836	111.12
318.065	111.12
318.295	119.12
318.524	96.12
318.753	114.12
318.983	102.12
319.212	117.12
319.441	117.12
319.67	116.12
319.9	101.12
320.129	118.12
320.358	97.12
320.587	108.12
320.816	106.12
321.046	110.12
321.275	110.12
321.504	101.12
321.733	109.12
321.962	110.12
322.191	114.12
322.42	104.12
322.649	105.12
322.878	122.12
323.108	107.12
323.337	119.12
323.566	116.12
323.795	118.12
324.024	110.12
324.253	122.12
324.482	132.12
324.71	152.12
324.939	169.12
325.168	146.12
325.397	123.12
325.626	126.12
325.855	109.12
326.084	109.12
326.313	109.12
326.542	110.12
326.77	120.12
326.999	114.12
327.228	127.12
327.457	143.12
327.686	140.12
327.914	122.12
328.143	126.12
328.372	123.12
328.6	118.12
328.829	110.12
329.058	114.12
329.287	113.12
329.515	124.12
329.744	102.12
329.972	100.12
330.201	124.12
330.43	118.12
330.658	113.12
330.887	127.12
331.115	106.12
331.344	121.12
331.572	107.12
331.801	95.12
332.03	111.12
332.258	102.12
332.486	127.12
332.715	135.12
332.943	125.12
333.172	116.12
333.4	123.12
333.629	124.12
333.857	119.12
334.085	115.12
334.314	130.12
334.542	126.12
334.771	118.12
334.999	120.12
335.227	125.12
335.455	123.12
335.684	117.12
335.912	115.12
336.14	115.12
336.369	116.12
336.597	103.12
336.825	105.12
337.053	99.12
337.281	104.12
337.51	109.12
337.738	115.12
337.966	124.12
338.194	106.12
338.422	107.12
338.65	114.12
338.878	115.12
339.106	116.12
339.334	102.12
339.562	102.12
339.79	100.12
340.018	127.12
340.246	109.12
340.474	119.12
340.702	106.12
340.93	112.12
341.158	119.12
341.386	108.12
341.614	111.12
341.842	106.12
342.07	104.12
342.298	100.12
342.526	109.12
342.754	111.12
342.981	115.12
343.209	108.12
343.437	116.12
343.665	116.12
343.893	108.12
344.12	112.12
344.348	115.12
344.576	109.12
344.804	102.12
345.031	122.12
345.259	111.12
345.487	114.12
345.714	98.12
345.942	109.12
346.17	109.12
346.397	105.12
346.625	116.12
346.853	114.12
347.08	111.12
347.308	116.12
347.535	105.12
347.763	102.12
347.99	107.12
348.218	103.12
348.445	106.12
348.673	99.12
348.9	131.12
349.128	114.12
349.355	119.12
349.583	118.12
349.81	116.12
350.037	103.12
350.265	108.12
350.492	109.12
350.72	110.12
350.947	122.12
351.174	114.12
351.402	116.12
351.629	106.12
351.856	104.12
352.083	110.12
352.311	110.12
352.538	119.12
352.765	115.12
352.992	117.12
353.22	114.12
353.447	115.12
353.674	108.12
353.901	104.12
354.128	99.12
354.355	116.12
354.583	120.12
354.81	115.12
355.037	94.12
355.264	100.12
355.491	118.12
355.718	113.12
355.945	126.12
356.172	110.12
356.399	102.12
356.626	117.12
356.853	115.12
357.08	101.12
357.307	100.12
357.534	99.12
357.761	94.12
357.988	121.12
358.215	109.12
358.441	114.12
358.668	114.12
358.895	128.12
359.122	110.12
359.349	111.12
359.576	96.12
359.802	111.12
360.029	116.12
360.256	111.12
360.483	106.12
360.709	125.12
360.936	121.12
361.163	111.12
361.39	104.12
361.616	105.12
361.843	105.12
362.07	116.12
362.296	111.12
362.523	110.12
362.749	102.12
362.976	114.12
363.203	124.12
363.429	91.12
363.656	94.12
363.882	114.12
364.109	107.12
364.335	112.12
364.562	110.12
364.788	108.12
365.015	112.12
365.241	111.12
365.468	113.12
365.694	118.12
365.92	111.12
366.147	120.12
366.373	114.12
366.599	117.12
366.826	107.12
367.052	119.12
367.278	114.12
367.505	110.12
367.731	110.12
367.957	107.12
368.184	96.12
368.41	109.12
368.636	118.12
368.862	128.12
369.089	111.12
369.315	122.12
369.541	110.12
369.767	102.12
369.993	110.12
370.219	118.12
370.445	114.12
370.672	122.12
370.898	98.12
371.124	121.12
371.35	116.12
371.576	99.12
371.802	105.12
372.028	114.12
372.254	101.12
372.48	118.12
372.706	108.12
372.932	116.12
373.158	116.12
373.384	119.12
373.61	120.12
373.835	103.12
374.061	107.12
374.287	105.12
374.513	114.12
374.739	127.12
374.965	109.12
375.191	118.12
375.416	116.12
375.642	121.12
375.868	111.12
376.094	111.12
376.319	107.12
376.545	106.12
376.771	114.12
376.997	121.12
377.222	93.12
377.448	111.12
377.674	115.12
377.899	118.12
378.125	99.12
378.35	97.12
378.576	108.12
378.802	102.12
379.027	107.12
379.253	106.12
379.478	112.12
379.704	111.12
379.929	106.12
380.155	117.12
380.38	126.12
380.606	122.12
380.831	116.12
381.057	112.12
381.282	99.12
381.507	126.12
381.733	107.12
381.958	109.12
382.184	124.12
382.409	112.12
382.634	118.12
382.86	110.12
383.085	118.12
383.31	109.12
383.535	119.12
383.761	120.12
383.986	104.12
384.211	108.12
384.436	109.12
384.662	109.12
384.887	130.12
385.112	111.12
385.337	138.12
385.562	130.12
385.787	119.12
386.013	126.12
386.238	110.12
386.463	122.12
386.688	120.12
386.913	115.12
387.138	112.12
387.363	115.12
387.588	122.12
387.813	108.12
388.038	104.12
388.263	130.12
388.488	116.12
388.713	121.12
388.938	118.12
389.163	104.12
389.387	126.12
389.612	116.12
389.837	118.12
390.062	108.12
390.287	114.12
390.512	118.12
390.736	123.12
390.961	137.12
391.186	128.12
391.411	107.12
391.636	114.12
391.86	114.12
392.085	117.12
392.31	123.12
392.534	115.12
392.759	127.12
392.984	130.12
393.208	133.12
393.433	121.12
393.658	122.12
393.882	106.12
394.107	108.12
394.331	121.12
394.556	126.12
394.78	126.12
395.005	115.12
395.229	122.12
395.454	123.12
395.678	122.12
395.903	127.12
396.127	140.12
396.352	136.12
396.576	127.12
396.801	122.12
397.025	118.12
397.249	108.12
397.474	116.12
397.698	126.12
397.922	127.12
398.147	121.12
398.371	127.12
398.595	130.12
398.82	128.12
399.044	136.12
399.268	136.12
399.492	139.12
399.717	142.12
399.941	147.12
400.165	141.12
400.389	130.12
400.613	122.12
400.837	132.12
401.062	128.12
401.286	138.12
401.51	124.12
401.734	118.12
401.958	123.12
402.182	127.12
402.406	130.12
402.63	118.12
402.854	120.12
403.078	149.12
403.302	128.12
403.526	128.12
403.75	127.12
403.974	140.12
404.198	128.12
404.422	144.12
404.645	134.12
404.869	148.12
405.093	139.12
405.317	142.12
405.541	135.12
405.765	144.12
405.988	137.12
406.212	149.12
406.436	121.12
406.66	138.12
406.883	128.12
407.107	135.12
407.331	138.12
407.555	157.12
407.778	143.12
408.002	128.12
408.226	140.12
408.449	145.12
408.673	132.12
408.896	136.12
409.12	134.12
409.344	134.12
409.567	127.12
409.791	126.12
410.014	139.12
410.238	123.12
410.461	130.12
410.685	132.12
410.908	130.12
411.132	130.12
411.355	135.12
411.578	137.12
411.802	127.12
412.025	136.12
412.249	123.12
412.472	125.12
412.695	136.12
412.919	130.12
413.142	143.12
413.365	140.12
413.589	142.12
413.812	125.12
414.035	127.12
414.258	131.12
414.482	140.12
414.705	123.12
414.928	139.12
415.151	137.12
415.374	122.12
415.597	127.12
415.821	123.12
416.044	134.12
416.267	130.12
416.49	120.12
416.713	126.12
416.936	121.12
417.159	127.12
417.382	142.12
417.605	123.12
417.828	118.12
418.051	134.12
418.274	137.12
418.497	125.12
418.72	124.12
418.943	124.12
419.166	136.12
419.389	146.12
419.611	124.12
419.834	139.12
420.057	141.12
420.28	143.12
420.503	123.12
420.726	131.12
420.948	126.12
421.171	124.12
421.394	137.12
421.617	141.12
421.839	127.12
422.062	124.12
422.285	136.12
422.507	132.12
422.73	140.12
422.953	131.12
423.175	146.12
423.398	134.12
423.621	140.12
423.843	152.12
424.066	126.12
424.288	131.12
424.511	142.12
424.733	138.12
424.956	126.12
425.178	130.12
425.401	132.12
425.623	127.12
425.846	124.12
426.068	117.12
426.291	122.12
426.513	139.12
426.735	141.12
426.958	141.12
427.18	133.12
427.402	136.12
427.625	128.12
427.847	133.12
428.069	125.12
428.292	127.12
428.514	127.12
428.736	122.12
428.958	123.12
429.181	127.12
429.403	135.12
429.625	126.12
429.847	126.12
430.069	136.12
430.292	136.12
430.514	125.12
430.736	112.12
430.958	121.12
431.18	127.12
431.402	112.12
431.624	122.12
431.846	126.12
432.068	132.12
432.29	131.12
432.512	123.12
432.734	120.12
432.956	122.12
433.178	118.12
433.4	117.12
433.622	141.12
433.844	119.12
434.066	120.12
434.287	122.12
434.509	122.12
434.731	131.12
434.953	129.12
435.175	130.12
435.397	117.12
435.618	124.12
435.84	131.12
436.062	137.12
436.284	134.12
436.505	130.12
436.727	120.12
436.949	128.12
437.17	126.12
437.392	121.12
437.614	111.12
437.835	146.12
438.057	134.12
438.278	127.12
438.5	142.12
438.721	138.12
438.943	130.12
439.165	135.12
439.386	136.12
439.608	134.12
439.829	125.12
440.05	126.12
440.272	123.12
440.493	119.12
440.715	130.12
440.936	124.12
441.158	135.12
441.379	109.12
441.6	134.12
441.822	132.12
442.043	131.12
442.264	131.12
442.486	141.12
442.707	125.12
442.928	133.12
443.149	119.12
443.371	149.12
443.592	146.12
443.813	157.12
444.034	140.12
444.255	134.12
444.476	139.12
444.698	140.12
444.919	133.12
445.14	248.12
445.361	199.12
445.582	142.12
445.803	150.12
446.024	131.12
446.245	134.12
446.466	136.12
446.687	128.12
446.908	128.12
447.129	125.12
447.35	120.12
447.571	118.12
447.792	133.12
448.013	111.12
448.234	114.12
448.455	138.12
448.675	137.12
448.896	134.12
449.117	131.12
449.338	126.12
449.559	124.12
449.779	131.12
450	132.12
450.221	128.12
450.442	131.12
450.662	130.12
450.883	103.12
451.104	118.12
451.324	118.12
451.545	122.12
451.766	127.12
451.986	123.12
452.207	117.12
452.428	118.12
452.648	108.12
452.869	120.12
453.089	122.12
453.31	125.12
453.53	136.12
453.751	127.12
453.971	116.12
454.192	115.12
454.412	105.12
454.633	103.12
454.853	126.12
455.073	124.12
455.294	120.12
455.514	116.12
455.734	123.12
455.955	122.12
456.175	128.12
456.395	115.12
456.616	108.12
456.836	123.12
457.056	122.12
457.276	136.12
457.497	121.12
457.717	127.12
457.937	112.12
458.157	126.12
458.377	121.12
458.598	122.12
458.818	113.12
459.038	109.12
459.258	130.12
459.478	124.12
459.698	119.12
459.918	124.12
460.138	132.12
460.358	130.12
460.578	132.12
460.798	129.12
461.018	126.12
461.238	141.12
461.458	149.12
461.678	142.12
461.898	140.12
462.118	140.12
462.338	138.12
462.558	135.12
462.777	139.12
462.997	134.12
463.217	145.12
463.437	142.12
463.657	138.12
463.876	138.12
464.096	129.12
464.316	118.12
464.536	143.12
464.755	142.12
464.975	122.12
465.195	137.12
465.414	118.12
465.634	132.12
465.854	129.12
466.073	144.12
466.293	128.12
466.512	123.12
466.732	130.12
466.951	128.12
467.171	117.12
467.391	137.12
467.61	102.12
467.829	124.12
468.049	118.12
468.268	118.12
468.488	130.12
468.707	115.12
468.927	130.12
469.146	120.12
469.365	134.12
469.585	137.12
469.804	126.12
470.023	126.12
470.243	131.12
470.462	116.12
470.681	130.12
470.901	132.12
471.12	133.12
471.339	121.12
471.558	132.12
471.777	134.12
471.997	129.12
472.216	119.12
472.435	132.12
472.654	116.12
472.873	127.12
473.092	117.12
473.311	133.12
473.53	123.12
473.749	115.12
473.968	133.12
474.187	118.12
474.406	132.12
474.625	126.12
474.844	132.12
475.063	110.12
475.282	133.12
475.501	114.12
475.72	114.12
475.939	115.12
476.158	120.12
476.377	123.12
476.596	125.12
476.814	123.12
477.033	134.12
477.252	135.12
477.471	123.12
477.69	138.12
477.908	125.12
478.127	132.12
478.346	121.12
478.564	110.12
478.783	114.12
479.002	140.12
479.22	144.12
479.439	129.12
479.658	129.12
479.876	131.12
480.095	137.12
480.313	131.12
480.532	103.12
480.751	124.12
480.969	124.12
481.188	119.12
481.406	126.12
481.624	120.12
481.843	120.12
482.061	127.12
482.28	129.12
482.498	127.12
482.717	134.12
482.935	123.12
483.153	137.12
483.372	149.12
483.59	130.12
483.808	130.12
484.027	140.12
484.245	128.12
484.463	127.12
484.681	131.12
484.9	135.12
485.118	123.12
485.336	137.12
485.554	132.12
485.772	133.12
485.99	127.12
486.209	134.12
486.427	125.12
486.645	136.12
486.863	131.12
487.081	141.12
487.299	144.12
487.517	138.12
487.735	144.12
487.953	132.12
488.171	139.12
488.389	130.12
488.607	138.12
488.825	140.12
489.043	128.12
489.261	143.12
489.479	128.12
489.696	133.12
489.914	139.12
490.132	117.12
490.35	143.12
490.568	132.12
490.786	143.12
491.003	140.12
491.221	138.12
491.439	139.12
491.657	135.12
491.874	138.12
492.092	142.12
492.31	144.12
492.527	157.12
492.745	138.12
492.963	156.12
493.18	138.12
493.398	152.12
493.615	138.12
493.833	142.12
494.05	126.12
494.268	170.12
494.485	137.12
494.703	155.12
494.92	150.12
495.138	145.12
495.355	145.12
495.573	137.12
495.79	151.12
496.008	160.12
496.225	154.12
496.442	148.12
496.66	149.12
496.877	128.12
497.094	151.12
497.312	134.12
497.529	152.12
497.746	141.12
497.963	163.12
498.181	152.12
498.398	154.12
498.615	142.12
498.832	157.12
499.049	156.12
499.267	187.12
499.484	179.12
499.701	190.12
499.918	184.12
500.135	181.12
500.352	203.12
500.569	220.12
500.786	209.12
501.003	206.12
501.22	197.12
501.437	171.12
501.654	165.12
501.871	158.12
502.088	148.12
502.305	161.12
502.522	149.12
502.739	152.12
502.956	140.12
503.172	140.12
503.389	146.12
503.606	149.12
503.823	146.12
504.04	162.12
504.256	142.12
504.473	154.12
504.69	134.12
504.907	144.12
505.123	152.12
505.34	128.12
