Data from 1968.PennyLincolnUp.Lamp.En5.5.200Scan.071719.P1._HRD10591_14-51-17-970.txt Node
Date: Thu Jul 18 14:51:17 EDT 2019
User: cochatt
Spectrometer: HR+D1059
Trigger mode: 1
Integration Time (sec): 1.000000E-1
Scans to average: 1
Electric dark correction enabled: true
Nonlinearity correction enabled: false
Boxcar width: 0
XAxis mode: Wavelengths
Number of Pixels in Spectrum: 2048
>>>>>Begin Spectral Data<<<<<
223.165	-11.56
223.4	-11.56
223.635	-11.56
223.869	-13.56
224.104	-28.56
224.338	-8.56
224.573	-17.56
224.808	-20.56
225.042	-6.56
225.277	-1.56
225.511	1.44
225.746	-0.56
225.98	3.44
226.215	13.44
226.449	19.44
226.683	11.44
226.918	32.44
227.152	27.44
227.387	28.44
227.621	33.44
227.856	50.44
228.09	59.44
228.324	53.44
228.559	44.44
228.793	61.44
229.027	68.44
229.262	67.44
229.496	62.44
229.73	63.44
229.964	79.44
230.199	74.44
230.433	78.44
230.667	79.44
230.901	78.44
231.136	83.44
231.37	73.44
231.604	81.44
231.838	87.44
232.072	92.44
232.306	96.44
232.541	96.44
232.775	91.44
233.009	94.44
233.243	86.44
233.477	95.44
233.711	93.44
233.945	79.44
234.179	77.44
234.413	74.44
234.647	88.44
234.881	107.44
235.115	98.44
235.349	92.44
235.583	85.44
235.817	91.44
236.051	93.44
236.285	89.44
236.519	72.44
236.753	78.44
236.987	83.44
237.221	83.44
237.455	72.44
237.689	81.44
237.922	85.44
238.156	66.44
238.39	75.44
238.624	80.44
238.858	79.44
239.091	78.44
239.325	78.44
239.559	73.44
239.793	89.44
240.027	90.44
240.26	100.44
240.494	71.44
240.728	84.44
240.961	77.44
241.195	76.44
241.429	86.44
241.662	79.44
241.896	87.44
242.13	82.44
242.363	77.44
242.597	65.44
242.83	90.44
243.064	87.44
243.298	83.44
243.531	82.44
243.765	92.44
243.998	81.44
244.232	83.44
244.465	89.44
244.699	79.44
244.932	79.44
245.166	103.44
245.399	88.44
245.633	88.44
245.866	88.44
246.099	79.44
246.333	87.44
246.566	89.44
246.8	73.44
247.033	86.44
247.266	88.44
247.5	72.44
247.733	90.44
247.966	84.44
248.2	77.44
248.433	94.44
248.666	87.44
248.899	85.44
249.133	90.44
249.366	85.44
249.599	93.44
249.832	84.44
250.066	91.44
250.299	86.44
250.532	87.44
250.765	84.44
250.998	100.44
251.231	71.44
251.465	106.44
251.698	85.44
251.931	81.44
252.164	90.44
252.397	85.44
252.63	83.44
252.863	94.44
253.096	83.44
253.329	90.44
253.562	87.44
253.795	94.44
254.028	99.44
254.261	92.44
254.494	85.44
254.727	103.44
254.96	79.44
255.193	86.44
255.426	89.44
255.659	85.44
255.892	91.44
256.124	97.44
256.357	84.44
256.59	80.44
256.823	88.44
257.056	91.44
257.289	90.44
257.521	77.44
257.754	84.44
257.987	100.44
258.22	102.44
258.452	89.44
258.685	89.44
258.918	81.44
259.151	94.44
259.383	95.44
259.616	89.44
259.849	82.44
260.081	90.44
260.314	94.44
260.547	91.44
260.779	85.44
261.012	85.44
261.244	86.44
261.477	99.44
261.71	89.44
261.942	109.44
262.175	74.44
262.407	84.44
262.64	105.44
262.872	88.44
263.105	88.44
263.337	94.44
263.57	109.44
263.802	90.44
264.035	97.44
264.267	79.44
264.499	102.44
264.732	88.44
264.964	98.44
265.197	85.44
265.429	77.44
265.661	103.44
265.894	96.44
266.126	96.44
266.358	90.44
266.591	98.44
266.823	100.44
267.055	86.44
267.287	86.44
267.52	92.44
267.752	97.44
267.984	91.44
268.216	77.44
268.448	104.44
268.681	90.44
268.913	95.44
269.145	91.44
269.377	96.44
269.609	89.44
269.841	105.44
270.073	99.44
270.306	96.44
270.538	91.44
270.77	91.44
271.002	102.44
271.234	107.44
271.466	94.44
271.698	92.44
271.93	107.44
272.162	101.44
272.394	94.44
272.626	84.44
272.858	92.44
273.09	102.44
273.322	105.44
273.553	108.44
273.785	103.44
274.017	95.44
274.249	90.44
274.481	97.44
274.713	108.44
274.945	115.44
275.176	89.44
275.408	100.44
275.64	93.44
275.872	90.44
276.104	94.44
276.335	98.44
276.567	96.44
276.799	93.44
277.031	83.44
277.262	96.44
277.494	87.44
277.726	113.44
277.957	92.44
278.189	101.44
278.421	106.44
278.652	90.44
278.884	101.44
279.115	92.44
279.347	95.44
279.579	92.44
279.81	94.44
280.042	110.44
280.273	104.44
280.505	106.44
280.736	99.44
280.968	92.44
281.199	90.44
281.431	101.44
281.662	109.44
281.894	99.44
282.125	104.44
282.356	93.44
282.588	101.44
282.819	103.44
283.051	100.44
283.282	102.44
283.513	87.44
283.745	94.44
283.976	103.44
284.207	102.44
284.439	100.44
284.67	89.44
284.901	87.44
285.132	101.44
285.364	99.44
285.595	94.44
285.826	107.44
286.057	102.44
286.288	106.44
286.52	101.44
286.751	97.44
286.982	100.44
287.213	102.44
287.444	83.44
287.675	109.44
287.906	107.44
288.138	111.44
288.369	105.44
288.6	107.44
288.831	89.44
289.062	106.44
289.293	97.44
289.524	97.44
289.755	106.44
289.986	104.44
290.217	100.44
290.448	106.44
290.679	91.44
290.91	106.44
291.141	125.44
291.371	113.44
291.602	106.44
291.833	101.44
292.064	109.44
292.295	86.44
292.526	107.44
292.757	98.44
292.987	100.44
293.218	95.44
293.449	95.44
293.68	94.44
293.91	93.44
294.141	108.44
294.372	105.44
294.603	115.44
294.833	96.44
295.064	110.44
295.295	100.44
295.525	88.44
295.756	106.44
295.987	106.44
296.217	97.44
296.448	91.44
296.679	102.44
296.909	103.44
297.14	101.44
297.37	110.44
297.601	105.44
297.831	122.44
298.062	111.44
298.292	119.44
298.523	98.44
298.753	97.44
298.984	100.44
299.214	100.44
299.445	100.44
299.675	94.44
299.905	116.44
300.136	95.44
300.366	108.44
300.597	119.44
300.827	103.44
301.057	97.44
301.288	91.44
301.518	104.44
301.748	99.44
301.979	105.44
302.209	101.44
302.439	117.44
302.669	103.44
302.9	110.44
303.13	104.44
303.36	104.44
303.59	106.44
303.82	122.44
304.051	101.44
304.281	115.44
304.511	96.44
304.741	109.44
304.971	114.44
305.201	113.44
305.431	111.44
305.661	106.44
305.891	105.44
306.121	103.44
306.352	103.44
306.582	114.44
306.812	104.44
307.042	105.44
307.272	98.44
307.502	105.44
307.731	111.44
307.961	118.44
308.191	118.44
308.421	101.44
308.651	111.44
308.881	121.44
309.111	90.44
309.341	111.44
309.571	109.44
309.8	111.44
310.03	105.44
310.26	114.44
310.49	110.44
310.72	107.44
310.949	111.44
311.179	109.44
311.409	103.44
311.639	120.44
311.868	118.44
312.098	111.44
312.328	113.44
312.557	117.44
312.787	107.44
313.017	103.44
313.246	118.44
313.476	113.44
313.706	117.44
313.935	105.44
314.165	112.44
314.394	111.44
314.624	92.44
314.853	112.44
315.083	107.44
315.312	99.44
315.542	95.44
315.771	116.44
316.001	105.44
316.23	107.44
316.46	88.44
316.689	117.44
316.919	101.44
317.148	104.44
317.377	113.44
317.607	119.44
317.836	90.44
318.065	104.44
318.295	117.44
318.524	101.44
318.753	87.44
318.983	112.44
319.212	119.44
319.441	101.44
319.67	115.44
319.9	114.44
320.129	102.44
320.358	93.44
320.587	108.44
320.816	130.44
321.046	106.44
321.275	115.44
321.504	122.44
321.733	107.44
321.962	117.44
322.191	108.44
322.42	104.44
322.649	113.44
322.878	115.44
323.108	123.44
323.337	106.44
323.566	110.44
323.795	124.44
324.024	101.44
324.253	124.44
324.482	133.44
324.71	169.44
324.939	193.44
325.168	177.44
325.397	144.44
325.626	128.44
325.855	114.44
326.084	115.44
326.313	110.44
326.542	128.44
326.77	117.44
326.999	127.44
327.228	130.44
327.457	159.44
327.686	149.44
327.914	143.44
328.143	123.44
328.372	100.44
328.6	131.44
328.829	122.44
329.058	125.44
329.287	121.44
329.515	107.44
329.744	107.44
329.972	111.44
330.201	127.44
330.43	107.44
330.658	118.44
330.887	117.44
331.115	125.44
331.344	125.44
331.572	121.44
331.801	120.44
332.03	123.44
332.258	126.44
332.486	109.44
332.715	118.44
332.943	124.44
333.172	106.44
333.4	140.44
333.629	114.44
333.857	132.44
334.085	123.44
334.314	119.44
334.542	119.44
334.771	117.44
334.999	98.44
335.227	115.44
335.455	123.44
335.684	133.44
335.912	118.44
336.14	115.44
336.369	103.44
336.597	114.44
336.825	113.44
337.053	99.44
337.281	119.44
337.51	119.44
337.738	110.44
337.966	121.44
338.194	110.44
338.422	127.44
338.65	133.44
338.878	124.44
339.106	125.44
339.334	120.44
339.562	107.44
339.79	121.44
340.018	108.44
340.246	117.44
340.474	105.44
340.702	105.44
340.93	101.44
341.158	112.44
341.386	121.44
341.614	110.44
341.842	107.44
342.07	101.44
342.298	111.44
342.526	115.44
342.754	114.44
342.981	101.44
343.209	133.44
343.437	113.44
343.665	121.44
343.893	121.44
344.12	111.44
344.348	125.44
344.576	128.44
344.804	119.44
345.031	101.44
345.259	103.44
345.487	119.44
345.714	113.44
345.942	116.44
346.17	107.44
346.397	119.44
346.625	97.44
346.853	125.44
347.08	109.44
347.308	104.44
347.535	129.44
347.763	117.44
347.99	121.44
348.218	121.44
348.445	107.44
348.673	91.44
348.9	115.44
349.128	115.44
349.355	114.44
349.583	113.44
349.81	103.44
350.037	109.44
350.265	114.44
350.492	108.44
350.72	120.44
350.947	119.44
351.174	107.44
351.402	109.44
351.629	126.44
351.856	121.44
352.083	107.44
352.311	125.44
352.538	102.44
352.765	115.44
352.992	104.44
353.22	105.44
353.447	109.44
353.674	120.44
353.901	117.44
354.128	124.44
354.355	113.44
354.583	106.44
354.81	112.44
355.037	117.44
355.264	116.44
355.491	95.44
355.718	125.44
355.945	102.44
356.172	103.44
356.399	119.44
356.626	122.44
356.853	119.44
357.08	108.44
357.307	111.44
357.534	108.44
357.761	117.44
357.988	99.44
358.215	127.44
358.441	109.44
358.668	117.44
358.895	105.44
359.122	121.44
359.349	97.44
359.576	117.44
359.802	118.44
360.029	100.44
360.256	108.44
360.483	123.44
360.709	105.44
360.936	102.44
361.163	119.44
361.39	110.44
361.616	110.44
361.843	119.44
362.07	116.44
362.296	105.44
362.523	121.44
362.749	101.44
362.976	111.44
363.203	106.44
363.429	107.44
363.656	108.44
363.882	107.44
364.109	123.44
364.335	121.44
364.562	110.44
364.788	113.44
365.015	121.44
365.241	117.44
365.468	121.44
365.694	110.44
365.92	119.44
366.147	98.44
366.373	117.44
366.599	110.44
366.826	114.44
367.052	117.44
367.278	111.44
367.505	101.44
367.731	108.44
367.957	127.44
368.184	108.44
368.41	108.44
368.636	122.44
368.862	95.44
369.089	101.44
369.315	113.44
369.541	109.44
369.767	120.44
369.993	112.44
370.219	89.44
370.445	115.44
370.672	110.44
370.898	97.44
371.124	120.44
371.35	105.44
371.576	106.44
371.802	114.44
372.028	127.44
372.254	111.44
372.48	103.44
372.706	114.44
372.932	116.44
373.158	124.44
373.384	117.44
373.61	106.44
373.835	107.44
374.061	106.44
374.287	121.44
374.513	119.44
374.739	110.44
374.965	118.44
375.191	113.44
375.416	110.44
375.642	124.44
375.868	120.44
376.094	108.44
376.319	117.44
376.545	106.44
376.771	109.44
376.997	124.44
377.222	109.44
377.448	118.44
377.674	102.44
377.899	93.44
378.125	121.44
378.35	124.44
378.576	126.44
378.802	117.44
379.027	111.44
379.253	95.44
379.478	128.44
379.704	100.44
379.929	96.44
380.155	102.44
380.38	114.44
380.606	113.44
380.831	97.44
381.057	109.44
381.282	114.44
381.507	115.44
381.733	113.44
381.958	113.44
382.184	116.44
382.409	111.44
382.634	113.44
382.86	111.44
383.085	107.44
383.31	118.44
383.535	119.44
383.761	118.44
383.986	114.44
384.211	104.44
384.436	110.44
384.662	126.44
384.887	121.44
385.112	110.44
385.337	115.44
385.562	129.44
385.787	129.44
386.013	122.44
386.238	129.44
386.463	127.44
386.688	118.44
386.913	97.44
387.138	131.44
387.363	121.44
387.588	120.44
387.813	120.44
388.038	115.44
388.263	112.44
388.488	123.44
388.713	109.44
388.938	111.44
389.163	121.44
389.387	114.44
389.612	109.44
389.837	123.44
390.062	106.44
390.287	104.44
390.512	114.44
390.736	110.44
390.961	103.44
391.186	125.44
391.411	125.44
391.636	113.44
391.86	108.44
392.085	121.44
392.31	125.44
392.534	126.44
392.759	119.44
392.984	123.44
393.208	104.44
393.433	119.44
393.658	123.44
393.882	122.44
394.107	118.44
394.331	133.44
394.556	127.44
394.78	138.44
395.005	135.44
395.229	124.44
395.454	118.44
395.678	114.44
395.903	114.44
396.127	124.44
396.352	135.44
396.576	132.44
396.801	127.44
397.025	117.44
397.249	128.44
397.474	120.44
397.698	114.44
397.922	134.44
398.147	125.44
398.371	120.44
398.595	119.44
398.82	133.44
399.044	126.44
399.268	144.44
399.492	152.44
399.717	144.44
399.941	133.44
400.165	141.44
400.389	142.44
400.613	124.44
400.837	145.44
401.062	117.44
401.286	130.44
401.51	133.44
401.734	137.44
401.958	122.44
402.182	118.44
402.406	123.44
402.63	134.44
402.854	125.44
403.078	116.44
403.302	132.44
403.526	135.44
403.75	137.44
403.974	140.44
404.198	137.44
404.422	126.44
404.645	132.44
404.869	130.44
405.093	136.44
405.317	124.44
405.541	144.44
405.765	129.44
405.988	141.44
406.212	136.44
406.436	127.44
406.66	129.44
406.883	134.44
407.107	135.44
407.331	139.44
407.555	138.44
407.778	145.44
408.002	144.44
408.226	141.44
408.449	134.44
408.673	142.44
408.896	127.44
409.12	150.44
409.344	135.44
409.567	137.44
409.791	123.44
410.014	115.44
410.238	127.44
410.461	138.44
410.685	135.44
410.908	129.44
411.132	147.44
411.355	142.44
411.578	143.44
411.802	133.44
412.025	118.44
412.249	128.44
412.472	112.44
412.695	124.44
412.919	122.44
413.142	119.44
413.365	133.44
413.589	142.44
413.812	116.44
414.035	136.44
414.258	124.44
414.482	135.44
414.705	131.44
414.928	116.44
415.151	128.44
415.374	126.44
415.597	131.44
415.821	130.44
416.044	119.44
416.267	111.44
416.49	129.44
416.713	113.44
416.936	132.44
417.159	121.44
417.382	126.44
417.605	125.44
417.828	121.44
418.051	121.44
418.274	124.44
418.497	133.44
418.72	139.44
418.943	128.44
419.166	127.44
419.389	135.44
419.611	125.44
419.834	131.44
420.057	138.44
420.28	125.44
420.503	147.44
420.726	127.44
420.948	128.44
421.171	136.44
421.394	146.44
421.617	117.44
421.839	125.44
422.062	129.44
422.285	133.44
422.507	130.44
422.73	140.44
422.953	135.44
423.175	133.44
423.398	133.44
423.621	127.44
423.843	133.44
424.066	138.44
424.288	135.44
424.511	143.44
424.733	139.44
424.956	150.44
425.178	149.44
425.401	131.44
425.623	126.44
425.846	125.44
426.068	133.44
426.291	130.44
426.513	121.44
426.735	132.44
426.958	138.44
427.18	116.44
427.402	134.44
427.625	149.44
427.847	132.44
428.069	132.44
428.292	126.44
428.514	128.44
428.736	139.44
428.958	125.44
429.181	132.44
429.403	117.44
429.625	126.44
429.847	140.44
430.069	132.44
430.292	132.44
430.514	116.44
430.736	111.44
430.958	131.44
431.18	128.44
431.402	123.44
431.624	121.44
431.846	109.44
432.068	133.44
432.29	136.44
432.512	118.44
432.734	119.44
432.956	124.44
433.178	121.44
433.4	112.44
433.622	123.44
433.844	135.44
434.066	125.44
434.287	130.44
434.509	124.44
434.731	124.44
434.953	129.44
435.175	133.44
435.397	143.44
435.618	123.44
435.84	139.44
436.062	144.44
436.284	134.44
436.505	143.44
436.727	126.44
436.949	111.44
437.17	129.44
437.392	127.44
437.614	125.44
437.835	122.44
438.057	125.44
438.278	139.44
438.5	154.44
438.721	167.44
438.943	138.44
439.165	126.44
439.386	126.44
439.608	144.44
439.829	125.44
440.05	126.44
440.272	124.44
440.493	135.44
440.715	125.44
440.936	130.44
441.158	127.44
441.379	118.44
441.6	132.44
441.822	131.44
442.043	140.44
442.264	118.44
442.486	133.44
442.707	131.44
442.928	140.44
443.149	126.44
443.371	132.44
443.592	141.44
443.813	124.44
444.034	130.44
444.255	135.44
444.476	137.44
444.698	121.44
444.919	126.44
445.14	214.44
445.361	185.44
445.582	135.44
445.803	133.44
446.024	140.44
446.245	153.44
446.466	147.44
446.687	134.44
446.908	130.44
447.129	129.44
447.35	133.44
447.571	126.44
447.792	120.44
448.013	113.44
448.234	124.44
448.455	130.44
448.675	121.44
448.896	132.44
449.117	138.44
449.338	131.44
449.559	134.44
449.779	124.44
450	149.44
450.221	129.44
450.442	119.44
450.662	122.44
450.883	122.44
451.104	121.44
451.324	108.44
451.545	129.44
451.766	123.44
451.986	110.44
452.207	127.44
452.428	133.44
452.648	123.44
452.869	125.44
453.089	117.44
453.31	122.44
453.53	129.44
453.751	116.44
453.971	120.44
454.192	116.44
454.412	120.44
454.633	128.44
454.853	102.44
455.073	113.44
455.294	106.44
455.514	123.44
455.734	128.44
455.955	123.44
456.175	118.44
456.395	107.44
456.616	104.44
456.836	121.44
457.056	119.44
457.276	101.44
457.497	121.44
457.717	109.44
457.937	122.44
458.157	129.44
458.377	119.44
458.598	117.44
458.818	124.44
459.038	133.44
459.258	134.44
459.478	137.44
459.698	126.44
459.918	126.44
460.138	141.44
460.358	127.44
460.578	138.44
460.798	131.44
461.018	136.44
461.238	137.44
461.458	131.44
461.678	109.44
461.898	119.44
462.118	117.44
462.338	133.44
462.558	148.44
462.777	129.44
462.997	144.44
463.217	139.44
463.437	131.44
463.657	136.44
463.876	132.44
464.096	140.44
464.316	150.44
464.536	139.44
464.755	136.44
464.975	137.44
465.195	150.44
465.414	133.44
465.634	142.44
465.854	111.44
466.073	122.44
466.293	125.44
466.512	115.44
466.732	123.44
466.951	126.44
467.171	116.44
467.391	119.44
467.61	125.44
467.829	126.44
468.049	129.44
468.268	127.44
468.488	139.44
468.707	139.44
468.927	122.44
469.146	119.44
469.365	118.44
469.585	135.44
469.804	125.44
470.023	120.44
470.243	120.44
470.462	114.44
470.681	125.44
470.901	111.44
471.12	120.44
471.339	119.44
471.558	130.44
471.777	137.44
471.997	122.44
472.216	121.44
472.435	125.44
472.654	123.44
472.873	125.44
473.092	127.44
473.311	113.44
473.53	125.44
473.749	126.44
473.968	137.44
474.187	123.44
474.406	147.44
474.625	125.44
474.844	111.44
475.063	120.44
475.282	119.44
475.501	113.44
475.72	123.44
475.939	126.44
476.158	116.44
476.377	128.44
476.596	124.44
476.814	123.44
477.033	128.44
477.252	106.44
477.471	122.44
477.69	122.44
477.908	124.44
478.127	127.44
478.346	137.44
478.564	131.44
478.783	133.44
479.002	118.44
479.22	135.44
479.439	127.44
479.658	121.44
479.876	120.44
480.095	113.44
480.313	129.44
480.532	140.44
480.751	125.44
480.969	127.44
481.188	126.44
481.406	139.44
481.624	140.44
481.843	139.44
482.061	136.44
482.28	134.44
482.498	121.44
482.717	114.44
482.935	120.44
483.153	133.44
483.372	142.44
483.59	135.44
483.808	140.44
484.027	125.44
484.245	135.44
484.463	127.44
484.681	135.44
484.9	125.44
485.118	139.44
485.336	139.44
485.554	122.44
485.772	148.44
485.99	129.44
486.209	118.44
486.427	140.44
486.645	135.44
486.863	129.44
487.081	126.44
487.299	123.44
487.517	130.44
487.735	124.44
487.953	135.44
488.171	140.44
488.389	137.44
488.607	125.44
488.825	129.44
489.043	139.44
489.261	132.44
489.479	139.44
489.696	137.44
489.914	130.44
490.132	136.44
490.35	146.44
490.568	146.44
490.786	147.44
491.003	137.44
491.221	129.44
491.439	142.44
491.657	149.44
491.874	149.44
492.092	141.44
492.31	145.44
492.527	145.44
492.745	133.44
492.963	153.44
493.18	138.44
493.398	149.44
493.615	136.44
493.833	150.44
494.05	131.44
494.268	130.44
494.485	137.44
494.703	165.44
494.92	154.44
495.138	159.44
495.355	143.44
495.573	147.44
495.79	142.44
496.008	143.44
496.225	136.44
496.442	140.44
496.66	141.44
496.877	149.44
497.094	146.44
497.312	143.44
497.529	157.44
497.746	164.44
497.963	149.44
498.181	140.44
498.398	154.44
498.615	149.44
498.832	162.44
499.049	169.44
499.267	157.44
499.484	188.44
499.701	188.44
499.918	182.44
500.135	219.44
500.352	215.44
500.569	216.44
500.786	207.44
501.003	212.44
501.22	193.44
501.437	201.44
501.654	170.44
501.871	181.44
502.088	173.44
502.305	153.44
502.522	156.44
502.739	161.44
502.956	150.44
503.172	141.44
503.389	143.44
503.606	148.44
503.823	148.44
504.04	157.44
504.256	147.44
504.473	147.44
504.69	135.44
504.907	120.44
505.123	139.44
505.34	130.44
