Data from 1968.PennyLincolnUp.Lamp.En5.5.200Scan.071719.P1._HRD10591_14-49-20-969.txt Node
Date: Thu Jul 18 14:49:20 EDT 2019
User: cochatt
Spectrometer: HR+D1059
Trigger mode: 1
Integration Time (sec): 1.000000E-1
Scans to average: 1
Electric dark correction enabled: true
Nonlinearity correction enabled: false
Boxcar width: 0
XAxis mode: Wavelengths
Number of Pixels in Spectrum: 2048
>>>>>Begin Spectral Data<<<<<
223.165	-8.69
223.4	-8.69
223.635	-8.69
223.869	-22.69
224.104	-18.69
224.338	-17.69
224.573	-19.69
224.808	-14.69
225.042	7.31
225.277	-2.69
225.511	-0.69
225.746	13.31
225.98	-3.69
226.215	5.31
226.449	18.31
226.683	14.31
226.918	29.31
227.152	21.31
227.387	30.31
227.621	37.31
227.856	31.31
228.09	51.31
228.324	53.31
228.559	48.31
228.793	55.31
229.027	69.31
229.262	79.31
229.496	70.31
229.73	69.31
229.964	72.31
230.199	91.31
230.433	71.31
230.667	84.31
230.901	76.31
231.136	78.31
231.37	89.31
231.604	79.31
231.838	83.31
232.072	88.31
232.306	84.31
232.541	81.31
232.775	90.31
233.009	101.31
233.243	94.31
233.477	87.31
233.711	92.31
233.945	76.31
234.179	84.31
234.413	84.31
234.647	82.31
234.881	82.31
235.115	89.31
235.349	79.31
235.583	81.31
235.817	78.31
236.051	85.31
236.285	91.31
236.519	87.31
236.753	79.31
236.987	74.31
237.221	91.31
237.455	99.31
237.689	88.31
237.922	69.31
238.156	92.31
238.39	73.31
238.624	78.31
238.858	87.31
239.091	84.31
239.325	86.31
239.559	86.31
239.793	71.31
240.027	75.31
240.26	84.31
240.494	90.31
240.728	91.31
240.961	81.31
241.195	84.31
241.429	93.31
241.662	94.31
241.896	88.31
242.13	76.31
242.363	91.31
242.597	80.31
242.83	83.31
243.064	84.31
243.298	90.31
243.531	68.31
243.765	71.31
243.998	99.31
244.232	89.31
244.465	88.31
244.699	77.31
244.932	77.31
245.166	84.31
245.399	96.31
245.633	81.31
245.866	104.31
246.099	93.31
246.333	93.31
246.566	89.31
246.8	86.31
247.033	81.31
247.266	81.31
247.5	94.31
247.733	80.31
247.966	93.31
248.2	82.31
248.433	87.31
248.666	85.31
248.899	89.31
249.133	100.31
249.366	104.31
249.599	89.31
249.832	97.31
250.066	102.31
250.299	97.31
250.532	94.31
250.765	95.31
250.998	89.31
251.231	98.31
251.465	88.31
251.698	84.31
251.931	105.31
252.164	81.31
252.397	92.31
252.63	87.31
252.863	99.31
253.096	91.31
253.329	86.31
253.562	97.31
253.795	85.31
254.028	84.31
254.261	102.31
254.494	89.31
254.727	83.31
254.96	99.31
255.193	90.31
255.426	88.31
255.659	106.31
255.892	95.31
256.124	86.31
256.357	95.31
256.59	92.31
256.823	80.31
257.056	90.31
257.289	78.31
257.521	86.31
257.754	86.31
257.987	102.31
258.22	95.31
258.452	94.31
258.685	85.31
258.918	100.31
259.151	96.31
259.383	90.31
259.616	88.31
259.849	95.31
260.081	78.31
260.314	99.31
260.547	95.31
260.779	97.31
261.012	94.31
261.244	89.31
261.477	75.31
261.71	102.31
261.942	92.31
262.175	86.31
262.407	90.31
262.64	94.31
262.872	83.31
263.105	95.31
263.337	95.31
263.57	79.31
263.802	107.31
264.035	93.31
264.267	87.31
264.499	90.31
264.732	100.31
264.964	102.31
265.197	96.31
265.429	106.31
265.661	95.31
265.894	104.31
266.126	87.31
266.358	93.31
266.591	96.31
266.823	92.31
267.055	84.31
267.287	76.31
267.52	94.31
267.752	97.31
267.984	98.31
268.216	91.31
268.448	96.31
268.681	103.31
268.913	101.31
269.145	94.31
269.377	95.31
269.609	112.31
269.841	106.31
270.073	96.31
270.306	95.31
270.538	89.31
270.77	89.31
271.002	100.31
271.234	88.31
271.466	102.31
271.698	99.31
271.93	102.31
272.162	100.31
272.394	96.31
272.626	105.31
272.858	93.31
273.09	112.31
273.322	97.31
273.553	104.31
273.785	115.31
274.017	89.31
274.249	97.31
274.481	103.31
274.713	107.31
274.945	97.31
275.176	90.31
275.408	88.31
275.64	106.31
275.872	99.31
276.104	106.31
276.335	93.31
276.567	101.31
276.799	100.31
277.031	90.31
277.262	104.31
277.494	75.31
277.726	87.31
277.957	105.31
278.189	111.31
278.421	117.31
278.652	94.31
278.884	110.31
279.115	103.31
279.347	86.31
279.579	96.31
279.81	90.31
280.042	100.31
280.273	102.31
280.505	104.31
280.736	96.31
280.968	101.31
281.199	108.31
281.431	107.31
281.662	95.31
281.894	105.31
282.125	103.31
282.356	96.31
282.588	108.31
282.819	97.31
283.051	96.31
283.282	112.31
283.513	108.31
283.745	102.31
283.976	89.31
284.207	98.31
284.439	85.31
284.67	116.31
284.901	96.31
285.132	113.31
285.364	106.31
285.595	87.31
285.826	96.31
286.057	102.31
286.288	104.31
286.52	96.31
286.751	90.31
286.982	111.31
287.213	96.31
287.444	102.31
287.675	107.31
287.906	88.31
288.138	96.31
288.369	104.31
288.6	105.31
288.831	102.31
289.062	106.31
289.293	112.31
289.524	106.31
289.755	94.31
289.986	105.31
290.217	108.31
290.448	92.31
290.679	107.31
290.91	103.31
291.141	99.31
291.371	92.31
291.602	99.31
291.833	107.31
292.064	114.31
292.295	103.31
292.526	119.31
292.757	106.31
292.987	101.31
293.218	100.31
293.449	117.31
293.68	92.31
293.91	110.31
294.141	89.31
294.372	111.31
294.603	118.31
294.833	100.31
295.064	115.31
295.295	91.31
295.525	95.31
295.756	116.31
295.987	110.31
296.217	104.31
296.448	98.31
296.679	99.31
296.909	102.31
297.14	103.31
297.37	100.31
297.601	102.31
297.831	107.31
298.062	108.31
298.292	105.31
298.523	111.31
298.753	99.31
298.984	108.31
299.214	118.31
299.445	109.31
299.675	79.31
299.905	95.31
300.136	115.31
300.366	106.31
300.597	109.31
300.827	89.31
301.057	106.31
301.288	106.31
301.518	110.31
301.748	110.31
301.979	109.31
302.209	101.31
302.439	117.31
302.669	105.31
302.9	103.31
303.13	116.31
303.36	116.31
303.59	111.31
303.82	109.31
304.051	108.31
304.281	115.31
304.511	105.31
304.741	108.31
304.971	109.31
305.201	117.31
305.431	115.31
305.661	102.31
305.891	104.31
306.121	115.31
306.352	105.31
306.582	108.31
306.812	115.31
307.042	103.31
307.272	99.31
307.502	117.31
307.731	104.31
307.961	96.31
308.191	117.31
308.421	107.31
308.651	112.31
308.881	111.31
309.111	102.31
309.341	102.31
309.571	94.31
309.8	107.31
310.03	103.31
310.26	120.31
310.49	115.31
310.72	104.31
310.949	102.31
311.179	103.31
311.409	104.31
311.639	105.31
311.868	127.31
312.098	120.31
312.328	112.31
312.557	127.31
312.787	107.31
313.017	110.31
313.246	107.31
313.476	101.31
313.706	96.31
313.935	115.31
314.165	108.31
314.394	116.31
314.624	112.31
314.853	113.31
315.083	109.31
315.312	99.31
315.542	115.31
315.771	100.31
316.001	97.31
316.23	121.31
316.46	109.31
316.689	106.31
316.919	105.31
317.148	111.31
317.377	112.31
317.607	110.31
317.836	111.31
318.065	111.31
318.295	120.31
318.524	108.31
318.753	112.31
318.983	119.31
319.212	111.31
319.441	93.31
319.67	132.31
319.9	115.31
320.129	101.31
320.358	92.31
320.587	109.31
320.816	115.31
321.046	100.31
321.275	110.31
321.504	116.31
321.733	108.31
321.962	110.31
322.191	113.31
322.42	105.31
322.649	102.31
322.878	129.31
323.108	114.31
323.337	109.31
323.566	111.31
323.795	114.31
324.024	112.31
324.253	127.31
324.482	119.31
324.71	141.31
324.939	160.31
325.168	149.31
325.397	107.31
325.626	112.31
325.855	111.31
326.084	101.31
326.313	116.31
326.542	110.31
326.77	111.31
326.999	117.31
327.228	118.31
327.457	144.31
327.686	139.31
327.914	131.31
328.143	123.31
328.372	124.31
328.6	129.31
328.829	119.31
329.058	112.31
329.287	127.31
329.515	112.31
329.744	111.31
329.972	100.31
330.201	109.31
330.43	118.31
330.658	117.31
330.887	128.31
331.115	126.31
331.344	120.31
331.572	106.31
331.801	121.31
332.03	125.31
332.258	100.31
332.486	111.31
332.715	127.31
332.943	115.31
333.172	127.31
333.4	127.31
333.629	127.31
333.857	124.31
334.085	118.31
334.314	104.31
334.542	130.31
334.771	108.31
334.999	119.31
335.227	134.31
335.455	113.31
335.684	123.31
335.912	129.31
336.14	127.31
336.369	111.31
336.597	103.31
336.825	117.31
337.053	107.31
337.281	115.31
337.51	105.31
337.738	108.31
337.966	100.31
338.194	116.31
338.422	115.31
338.65	122.31
338.878	122.31
339.106	108.31
339.334	115.31
339.562	109.31
339.79	124.31
340.018	116.31
340.246	120.31
340.474	115.31
340.702	105.31
340.93	121.31
341.158	120.31
341.386	120.31
341.614	124.31
341.842	127.31
342.07	115.31
342.298	124.31
342.526	108.31
342.754	126.31
342.981	104.31
343.209	115.31
343.437	119.31
343.665	114.31
343.893	116.31
344.12	119.31
344.348	113.31
344.576	105.31
344.804	118.31
345.031	120.31
345.259	108.31
345.487	112.31
345.714	122.31
345.942	117.31
346.17	109.31
346.397	103.31
346.625	96.31
346.853	115.31
347.08	108.31
347.308	113.31
347.535	102.31
347.763	95.31
347.99	112.31
348.218	114.31
348.445	107.31
348.673	104.31
348.9	120.31
349.128	118.31
349.355	108.31
349.583	101.31
349.81	113.31
350.037	108.31
350.265	108.31
350.492	116.31
350.72	112.31
350.947	112.31
351.174	112.31
351.402	120.31
351.629	96.31
351.856	94.31
352.083	117.31
352.311	116.31
352.538	131.31
352.765	111.31
352.992	117.31
353.22	120.31
353.447	96.31
353.674	121.31
353.901	125.31
354.128	118.31
354.355	106.31
354.583	113.31
354.81	111.31
355.037	109.31
355.264	112.31
355.491	111.31
355.718	105.31
355.945	116.31
356.172	120.31
356.399	124.31
356.626	103.31
356.853	112.31
357.08	113.31
357.307	119.31
357.534	111.31
357.761	119.31
357.988	112.31
358.215	101.31
358.441	107.31
358.668	106.31
358.895	115.31
359.122	121.31
359.349	104.31
359.576	120.31
359.802	111.31
360.029	124.31
360.256	111.31
360.483	115.31
360.709	119.31
360.936	112.31
361.163	104.31
361.39	120.31
361.616	125.31
361.843	110.31
362.07	113.31
362.296	107.31
362.523	111.31
362.749	112.31
362.976	112.31
363.203	103.31
363.429	123.31
363.656	104.31
363.882	95.31
364.109	108.31
364.335	125.31
364.562	118.31
364.788	113.31
365.015	112.31
365.241	104.31
365.468	120.31
365.694	105.31
365.92	117.31
366.147	115.31
366.373	107.31
366.599	100.31
366.826	115.31
367.052	113.31
367.278	99.31
367.505	116.31
367.731	113.31
367.957	115.31
368.184	103.31
368.41	119.31
368.636	111.31
368.862	121.31
369.089	123.31
369.315	109.31
369.541	117.31
369.767	101.31
369.993	96.31
370.219	99.31
370.445	112.31
370.672	104.31
370.898	117.31
371.124	110.31
371.35	106.31
371.576	124.31
371.802	110.31
372.028	112.31
372.254	109.31
372.48	108.31
372.706	114.31
372.932	124.31
373.158	125.31
373.384	109.31
373.61	116.31
373.835	119.31
374.061	127.31
374.287	117.31
374.513	112.31
374.739	113.31
374.965	131.31
375.191	108.31
375.416	119.31
375.642	115.31
375.868	117.31
376.094	127.31
376.319	125.31
376.545	106.31
376.771	97.31
376.997	98.31
377.222	108.31
377.448	128.31
377.674	118.31
377.899	114.31
378.125	125.31
378.35	122.31
378.576	123.31
378.802	106.31
379.027	115.31
379.253	117.31
379.478	105.31
379.704	120.31
379.929	108.31
380.155	108.31
380.38	124.31
380.606	115.31
380.831	116.31
381.057	106.31
381.282	101.31
381.507	129.31
381.733	115.31
381.958	124.31
382.184	109.31
382.409	100.31
382.634	121.31
382.86	106.31
383.085	106.31
383.31	118.31
383.535	103.31
383.761	121.31
383.986	130.31
384.211	124.31
384.436	121.31
384.662	113.31
384.887	127.31
385.112	110.31
385.337	123.31
385.562	108.31
385.787	115.31
386.013	131.31
386.238	141.31
386.463	129.31
386.688	105.31
386.913	108.31
387.138	124.31
387.363	123.31
387.588	117.31
387.813	123.31
388.038	111.31
388.263	134.31
388.488	139.31
388.713	118.31
388.938	134.31
389.163	130.31
389.387	131.31
389.612	121.31
389.837	116.31
390.062	113.31
390.287	116.31
390.512	106.31
390.736	119.31
390.961	119.31
391.186	132.31
391.411	128.31
391.636	114.31
391.86	118.31
392.085	120.31
392.31	132.31
392.534	133.31
392.759	128.31
392.984	115.31
393.208	117.31
393.433	113.31
393.658	123.31
393.882	123.31
394.107	110.31
394.331	122.31
394.556	105.31
394.78	117.31
395.005	116.31
395.229	118.31
395.454	123.31
395.678	137.31
395.903	121.31
396.127	132.31
396.352	130.31
396.576	110.31
396.801	122.31
397.025	117.31
397.249	115.31
397.474	126.31
397.698	118.31
397.922	125.31
398.147	119.31
398.371	104.31
398.595	135.31
398.82	132.31
399.044	124.31
399.268	130.31
399.492	143.31
399.717	133.31
399.941	153.31
400.165	151.31
400.389	127.31
400.613	143.31
400.837	126.31
401.062	136.31
401.286	122.31
401.51	131.31
401.734	130.31
401.958	140.31
402.182	139.31
402.406	120.31
402.63	123.31
402.854	143.31
403.078	146.31
403.302	119.31
403.526	140.31
403.75	127.31
403.974	137.31
404.198	129.31
404.422	137.31
404.645	121.31
404.869	134.31
405.093	131.31
405.317	135.31
405.541	141.31
405.765	142.31
405.988	136.31
406.212	122.31
406.436	123.31
406.66	129.31
406.883	144.31
407.107	143.31
407.331	131.31
407.555	133.31
407.778	145.31
408.002	129.31
408.226	127.31
408.449	130.31
408.673	141.31
408.896	128.31
409.12	137.31
409.344	150.31
409.567	118.31
409.791	131.31
410.014	119.31
410.238	125.31
410.461	130.31
410.685	125.31
410.908	143.31
411.132	129.31
411.355	137.31
411.578	139.31
411.802	110.31
412.025	123.31
412.249	136.31
412.472	132.31
412.695	137.31
412.919	142.31
413.142	130.31
413.365	125.31
413.589	137.31
413.812	143.31
414.035	120.31
414.258	127.31
414.482	128.31
414.705	126.31
414.928	140.31
415.151	145.31
415.374	117.31
415.597	132.31
415.821	131.31
416.044	118.31
416.267	138.31
416.49	123.31
416.713	128.31
416.936	149.31
417.159	123.31
417.382	121.31
417.605	134.31
417.828	125.31
418.051	143.31
418.274	139.31
418.497	133.31
418.72	147.31
418.943	127.31
419.166	120.31
419.389	140.31
419.611	135.31
419.834	131.31
420.057	132.31
420.28	145.31
420.503	129.31
420.726	144.31
420.948	116.31
421.171	136.31
421.394	154.31
421.617	131.31
421.839	120.31
422.062	128.31
422.285	132.31
422.507	117.31
422.73	137.31
422.953	134.31
423.175	132.31
423.398	131.31
423.621	140.31
423.843	144.31
424.066	145.31
424.288	134.31
424.511	129.31
424.733	151.31
424.956	138.31
425.178	115.31
425.401	142.31
425.623	136.31
425.846	121.31
426.068	136.31
426.291	127.31
426.513	130.31
426.735	123.31
426.958	138.31
427.18	116.31
427.402	144.31
427.625	143.31
427.847	147.31
428.069	128.31
428.292	127.31
428.514	132.31
428.736	125.31
428.958	125.31
429.181	121.31
429.403	122.31
429.625	126.31
429.847	132.31
430.069	139.31
430.292	135.31
430.514	120.31
430.736	123.31
430.958	137.31
431.18	131.31
431.402	137.31
431.624	119.31
431.846	115.31
432.068	135.31
432.29	113.31
432.512	129.31
432.734	121.31
432.956	144.31
433.178	138.31
433.4	126.31
433.622	128.31
433.844	123.31
434.066	130.31
434.287	116.31
434.509	126.31
434.731	118.31
434.953	123.31
435.175	127.31
435.397	134.31
435.618	126.31
435.84	140.31
436.062	135.31
436.284	145.31
436.505	122.31
436.727	127.31
436.949	136.31
437.17	124.31
437.392	124.31
437.614	117.31
437.835	126.31
438.057	130.31
438.278	133.31
438.5	131.31
438.721	153.31
438.943	135.31
439.165	122.31
439.386	122.31
439.608	125.31
439.829	108.31
440.05	126.31
440.272	122.31
440.493	125.31
440.715	123.31
440.936	110.31
441.158	123.31
441.379	131.31
441.6	131.31
441.822	122.31
442.043	127.31
442.264	143.31
442.486	140.31
442.707	125.31
442.928	138.31
443.149	122.31
443.371	134.31
443.592	126.31
443.813	129.31
444.034	132.31
444.255	125.31
444.476	132.31
444.698	121.31
444.919	127.31
445.14	245.31
445.361	188.31
445.582	131.31
445.803	141.31
446.024	142.31
446.245	135.31
446.466	136.31
446.687	141.31
446.908	120.31
447.129	131.31
447.35	116.31
447.571	119.31
447.792	128.31
448.013	122.31
448.234	123.31
448.455	119.31
448.675	124.31
448.896	121.31
449.117	131.31
449.338	127.31
449.559	132.31
449.779	112.31
450	124.31
450.221	117.31
450.442	133.31
450.662	133.31
450.883	120.31
451.104	123.31
451.324	130.31
451.545	110.31
451.766	121.31
451.986	115.31
452.207	125.31
452.428	133.31
452.648	120.31
452.869	111.31
453.089	121.31
453.31	126.31
453.53	124.31
453.751	125.31
453.971	108.31
454.192	116.31
454.412	127.31
454.633	109.31
454.853	133.31
455.073	131.31
455.294	117.31
455.514	125.31
455.734	141.31
455.955	131.31
456.175	117.31
456.395	120.31
456.616	117.31
456.836	116.31
457.056	110.31
457.276	117.31
457.497	123.31
457.717	113.31
457.937	115.31
458.157	112.31
458.377	106.31
458.598	108.31
458.818	116.31
459.038	121.31
459.258	123.31
459.478	124.31
459.698	132.31
459.918	152.31
460.138	138.31
460.358	128.31
460.578	128.31
460.798	132.31
461.018	124.31
461.238	138.31
461.458	137.31
461.678	136.31
461.898	140.31
462.118	127.31
462.338	148.31
462.558	145.31
462.777	128.31
462.997	138.31
463.217	143.31
463.437	139.31
463.657	156.31
463.876	133.31
464.096	133.31
464.316	131.31
464.536	143.31
464.755	123.31
464.975	135.31
465.195	132.31
465.414	142.31
465.634	132.31
465.854	124.31
466.073	118.31
466.293	121.31
466.512	122.31
466.732	124.31
466.951	120.31
467.171	108.31
467.391	116.31
467.61	117.31
467.829	122.31
468.049	131.31
468.268	130.31
468.488	118.31
468.707	140.31
468.927	136.31
469.146	124.31
469.365	136.31
469.585	115.31
469.804	128.31
470.023	143.31
470.243	141.31
470.462	126.31
470.681	119.31
470.901	116.31
471.12	122.31
471.339	127.31
471.558	128.31
471.777	132.31
471.997	137.31
472.216	123.31
472.435	134.31
472.654	116.31
472.873	132.31
473.092	116.31
473.311	108.31
473.53	110.31
473.749	119.31
473.968	126.31
474.187	128.31
474.406	115.31
474.625	108.31
474.844	126.31
475.063	127.31
475.282	120.31
475.501	126.31
475.72	110.31
475.939	117.31
476.158	135.31
476.377	141.31
476.596	128.31
476.814	127.31
477.033	121.31
477.252	120.31
477.471	129.31
477.69	131.31
477.908	138.31
478.127	139.31
478.346	128.31
478.564	144.31
478.783	122.31
479.002	143.31
479.22	129.31
479.439	118.31
479.658	136.31
479.876	139.31
480.095	139.31
480.313	136.31
480.532	147.31
480.751	138.31
480.969	131.31
481.188	135.31
481.406	144.31
481.624	143.31
481.843	143.31
482.061	134.31
482.28	118.31
482.498	139.31
482.717	134.31
482.935	124.31
483.153	131.31
483.372	136.31
483.59	125.31
483.808	129.31
484.027	125.31
484.245	141.31
484.463	141.31
484.681	134.31
484.9	139.31
485.118	144.31
485.336	133.31
485.554	154.31
485.772	134.31
485.99	143.31
486.209	141.31
486.427	146.31
486.645	145.31
486.863	127.31
487.081	140.31
487.299	146.31
487.517	141.31
487.735	141.31
487.953	149.31
488.171	143.31
488.389	128.31
488.607	125.31
488.825	135.31
489.043	132.31
489.261	149.31
489.479	131.31
489.696	136.31
489.914	141.31
490.132	151.31
490.35	134.31
490.568	138.31
490.786	151.31
491.003	132.31
491.221	133.31
491.439	139.31
491.657	146.31
491.874	151.31
492.092	160.31
492.31	146.31
492.527	130.31
492.745	140.31
492.963	138.31
493.18	132.31
493.398	131.31
493.615	141.31
493.833	156.31
494.05	136.31
494.268	157.31
494.485	150.31
494.703	141.31
494.92	126.31
495.138	147.31
495.355	133.31
495.573	150.31
495.79	141.31
496.008	147.31
496.225	151.31
496.442	164.31
496.66	160.31
496.877	141.31
497.094	147.31
497.312	146.31
497.529	149.31
497.746	143.31
497.963	149.31
498.181	147.31
498.398	165.31
498.615	163.31
498.832	168.31
499.049	174.31
499.267	185.31
499.484	163.31
499.701	181.31
499.918	193.31
500.135	194.31
500.352	221.31
500.569	207.31
500.786	213.31
501.003	215.31
501.22	186.31
501.437	193.31
501.654	175.31
501.871	186.31
502.088	151.31
502.305	150.31
502.522	168.31
502.739	166.31
502.956	142.31
503.172	152.31
503.389	144.31
503.606	157.31
503.823	142.31
504.04	149.31
504.256	153.31
504.473	151.31
504.69	148.31
504.907	173.31
505.123	142.31
