Data from 1968.PennyLincolnUp.Lamp.En5.5.200Scan.071719.P1._HRD10591_14-51-08-969.txt Node
Date: Thu Jul 18 14:51:08 EDT 2019
User: cochatt
Spectrometer: HR+D1059
Trigger mode: 1
Integration Time (sec): 1.000000E-1
Scans to average: 1
Electric dark correction enabled: true
Nonlinearity correction enabled: false
Boxcar width: 0
XAxis mode: Wavelengths
Number of Pixels in Spectrum: 2048
>>>>>Begin Spectral Data<<<<<
223.165	-10.38
223.4	-10.38
223.635	-10.38
223.869	-14.38
224.104	-15.38
224.338	-16.38
224.573	-11.38
224.808	-11.38
225.042	-2.38
225.277	-4.38
225.511	-3.38
225.746	-0.38
225.98	14.62
226.215	6.62
226.449	9.62
226.683	15.62
226.918	15.62
227.152	27.62
227.387	32.62
227.621	35.62
227.856	36.62
228.09	46.62
228.324	42.62
228.559	50.62
228.793	51.62
229.027	57.62
229.262	67.62
229.496	73.62
229.73	77.62
229.964	81.62
230.199	83.62
230.433	56.62
230.667	92.62
230.901	71.62
231.136	93.62
231.37	87.62
231.604	85.62
231.838	69.62
232.072	78.62
232.306	96.62
232.541	95.62
232.775	93.62
233.009	87.62
233.243	80.62
233.477	83.62
233.711	99.62
233.945	92.62
234.179	86.62
234.413	84.62
234.647	83.62
234.881	96.62
235.115	70.62
235.349	73.62
235.583	87.62
235.817	80.62
236.051	86.62
236.285	89.62
236.519	85.62
236.753	109.62
236.987	82.62
237.221	83.62
237.455	95.62
237.689	75.62
237.922	74.62
238.156	84.62
238.39	83.62
238.624	79.62
238.858	84.62
239.091	89.62
239.325	82.62
239.559	89.62
239.793	74.62
240.027	82.62
240.26	87.62
240.494	77.62
240.728	84.62
240.961	82.62
241.195	80.62
241.429	74.62
241.662	79.62
241.896	94.62
242.13	79.62
242.363	88.62
242.597	96.62
242.83	88.62
243.064	91.62
243.298	85.62
243.531	82.62
243.765	93.62
243.998	70.62
244.232	90.62
244.465	75.62
244.699	88.62
244.932	82.62
245.166	77.62
245.399	81.62
245.633	79.62
245.866	92.62
246.099	86.62
246.333	105.62
246.566	78.62
246.8	84.62
247.033	78.62
247.266	75.62
247.5	91.62
247.733	92.62
247.966	82.62
248.2	87.62
248.433	88.62
248.666	81.62
248.899	100.62
249.133	91.62
249.366	103.62
249.599	78.62
249.832	76.62
250.066	99.62
250.299	85.62
250.532	101.62
250.765	79.62
250.998	99.62
251.231	100.62
251.465	87.62
251.698	87.62
251.931	85.62
252.164	82.62
252.397	82.62
252.63	91.62
252.863	88.62
253.096	100.62
253.329	93.62
253.562	102.62
253.795	97.62
254.028	106.62
254.261	97.62
254.494	88.62
254.727	101.62
254.96	110.62
255.193	85.62
255.426	95.62
255.659	96.62
255.892	89.62
256.124	88.62
256.357	90.62
256.59	80.62
256.823	95.62
257.056	100.62
257.289	74.62
257.521	90.62
257.754	80.62
257.987	109.62
258.22	89.62
258.452	93.62
258.685	92.62
258.918	88.62
259.151	84.62
259.383	94.62
259.616	93.62
259.849	110.62
260.081	101.62
260.314	95.62
260.547	95.62
260.779	97.62
261.012	94.62
261.244	96.62
261.477	92.62
261.71	88.62
261.942	113.62
262.175	99.62
262.407	92.62
262.64	88.62
262.872	93.62
263.105	88.62
263.337	102.62
263.57	85.62
263.802	101.62
264.035	86.62
264.267	97.62
264.499	86.62
264.732	100.62
264.964	110.62
265.197	94.62
265.429	106.62
265.661	84.62
265.894	98.62
266.126	89.62
266.358	95.62
266.591	88.62
266.823	106.62
267.055	96.62
267.287	94.62
267.52	101.62
267.752	106.62
267.984	88.62
268.216	86.62
268.448	103.62
268.681	90.62
268.913	96.62
269.145	103.62
269.377	98.62
269.609	92.62
269.841	103.62
270.073	96.62
270.306	95.62
270.538	105.62
270.77	86.62
271.002	97.62
271.234	95.62
271.466	103.62
271.698	105.62
271.93	93.62
272.162	97.62
272.394	93.62
272.626	93.62
272.858	96.62
273.09	116.62
273.322	86.62
273.553	96.62
273.785	103.62
274.017	100.62
274.249	101.62
274.481	90.62
274.713	95.62
274.945	113.62
275.176	93.62
275.408	111.62
275.64	92.62
275.872	86.62
276.104	96.62
276.335	101.62
276.567	105.62
276.799	106.62
277.031	107.62
277.262	108.62
277.494	102.62
277.726	89.62
277.957	114.62
278.189	103.62
278.421	90.62
278.652	97.62
278.884	104.62
279.115	90.62
279.347	100.62
279.579	106.62
279.81	98.62
280.042	96.62
280.273	100.62
280.505	105.62
280.736	106.62
280.968	117.62
281.199	102.62
281.431	109.62
281.662	104.62
281.894	104.62
282.125	109.62
282.356	98.62
282.588	97.62
282.819	97.62
283.051	103.62
283.282	94.62
283.513	111.62
283.745	110.62
283.976	89.62
284.207	89.62
284.439	97.62
284.67	111.62
284.901	103.62
285.132	102.62
285.364	106.62
285.595	98.62
285.826	103.62
286.057	98.62
286.288	89.62
286.52	98.62
286.751	97.62
286.982	118.62
287.213	108.62
287.444	104.62
287.675	110.62
287.906	95.62
288.138	94.62
288.369	107.62
288.6	102.62
288.831	108.62
289.062	108.62
289.293	108.62
289.524	95.62
289.755	83.62
289.986	117.62
290.217	101.62
290.448	93.62
290.679	100.62
290.91	101.62
291.141	114.62
291.371	109.62
291.602	106.62
291.833	108.62
292.064	105.62
292.295	105.62
292.526	104.62
292.757	101.62
292.987	116.62
293.218	96.62
293.449	113.62
293.68	116.62
293.91	99.62
294.141	97.62
294.372	108.62
294.603	99.62
294.833	91.62
295.064	86.62
295.295	88.62
295.525	101.62
295.756	93.62
295.987	102.62
296.217	111.62
296.448	111.62
296.679	112.62
296.909	94.62
297.14	97.62
297.37	105.62
297.601	106.62
297.831	102.62
298.062	114.62
298.292	117.62
298.523	113.62
298.753	99.62
298.984	111.62
299.214	127.62
299.445	120.62
299.675	106.62
299.905	105.62
300.136	103.62
300.366	111.62
300.597	112.62
300.827	100.62
301.057	123.62
301.288	103.62
301.518	111.62
301.748	117.62
301.979	121.62
302.209	100.62
302.439	112.62
302.669	116.62
302.9	114.62
303.13	107.62
303.36	118.62
303.59	107.62
303.82	116.62
304.051	117.62
304.281	97.62
304.511	120.62
304.741	110.62
304.971	109.62
305.201	104.62
305.431	106.62
305.661	105.62
305.891	97.62
306.121	104.62
306.352	111.62
306.582	112.62
306.812	116.62
307.042	116.62
307.272	108.62
307.502	100.62
307.731	102.62
307.961	102.62
308.191	106.62
308.421	99.62
308.651	109.62
308.881	123.62
309.111	91.62
309.341	100.62
309.571	120.62
309.8	105.62
310.03	120.62
310.26	98.62
310.49	104.62
310.72	112.62
310.949	120.62
311.179	103.62
311.409	107.62
311.639	112.62
311.868	107.62
312.098	100.62
312.328	100.62
312.557	111.62
312.787	105.62
313.017	112.62
313.246	109.62
313.476	109.62
313.706	106.62
313.935	91.62
314.165	117.62
314.394	120.62
314.624	103.62
314.853	114.62
315.083	103.62
315.312	97.62
315.542	112.62
315.771	123.62
316.001	112.62
316.23	106.62
316.46	99.62
316.689	114.62
316.919	99.62
317.148	110.62
317.377	126.62
317.607	116.62
317.836	107.62
318.065	106.62
318.295	110.62
318.524	109.62
318.753	119.62
318.983	100.62
319.212	109.62
319.441	108.62
319.67	115.62
319.9	109.62
320.129	101.62
320.358	113.62
320.587	111.62
320.816	108.62
321.046	107.62
321.275	119.62
321.504	111.62
321.733	119.62
321.962	103.62
322.191	111.62
322.42	110.62
322.649	110.62
322.878	112.62
323.108	118.62
323.337	102.62
323.566	105.62
323.795	105.62
324.024	110.62
324.253	125.62
324.482	135.62
324.71	163.62
324.939	178.62
325.168	142.62
325.397	129.62
325.626	124.62
325.855	119.62
326.084	118.62
326.313	121.62
326.542	106.62
326.77	103.62
326.999	140.62
327.228	136.62
327.457	158.62
327.686	148.62
327.914	127.62
328.143	130.62
328.372	111.62
328.6	128.62
328.829	132.62
329.058	113.62
329.287	90.62
329.515	112.62
329.744	130.62
329.972	115.62
330.201	113.62
330.43	128.62
330.658	114.62
330.887	127.62
331.115	117.62
331.344	112.62
331.572	119.62
331.801	108.62
332.03	125.62
332.258	108.62
332.486	106.62
332.715	107.62
332.943	127.62
333.172	131.62
333.4	130.62
333.629	121.62
333.857	105.62
334.085	116.62
334.314	124.62
334.542	116.62
334.771	125.62
334.999	113.62
335.227	118.62
335.455	115.62
335.684	121.62
335.912	111.62
336.14	111.62
336.369	112.62
336.597	128.62
336.825	121.62
337.053	109.62
337.281	111.62
337.51	118.62
337.738	119.62
337.966	114.62
338.194	120.62
338.422	122.62
338.65	123.62
338.878	112.62
339.106	106.62
339.334	114.62
339.562	117.62
339.79	111.62
340.018	120.62
340.246	106.62
340.474	132.62
340.702	111.62
340.93	120.62
341.158	106.62
341.386	110.62
341.614	90.62
341.842	126.62
342.07	105.62
342.298	116.62
342.526	101.62
342.754	107.62
342.981	111.62
343.209	85.62
343.437	112.62
343.665	125.62
343.893	121.62
344.12	111.62
344.348	118.62
344.576	101.62
344.804	107.62
345.031	114.62
345.259	109.62
345.487	109.62
345.714	113.62
345.942	108.62
346.17	113.62
346.397	125.62
346.625	117.62
346.853	119.62
347.08	106.62
347.308	111.62
347.535	112.62
347.763	111.62
347.99	107.62
348.218	113.62
348.445	113.62
348.673	99.62
348.9	104.62
349.128	99.62
349.355	120.62
349.583	113.62
349.81	100.62
350.037	108.62
350.265	120.62
350.492	109.62
350.72	106.62
350.947	106.62
351.174	118.62
351.402	109.62
351.629	108.62
351.856	113.62
352.083	118.62
352.311	111.62
352.538	122.62
352.765	113.62
352.992	110.62
353.22	94.62
353.447	112.62
353.674	116.62
353.901	120.62
354.128	109.62
354.355	114.62
354.583	121.62
354.81	109.62
355.037	113.62
355.264	106.62
355.491	109.62
355.718	119.62
355.945	112.62
356.172	121.62
356.399	105.62
356.626	116.62
356.853	101.62
357.08	108.62
357.307	111.62
357.534	98.62
357.761	103.62
357.988	127.62
358.215	120.62
358.441	120.62
358.668	97.62
358.895	101.62
359.122	106.62
359.349	92.62
359.576	101.62
359.802	106.62
360.029	117.62
360.256	100.62
360.483	125.62
360.709	106.62
360.936	125.62
361.163	125.62
361.39	120.62
361.616	114.62
361.843	111.62
362.07	120.62
362.296	109.62
362.523	119.62
362.749	119.62
362.976	107.62
363.203	118.62
363.429	112.62
363.656	104.62
363.882	106.62
364.109	103.62
364.335	103.62
364.562	110.62
364.788	107.62
365.015	110.62
365.241	119.62
365.468	103.62
365.694	106.62
365.92	106.62
366.147	105.62
366.373	113.62
366.599	118.62
366.826	107.62
367.052	117.62
367.278	120.62
367.505	106.62
367.731	109.62
367.957	102.62
368.184	118.62
368.41	112.62
368.636	104.62
368.862	112.62
369.089	119.62
369.315	113.62
369.541	115.62
369.767	116.62
369.993	123.62
370.219	118.62
370.445	111.62
370.672	98.62
370.898	103.62
371.124	116.62
371.35	105.62
371.576	124.62
371.802	100.62
372.028	108.62
372.254	126.62
372.48	110.62
372.706	118.62
372.932	103.62
373.158	111.62
373.384	102.62
373.61	109.62
373.835	113.62
374.061	96.62
374.287	118.62
374.513	110.62
374.739	118.62
374.965	109.62
375.191	114.62
375.416	116.62
375.642	122.62
375.868	109.62
376.094	118.62
376.319	110.62
376.545	121.62
376.771	107.62
376.997	118.62
377.222	121.62
377.448	122.62
377.674	114.62
377.899	109.62
378.125	125.62
378.35	117.62
378.576	109.62
378.802	109.62
379.027	108.62
379.253	121.62
379.478	120.62
379.704	114.62
379.929	105.62
380.155	106.62
380.38	110.62
380.606	103.62
380.831	117.62
381.057	122.62
381.282	119.62
381.507	110.62
381.733	118.62
381.958	112.62
382.184	98.62
382.409	104.62
382.634	132.62
382.86	124.62
383.085	125.62
383.31	111.62
383.535	100.62
383.761	92.62
383.986	104.62
384.211	126.62
384.436	121.62
384.662	124.62
384.887	128.62
385.112	112.62
385.337	126.62
385.562	114.62
385.787	120.62
386.013	123.62
386.238	128.62
386.463	111.62
386.688	126.62
386.913	114.62
387.138	118.62
387.363	110.62
387.588	120.62
387.813	116.62
388.038	126.62
388.263	110.62
388.488	122.62
388.713	125.62
388.938	122.62
389.163	119.62
389.387	130.62
389.612	132.62
389.837	122.62
390.062	121.62
390.287	123.62
390.512	104.62
390.736	122.62
390.961	119.62
391.186	133.62
391.411	111.62
391.636	132.62
391.86	122.62
392.085	134.62
392.31	141.62
392.534	123.62
392.759	119.62
392.984	117.62
393.208	128.62
393.433	109.62
393.658	118.62
393.882	119.62
394.107	118.62
394.331	122.62
394.556	120.62
394.78	120.62
395.005	120.62
395.229	129.62
395.454	142.62
395.678	125.62
395.903	122.62
396.127	122.62
396.352	121.62
396.576	119.62
396.801	130.62
397.025	124.62
397.249	115.62
397.474	125.62
397.698	117.62
397.922	125.62
398.147	107.62
398.371	125.62
398.595	124.62
398.82	120.62
399.044	137.62
399.268	132.62
399.492	140.62
399.717	141.62
399.941	153.62
400.165	158.62
400.389	152.62
400.613	133.62
400.837	120.62
401.062	132.62
401.286	124.62
401.51	130.62
401.734	126.62
401.958	117.62
402.182	120.62
402.406	137.62
402.63	128.62
402.854	132.62
403.078	126.62
403.302	126.62
403.526	138.62
403.75	132.62
403.974	136.62
404.198	126.62
404.422	142.62
404.645	145.62
404.869	139.62
405.093	154.62
405.317	139.62
405.541	140.62
405.765	128.62
405.988	147.62
406.212	149.62
406.436	132.62
406.66	122.62
406.883	126.62
407.107	128.62
407.331	138.62
407.555	149.62
407.778	130.62
408.002	128.62
408.226	139.62
408.449	141.62
408.673	142.62
408.896	124.62
409.12	144.62
409.344	146.62
409.567	133.62
409.791	129.62
410.014	134.62
410.238	141.62
410.461	127.62
410.685	135.62
410.908	132.62
411.132	142.62
411.355	126.62
411.578	136.62
411.802	134.62
412.025	130.62
412.249	131.62
412.472	120.62
412.695	139.62
412.919	140.62
413.142	126.62
413.365	134.62
413.589	138.62
413.812	126.62
414.035	127.62
414.258	131.62
414.482	128.62
414.705	117.62
414.928	124.62
415.151	130.62
415.374	128.62
415.597	120.62
415.821	128.62
416.044	133.62
416.267	132.62
416.49	122.62
416.713	127.62
416.936	130.62
417.159	142.62
417.382	117.62
417.605	126.62
417.828	136.62
418.051	120.62
418.274	133.62
418.497	137.62
418.72	143.62
418.943	124.62
419.166	143.62
419.389	142.62
419.611	132.62
419.834	139.62
420.057	136.62
420.28	116.62
420.503	116.62
420.726	148.62
420.948	145.62
421.171	125.62
421.394	136.62
421.617	140.62
421.839	136.62
422.062	119.62
422.285	135.62
422.507	125.62
422.73	135.62
422.953	145.62
423.175	149.62
423.398	136.62
423.621	127.62
423.843	130.62
424.066	132.62
424.288	131.62
424.511	134.62
424.733	139.62
424.956	148.62
425.178	148.62
425.401	130.62
425.623	144.62
425.846	122.62
426.068	128.62
426.291	120.62
426.513	126.62
426.735	144.62
426.958	129.62
427.18	131.62
427.402	134.62
427.625	138.62
427.847	134.62
428.069	135.62
428.292	132.62
428.514	136.62
428.736	134.62
428.958	139.62
429.181	128.62
429.403	129.62
429.625	120.62
429.847	127.62
430.069	112.62
430.292	128.62
430.514	136.62
430.736	128.62
430.958	132.62
431.18	105.62
431.402	121.62
431.624	133.62
431.846	120.62
432.068	118.62
432.29	112.62
432.512	118.62
432.734	122.62
432.956	130.62
433.178	125.62
433.4	132.62
433.622	126.62
433.844	126.62
434.066	134.62
434.287	111.62
434.509	145.62
434.731	127.62
434.953	112.62
435.175	121.62
435.397	136.62
435.618	134.62
435.84	128.62
436.062	148.62
436.284	129.62
436.505	134.62
436.727	106.62
436.949	132.62
437.17	118.62
437.392	110.62
437.614	114.62
437.835	118.62
438.057	132.62
438.278	132.62
438.5	140.62
438.721	132.62
438.943	149.62
439.165	142.62
439.386	138.62
439.608	130.62
439.829	128.62
440.05	135.62
440.272	139.62
440.493	125.62
440.715	133.62
440.936	155.62
441.158	132.62
441.379	143.62
441.6	133.62
441.822	124.62
442.043	132.62
442.264	129.62
442.486	145.62
442.707	137.62
442.928	137.62
443.149	144.62
443.371	132.62
443.592	137.62
443.813	140.62
444.034	145.62
444.255	139.62
444.476	132.62
444.698	157.62
444.919	125.62
445.14	215.62
445.361	184.62
445.582	143.62
445.803	142.62
446.024	136.62
446.245	149.62
446.466	156.62
446.687	134.62
446.908	112.62
447.129	136.62
447.35	133.62
447.571	113.62
447.792	132.62
448.013	128.62
448.234	125.62
448.455	120.62
448.675	128.62
448.896	146.62
449.117	140.62
449.338	133.62
449.559	147.62
449.779	152.62
450	132.62
450.221	104.62
450.442	119.62
450.662	127.62
450.883	126.62
451.104	119.62
451.324	129.62
451.545	105.62
451.766	129.62
451.986	121.62
452.207	125.62
452.428	128.62
452.648	120.62
452.869	138.62
453.089	120.62
453.31	120.62
453.53	115.62
453.751	128.62
453.971	115.62
454.192	117.62
454.412	109.62
454.633	130.62
454.853	128.62
455.073	127.62
455.294	126.62
455.514	134.62
455.734	136.62
455.955	108.62
456.175	113.62
456.395	122.62
456.616	118.62
456.836	113.62
457.056	122.62
457.276	111.62
457.497	121.62
457.717	111.62
457.937	122.62
458.157	136.62
458.377	114.62
458.598	122.62
458.818	125.62
459.038	120.62
459.258	125.62
459.478	132.62
459.698	109.62
459.918	128.62
460.138	124.62
460.358	128.62
460.578	103.62
460.798	123.62
461.018	134.62
461.238	137.62
461.458	123.62
461.678	126.62
461.898	142.62
462.118	126.62
462.338	140.62
462.558	113.62
462.777	134.62
462.997	145.62
463.217	134.62
463.437	144.62
463.657	140.62
463.876	140.62
464.096	133.62
464.316	123.62
464.536	145.62
464.755	130.62
464.975	144.62
465.195	140.62
465.414	130.62
465.634	126.62
465.854	136.62
466.073	113.62
466.293	134.62
466.512	129.62
466.732	127.62
466.951	126.62
467.171	129.62
467.391	126.62
467.61	126.62
467.829	140.62
468.049	144.62
468.268	122.62
468.488	121.62
468.707	124.62
468.927	124.62
469.146	116.62
469.365	130.62
469.585	123.62
469.804	125.62
470.023	121.62
470.243	117.62
470.462	127.62
470.681	139.62
470.901	136.62
471.12	130.62
471.339	121.62
471.558	124.62
471.777	128.62
471.997	122.62
472.216	123.62
472.435	141.62
472.654	113.62
472.873	119.62
473.092	123.62
473.311	121.62
473.53	118.62
473.749	140.62
473.968	116.62
474.187	123.62
474.406	111.62
474.625	130.62
474.844	113.62
475.063	119.62
475.282	120.62
475.501	118.62
475.72	142.62
475.939	128.62
476.158	116.62
476.377	123.62
476.596	124.62
476.814	128.62
477.033	126.62
477.252	121.62
477.471	117.62
477.69	117.62
477.908	134.62
478.127	117.62
478.346	133.62
478.564	136.62
478.783	118.62
479.002	132.62
479.22	130.62
479.439	134.62
479.658	141.62
479.876	119.62
480.095	113.62
480.313	142.62
480.532	125.62
480.751	137.62
480.969	132.62
481.188	144.62
481.406	145.62
481.624	122.62
481.843	124.62
482.061	132.62
482.28	137.62
482.498	134.62
482.717	140.62
482.935	111.62
483.153	128.62
483.372	121.62
483.59	128.62
483.808	128.62
484.027	125.62
484.245	128.62
484.463	138.62
484.681	131.62
484.9	136.62
485.118	134.62
485.336	130.62
485.554	125.62
485.772	142.62
485.99	121.62
486.209	136.62
486.427	131.62
486.645	126.62
486.863	145.62
487.081	144.62
487.299	138.62
487.517	130.62
487.735	137.62
487.953	138.62
488.171	144.62
488.389	141.62
488.607	136.62
488.825	141.62
489.043	136.62
489.261	134.62
489.479	126.62
489.696	131.62
489.914	124.62
490.132	142.62
490.35	145.62
490.568	144.62
490.786	136.62
491.003	136.62
491.221	131.62
491.439	145.62
491.657	140.62
491.874	138.62
492.092	151.62
492.31	130.62
492.527	140.62
492.745	143.62
492.963	138.62
493.18	142.62
493.398	149.62
493.615	148.62
493.833	152.62
494.05	138.62
494.268	136.62
494.485	156.62
494.703	142.62
494.92	137.62
495.138	160.62
495.355	128.62
495.573	144.62
495.79	132.62
496.008	169.62
496.225	168.62
496.442	145.62
496.66	148.62
496.877	136.62
497.094	153.62
497.312	151.62
497.529	137.62
497.746	133.62
497.963	147.62
498.181	141.62
498.398	158.62
498.615	160.62
498.832	168.62
499.049	150.62
499.267	144.62
499.484	172.62
499.701	177.62
499.918	183.62
500.135	202.62
500.352	213.62
500.569	218.62
500.786	210.62
501.003	202.62
501.22	185.62
501.437	202.62
501.654	180.62
501.871	164.62
502.088	158.62
502.305	165.62
502.522	160.62
502.739	160.62
502.956	157.62
503.172	165.62
503.389	154.62
503.606	148.62
503.823	147.62
504.04	130.62
504.256	137.62
504.473	155.62
504.69	144.62
504.907	129.62
505.123	132.62
