Data from 1968.PennyLincolnUp.Lamp.En5.5.200Scan.071719.P1._HRD10591_14-50-21-969.txt Node
Date: Thu Jul 18 14:50:21 EDT 2019
User: cochatt
Spectrometer: HR+D1059
Trigger mode: 1
Integration Time (sec): 1.000000E-1
Scans to average: 1
Electric dark correction enabled: true
Nonlinearity correction enabled: false
Boxcar width: 0
XAxis mode: Wavelengths
Number of Pixels in Spectrum: 2048
>>>>>Begin Spectral Data<<<<<
223.165	-8.5
223.4	-8.5
223.635	-8.5
223.869	-9.5
224.104	-17.5
224.338	-13.5
224.573	-7.5
224.808	-12.5
225.042	-7.5
225.277	0.5
225.511	-13.5
225.746	-4.5
225.98	4.5
226.215	10.5
226.449	12.5
226.683	15.5
226.918	22.5
227.152	28.5
227.387	35.5
227.621	20.5
227.856	38.5
228.09	43.5
228.324	38.5
228.559	58.5
228.793	62.5
229.027	59.5
229.262	67.5
229.496	63.5
229.73	72.5
229.964	69.5
230.199	75.5
230.433	92.5
230.667	83.5
230.901	78.5
231.136	86.5
231.37	83.5
231.604	79.5
231.838	72.5
232.072	84.5
232.306	89.5
232.541	98.5
232.775	96.5
233.009	96.5
233.243	77.5
233.477	87.5
233.711	87.5
233.945	83.5
234.179	69.5
234.413	86.5
234.647	95.5
234.881	76.5
235.115	83.5
235.349	83.5
235.583	81.5
235.817	64.5
236.051	70.5
236.285	86.5
236.519	90.5
236.753	95.5
236.987	93.5
237.221	89.5
237.455	77.5
237.689	96.5
237.922	73.5
238.156	88.5
238.39	78.5
238.624	64.5
238.858	81.5
239.091	88.5
239.325	78.5
239.559	80.5
239.793	86.5
240.027	72.5
240.26	78.5
240.494	83.5
240.728	76.5
240.961	88.5
241.195	85.5
241.429	70.5
241.662	79.5
241.896	89.5
242.13	91.5
242.363	87.5
242.597	93.5
242.83	86.5
243.064	88.5
243.298	71.5
243.531	91.5
243.765	91.5
243.998	80.5
244.232	78.5
244.465	91.5
244.699	84.5
244.932	70.5
245.166	93.5
245.399	80.5
245.633	76.5
245.866	91.5
246.099	80.5
246.333	86.5
246.566	82.5
246.8	77.5
247.033	96.5
247.266	91.5
247.5	81.5
247.733	95.5
247.966	96.5
248.2	86.5
248.433	80.5
248.666	88.5
248.899	90.5
249.133	84.5
249.366	92.5
249.599	96.5
249.832	94.5
250.066	95.5
250.299	97.5
250.532	85.5
250.765	94.5
250.998	97.5
251.231	89.5
251.465	84.5
251.698	94.5
251.931	91.5
252.164	81.5
252.397	93.5
252.63	88.5
252.863	85.5
253.096	98.5
253.329	92.5
253.562	90.5
253.795	72.5
254.028	80.5
254.261	86.5
254.494	99.5
254.727	84.5
254.96	93.5
255.193	86.5
255.426	72.5
255.659	84.5
255.892	83.5
256.124	98.5
256.357	85.5
256.59	98.5
256.823	84.5
257.056	87.5
257.289	84.5
257.521	97.5
257.754	114.5
257.987	88.5
258.22	101.5
258.452	105.5
258.685	92.5
258.918	90.5
259.151	88.5
259.383	98.5
259.616	101.5
259.849	107.5
260.081	78.5
260.314	91.5
260.547	105.5
260.779	95.5
261.012	85.5
261.244	92.5
261.477	95.5
261.71	90.5
261.942	91.5
262.175	107.5
262.407	92.5
262.64	75.5
262.872	95.5
263.105	91.5
263.337	83.5
263.57	79.5
263.802	93.5
264.035	93.5
264.267	81.5
264.499	73.5
264.732	103.5
264.964	101.5
265.197	90.5
265.429	88.5
265.661	86.5
265.894	79.5
266.126	89.5
266.358	79.5
266.591	108.5
266.823	103.5
267.055	83.5
267.287	101.5
267.52	89.5
267.752	93.5
267.984	90.5
268.216	83.5
268.448	105.5
268.681	107.5
268.913	88.5
269.145	102.5
269.377	86.5
269.609	109.5
269.841	91.5
270.073	93.5
270.306	95.5
270.538	90.5
270.77	78.5
271.002	100.5
271.234	98.5
271.466	101.5
271.698	87.5
271.93	116.5
272.162	95.5
272.394	102.5
272.626	103.5
272.858	100.5
273.09	93.5
273.322	103.5
273.553	103.5
273.785	116.5
274.017	112.5
274.249	84.5
274.481	102.5
274.713	100.5
274.945	103.5
275.176	95.5
275.408	86.5
275.64	80.5
275.872	87.5
276.104	99.5
276.335	100.5
276.567	97.5
276.799	101.5
277.031	94.5
277.262	96.5
277.494	78.5
277.726	109.5
277.957	102.5
278.189	108.5
278.421	103.5
278.652	104.5
278.884	99.5
279.115	101.5
279.347	91.5
279.579	97.5
279.81	101.5
280.042	84.5
280.273	93.5
280.505	97.5
280.736	93.5
280.968	108.5
281.199	119.5
281.431	90.5
281.662	97.5
281.894	110.5
282.125	93.5
282.356	91.5
282.588	91.5
282.819	102.5
283.051	106.5
283.282	102.5
283.513	107.5
283.745	111.5
283.976	88.5
284.207	98.5
284.439	89.5
284.67	108.5
284.901	98.5
285.132	111.5
285.364	95.5
285.595	98.5
285.826	102.5
286.057	106.5
286.288	92.5
286.52	92.5
286.751	86.5
286.982	102.5
287.213	84.5
287.444	108.5
287.675	101.5
287.906	112.5
288.138	91.5
288.369	109.5
288.6	106.5
288.831	88.5
289.062	114.5
289.293	104.5
289.524	106.5
289.755	115.5
289.986	110.5
290.217	106.5
290.448	94.5
290.679	95.5
290.91	105.5
291.141	98.5
291.371	110.5
291.602	109.5
291.833	109.5
292.064	103.5
292.295	103.5
292.526	98.5
292.757	96.5
292.987	113.5
293.218	106.5
293.449	110.5
293.68	107.5
293.91	114.5
294.141	102.5
294.372	100.5
294.603	93.5
294.833	99.5
295.064	102.5
295.295	108.5
295.525	101.5
295.756	110.5
295.987	104.5
296.217	97.5
296.448	106.5
296.679	121.5
296.909	100.5
297.14	112.5
297.37	100.5
297.601	113.5
297.831	117.5
298.062	102.5
298.292	95.5
298.523	104.5
298.753	118.5
298.984	110.5
299.214	87.5
299.445	107.5
299.675	110.5
299.905	116.5
300.136	100.5
300.366	102.5
300.597	109.5
300.827	98.5
301.057	119.5
301.288	114.5
301.518	114.5
301.748	118.5
301.979	107.5
302.209	126.5
302.439	100.5
302.669	96.5
302.9	117.5
303.13	93.5
303.36	97.5
303.59	126.5
303.82	117.5
304.051	100.5
304.281	103.5
304.511	113.5
304.741	108.5
304.971	99.5
305.201	90.5
305.431	94.5
305.661	122.5
305.891	96.5
306.121	99.5
306.352	112.5
306.582	110.5
306.812	98.5
307.042	109.5
307.272	120.5
307.502	101.5
307.731	103.5
307.961	99.5
308.191	98.5
308.421	107.5
308.651	111.5
308.881	104.5
309.111	106.5
309.341	99.5
309.571	102.5
309.8	98.5
310.03	106.5
310.26	112.5
310.49	113.5
310.72	104.5
310.949	119.5
311.179	110.5
311.409	100.5
311.639	116.5
311.868	120.5
312.098	122.5
312.328	107.5
312.557	112.5
312.787	116.5
313.017	116.5
313.246	96.5
313.476	101.5
313.706	109.5
313.935	106.5
314.165	110.5
314.394	106.5
314.624	122.5
314.853	124.5
315.083	111.5
315.312	122.5
315.542	114.5
315.771	107.5
316.001	112.5
316.23	111.5
316.46	100.5
316.689	107.5
316.919	102.5
317.148	118.5
317.377	101.5
317.607	118.5
317.836	88.5
318.065	119.5
318.295	112.5
318.524	113.5
318.753	92.5
318.983	108.5
319.212	102.5
319.441	103.5
319.67	98.5
319.9	116.5
320.129	104.5
320.358	114.5
320.587	103.5
320.816	109.5
321.046	109.5
321.275	113.5
321.504	115.5
321.733	110.5
321.962	110.5
322.191	99.5
322.42	103.5
322.649	115.5
322.878	107.5
323.108	114.5
323.337	111.5
323.566	124.5
323.795	114.5
324.024	101.5
324.253	105.5
324.482	134.5
324.71	158.5
324.939	180.5
325.168	147.5
325.397	126.5
325.626	120.5
325.855	129.5
326.084	125.5
326.313	116.5
326.542	105.5
326.77	123.5
326.999	132.5
327.228	133.5
327.457	140.5
327.686	155.5
327.914	133.5
328.143	115.5
328.372	107.5
328.6	109.5
328.829	108.5
329.058	104.5
329.287	116.5
329.515	126.5
329.744	98.5
329.972	116.5
330.201	123.5
330.43	123.5
330.658	119.5
330.887	119.5
331.115	123.5
331.344	123.5
331.572	118.5
331.801	123.5
332.03	118.5
332.258	103.5
332.486	110.5
332.715	114.5
332.943	116.5
333.172	111.5
333.4	113.5
333.629	127.5
333.857	132.5
334.085	107.5
334.314	104.5
334.542	126.5
334.771	142.5
334.999	120.5
335.227	124.5
335.455	123.5
335.684	128.5
335.912	128.5
336.14	111.5
336.369	117.5
336.597	120.5
336.825	114.5
337.053	117.5
337.281	127.5
337.51	118.5
337.738	114.5
337.966	103.5
338.194	110.5
338.422	109.5
338.65	127.5
338.878	114.5
339.106	110.5
339.334	113.5
339.562	106.5
339.79	124.5
340.018	123.5
340.246	103.5
340.474	118.5
340.702	110.5
340.93	112.5
341.158	113.5
341.386	102.5
341.614	123.5
341.842	124.5
342.07	103.5
342.298	116.5
342.526	116.5
342.754	119.5
342.981	110.5
343.209	107.5
343.437	107.5
343.665	119.5
343.893	112.5
344.12	126.5
344.348	116.5
344.576	95.5
344.804	114.5
345.031	114.5
345.259	116.5
345.487	128.5
345.714	108.5
345.942	102.5
346.17	106.5
346.397	116.5
346.625	117.5
346.853	109.5
347.08	123.5
347.308	123.5
347.535	111.5
347.763	112.5
347.99	119.5
348.218	120.5
348.445	92.5
348.673	112.5
348.9	97.5
349.128	120.5
349.355	104.5
349.583	89.5
349.81	97.5
350.037	110.5
350.265	119.5
350.492	109.5
350.72	120.5
350.947	114.5
351.174	106.5
351.402	116.5
351.629	114.5
351.856	123.5
352.083	118.5
352.311	118.5
352.538	108.5
352.765	116.5
352.992	98.5
353.22	110.5
353.447	103.5
353.674	122.5
353.901	116.5
354.128	105.5
354.355	104.5
354.583	100.5
354.81	110.5
355.037	107.5
355.264	103.5
355.491	115.5
355.718	103.5
355.945	114.5
356.172	117.5
356.399	110.5
356.626	106.5
356.853	109.5
357.08	120.5
357.307	104.5
357.534	124.5
357.761	115.5
357.988	117.5
358.215	120.5
358.441	112.5
358.668	103.5
358.895	111.5
359.122	116.5
359.349	109.5
359.576	102.5
359.802	106.5
360.029	115.5
360.256	111.5
360.483	99.5
360.709	106.5
360.936	112.5
361.163	106.5
361.39	118.5
361.616	119.5
361.843	105.5
362.07	117.5
362.296	120.5
362.523	122.5
362.749	126.5
362.976	122.5
363.203	118.5
363.429	115.5
363.656	107.5
363.882	115.5
364.109	102.5
364.335	114.5
364.562	103.5
364.788	108.5
365.015	106.5
365.241	117.5
365.468	109.5
365.694	98.5
365.92	115.5
366.147	95.5
366.373	103.5
366.599	107.5
366.826	107.5
367.052	100.5
367.278	98.5
367.505	107.5
367.731	125.5
367.957	116.5
368.184	97.5
368.41	122.5
368.636	101.5
368.862	116.5
369.089	114.5
369.315	114.5
369.541	111.5
369.767	114.5
369.993	110.5
370.219	119.5
370.445	105.5
370.672	112.5
370.898	103.5
371.124	118.5
371.35	110.5
371.576	88.5
371.802	106.5
372.028	114.5
372.254	110.5
372.48	109.5
372.706	120.5
372.932	128.5
373.158	130.5
373.384	105.5
373.61	117.5
373.835	117.5
374.061	119.5
374.287	106.5
374.513	120.5
374.739	115.5
374.965	109.5
375.191	126.5
375.416	114.5
375.642	111.5
375.868	101.5
376.094	108.5
376.319	119.5
376.545	119.5
376.771	103.5
376.997	125.5
377.222	107.5
377.448	99.5
377.674	108.5
377.899	114.5
378.125	116.5
378.35	119.5
378.576	117.5
378.802	111.5
379.027	109.5
379.253	107.5
379.478	117.5
379.704	106.5
379.929	107.5
380.155	109.5
380.38	119.5
380.606	108.5
380.831	103.5
381.057	109.5
381.282	104.5
381.507	118.5
381.733	114.5
381.958	114.5
382.184	102.5
382.409	125.5
382.634	121.5
382.86	102.5
383.085	112.5
383.31	102.5
383.535	131.5
383.761	114.5
383.986	103.5
384.211	120.5
384.436	124.5
384.662	111.5
384.887	126.5
385.112	116.5
385.337	112.5
385.562	125.5
385.787	124.5
386.013	119.5
386.238	110.5
386.463	120.5
386.688	114.5
386.913	126.5
387.138	130.5
387.363	108.5
387.588	107.5
387.813	124.5
388.038	126.5
388.263	124.5
388.488	129.5
388.713	126.5
388.938	121.5
389.163	108.5
389.387	116.5
389.612	122.5
389.837	126.5
390.062	125.5
390.287	127.5
390.512	136.5
390.736	120.5
390.961	119.5
391.186	108.5
391.411	110.5
391.636	125.5
391.86	124.5
392.085	111.5
392.31	127.5
392.534	129.5
392.759	128.5
392.984	120.5
393.208	120.5
393.433	130.5
393.658	132.5
393.882	126.5
394.107	125.5
394.331	127.5
394.556	116.5
394.78	120.5
395.005	131.5
395.229	114.5
395.454	119.5
395.678	120.5
395.903	118.5
396.127	121.5
396.352	129.5
396.576	125.5
396.801	109.5
397.025	114.5
397.249	116.5
397.474	122.5
397.698	123.5
397.922	126.5
398.147	129.5
398.371	131.5
398.595	127.5
398.82	119.5
399.044	135.5
399.268	138.5
399.492	130.5
399.717	150.5
399.941	142.5
400.165	148.5
400.389	138.5
400.613	129.5
400.837	123.5
401.062	126.5
401.286	125.5
401.51	126.5
401.734	118.5
401.958	127.5
402.182	136.5
402.406	129.5
402.63	126.5
402.854	128.5
403.078	130.5
403.302	135.5
403.526	142.5
403.75	127.5
403.974	129.5
404.198	126.5
404.422	132.5
404.645	142.5
404.869	142.5
405.093	142.5
405.317	143.5
405.541	127.5
405.765	131.5
405.988	146.5
406.212	137.5
406.436	138.5
406.66	152.5
406.883	138.5
407.107	143.5
407.331	137.5
407.555	154.5
407.778	148.5
408.002	126.5
408.226	130.5
408.449	117.5
408.673	141.5
408.896	124.5
409.12	154.5
409.344	147.5
409.567	131.5
409.791	134.5
410.014	119.5
410.238	123.5
410.461	118.5
410.685	126.5
410.908	135.5
411.132	148.5
411.355	142.5
411.578	127.5
411.802	134.5
412.025	132.5
412.249	125.5
412.472	135.5
412.695	141.5
412.919	129.5
413.142	144.5
413.365	126.5
413.589	138.5
413.812	130.5
414.035	125.5
414.258	137.5
414.482	142.5
414.705	133.5
414.928	131.5
415.151	142.5
415.374	120.5
415.597	122.5
415.821	126.5
416.044	134.5
416.267	104.5
416.49	130.5
416.713	118.5
416.936	128.5
417.159	124.5
417.382	128.5
417.605	126.5
417.828	121.5
418.051	130.5
418.274	114.5
418.497	125.5
418.72	126.5
418.943	143.5
419.166	145.5
419.389	128.5
419.611	140.5
419.834	128.5
420.057	143.5
420.28	136.5
420.503	134.5
420.726	128.5
420.948	135.5
421.171	142.5
421.394	133.5
421.617	126.5
421.839	110.5
422.062	118.5
422.285	130.5
422.507	141.5
422.73	147.5
422.953	138.5
423.175	122.5
423.398	136.5
423.621	131.5
423.843	131.5
424.066	128.5
424.288	136.5
424.511	136.5
424.733	126.5
424.956	135.5
425.178	126.5
425.401	141.5
425.623	128.5
425.846	131.5
426.068	131.5
426.291	129.5
426.513	128.5
426.735	136.5
426.958	127.5
427.18	144.5
427.402	153.5
427.625	159.5
427.847	138.5
428.069	124.5
428.292	125.5
428.514	126.5
428.736	128.5
428.958	135.5
429.181	128.5
429.403	131.5
429.625	123.5
429.847	135.5
430.069	123.5
430.292	134.5
430.514	125.5
430.736	130.5
430.958	118.5
431.18	111.5
431.402	114.5
431.624	124.5
431.846	124.5
432.068	122.5
432.29	117.5
432.512	126.5
432.734	126.5
432.956	123.5
433.178	137.5
433.4	141.5
433.622	126.5
433.844	120.5
434.066	130.5
434.287	144.5
434.509	117.5
434.731	116.5
434.953	126.5
435.175	125.5
435.397	125.5
435.618	130.5
435.84	136.5
436.062	140.5
436.284	160.5
436.505	136.5
436.727	124.5
436.949	123.5
437.17	123.5
437.392	124.5
437.614	121.5
437.835	126.5
438.057	126.5
438.278	127.5
438.5	147.5
438.721	144.5
438.943	150.5
439.165	140.5
439.386	142.5
439.608	134.5
439.829	140.5
440.05	131.5
440.272	134.5
440.493	125.5
440.715	123.5
440.936	131.5
441.158	134.5
441.379	123.5
441.6	134.5
441.822	127.5
442.043	130.5
442.264	144.5
442.486	140.5
442.707	132.5
442.928	120.5
443.149	137.5
443.371	133.5
443.592	147.5
443.813	145.5
444.034	142.5
444.255	153.5
444.476	128.5
444.698	135.5
444.919	138.5
445.14	249.5
445.361	180.5
445.582	134.5
445.803	124.5
446.024	139.5
446.245	137.5
446.466	138.5
446.687	137.5
446.908	124.5
447.129	141.5
447.35	136.5
447.571	110.5
447.792	123.5
448.013	126.5
448.234	122.5
448.455	133.5
448.675	118.5
448.896	132.5
449.117	120.5
449.338	129.5
449.559	127.5
449.779	154.5
450	145.5
450.221	127.5
450.442	114.5
450.662	132.5
450.883	122.5
451.104	122.5
451.324	121.5
451.545	122.5
451.766	109.5
451.986	116.5
452.207	121.5
452.428	124.5
452.648	112.5
452.869	131.5
453.089	118.5
453.31	122.5
453.53	117.5
453.751	124.5
453.971	105.5
454.192	102.5
454.412	115.5
454.633	130.5
454.853	112.5
455.073	114.5
455.294	112.5
455.514	130.5
455.734	122.5
455.955	123.5
456.175	118.5
456.395	116.5
456.616	110.5
456.836	141.5
457.056	130.5
457.276	117.5
457.497	109.5
457.717	127.5
457.937	127.5
458.157	125.5
458.377	118.5
458.598	122.5
458.818	124.5
459.038	125.5
459.258	120.5
459.478	136.5
459.698	120.5
459.918	130.5
460.138	130.5
460.358	120.5
460.578	148.5
460.798	131.5
461.018	129.5
461.238	130.5
461.458	126.5
461.678	123.5
461.898	120.5
462.118	139.5
462.338	132.5
462.558	150.5
462.777	132.5
462.997	143.5
463.217	135.5
463.437	135.5
463.657	122.5
463.876	138.5
464.096	123.5
464.316	135.5
464.536	141.5
464.755	134.5
464.975	124.5
465.195	134.5
465.414	135.5
465.634	136.5
465.854	118.5
466.073	137.5
466.293	122.5
466.512	124.5
466.732	128.5
466.951	116.5
467.171	126.5
467.391	130.5
467.61	123.5
467.829	133.5
468.049	128.5
468.268	107.5
468.488	124.5
468.707	108.5
468.927	131.5
469.146	118.5
469.365	110.5
469.585	146.5
469.804	122.5
470.023	130.5
470.243	142.5
470.462	127.5
470.681	134.5
470.901	130.5
471.12	122.5
471.339	123.5
471.558	122.5
471.777	126.5
471.997	131.5
472.216	122.5
472.435	144.5
472.654	115.5
472.873	130.5
473.092	121.5
473.311	122.5
473.53	118.5
473.749	116.5
473.968	124.5
474.187	116.5
474.406	120.5
474.625	111.5
474.844	127.5
475.063	124.5
475.282	127.5
475.501	121.5
475.72	134.5
475.939	140.5
476.158	132.5
476.377	120.5
476.596	114.5
476.814	132.5
477.033	124.5
477.252	128.5
477.471	130.5
477.69	126.5
477.908	109.5
478.127	120.5
478.346	127.5
478.564	127.5
478.783	128.5
479.002	129.5
479.22	135.5
479.439	134.5
479.658	133.5
479.876	124.5
480.095	120.5
480.313	138.5
480.532	144.5
480.751	155.5
480.969	140.5
481.188	144.5
481.406	133.5
481.624	129.5
481.843	139.5
482.061	141.5
482.28	123.5
482.498	134.5
482.717	116.5
482.935	124.5
483.153	118.5
483.372	136.5
483.59	134.5
483.808	126.5
484.027	140.5
484.245	132.5
484.463	118.5
484.681	135.5
484.9	126.5
485.118	152.5
485.336	135.5
485.554	123.5
485.772	130.5
485.99	128.5
486.209	124.5
486.427	133.5
486.645	126.5
486.863	127.5
487.081	121.5
487.299	138.5
487.517	142.5
487.735	131.5
487.953	146.5
488.171	147.5
488.389	130.5
488.607	142.5
488.825	129.5
489.043	141.5
489.261	132.5
489.479	140.5
489.696	143.5
489.914	140.5
490.132	146.5
490.35	133.5
490.568	132.5
490.786	136.5
491.003	135.5
491.221	128.5
491.439	145.5
491.657	132.5
491.874	145.5
492.092	139.5
492.31	138.5
492.527	152.5
492.745	161.5
492.963	157.5
493.18	134.5
493.398	142.5
493.615	148.5
493.833	155.5
494.05	157.5
494.268	147.5
494.485	156.5
494.703	150.5
494.92	144.5
495.138	151.5
495.355	153.5
495.573	137.5
495.79	146.5
496.008	150.5
496.225	138.5
496.442	147.5
496.66	140.5
496.877	152.5
497.094	158.5
497.312	144.5
497.529	151.5
497.746	162.5
497.963	149.5
498.181	148.5
498.398	166.5
498.615	143.5
498.832	149.5
499.049	169.5
499.267	166.5
499.484	157.5
499.701	174.5
499.918	190.5
500.135	199.5
500.352	209.5
500.569	204.5
500.786	203.5
501.003	203.5
501.22	210.5
501.437	187.5
501.654	168.5
501.871	166.5
502.088	168.5
502.305	169.5
502.522	158.5
502.739	151.5
502.956	147.5
503.172	138.5
503.389	160.5
503.606	150.5
503.823	137.5
504.04	150.5
504.256	139.5
504.473	149.5
504.69	142.5
504.907	162.5
505.123	139.5
505.34	132.5
505.557	141.5
505.773	139.5
505.99	145.5
506.207	138.5
506.423	137.5
506.64	139.5
506.856	125.5
507.073	140.5
507.289	133.5
507.506	142.5
507.722	146.5
507.939	138.5
508.155	133.5
508.372	137.5
508.588	146.5
508.805	129.5
509.021	146.5
509.238	115.5
509.454	130.5
509.67	119.5
509.887	124.5
510.103	117.5
510.319	120.5
510.536	127.5
510.752	162.5
510.968	154.5
511.184	143.5
511.401	126.5
511.617	138.5
511.833	138.5
512.049	135.5
512.265	126.5
512.481	125.5
512.698	127.5
512.914	135.5
513.13	131.5
513.346	124.5
513.562	136.5
513.778	126.5
513.994	131.5
514.21	121.5
514.426	127.5
514.642	136.5
514.858	136.5
515.074	144.5
515.29	139.5
515.506	170.5
515.721	151.5
515.937	148.5
516.153	131.5
516.369	124.5
516.585	142.5
516.801	132.5
517.016	144.5
517.232	131.5
517.448	143.5
517.664	148.5
517.879	141.5
518.095	125.5
518.311	132.5
518.527	132.5
518.742	142.5
518.958	130.5
519.173	144.5
519.389	135.5
519.605	119.5
519.82	130.5
520.036	132.5
520.251	126.5
520.467	126.5
520.682	120.5
520.898	132.5
521.113	124.5
521.329	135.5
521.544	131.5
521.76	151.5
521.975	169.5
522.19	178.5
522.406	144.5
522.621	130.5
522.836	145.5
523.052	140.5
523.267	122.5
523.482	134.5
