Data from 1968.PennyLincolnUp.Lamp.En5.5.200Scan.071719.P1._HRD10591_14-51-02-970.txt Node
Date: Thu Jul 18 14:51:02 EDT 2019
User: cochatt
Spectrometer: HR+D1059
Trigger mode: 1
Integration Time (sec): 1.000000E-1
Scans to average: 1
Electric dark correction enabled: true
Nonlinearity correction enabled: false
Boxcar width: 0
XAxis mode: Wavelengths
Number of Pixels in Spectrum: 2048
>>>>>Begin Spectral Data<<<<<
223.165	-21.81
223.4	-21.81
223.635	-21.81
223.869	-25.81
224.104	-9.81
224.338	-21.81
224.573	-3.81
224.808	-15.81
225.042	-0.81
225.277	-6.81
225.511	-6.81
225.746	6.19
225.98	6.19
226.215	4.19
226.449	14.19
226.683	33.19
226.918	20.19
227.152	29.19
227.387	37.19
227.621	37.19
227.856	47.19
228.09	56.19
228.324	52.19
228.559	69.19
228.793	48.19
229.027	71.19
229.262	71.19
229.496	65.19
229.73	70.19
229.964	86.19
230.199	81.19
230.433	86.19
230.667	76.19
230.901	77.19
231.136	68.19
231.37	83.19
231.604	80.19
231.838	85.19
232.072	93.19
232.306	78.19
232.541	99.19
232.775	104.19
233.009	94.19
233.243	96.19
233.477	96.19
233.711	77.19
233.945	86.19
234.179	77.19
234.413	101.19
234.647	107.19
234.881	93.19
235.115	96.19
235.349	91.19
235.583	89.19
235.817	92.19
236.051	86.19
236.285	80.19
236.519	84.19
236.753	78.19
236.987	101.19
237.221	85.19
237.455	86.19
237.689	92.19
237.922	92.19
238.156	97.19
238.39	87.19
238.624	83.19
238.858	95.19
239.091	86.19
239.325	77.19
239.559	76.19
239.793	76.19
240.027	98.19
240.26	93.19
240.494	93.19
240.728	87.19
240.961	80.19
241.195	89.19
241.429	93.19
241.662	84.19
241.896	86.19
242.13	88.19
242.363	83.19
242.597	76.19
242.83	85.19
243.064	102.19
243.298	86.19
243.531	73.19
243.765	87.19
243.998	97.19
244.232	80.19
244.465	85.19
244.699	97.19
244.932	93.19
245.166	79.19
245.399	81.19
245.633	116.19
245.866	88.19
246.099	94.19
246.333	73.19
246.566	89.19
246.8	97.19
247.033	81.19
247.266	73.19
247.5	81.19
247.733	94.19
247.966	97.19
248.2	82.19
248.433	81.19
248.666	101.19
248.899	91.19
249.133	92.19
249.366	84.19
249.599	86.19
249.832	101.19
250.066	100.19
250.299	94.19
250.532	103.19
250.765	102.19
250.998	106.19
251.231	94.19
251.465	91.19
251.698	81.19
251.931	86.19
252.164	96.19
252.397	90.19
252.63	96.19
252.863	91.19
253.096	97.19
253.329	93.19
253.562	88.19
253.795	89.19
254.028	94.19
254.261	84.19
254.494	89.19
254.727	98.19
254.96	72.19
255.193	88.19
255.426	89.19
255.659	100.19
255.892	99.19
256.124	97.19
256.357	97.19
256.59	93.19
256.823	100.19
257.056	81.19
257.289	84.19
257.521	95.19
257.754	92.19
257.987	90.19
258.22	86.19
258.452	98.19
258.685	94.19
258.918	111.19
259.151	100.19
259.383	103.19
259.616	101.19
259.849	101.19
260.081	103.19
260.314	99.19
260.547	94.19
260.779	103.19
261.012	91.19
261.244	87.19
261.477	97.19
261.71	101.19
261.942	91.19
262.175	93.19
262.407	93.19
262.64	96.19
262.872	94.19
263.105	95.19
263.337	102.19
263.57	86.19
263.802	107.19
264.035	110.19
264.267	101.19
264.499	89.19
264.732	94.19
264.964	100.19
265.197	90.19
265.429	105.19
265.661	95.19
265.894	101.19
266.126	109.19
266.358	102.19
266.591	92.19
266.823	103.19
267.055	89.19
267.287	96.19
267.52	99.19
267.752	88.19
267.984	97.19
268.216	103.19
268.448	104.19
268.681	100.19
268.913	101.19
269.145	110.19
269.377	93.19
269.609	97.19
269.841	106.19
270.073	92.19
270.306	98.19
270.538	120.19
270.77	100.19
271.002	98.19
271.234	96.19
271.466	89.19
271.698	93.19
271.93	106.19
272.162	107.19
272.394	102.19
272.626	103.19
272.858	86.19
273.09	101.19
273.322	95.19
273.553	83.19
273.785	94.19
274.017	111.19
274.249	93.19
274.481	87.19
274.713	94.19
274.945	108.19
275.176	100.19
275.408	105.19
275.64	103.19
275.872	98.19
276.104	103.19
276.335	112.19
276.567	77.19
276.799	96.19
277.031	107.19
277.262	89.19
277.494	103.19
277.726	88.19
277.957	105.19
278.189	95.19
278.421	104.19
278.652	108.19
278.884	122.19
279.115	103.19
279.347	94.19
279.579	103.19
279.81	99.19
280.042	89.19
280.273	88.19
280.505	107.19
280.736	88.19
280.968	97.19
281.199	100.19
281.431	102.19
281.662	99.19
281.894	104.19
282.125	101.19
282.356	111.19
282.588	103.19
282.819	110.19
283.051	101.19
283.282	105.19
283.513	117.19
283.745	97.19
283.976	113.19
284.207	120.19
284.439	96.19
284.67	101.19
284.901	102.19
285.132	99.19
285.364	119.19
285.595	111.19
285.826	104.19
286.057	110.19
286.288	108.19
286.52	106.19
286.751	106.19
286.982	100.19
287.213	100.19
287.444	101.19
287.675	111.19
287.906	102.19
288.138	89.19
288.369	97.19
288.6	101.19
288.831	119.19
289.062	119.19
289.293	106.19
289.524	92.19
289.755	94.19
289.986	94.19
290.217	102.19
290.448	100.19
290.679	98.19
290.91	101.19
291.141	99.19
291.371	122.19
291.602	106.19
291.833	99.19
292.064	121.19
292.295	105.19
292.526	104.19
292.757	106.19
292.987	105.19
293.218	109.19
293.449	104.19
293.68	100.19
293.91	111.19
294.141	109.19
294.372	114.19
294.603	110.19
294.833	100.19
295.064	96.19
295.295	110.19
295.525	101.19
295.756	111.19
295.987	106.19
296.217	109.19
296.448	126.19
296.679	106.19
296.909	117.19
297.14	100.19
297.37	104.19
297.601	98.19
297.831	100.19
298.062	107.19
298.292	112.19
298.523	110.19
298.753	102.19
298.984	114.19
299.214	98.19
299.445	108.19
299.675	117.19
299.905	102.19
300.136	94.19
300.366	96.19
300.597	104.19
300.827	113.19
301.057	98.19
301.288	102.19
301.518	103.19
301.748	100.19
301.979	109.19
302.209	109.19
302.439	99.19
302.669	118.19
302.9	103.19
303.13	99.19
303.36	104.19
303.59	106.19
303.82	110.19
304.051	105.19
304.281	102.19
304.511	113.19
304.741	110.19
304.971	106.19
305.201	100.19
305.431	104.19
305.661	121.19
305.891	95.19
306.121	112.19
306.352	107.19
306.582	105.19
306.812	118.19
307.042	116.19
307.272	110.19
307.502	104.19
307.731	102.19
307.961	107.19
308.191	95.19
308.421	109.19
308.651	112.19
308.881	97.19
309.111	114.19
309.341	117.19
309.571	97.19
309.8	109.19
310.03	103.19
310.26	111.19
310.49	111.19
310.72	104.19
310.949	108.19
311.179	114.19
311.409	102.19
311.639	113.19
311.868	93.19
312.098	105.19
312.328	115.19
312.557	112.19
312.787	108.19
313.017	110.19
313.246	121.19
313.476	90.19
313.706	104.19
313.935	101.19
314.165	112.19
314.394	111.19
314.624	111.19
314.853	114.19
315.083	113.19
315.312	105.19
315.542	106.19
315.771	122.19
316.001	116.19
316.23	121.19
316.46	112.19
316.689	126.19
316.919	118.19
317.148	132.19
317.377	116.19
317.607	119.19
317.836	122.19
318.065	113.19
318.295	118.19
318.524	115.19
318.753	106.19
318.983	111.19
319.212	102.19
319.441	104.19
319.67	111.19
319.9	120.19
320.129	111.19
320.358	98.19
320.587	112.19
320.816	106.19
321.046	107.19
321.275	116.19
321.504	106.19
321.733	109.19
321.962	114.19
322.191	121.19
322.42	118.19
322.649	100.19
322.878	124.19
323.108	126.19
323.337	120.19
323.566	117.19
323.795	110.19
324.024	118.19
324.253	128.19
324.482	140.19
324.71	156.19
324.939	182.19
325.168	166.19
325.397	119.19
325.626	109.19
325.855	106.19
326.084	137.19
326.313	116.19
326.542	119.19
326.77	115.19
326.999	129.19
327.228	132.19
327.457	157.19
327.686	166.19
327.914	146.19
328.143	118.19
328.372	130.19
328.6	113.19
328.829	124.19
329.058	109.19
329.287	104.19
329.515	118.19
329.744	125.19
329.972	124.19
330.201	111.19
330.43	109.19
330.658	129.19
330.887	141.19
331.115	129.19
331.344	118.19
331.572	121.19
331.801	125.19
332.03	119.19
332.258	126.19
332.486	127.19
332.715	129.19
332.943	120.19
333.172	119.19
333.4	121.19
333.629	120.19
333.857	130.19
334.085	113.19
334.314	127.19
334.542	138.19
334.771	138.19
334.999	126.19
335.227	122.19
335.455	116.19
335.684	124.19
335.912	112.19
336.14	128.19
336.369	123.19
336.597	108.19
336.825	117.19
337.053	111.19
337.281	119.19
337.51	122.19
337.738	111.19
337.966	132.19
338.194	102.19
338.422	120.19
338.65	125.19
338.878	112.19
339.106	111.19
339.334	125.19
339.562	133.19
339.79	116.19
340.018	118.19
340.246	116.19
340.474	123.19
340.702	124.19
340.93	108.19
341.158	118.19
341.386	124.19
341.614	120.19
341.842	110.19
342.07	116.19
342.298	128.19
342.526	115.19
342.754	103.19
342.981	116.19
343.209	121.19
343.437	122.19
343.665	123.19
343.893	112.19
344.12	116.19
344.348	116.19
344.576	117.19
344.804	111.19
345.031	122.19
345.259	117.19
345.487	125.19
345.714	126.19
345.942	110.19
346.17	127.19
346.397	108.19
346.625	114.19
346.853	113.19
347.08	107.19
347.308	124.19
347.535	110.19
347.763	120.19
347.99	116.19
348.218	116.19
348.445	100.19
348.673	114.19
348.9	120.19
349.128	108.19
349.355	120.19
349.583	141.19
349.81	122.19
350.037	124.19
350.265	125.19
350.492	112.19
350.72	116.19
350.947	117.19
351.174	121.19
351.402	102.19
351.629	120.19
351.856	102.19
352.083	111.19
352.311	118.19
352.538	119.19
352.765	110.19
352.992	100.19
353.22	121.19
353.447	120.19
353.674	121.19
353.901	113.19
354.128	106.19
354.355	126.19
354.583	106.19
354.81	113.19
355.037	104.19
355.264	117.19
355.491	111.19
355.718	104.19
355.945	109.19
356.172	112.19
356.399	106.19
356.626	118.19
356.853	109.19
357.08	113.19
357.307	103.19
357.534	114.19
357.761	114.19
357.988	109.19
358.215	113.19
358.441	116.19
358.668	110.19
358.895	106.19
359.122	115.19
359.349	111.19
359.576	106.19
359.802	112.19
360.029	120.19
360.256	127.19
360.483	121.19
360.709	107.19
360.936	116.19
361.163	113.19
361.39	109.19
361.616	118.19
361.843	116.19
362.07	99.19
362.296	117.19
362.523	118.19
362.749	116.19
362.976	121.19
363.203	114.19
363.429	107.19
363.656	122.19
363.882	118.19
364.109	107.19
364.335	114.19
364.562	127.19
364.788	108.19
365.015	116.19
365.241	110.19
365.468	102.19
365.694	118.19
365.92	109.19
366.147	104.19
366.373	105.19
366.599	114.19
366.826	122.19
367.052	110.19
367.278	110.19
367.505	117.19
367.731	96.19
367.957	115.19
368.184	124.19
368.41	114.19
368.636	105.19
368.862	130.19
369.089	109.19
369.315	111.19
369.541	116.19
369.767	102.19
369.993	100.19
370.219	106.19
370.445	108.19
370.672	117.19
370.898	96.19
371.124	106.19
371.35	105.19
371.576	121.19
371.802	105.19
372.028	126.19
372.254	92.19
372.48	105.19
372.706	103.19
372.932	116.19
373.158	126.19
373.384	124.19
373.61	122.19
373.835	123.19
374.061	114.19
374.287	111.19
374.513	124.19
374.739	116.19
374.965	133.19
375.191	125.19
375.416	129.19
375.642	129.19
375.868	131.19
376.094	107.19
376.319	106.19
376.545	120.19
376.771	110.19
376.997	126.19
377.222	124.19
377.448	107.19
377.674	113.19
377.899	124.19
378.125	116.19
378.35	126.19
378.576	108.19
378.802	111.19
379.027	111.19
379.253	111.19
379.478	113.19
379.704	127.19
379.929	114.19
380.155	104.19
380.38	107.19
380.606	120.19
380.831	108.19
381.057	117.19
381.282	123.19
381.507	111.19
381.733	105.19
381.958	100.19
382.184	122.19
382.409	100.19
382.634	110.19
382.86	120.19
383.085	113.19
383.31	112.19
383.535	120.19
383.761	126.19
383.986	132.19
384.211	117.19
384.436	119.19
384.662	106.19
384.887	118.19
385.112	120.19
385.337	121.19
385.562	120.19
385.787	111.19
386.013	128.19
386.238	114.19
386.463	117.19
386.688	106.19
386.913	124.19
387.138	127.19
387.363	109.19
387.588	127.19
387.813	121.19
388.038	109.19
388.263	121.19
388.488	128.19
388.713	112.19
388.938	109.19
389.163	104.19
389.387	122.19
389.612	119.19
389.837	115.19
390.062	121.19
390.287	110.19
390.512	124.19
390.736	114.19
390.961	123.19
391.186	118.19
391.411	119.19
391.636	123.19
391.86	136.19
392.085	130.19
392.31	123.19
392.534	125.19
392.759	124.19
392.984	113.19
393.208	118.19
393.433	124.19
393.658	128.19
393.882	117.19
394.107	124.19
394.331	128.19
394.556	111.19
394.78	115.19
395.005	123.19
395.229	126.19
395.454	123.19
395.678	117.19
395.903	126.19
396.127	136.19
396.352	133.19
396.576	125.19
396.801	106.19
397.025	116.19
397.249	138.19
397.474	120.19
397.698	121.19
397.922	121.19
398.147	117.19
398.371	145.19
398.595	138.19
398.82	131.19
399.044	128.19
399.268	123.19
399.492	145.19
399.717	160.19
399.941	166.19
400.165	144.19
400.389	142.19
400.613	146.19
400.837	124.19
401.062	123.19
401.286	124.19
401.51	128.19
401.734	133.19
401.958	122.19
402.182	122.19
402.406	129.19
402.63	130.19
402.854	145.19
403.078	137.19
403.302	144.19
403.526	134.19
403.75	136.19
403.974	130.19
404.198	140.19
404.422	128.19
404.645	141.19
404.869	138.19
405.093	147.19
405.317	138.19
405.541	147.19
405.765	123.19
405.988	133.19
406.212	147.19
406.436	143.19
406.66	141.19
406.883	132.19
407.107	146.19
407.331	143.19
407.555	139.19
407.778	136.19
408.002	138.19
408.226	141.19
408.449	142.19
408.673	129.19
408.896	134.19
409.12	124.19
409.344	141.19
409.567	150.19
409.791	136.19
410.014	127.19
410.238	132.19
410.461	134.19
410.685	149.19
410.908	134.19
411.132	140.19
411.355	130.19
411.578	134.19
411.802	133.19
412.025	109.19
412.249	126.19
412.472	137.19
412.695	134.19
412.919	128.19
413.142	136.19
413.365	130.19
413.589	136.19
413.812	146.19
414.035	121.19
414.258	132.19
414.482	138.19
414.705	137.19
414.928	143.19
415.151	146.19
415.374	140.19
415.597	126.19
415.821	124.19
416.044	139.19
416.267	129.19
416.49	133.19
416.713	131.19
416.936	126.19
417.159	125.19
417.382	136.19
417.605	144.19
417.828	133.19
418.051	135.19
418.274	150.19
418.497	132.19
418.72	138.19
418.943	137.19
419.166	129.19
419.389	136.19
419.611	136.19
419.834	136.19
420.057	140.19
420.28	133.19
420.503	132.19
420.726	145.19
420.948	128.19
421.171	136.19
421.394	146.19
421.617	129.19
421.839	149.19
422.062	131.19
422.285	130.19
422.507	134.19
422.73	142.19
422.953	126.19
423.175	141.19
423.398	129.19
423.621	133.19
423.843	139.19
424.066	142.19
424.288	132.19
424.511	145.19
424.733	146.19
424.956	148.19
425.178	150.19
425.401	161.19
425.623	130.19
425.846	146.19
426.068	137.19
426.291	133.19
426.513	131.19
426.735	128.19
426.958	129.19
427.18	138.19
427.402	149.19
427.625	155.19
427.847	140.19
428.069	147.19
428.292	116.19
428.514	128.19
428.736	129.19
428.958	119.19
429.181	126.19
429.403	136.19
429.625	121.19
429.847	124.19
430.069	130.19
430.292	126.19
430.514	137.19
430.736	126.19
430.958	126.19
431.18	122.19
431.402	122.19
431.624	135.19
431.846	121.19
432.068	113.19
432.29	136.19
432.512	128.19
432.734	123.19
432.956	137.19
433.178	133.19
433.4	128.19
433.622	128.19
433.844	123.19
434.066	122.19
434.287	138.19
434.509	121.19
434.731	139.19
434.953	132.19
435.175	129.19
435.397	143.19
435.618	129.19
435.84	150.19
436.062	144.19
436.284	136.19
436.505	128.19
436.727	128.19
436.949	129.19
437.17	136.19
437.392	121.19
437.614	114.19
437.835	120.19
438.057	136.19
438.278	146.19
438.5	137.19
438.721	149.19
438.943	145.19
439.165	143.19
439.386	125.19
439.608	127.19
439.829	125.19
440.05	162.19
440.272	150.19
440.493	117.19
440.715	136.19
440.936	133.19
441.158	133.19
441.379	129.19
441.6	127.19
441.822	140.19
442.043	133.19
442.264	130.19
442.486	148.19
442.707	126.19
442.928	138.19
443.149	146.19
443.371	154.19
443.592	134.19
443.813	150.19
444.034	137.19
444.255	148.19
444.476	137.19
444.698	128.19
444.919	126.19
445.14	229.19
445.361	185.19
445.582	134.19
445.803	135.19
446.024	137.19
446.245	132.19
446.466	140.19
446.687	136.19
446.908	127.19
447.129	134.19
447.35	137.19
447.571	133.19
447.792	143.19
448.013	114.19
448.234	134.19
448.455	140.19
448.675	130.19
448.896	124.19
449.117	126.19
449.338	131.19
449.559	137.19
449.779	134.19
450	137.19
450.221	122.19
450.442	123.19
450.662	122.19
450.883	131.19
451.104	122.19
451.324	141.19
451.545	128.19
451.766	126.19
451.986	127.19
452.207	138.19
452.428	132.19
452.648	127.19
452.869	130.19
453.089	118.19
453.31	130.19
453.53	110.19
453.751	124.19
453.971	130.19
454.192	125.19
454.412	128.19
454.633	127.19
454.853	113.19
455.073	132.19
455.294	115.19
455.514	123.19
455.734	127.19
455.955	120.19
456.175	130.19
456.395	129.19
456.616	135.19
456.836	124.19
457.056	120.19
457.276	119.19
457.497	123.19
457.717	115.19
457.937	124.19
458.157	112.19
458.377	119.19
458.598	126.19
458.818	133.19
459.038	133.19
459.258	144.19
459.478	132.19
459.698	118.19
459.918	145.19
460.138	129.19
460.358	116.19
460.578	113.19
460.798	132.19
461.018	130.19
461.238	128.19
461.458	126.19
461.678	140.19
461.898	136.19
462.118	135.19
462.338	149.19
462.558	134.19
462.777	130.19
462.997	136.19
463.217	147.19
463.437	143.19
463.657	139.19
463.876	140.19
464.096	129.19
464.316	134.19
464.536	147.19
464.755	150.19
464.975	124.19
465.195	159.19
465.414	143.19
465.634	130.19
465.854	130.19
466.073	135.19
466.293	123.19
466.512	137.19
466.732	121.19
466.951	136.19
467.171	130.19
467.391	137.19
467.61	129.19
467.829	115.19
468.049	116.19
468.268	127.19
468.488	128.19
468.707	128.19
468.927	121.19
469.146	121.19
469.365	125.19
469.585	120.19
469.804	134.19
470.023	128.19
470.243	138.19
470.462	133.19
470.681	128.19
470.901	128.19
471.12	118.19
471.339	135.19
471.558	132.19
471.777	136.19
471.997	140.19
472.216	127.19
472.435	118.19
472.654	137.19
472.873	109.19
473.092	122.19
473.311	124.19
473.53	132.19
473.749	127.19
473.968	139.19
474.187	126.19
474.406	133.19
474.625	127.19
474.844	118.19
475.063	129.19
475.282	139.19
475.501	122.19
475.72	138.19
475.939	132.19
476.158	100.19
476.377	119.19
476.596	130.19
476.814	130.19
477.033	129.19
477.252	134.19
477.471	112.19
477.69	124.19
477.908	134.19
478.127	131.19
478.346	136.19
478.564	130.19
478.783	140.19
479.002	132.19
479.22	141.19
479.439	146.19
479.658	138.19
479.876	131.19
480.095	132.19
480.313	138.19
480.532	138.19
480.751	145.19
480.969	127.19
481.188	137.19
481.406	140.19
481.624	142.19
481.843	157.19
482.061	128.19
482.28	138.19
482.498	129.19
482.717	136.19
482.935	127.19
483.153	130.19
483.372	136.19
483.59	127.19
483.808	140.19
484.027	137.19
484.245	146.19
484.463	136.19
484.681	129.19
484.9	139.19
485.118	138.19
485.336	145.19
485.554	132.19
485.772	132.19
485.99	137.19
486.209	136.19
486.427	141.19
486.645	128.19
486.863	114.19
487.081	126.19
487.299	124.19
487.517	159.19
487.735	166.19
487.953	142.19
488.171	122.19
488.389	131.19
488.607	130.19
488.825	136.19
489.043	136.19
489.261	133.19
489.479	136.19
489.696	134.19
489.914	143.19
490.132	159.19
490.35	152.19
490.568	159.19
490.786	155.19
491.003	144.19
491.221	132.19
491.439	117.19
491.657	149.19
491.874	139.19
492.092	150.19
492.31	156.19
492.527	144.19
492.745	165.19
492.963	149.19
493.18	155.19
493.398	147.19
493.615	130.19
493.833	154.19
494.05	139.19
494.268	151.19
494.485	162.19
494.703	150.19
494.92	161.19
495.138	156.19
495.355	159.19
495.573	138.19
495.79	148.19
496.008	168.19
496.225	129.19
496.442	158.19
496.66	143.19
496.877	154.19
497.094	158.19
497.312	148.19
497.529	153.19
497.746	154.19
497.963	157.19
498.181	164.19
498.398	167.19
498.615	166.19
498.832	167.19
499.049	165.19
499.267	170.19
499.484	180.19
499.701	186.19
499.918	186.19
500.135	199.19
500.352	212.19
500.569	220.19
500.786	222.19
501.003	207.19
501.22	200.19
501.437	199.19
501.654	172.19
501.871	177.19
502.088	158.19
502.305	176.19
502.522	162.19
502.739	162.19
502.956	158.19
503.172	158.19
503.389	152.19
503.606	158.19
503.823	159.19
504.04	144.19
504.256	164.19
504.473	168.19
504.69	137.19
