Data from 1968.PennyLincolnUp.Lamp.En5.5.200Scan.071719.P1._HRD10591_14-50-51-969.txt Node
Date: Thu Jul 18 14:50:51 EDT 2019
User: cochatt
Spectrometer: HR+D1059
Trigger mode: 1
Integration Time (sec): 1.000000E-1
Scans to average: 1
Electric dark correction enabled: true
Nonlinearity correction enabled: false
Boxcar width: 0
XAxis mode: Wavelengths
Number of Pixels in Spectrum: 2048
>>>>>Begin Spectral Data<<<<<
223.165	-27.38
223.4	-27.38
223.635	-27.38
223.869	-3.38
224.104	-20.38
224.338	-9.38
224.573	-13.38
224.808	-3.38
225.042	-17.38
225.277	-7.38
225.511	-7.38
225.746	0.62
225.98	15.62
226.215	12.62
226.449	8.62
226.683	16.62
226.918	30.62
227.152	24.62
227.387	28.62
227.621	36.62
227.856	48.62
228.09	46.62
228.324	60.62
228.559	58.62
228.793	61.62
229.027	76.62
229.262	63.62
229.496	66.62
229.73	64.62
229.964	70.62
230.199	79.62
230.433	80.62
230.667	86.62
230.901	64.62
231.136	84.62
231.37	78.62
231.604	86.62
231.838	92.62
232.072	90.62
232.306	90.62
232.541	85.62
232.775	85.62
233.009	91.62
233.243	86.62
233.477	84.62
233.711	78.62
233.945	75.62
234.179	83.62
234.413	90.62
234.647	82.62
234.881	78.62
235.115	76.62
235.349	86.62
235.583	93.62
235.817	88.62
236.051	86.62
236.285	88.62
236.519	91.62
236.753	94.62
236.987	80.62
237.221	80.62
237.455	97.62
237.689	88.62
237.922	72.62
238.156	90.62
238.39	84.62
238.624	84.62
238.858	86.62
239.091	79.62
239.325	74.62
239.559	84.62
239.793	70.62
240.027	81.62
240.26	86.62
240.494	64.62
240.728	81.62
240.961	72.62
241.195	101.62
241.429	97.62
241.662	78.62
241.896	81.62
242.13	87.62
242.363	84.62
242.597	81.62
242.83	81.62
243.064	73.62
243.298	89.62
243.531	87.62
243.765	89.62
243.998	88.62
244.232	94.62
244.465	73.62
244.699	89.62
244.932	77.62
245.166	84.62
245.399	88.62
245.633	82.62
245.866	95.62
246.099	88.62
246.333	74.62
246.566	94.62
246.8	94.62
247.033	87.62
247.266	83.62
247.5	96.62
247.733	93.62
247.966	79.62
248.2	80.62
248.433	76.62
248.666	90.62
248.899	88.62
249.133	93.62
249.366	94.62
249.599	81.62
249.832	91.62
250.066	96.62
250.299	89.62
250.532	94.62
250.765	90.62
250.998	82.62
251.231	96.62
251.465	105.62
251.698	102.62
251.931	89.62
252.164	90.62
252.397	100.62
252.63	98.62
252.863	86.62
253.096	88.62
253.329	101.62
253.562	91.62
253.795	77.62
254.028	90.62
254.261	88.62
254.494	80.62
254.727	105.62
254.96	97.62
255.193	83.62
255.426	93.62
255.659	101.62
255.892	98.62
256.124	88.62
256.357	94.62
256.59	88.62
256.823	92.62
257.056	97.62
257.289	79.62
257.521	102.62
257.754	104.62
257.987	101.62
258.22	108.62
258.452	88.62
258.685	96.62
258.918	79.62
259.151	81.62
259.383	99.62
259.616	94.62
259.849	91.62
260.081	99.62
260.314	89.62
260.547	89.62
260.779	90.62
261.012	99.62
261.244	92.62
261.477	93.62
261.71	90.62
261.942	84.62
262.175	92.62
262.407	89.62
262.64	84.62
262.872	94.62
263.105	92.62
263.337	91.62
263.57	95.62
263.802	102.62
264.035	97.62
264.267	98.62
264.499	97.62
264.732	85.62
264.964	96.62
265.197	91.62
265.429	105.62
265.661	96.62
265.894	96.62
266.126	95.62
266.358	93.62
266.591	93.62
266.823	90.62
267.055	98.62
267.287	96.62
267.52	93.62
267.752	101.62
267.984	85.62
268.216	99.62
268.448	82.62
268.681	90.62
268.913	92.62
269.145	96.62
269.377	104.62
269.609	87.62
269.841	108.62
270.073	99.62
270.306	98.62
270.538	100.62
270.77	103.62
271.002	87.62
271.234	105.62
271.466	93.62
271.698	107.62
271.93	105.62
272.162	87.62
272.394	109.62
272.626	101.62
272.858	100.62
273.09	97.62
273.322	103.62
273.553	100.62
273.785	91.62
274.017	109.62
274.249	103.62
274.481	95.62
274.713	109.62
274.945	105.62
275.176	89.62
275.408	92.62
275.64	95.62
275.872	105.62
276.104	99.62
276.335	110.62
276.567	100.62
276.799	96.62
277.031	102.62
277.262	113.62
277.494	111.62
277.726	108.62
277.957	97.62
278.189	103.62
278.421	115.62
278.652	102.62
278.884	111.62
279.115	90.62
279.347	92.62
279.579	104.62
279.81	107.62
280.042	105.62
280.273	97.62
280.505	101.62
280.736	116.62
280.968	108.62
281.199	101.62
281.431	111.62
281.662	99.62
281.894	110.62
282.125	110.62
282.356	108.62
282.588	103.62
282.819	114.62
283.051	99.62
283.282	113.62
283.513	103.62
283.745	103.62
283.976	96.62
284.207	99.62
284.439	95.62
284.67	111.62
284.901	96.62
285.132	91.62
285.364	105.62
285.595	83.62
285.826	98.62
286.057	89.62
286.288	97.62
286.52	106.62
286.751	107.62
286.982	96.62
287.213	109.62
287.444	103.62
287.675	102.62
287.906	112.62
288.138	109.62
288.369	109.62
288.6	104.62
288.831	103.62
289.062	101.62
289.293	126.62
289.524	96.62
289.755	81.62
289.986	105.62
290.217	101.62
290.448	124.62
290.679	103.62
290.91	102.62
291.141	104.62
291.371	106.62
291.602	85.62
291.833	102.62
292.064	101.62
292.295	109.62
292.526	101.62
292.757	100.62
292.987	117.62
293.218	109.62
293.449	99.62
293.68	100.62
293.91	109.62
294.141	104.62
294.372	97.62
294.603	101.62
294.833	101.62
295.064	110.62
295.295	110.62
295.525	103.62
295.756	112.62
295.987	101.62
296.217	102.62
296.448	123.62
296.679	101.62
296.909	116.62
297.14	103.62
297.37	96.62
297.601	116.62
297.831	105.62
298.062	110.62
298.292	97.62
298.523	100.62
298.753	116.62
298.984	108.62
299.214	118.62
299.445	101.62
299.675	124.62
299.905	113.62
300.136	106.62
300.366	126.62
300.597	106.62
300.827	108.62
301.057	99.62
301.288	120.62
301.518	111.62
301.748	104.62
301.979	103.62
302.209	92.62
302.439	105.62
302.669	108.62
302.9	100.62
303.13	102.62
303.36	79.62
303.59	112.62
303.82	109.62
304.051	99.62
304.281	98.62
304.511	110.62
304.741	102.62
304.971	104.62
305.201	97.62
305.431	106.62
305.661	110.62
305.891	107.62
306.121	121.62
306.352	114.62
306.582	113.62
306.812	101.62
307.042	109.62
307.272	115.62
307.502	106.62
307.731	107.62
307.961	113.62
308.191	106.62
308.421	112.62
308.651	107.62
308.881	106.62
309.111	112.62
309.341	112.62
309.571	112.62
309.8	109.62
310.03	97.62
310.26	105.62
310.49	106.62
310.72	107.62
310.949	93.62
311.179	124.62
311.409	126.62
311.639	112.62
311.868	100.62
312.098	105.62
312.328	106.62
312.557	107.62
312.787	103.62
313.017	116.62
313.246	124.62
313.476	114.62
313.706	124.62
313.935	116.62
314.165	88.62
314.394	113.62
314.624	106.62
314.853	109.62
315.083	100.62
315.312	90.62
315.542	119.62
315.771	132.62
316.001	118.62
316.23	111.62
316.46	102.62
316.689	117.62
316.919	108.62
317.148	110.62
317.377	109.62
317.607	95.62
317.836	100.62
318.065	101.62
318.295	112.62
318.524	111.62
318.753	107.62
318.983	120.62
319.212	116.62
319.441	117.62
319.67	109.62
319.9	106.62
320.129	108.62
320.358	124.62
320.587	112.62
320.816	112.62
321.046	106.62
321.275	106.62
321.504	105.62
321.733	102.62
321.962	121.62
322.191	107.62
322.42	108.62
322.649	106.62
322.878	115.62
323.108	113.62
323.337	117.62
323.566	123.62
323.795	128.62
324.024	103.62
324.253	126.62
324.482	140.62
324.71	169.62
324.939	189.62
325.168	168.62
325.397	132.62
325.626	137.62
325.855	121.62
326.084	126.62
326.313	130.62
326.542	130.62
326.77	129.62
326.999	123.62
327.228	152.62
327.457	168.62
327.686	157.62
327.914	146.62
328.143	132.62
328.372	125.62
328.6	115.62
328.829	105.62
329.058	125.62
329.287	119.62
329.515	125.62
329.744	122.62
329.972	110.62
330.201	121.62
330.43	116.62
330.658	103.62
330.887	132.62
331.115	128.62
331.344	103.62
331.572	122.62
331.801	115.62
332.03	120.62
332.258	104.62
332.486	136.62
332.715	123.62
332.943	118.62
333.172	132.62
333.4	123.62
333.629	105.62
333.857	114.62
334.085	114.62
334.314	121.62
334.542	140.62
334.771	131.62
334.999	125.62
335.227	130.62
335.455	118.62
335.684	118.62
335.912	112.62
336.14	117.62
336.369	112.62
336.597	113.62
336.825	126.62
337.053	106.62
337.281	110.62
337.51	112.62
337.738	119.62
337.966	118.62
338.194	120.62
338.422	103.62
338.65	113.62
338.878	128.62
339.106	124.62
339.334	126.62
339.562	121.62
339.79	108.62
340.018	125.62
340.246	111.62
340.474	105.62
340.702	113.62
340.93	121.62
341.158	107.62
341.386	116.62
341.614	117.62
341.842	118.62
342.07	117.62
342.298	116.62
342.526	122.62
342.754	125.62
342.981	107.62
343.209	125.62
343.437	118.62
343.665	107.62
343.893	126.62
344.12	120.62
344.348	113.62
344.576	113.62
344.804	116.62
345.031	111.62
345.259	113.62
345.487	116.62
345.714	116.62
345.942	111.62
346.17	102.62
346.397	121.62
346.625	102.62
346.853	112.62
347.08	114.62
347.308	112.62
347.535	118.62
347.763	111.62
347.99	117.62
348.218	116.62
348.445	112.62
348.673	128.62
348.9	104.62
349.128	112.62
349.355	117.62
349.583	118.62
349.81	105.62
350.037	128.62
350.265	115.62
350.492	113.62
350.72	126.62
350.947	111.62
351.174	122.62
351.402	107.62
351.629	107.62
351.856	121.62
352.083	122.62
352.311	113.62
352.538	112.62
352.765	97.62
352.992	116.62
353.22	102.62
353.447	112.62
353.674	124.62
353.901	118.62
354.128	109.62
354.355	112.62
354.583	112.62
354.81	103.62
355.037	121.62
355.264	108.62
355.491	111.62
355.718	111.62
355.945	116.62
356.172	114.62
356.399	106.62
356.626	94.62
356.853	108.62
357.08	106.62
357.307	104.62
357.534	114.62
357.761	110.62
357.988	106.62
358.215	124.62
358.441	106.62
358.668	111.62
358.895	97.62
359.122	95.62
359.349	120.62
359.576	117.62
359.802	118.62
360.029	110.62
360.256	130.62
360.483	112.62
360.709	106.62
360.936	121.62
361.163	107.62
361.39	108.62
361.616	116.62
361.843	98.62
362.07	117.62
362.296	96.62
362.523	109.62
362.749	104.62
362.976	116.62
363.203	108.62
363.429	118.62
363.656	126.62
363.882	108.62
364.109	109.62
364.335	114.62
364.562	120.62
364.788	106.62
365.015	126.62
365.241	107.62
365.468	128.62
365.694	123.62
365.92	112.62
366.147	106.62
366.373	103.62
366.599	107.62
366.826	109.62
367.052	118.62
367.278	113.62
367.505	110.62
367.731	110.62
367.957	128.62
368.184	88.62
368.41	117.62
368.636	117.62
368.862	127.62
369.089	106.62
369.315	104.62
369.541	128.62
369.767	113.62
369.993	114.62
370.219	112.62
370.445	119.62
370.672	101.62
370.898	110.62
371.124	126.62
371.35	126.62
371.576	125.62
371.802	117.62
372.028	109.62
372.254	122.62
372.48	121.62
372.706	111.62
372.932	122.62
373.158	118.62
373.384	111.62
373.61	115.62
373.835	118.62
374.061	125.62
374.287	128.62
374.513	111.62
374.739	113.62
374.965	108.62
375.191	108.62
375.416	131.62
375.642	116.62
375.868	128.62
376.094	110.62
376.319	116.62
376.545	105.62
376.771	120.62
376.997	117.62
377.222	126.62
377.448	123.62
377.674	125.62
377.899	111.62
378.125	114.62
378.35	110.62
378.576	116.62
378.802	112.62
379.027	118.62
379.253	126.62
379.478	120.62
379.704	121.62
379.929	112.62
380.155	120.62
380.38	94.62
380.606	120.62
380.831	124.62
381.057	131.62
381.282	125.62
381.507	113.62
381.733	111.62
381.958	117.62
382.184	111.62
382.409	126.62
382.634	130.62
382.86	116.62
383.085	104.62
383.31	116.62
383.535	114.62
383.761	122.62
383.986	123.62
384.211	124.62
384.436	127.62
384.662	129.62
384.887	112.62
385.112	125.62
385.337	129.62
385.562	125.62
385.787	129.62
386.013	131.62
386.238	126.62
386.463	113.62
386.688	132.62
386.913	138.62
387.138	121.62
387.363	137.62
387.588	126.62
387.813	120.62
388.038	121.62
388.263	119.62
388.488	114.62
388.713	130.62
388.938	120.62
389.163	124.62
389.387	138.62
389.612	126.62
389.837	128.62
390.062	123.62
390.287	120.62
390.512	130.62
390.736	113.62
390.961	116.62
391.186	124.62
391.411	105.62
391.636	123.62
391.86	126.62
392.085	122.62
392.31	126.62
392.534	131.62
392.759	126.62
392.984	109.62
393.208	120.62
393.433	115.62
393.658	130.62
393.882	121.62
394.107	128.62
394.331	121.62
394.556	127.62
394.78	123.62
395.005	130.62
395.229	132.62
395.454	112.62
395.678	120.62
395.903	129.62
396.127	124.62
396.352	120.62
396.576	113.62
396.801	118.62
397.025	126.62
397.249	137.62
397.474	119.62
397.698	123.62
397.922	135.62
398.147	142.62
398.371	138.62
398.595	124.62
398.82	134.62
399.044	128.62
399.268	140.62
399.492	150.62
399.717	135.62
399.941	130.62
400.165	149.62
400.389	154.62
400.613	137.62
400.837	143.62
401.062	131.62
401.286	147.62
401.51	153.62
401.734	122.62
401.958	132.62
402.182	134.62
402.406	161.62
402.63	144.62
402.854	122.62
403.078	132.62
403.302	142.62
403.526	140.62
403.75	133.62
403.974	152.62
404.198	131.62
404.422	142.62
404.645	142.62
404.869	149.62
405.093	146.62
405.317	127.62
405.541	133.62
405.765	137.62
405.988	141.62
406.212	145.62
406.436	136.62
406.66	152.62
406.883	141.62
407.107	134.62
407.331	144.62
407.555	141.62
407.778	151.62
408.002	146.62
408.226	146.62
408.449	139.62
408.673	149.62
408.896	145.62
409.12	147.62
409.344	136.62
409.567	133.62
409.791	131.62
410.014	126.62
410.238	141.62
410.461	145.62
410.685	136.62
410.908	116.62
411.132	148.62
411.355	124.62
411.578	133.62
411.802	121.62
412.025	132.62
412.249	137.62
412.472	139.62
412.695	146.62
412.919	147.62
413.142	143.62
413.365	137.62
413.589	145.62
413.812	150.62
414.035	145.62
414.258	136.62
414.482	145.62
414.705	124.62
414.928	136.62
415.151	133.62
415.374	126.62
415.597	138.62
415.821	137.62
416.044	124.62
416.267	128.62
416.49	111.62
416.713	135.62
416.936	131.62
417.159	126.62
417.382	112.62
417.605	136.62
417.828	150.62
418.051	133.62
418.274	132.62
418.497	131.62
418.72	134.62
418.943	123.62
419.166	134.62
419.389	137.62
419.611	135.62
419.834	120.62
420.057	122.62
420.28	142.62
420.503	133.62
420.726	132.62
420.948	141.62
421.171	139.62
421.394	140.62
421.617	138.62
421.839	126.62
422.062	136.62
422.285	145.62
422.507	137.62
422.73	140.62
422.953	142.62
423.175	143.62
423.398	152.62
423.621	136.62
423.843	123.62
424.066	135.62
424.288	127.62
424.511	146.62
424.733	128.62
424.956	157.62
425.178	126.62
425.401	152.62
425.623	147.62
425.846	138.62
426.068	148.62
426.291	120.62
426.513	126.62
426.735	137.62
426.958	142.62
427.18	145.62
427.402	132.62
427.625	135.62
427.847	135.62
428.069	133.62
428.292	124.62
428.514	125.62
428.736	123.62
428.958	128.62
429.181	140.62
429.403	137.62
429.625	136.62
429.847	126.62
430.069	130.62
430.292	134.62
430.514	109.62
430.736	127.62
430.958	138.62
431.18	139.62
431.402	138.62
431.624	138.62
431.846	123.62
432.068	126.62
432.29	148.62
432.512	128.62
432.734	128.62
432.956	132.62
433.178	131.62
433.4	121.62
433.622	130.62
433.844	117.62
434.066	129.62
434.287	138.62
434.509	140.62
434.731	136.62
434.953	135.62
435.175	116.62
435.397	139.62
435.618	139.62
435.84	135.62
436.062	162.62
436.284	143.62
436.505	113.62
436.727	127.62
436.949	132.62
437.17	117.62
437.392	114.62
437.614	105.62
437.835	124.62
438.057	119.62
438.278	145.62
438.5	133.62
438.721	154.62
438.943	136.62
439.165	140.62
439.386	112.62
439.608	136.62
439.829	128.62
440.05	135.62
440.272	138.62
440.493	134.62
440.715	126.62
440.936	138.62
441.158	142.62
441.379	136.62
441.6	137.62
441.822	140.62
442.043	145.62
442.264	140.62
442.486	153.62
442.707	140.62
442.928	118.62
443.149	136.62
443.371	142.62
443.592	131.62
443.813	147.62
444.034	124.62
444.255	146.62
444.476	146.62
444.698	141.62
444.919	143.62
445.14	217.62
445.361	173.62
445.582	148.62
445.803	138.62
446.024	143.62
446.245	148.62
446.466	143.62
446.687	124.62
446.908	132.62
447.129	123.62
447.35	132.62
447.571	137.62
447.792	120.62
448.013	122.62
448.234	121.62
448.455	125.62
448.675	136.62
448.896	140.62
449.117	131.62
449.338	125.62
449.559	142.62
449.779	158.62
450	151.62
450.221	143.62
450.442	127.62
450.662	125.62
450.883	110.62
451.104	122.62
451.324	127.62
451.545	136.62
451.766	132.62
451.986	144.62
452.207	102.62
452.428	142.62
452.648	134.62
452.869	128.62
453.089	124.62
453.31	128.62
453.53	129.62
453.751	121.62
453.971	122.62
454.192	128.62
454.412	114.62
454.633	130.62
454.853	111.62
455.073	134.62
455.294	130.62
455.514	126.62
455.734	139.62
455.955	129.62
456.175	132.62
456.395	127.62
456.616	120.62
456.836	119.62
457.056	115.62
457.276	111.62
457.497	122.62
457.717	122.62
457.937	115.62
458.157	113.62
458.377	112.62
458.598	119.62
458.818	116.62
459.038	125.62
459.258	134.62
459.478	133.62
459.698	124.62
459.918	125.62
460.138	147.62
460.358	140.62
460.578	137.62
460.798	145.62
461.018	137.62
461.238	108.62
461.458	142.62
461.678	133.62
461.898	144.62
462.118	135.62
462.338	148.62
462.558	136.62
462.777	138.62
462.997	133.62
463.217	128.62
463.437	145.62
463.657	139.62
463.876	141.62
464.096	138.62
464.316	140.62
464.536	135.62
464.755	143.62
464.975	142.62
465.195	139.62
465.414	128.62
465.634	130.62
465.854	133.62
466.073	125.62
466.293	123.62
466.512	130.62
466.732	128.62
466.951	135.62
467.171	124.62
467.391	127.62
467.61	132.62
467.829	112.62
468.049	113.62
468.268	117.62
468.488	122.62
468.707	125.62
468.927	120.62
469.146	106.62
469.365	123.62
469.585	130.62
469.804	128.62
470.023	129.62
470.243	115.62
470.462	122.62
470.681	119.62
470.901	136.62
471.12	129.62
471.339	129.62
471.558	129.62
471.777	124.62
471.997	130.62
472.216	140.62
472.435	120.62
472.654	132.62
472.873	134.62
473.092	125.62
473.311	123.62
473.53	135.62
473.749	121.62
473.968	133.62
474.187	129.62
474.406	121.62
474.625	125.62
474.844	121.62
475.063	117.62
475.282	126.62
475.501	132.62
475.72	127.62
475.939	122.62
476.158	124.62
476.377	119.62
476.596	133.62
476.814	126.62
477.033	122.62
477.252	116.62
477.471	119.62
477.69	119.62
477.908	136.62
478.127	132.62
478.346	127.62
478.564	135.62
478.783	132.62
479.002	142.62
479.22	138.62
479.439	148.62
479.658	134.62
479.876	137.62
480.095	133.62
480.313	132.62
480.532	139.62
480.751	129.62
480.969	135.62
481.188	138.62
481.406	148.62
481.624	128.62
481.843	138.62
482.061	140.62
482.28	121.62
482.498	146.62
482.717	129.62
482.935	125.62
483.153	128.62
483.372	135.62
483.59	124.62
483.808	136.62
484.027	137.62
484.245	136.62
484.463	120.62
484.681	145.62
484.9	128.62
485.118	136.62
485.336	131.62
485.554	144.62
485.772	146.62
485.99	128.62
486.209	126.62
486.427	123.62
486.645	132.62
486.863	129.62
487.081	144.62
487.299	146.62
487.517	144.62
487.735	148.62
487.953	152.62
488.171	131.62
488.389	138.62
488.607	131.62
488.825	131.62
489.043	146.62
489.261	141.62
489.479	144.62
489.696	135.62
489.914	137.62
490.132	136.62
490.35	143.62
490.568	143.62
490.786	141.62
491.003	136.62
491.221	150.62
491.439	139.62
491.657	150.62
491.874	138.62
492.092	145.62
492.31	144.62
492.527	142.62
492.745	152.62
492.963	150.62
493.18	157.62
493.398	158.62
493.615	145.62
493.833	140.62
494.05	141.62
494.268	128.62
494.485	131.62
494.703	140.62
494.92	137.62
495.138	150.62
495.355	154.62
495.573	140.62
495.79	152.62
496.008	136.62
496.225	147.62
496.442	154.62
496.66	164.62
496.877	152.62
497.094	155.62
497.312	160.62
497.529	183.62
497.746	142.62
497.963	142.62
498.181	167.62
498.398	159.62
498.615	152.62
498.832	151.62
499.049	176.62
499.267	153.62
499.484	174.62
499.701	180.62
499.918	208.62
500.135	204.62
500.352	213.62
500.569	218.62
500.786	214.62
501.003	201.62
501.22	208.62
501.437	208.62
501.654	185.62
501.871	164.62
502.088	164.62
502.305	158.62
502.522	157.62
502.739	171.62
502.956	154.62
503.172	173.62
503.389	161.62
503.606	152.62
503.823	151.62
504.04	164.62
504.256	159.62
504.473	142.62
504.69	140.62
504.907	138.62
