Data from 1968.PennyLincolnUp.Lamp.En5.5.200Scan.071719.P1._HRD10591_14-51-54-969.txt Node
Date: Thu Jul 18 14:51:54 EDT 2019
User: cochatt
Spectrometer: HR+D1059
Trigger mode: 1
Integration Time (sec): 1.000000E-1
Scans to average: 1
Electric dark correction enabled: true
Nonlinearity correction enabled: false
Boxcar width: 0
XAxis mode: Wavelengths
Number of Pixels in Spectrum: 2048
>>>>>Begin Spectral Data<<<<<
223.165	-24.56
223.4	-24.56
223.635	-24.56
223.869	-25.56
224.104	-15.56
224.338	-9.56
224.573	-25.56
224.808	-10.56
225.042	-6.56
225.277	-0.56
225.511	-11.56
225.746	11.44
225.98	17.44
226.215	16.44
226.449	9.44
226.683	31.44
226.918	17.44
227.152	26.44
227.387	20.44
227.621	24.44
227.856	40.44
228.09	49.44
228.324	42.44
228.559	57.44
228.793	63.44
229.027	59.44
229.262	63.44
229.496	75.44
229.73	71.44
229.964	65.44
230.199	85.44
230.433	88.44
230.667	72.44
230.901	63.44
231.136	85.44
231.37	82.44
231.604	85.44
231.838	82.44
232.072	79.44
232.306	81.44
232.541	78.44
232.775	84.44
233.009	74.44
233.243	86.44
233.477	93.44
233.711	79.44
233.945	68.44
234.179	72.44
234.413	83.44
234.647	78.44
234.881	72.44
235.115	81.44
235.349	71.44
235.583	88.44
235.817	81.44
236.051	81.44
236.285	72.44
236.519	75.44
236.753	86.44
236.987	81.44
237.221	84.44
237.455	82.44
237.689	83.44
237.922	76.44
238.156	73.44
238.39	85.44
238.624	79.44
238.858	77.44
239.091	77.44
239.325	82.44
239.559	85.44
239.793	83.44
240.027	88.44
240.26	83.44
240.494	96.44
240.728	81.44
240.961	78.44
241.195	84.44
241.429	87.44
241.662	62.44
241.896	90.44
242.13	79.44
242.363	86.44
242.597	84.44
242.83	73.44
243.064	68.44
243.298	89.44
243.531	88.44
243.765	77.44
243.998	88.44
244.232	84.44
244.465	87.44
244.699	82.44
244.932	77.44
245.166	76.44
245.399	86.44
245.633	94.44
245.866	79.44
246.099	87.44
246.333	87.44
246.566	80.44
246.8	85.44
247.033	82.44
247.266	76.44
247.5	73.44
247.733	89.44
247.966	83.44
248.2	87.44
248.433	80.44
248.666	90.44
248.899	90.44
249.133	76.44
249.366	90.44
249.599	80.44
249.832	83.44
250.066	77.44
250.299	84.44
250.532	72.44
250.765	85.44
250.998	86.44
251.231	88.44
251.465	89.44
251.698	75.44
251.931	89.44
252.164	90.44
252.397	82.44
252.63	83.44
252.863	86.44
253.096	86.44
253.329	74.44
253.562	89.44
253.795	93.44
254.028	97.44
254.261	99.44
254.494	86.44
254.727	87.44
254.96	85.44
255.193	88.44
255.426	79.44
255.659	100.44
255.892	93.44
256.124	96.44
256.357	83.44
256.59	96.44
256.823	89.44
257.056	102.44
257.289	76.44
257.521	96.44
257.754	81.44
257.987	89.44
258.22	95.44
258.452	89.44
258.685	85.44
258.918	79.44
259.151	87.44
259.383	94.44
259.616	88.44
259.849	92.44
260.081	93.44
260.314	86.44
260.547	91.44
260.779	95.44
261.012	88.44
261.244	89.44
261.477	89.44
261.71	88.44
261.942	98.44
262.175	90.44
262.407	104.44
262.64	85.44
262.872	88.44
263.105	91.44
263.337	93.44
263.57	71.44
263.802	95.44
264.035	99.44
264.267	91.44
264.499	82.44
264.732	91.44
264.964	90.44
265.197	90.44
265.429	91.44
265.661	81.44
265.894	77.44
266.126	92.44
266.358	102.44
266.591	91.44
266.823	85.44
267.055	88.44
267.287	105.44
267.52	108.44
267.752	97.44
267.984	99.44
268.216	77.44
268.448	89.44
268.681	84.44
268.913	103.44
269.145	91.44
269.377	95.44
269.609	79.44
269.841	99.44
270.073	96.44
270.306	104.44
270.538	105.44
270.77	77.44
271.002	96.44
271.234	96.44
271.466	115.44
271.698	94.44
271.93	98.44
272.162	92.44
272.394	109.44
272.626	97.44
272.858	98.44
273.09	84.44
273.322	84.44
273.553	90.44
273.785	99.44
274.017	85.44
274.249	87.44
274.481	91.44
274.713	102.44
274.945	97.44
275.176	100.44
275.408	101.44
275.64	104.44
275.872	100.44
276.104	97.44
276.335	98.44
276.567	103.44
276.799	86.44
277.031	94.44
277.262	104.44
277.494	91.44
277.726	87.44
277.957	102.44
278.189	85.44
278.421	90.44
278.652	89.44
278.884	89.44
279.115	84.44
279.347	83.44
279.579	85.44
279.81	103.44
280.042	96.44
280.273	105.44
280.505	86.44
280.736	102.44
280.968	100.44
281.199	100.44
281.431	107.44
281.662	103.44
281.894	92.44
282.125	91.44
282.356	103.44
282.588	106.44
282.819	104.44
283.051	102.44
283.282	96.44
283.513	94.44
283.745	100.44
283.976	91.44
284.207	85.44
284.439	88.44
284.67	102.44
284.901	107.44
285.132	101.44
285.364	99.44
285.595	85.44
285.826	107.44
286.057	89.44
286.288	102.44
286.52	108.44
286.751	99.44
286.982	101.44
287.213	84.44
287.444	101.44
287.675	95.44
287.906	101.44
288.138	101.44
288.369	99.44
288.6	96.44
288.831	96.44
289.062	106.44
289.293	101.44
289.524	102.44
289.755	102.44
289.986	107.44
290.217	112.44
290.448	91.44
290.679	89.44
290.91	93.44
291.141	97.44
291.371	95.44
291.602	92.44
291.833	101.44
292.064	115.44
292.295	111.44
292.526	90.44
292.757	97.44
292.987	100.44
293.218	91.44
293.449	111.44
293.68	100.44
293.91	91.44
294.141	97.44
294.372	94.44
294.603	89.44
294.833	88.44
295.064	107.44
295.295	103.44
295.525	101.44
295.756	103.44
295.987	90.44
296.217	105.44
296.448	95.44
296.679	111.44
296.909	110.44
297.14	102.44
297.37	106.44
297.601	103.44
297.831	103.44
298.062	87.44
298.292	99.44
298.523	114.44
298.753	88.44
298.984	104.44
299.214	101.44
299.445	101.44
299.675	100.44
299.905	103.44
300.136	87.44
300.366	105.44
300.597	117.44
300.827	96.44
301.057	83.44
301.288	113.44
301.518	107.44
301.748	115.44
301.979	105.44
302.209	103.44
302.439	105.44
302.669	106.44
302.9	97.44
303.13	111.44
303.36	119.44
303.59	110.44
303.82	104.44
304.051	105.44
304.281	95.44
304.511	111.44
304.741	111.44
304.971	96.44
305.201	115.44
305.431	95.44
305.661	97.44
305.891	108.44
306.121	99.44
306.352	97.44
306.582	103.44
306.812	95.44
307.042	117.44
307.272	106.44
307.502	110.44
307.731	87.44
307.961	111.44
308.191	97.44
308.421	99.44
308.651	108.44
308.881	117.44
309.111	104.44
309.341	88.44
309.571	95.44
309.8	113.44
310.03	115.44
310.26	106.44
310.49	109.44
310.72	96.44
310.949	113.44
311.179	108.44
311.409	92.44
311.639	115.44
311.868	112.44
312.098	113.44
312.328	104.44
312.557	121.44
312.787	120.44
313.017	107.44
313.246	109.44
313.476	103.44
313.706	109.44
313.935	101.44
314.165	108.44
314.394	113.44
314.624	101.44
314.853	105.44
315.083	112.44
315.312	105.44
315.542	108.44
315.771	91.44
316.001	97.44
316.23	101.44
316.46	124.44
316.689	101.44
316.919	115.44
317.148	109.44
317.377	111.44
317.607	96.44
317.836	106.44
318.065	93.44
318.295	92.44
318.524	100.44
318.753	114.44
318.983	110.44
319.212	103.44
319.441	97.44
319.67	102.44
319.9	109.44
320.129	91.44
320.358	106.44
320.587	96.44
320.816	101.44
321.046	113.44
321.275	103.44
321.504	99.44
321.733	122.44
321.962	92.44
322.191	119.44
322.42	107.44
322.649	105.44
322.878	112.44
323.108	111.44
323.337	115.44
323.566	108.44
323.795	111.44
324.024	101.44
324.253	122.44
324.482	135.44
324.71	171.44
324.939	180.44
325.168	169.44
325.397	123.44
325.626	111.44
325.855	105.44
326.084	99.44
326.313	115.44
326.542	124.44
326.77	124.44
326.999	123.44
327.228	118.44
327.457	138.44
327.686	168.44
327.914	125.44
328.143	125.44
328.372	122.44
328.6	103.44
328.829	109.44
329.058	114.44
329.287	109.44
329.515	98.44
329.744	125.44
329.972	113.44
330.201	125.44
330.43	108.44
330.658	117.44
330.887	123.44
331.115	111.44
331.344	109.44
331.572	104.44
331.801	123.44
332.03	118.44
332.258	98.44
332.486	93.44
332.715	111.44
332.943	118.44
333.172	109.44
333.4	109.44
333.629	125.44
333.857	114.44
334.085	109.44
334.314	121.44
334.542	116.44
334.771	134.44
334.999	122.44
335.227	122.44
335.455	120.44
335.684	119.44
335.912	93.44
336.14	102.44
336.369	116.44
336.597	116.44
336.825	117.44
337.053	109.44
337.281	112.44
337.51	105.44
337.738	118.44
337.966	112.44
338.194	108.44
338.422	119.44
338.65	90.44
338.878	103.44
339.106	99.44
339.334	114.44
339.562	106.44
339.79	117.44
340.018	95.44
340.246	85.44
340.474	120.44
340.702	106.44
340.93	105.44
341.158	100.44
341.386	103.44
341.614	115.44
341.842	99.44
342.07	108.44
342.298	107.44
342.526	118.44
342.754	114.44
342.981	114.44
343.209	107.44
343.437	100.44
343.665	117.44
343.893	116.44
344.12	120.44
344.348	97.44
344.576	109.44
344.804	103.44
345.031	135.44
345.259	117.44
345.487	115.44
345.714	96.44
345.942	115.44
346.17	108.44
346.397	112.44
346.625	104.44
346.853	102.44
347.08	108.44
347.308	100.44
347.535	90.44
347.763	118.44
347.99	111.44
348.218	117.44
348.445	103.44
348.673	107.44
348.9	117.44
349.128	117.44
349.355	110.44
349.583	99.44
349.81	117.44
350.037	101.44
350.265	95.44
350.492	105.44
350.72	106.44
350.947	106.44
351.174	91.44
351.402	122.44
351.629	112.44
351.856	109.44
352.083	116.44
352.311	114.44
352.538	115.44
352.765	105.44
352.992	121.44
353.22	117.44
353.447	95.44
353.674	120.44
353.901	102.44
354.128	107.44
354.355	102.44
354.583	107.44
354.81	113.44
355.037	119.44
355.264	101.44
355.491	121.44
355.718	101.44
355.945	123.44
356.172	107.44
356.399	103.44
356.626	107.44
356.853	108.44
357.08	101.44
357.307	111.44
357.534	102.44
357.761	105.44
357.988	103.44
358.215	104.44
358.441	107.44
358.668	92.44
358.895	111.44
359.122	99.44
359.349	112.44
359.576	116.44
359.802	108.44
360.029	118.44
360.256	118.44
360.483	109.44
360.709	121.44
360.936	117.44
361.163	100.44
361.39	102.44
361.616	114.44
361.843	101.44
362.07	91.44
362.296	95.44
362.523	118.44
362.749	125.44
362.976	114.44
363.203	117.44
363.429	93.44
363.656	101.44
363.882	111.44
364.109	99.44
364.335	127.44
364.562	120.44
364.788	106.44
365.015	104.44
365.241	104.44
365.468	119.44
365.694	93.44
365.92	95.44
366.147	102.44
366.373	92.44
366.599	99.44
366.826	100.44
367.052	108.44
367.278	104.44
367.505	117.44
367.731	109.44
367.957	111.44
368.184	99.44
368.41	115.44
368.636	98.44
368.862	113.44
369.089	105.44
369.315	106.44
369.541	107.44
369.767	121.44
369.993	122.44
370.219	107.44
370.445	117.44
370.672	113.44
370.898	123.44
371.124	100.44
371.35	109.44
371.576	117.44
371.802	109.44
372.028	111.44
372.254	101.44
372.48	112.44
372.706	121.44
372.932	99.44
373.158	113.44
373.384	120.44
373.61	116.44
373.835	110.44
374.061	100.44
374.287	95.44
374.513	116.44
374.739	113.44
374.965	118.44
375.191	118.44
375.416	100.44
375.642	99.44
375.868	120.44
376.094	93.44
376.319	116.44
376.545	123.44
376.771	98.44
376.997	96.44
377.222	104.44
377.448	100.44
377.674	115.44
377.899	115.44
378.125	102.44
378.35	117.44
378.576	106.44
378.802	105.44
379.027	98.44
379.253	121.44
379.478	111.44
379.704	114.44
379.929	109.44
380.155	107.44
380.38	106.44
380.606	121.44
380.831	131.44
381.057	128.44
381.282	108.44
381.507	108.44
381.733	125.44
381.958	115.44
382.184	112.44
382.409	113.44
382.634	106.44
382.86	102.44
383.085	114.44
383.31	137.44
383.535	104.44
383.761	113.44
383.986	113.44
384.211	107.44
384.436	112.44
384.662	101.44
384.887	105.44
385.112	116.44
385.337	134.44
385.562	108.44
385.787	126.44
386.013	120.44
386.238	123.44
386.463	116.44
386.688	126.44
386.913	109.44
387.138	116.44
387.363	125.44
387.588	118.44
387.813	117.44
388.038	119.44
388.263	115.44
388.488	125.44
388.713	118.44
388.938	114.44
389.163	130.44
389.387	123.44
389.612	112.44
389.837	121.44
390.062	135.44
390.287	116.44
390.512	111.44
390.736	115.44
390.961	104.44
391.186	119.44
391.411	111.44
391.636	123.44
391.86	127.44
392.085	124.44
392.31	127.44
392.534	127.44
392.759	112.44
392.984	127.44
393.208	108.44
393.433	127.44
393.658	121.44
393.882	122.44
394.107	108.44
394.331	118.44
394.556	101.44
394.78	111.44
395.005	106.44
395.229	119.44
395.454	116.44
395.678	116.44
395.903	121.44
396.127	126.44
396.352	115.44
396.576	105.44
396.801	125.44
397.025	131.44
397.249	123.44
397.474	131.44
397.698	124.44
397.922	109.44
398.147	125.44
398.371	115.44
398.595	116.44
398.82	122.44
399.044	121.44
399.268	127.44
399.492	134.44
399.717	178.44
399.941	150.44
400.165	151.44
400.389	144.44
400.613	121.44
400.837	117.44
401.062	131.44
401.286	124.44
401.51	128.44
401.734	113.44
401.958	128.44
402.182	119.44
402.406	124.44
402.63	133.44
402.854	126.44
403.078	118.44
403.302	124.44
403.526	136.44
403.75	123.44
403.974	129.44
404.198	142.44
404.422	133.44
404.645	137.44
404.869	134.44
405.093	141.44
405.317	122.44
405.541	139.44
405.765	125.44
405.988	136.44
406.212	139.44
406.436	134.44
406.66	135.44
406.883	133.44
407.107	131.44
407.331	129.44
407.555	147.44
407.778	134.44
408.002	142.44
408.226	132.44
408.449	144.44
408.673	133.44
408.896	131.44
409.12	130.44
409.344	145.44
409.567	135.44
409.791	141.44
410.014	148.44
410.238	115.44
410.461	123.44
410.685	131.44
410.908	122.44
411.132	129.44
411.355	141.44
411.578	128.44
411.802	132.44
412.025	130.44
412.249	137.44
412.472	139.44
412.695	141.44
412.919	143.44
413.142	123.44
413.365	127.44
413.589	130.44
413.812	114.44
414.035	146.44
414.258	146.44
414.482	122.44
414.705	108.44
414.928	119.44
415.151	125.44
415.374	128.44
415.597	121.44
415.821	124.44
416.044	111.44
416.267	123.44
416.49	132.44
416.713	138.44
416.936	125.44
417.159	110.44
417.382	128.44
417.605	139.44
417.828	129.44
418.051	140.44
418.274	136.44
418.497	117.44
418.72	124.44
418.943	129.44
419.166	138.44
419.389	146.44
419.611	140.44
419.834	130.44
420.057	139.44
420.28	136.44
420.503	124.44
420.726	124.44
420.948	124.44
421.171	131.44
421.394	119.44
421.617	136.44
421.839	128.44
422.062	111.44
422.285	122.44
422.507	127.44
422.73	125.44
422.953	121.44
423.175	123.44
423.398	137.44
423.621	150.44
423.843	128.44
424.066	121.44
424.288	125.44
424.511	134.44
424.733	141.44
424.956	149.44
425.178	131.44
425.401	131.44
425.623	145.44
425.846	129.44
426.068	129.44
426.291	132.44
426.513	127.44
426.735	134.44
426.958	124.44
427.18	137.44
427.402	136.44
427.625	148.44
427.847	137.44
428.069	130.44
428.292	131.44
428.514	135.44
428.736	135.44
428.958	123.44
429.181	122.44
429.403	113.44
429.625	115.44
429.847	115.44
430.069	130.44
430.292	130.44
430.514	124.44
430.736	117.44
430.958	123.44
431.18	104.44
431.402	106.44
431.624	115.44
431.846	127.44
432.068	135.44
432.29	126.44
432.512	123.44
432.734	125.44
432.956	138.44
433.178	119.44
433.4	123.44
433.622	124.44
433.844	123.44
434.066	134.44
434.287	128.44
434.509	121.44
434.731	123.44
434.953	135.44
435.175	113.44
435.397	127.44
435.618	113.44
435.84	132.44
436.062	135.44
436.284	123.44
436.505	137.44
436.727	129.44
436.949	130.44
437.17	121.44
437.392	139.44
437.614	125.44
437.835	124.44
438.057	128.44
438.278	126.44
438.5	141.44
438.721	134.44
438.943	135.44
439.165	122.44
439.386	127.44
439.608	123.44
439.829	137.44
440.05	130.44
440.272	124.44
440.493	119.44
440.715	135.44
440.936	136.44
441.158	129.44
441.379	117.44
441.6	120.44
441.822	123.44
442.043	129.44
442.264	122.44
442.486	131.44
442.707	132.44
442.928	136.44
443.149	130.44
443.371	119.44
443.592	127.44
443.813	129.44
444.034	139.44
444.255	131.44
444.476	137.44
444.698	125.44
444.919	131.44
445.14	257.44
445.361	204.44
445.582	129.44
445.803	131.44
446.024	149.44
446.245	134.44
446.466	125.44
446.687	127.44
446.908	127.44
447.129	126.44
447.35	157.44
447.571	129.44
447.792	115.44
448.013	126.44
448.234	129.44
448.455	115.44
448.675	119.44
448.896	120.44
449.117	129.44
449.338	138.44
449.559	143.44
449.779	137.44
450	124.44
450.221	109.44
450.442	122.44
450.662	113.44
450.883	125.44
451.104	140.44
451.324	120.44
451.545	121.44
451.766	127.44
451.986	121.44
452.207	122.44
452.428	123.44
452.648	126.44
452.869	117.44
453.089	124.44
453.31	116.44
453.53	105.44
453.751	117.44
453.971	113.44
454.192	114.44
454.412	122.44
454.633	111.44
454.853	116.44
455.073	112.44
455.294	108.44
455.514	123.44
455.734	123.44
455.955	111.44
456.175	118.44
456.395	122.44
456.616	109.44
456.836	122.44
457.056	103.44
457.276	106.44
457.497	113.44
457.717	104.44
457.937	119.44
458.157	120.44
458.377	102.44
458.598	109.44
458.818	122.44
459.038	116.44
459.258	112.44
459.478	131.44
459.698	140.44
459.918	128.44
460.138	122.44
460.358	127.44
460.578	129.44
460.798	121.44
461.018	125.44
461.238	121.44
461.458	116.44
461.678	116.44
461.898	126.44
462.118	132.44
462.338	132.44
462.558	143.44
462.777	145.44
462.997	146.44
463.217	139.44
463.437	131.44
463.657	141.44
463.876	149.44
464.096	132.44
464.316	139.44
464.536	122.44
464.755	128.44
464.975	131.44
465.195	142.44
465.414	124.44
465.634	131.44
465.854	131.44
466.073	128.44
466.293	132.44
466.512	111.44
466.732	123.44
466.951	117.44
467.171	122.44
467.391	120.44
467.61	116.44
467.829	115.44
468.049	133.44
468.268	128.44
468.488	112.44
468.707	123.44
468.927	124.44
469.146	112.44
469.365	107.44
469.585	114.44
469.804	135.44
470.023	133.44
470.243	117.44
470.462	130.44
470.681	127.44
470.901	117.44
471.12	122.44
471.339	121.44
471.558	127.44
471.777	119.44
471.997	113.44
472.216	113.44
472.435	120.44
472.654	116.44
472.873	113.44
473.092	119.44
473.311	101.44
473.53	117.44
473.749	119.44
473.968	117.44
474.187	127.44
474.406	131.44
474.625	120.44
474.844	123.44
475.063	133.44
475.282	114.44
475.501	127.44
475.72	130.44
475.939	122.44
476.158	100.44
476.377	115.44
476.596	106.44
476.814	124.44
477.033	133.44
477.252	136.44
477.471	125.44
477.69	127.44
477.908	135.44
478.127	139.44
478.346	125.44
478.564	120.44
478.783	138.44
479.002	144.44
479.22	126.44
479.439	131.44
479.658	122.44
479.876	119.44
480.095	131.44
480.313	142.44
480.532	121.44
480.751	138.44
480.969	129.44
481.188	126.44
481.406	137.44
481.624	106.44
481.843	123.44
482.061	121.44
482.28	127.44
482.498	120.44
482.717	113.44
482.935	128.44
483.153	124.44
483.372	124.44
483.59	121.44
483.808	127.44
484.027	120.44
484.245	118.44
484.463	135.44
484.681	128.44
484.9	121.44
485.118	133.44
485.336	122.44
485.554	127.44
485.772	125.44
485.99	125.44
486.209	140.44
486.427	118.44
486.645	135.44
486.863	129.44
487.081	129.44
487.299	138.44
487.517	123.44
487.735	127.44
487.953	136.44
488.171	123.44
488.389	127.44
488.607	145.44
488.825	127.44
489.043	121.44
489.261	109.44
489.479	148.44
489.696	141.44
489.914	143.44
490.132	127.44
490.35	136.44
490.568	135.44
490.786	145.44
491.003	118.44
491.221	137.44
491.439	143.44
491.657	142.44
491.874	142.44
492.092	149.44
492.31	139.44
492.527	135.44
492.745	142.44
492.963	137.44
493.18	154.44
493.398	145.44
493.615	147.44
493.833	157.44
494.05	152.44
494.268	145.44
494.485	136.44
494.703	148.44
494.92	145.44
495.138	136.44
495.355	153.44
495.573	141.44
495.79	145.44
496.008	136.44
496.225	138.44
496.442	122.44
496.66	124.44
496.877	133.44
497.094	170.44
497.312	147.44
497.529	145.44
497.746	138.44
497.963	139.44
498.181	152.44
498.398	136.44
498.615	156.44
498.832	167.44
499.049	160.44
499.267	168.44
499.484	168.44
499.701	183.44
499.918	180.44
500.135	198.44
500.352	211.44
500.569	209.44
500.786	219.44
501.003	196.44
501.22	180.44
501.437	180.44
501.654	171.44
501.871	163.44
502.088	166.44
502.305	147.44
502.522	137.44
502.739	164.44
502.956	158.44
503.172	139.44
503.389	141.44
503.606	145.44
503.823	137.44
504.04	148.44
504.256	138.44
504.473	130.44
504.69	144.44
504.907	151.44
505.123	137.44
505.34	153.44
505.557	141.44
505.773	150.44
505.99	119.44
