Data from 1968.PennyLincolnUp.Lamp.En5.5.200Scan.071719.P1._HRD10591_14-52-20-971.txt Node
Date: Thu Jul 18 14:52:20 EDT 2019
User: cochatt
Spectrometer: HR+D1059
Trigger mode: 1
Integration Time (sec): 1.000000E-1
Scans to average: 1
Electric dark correction enabled: true
Nonlinearity correction enabled: false
Boxcar width: 0
XAxis mode: Wavelengths
Number of Pixels in Spectrum: 2048
>>>>>Begin Spectral Data<<<<<
223.165	-24.5
223.4	-24.5
223.635	-24.5
223.869	-31.5
224.104	-14.5
224.338	-18.5
224.573	-8.5
224.808	-7.5
225.042	-14.5
225.277	-10.5
225.511	-6.5
225.746	6.5
225.98	19.5
226.215	-2.5
226.449	26.5
226.683	16.5
226.918	35.5
227.152	34.5
227.387	16.5
227.621	35.5
227.856	49.5
228.09	33.5
228.324	59.5
228.559	53.5
228.793	52.5
229.027	67.5
229.262	64.5
229.496	60.5
229.73	65.5
229.964	73.5
230.199	56.5
230.433	77.5
230.667	94.5
230.901	77.5
231.136	76.5
231.37	77.5
231.604	67.5
231.838	93.5
232.072	74.5
232.306	83.5
232.541	91.5
232.775	84.5
233.009	79.5
233.243	78.5
233.477	91.5
233.711	88.5
233.945	87.5
234.179	83.5
234.413	81.5
234.647	85.5
234.881	80.5
235.115	77.5
235.349	84.5
235.583	74.5
235.817	89.5
236.051	100.5
236.285	92.5
236.519	87.5
236.753	79.5
236.987	71.5
237.221	87.5
237.455	84.5
237.689	97.5
237.922	98.5
238.156	88.5
238.39	67.5
238.624	82.5
238.858	77.5
239.091	88.5
239.325	84.5
239.559	86.5
239.793	83.5
240.027	85.5
240.26	69.5
240.494	95.5
240.728	87.5
240.961	73.5
241.195	83.5
241.429	74.5
241.662	90.5
241.896	73.5
242.13	86.5
242.363	87.5
242.597	91.5
242.83	89.5
243.064	84.5
243.298	86.5
243.531	85.5
243.765	63.5
243.998	88.5
244.232	93.5
244.465	82.5
244.699	86.5
244.932	73.5
245.166	94.5
245.399	84.5
245.633	76.5
245.866	76.5
246.099	89.5
246.333	79.5
246.566	68.5
246.8	84.5
247.033	87.5
247.266	89.5
247.5	85.5
247.733	81.5
247.966	88.5
248.2	78.5
248.433	88.5
248.666	88.5
248.899	92.5
249.133	104.5
249.366	90.5
249.599	90.5
249.832	79.5
250.066	84.5
250.299	77.5
250.532	84.5
250.765	93.5
250.998	87.5
251.231	90.5
251.465	87.5
251.698	76.5
251.931	98.5
252.164	74.5
252.397	101.5
252.63	91.5
252.863	90.5
253.096	89.5
253.329	86.5
253.562	100.5
253.795	101.5
254.028	102.5
254.261	89.5
254.494	88.5
254.727	102.5
254.96	91.5
255.193	98.5
255.426	86.5
255.659	78.5
255.892	85.5
256.124	90.5
256.357	99.5
256.59	95.5
256.823	77.5
257.056	88.5
257.289	94.5
257.521	86.5
257.754	97.5
257.987	97.5
258.22	80.5
258.452	83.5
258.685	88.5
258.918	85.5
259.151	87.5
259.383	109.5
259.616	94.5
259.849	101.5
260.081	110.5
260.314	95.5
260.547	91.5
260.779	94.5
261.012	88.5
261.244	93.5
261.477	79.5
261.71	102.5
261.942	90.5
262.175	95.5
262.407	86.5
262.64	91.5
262.872	99.5
263.105	85.5
263.337	84.5
263.57	90.5
263.802	87.5
264.035	87.5
264.267	90.5
264.499	101.5
264.732	95.5
264.964	89.5
265.197	91.5
265.429	74.5
265.661	93.5
265.894	110.5
266.126	93.5
266.358	82.5
266.591	91.5
266.823	98.5
267.055	85.5
267.287	94.5
267.52	88.5
267.752	99.5
267.984	97.5
268.216	90.5
268.448	98.5
268.681	79.5
268.913	95.5
269.145	107.5
269.377	89.5
269.609	96.5
269.841	88.5
270.073	93.5
270.306	82.5
270.538	83.5
270.77	100.5
271.002	110.5
271.234	95.5
271.466	93.5
271.698	97.5
271.93	90.5
272.162	103.5
272.394	83.5
272.626	105.5
272.858	89.5
273.09	110.5
273.322	106.5
273.553	98.5
273.785	97.5
274.017	83.5
274.249	93.5
274.481	92.5
274.713	97.5
274.945	98.5
275.176	95.5
275.408	95.5
275.64	94.5
275.872	82.5
276.104	105.5
276.335	101.5
276.567	100.5
276.799	91.5
277.031	90.5
277.262	109.5
277.494	106.5
277.726	106.5
277.957	83.5
278.189	87.5
278.421	91.5
278.652	95.5
278.884	91.5
279.115	84.5
279.347	89.5
279.579	87.5
279.81	91.5
280.042	90.5
280.273	97.5
280.505	100.5
280.736	94.5
280.968	94.5
281.199	96.5
281.431	94.5
281.662	94.5
281.894	82.5
282.125	107.5
282.356	76.5
282.588	107.5
282.819	103.5
283.051	94.5
283.282	91.5
283.513	84.5
283.745	88.5
283.976	99.5
284.207	96.5
284.439	90.5
284.67	90.5
284.901	111.5
285.132	103.5
285.364	121.5
285.595	88.5
285.826	102.5
286.057	107.5
286.288	110.5
286.52	93.5
286.751	102.5
286.982	97.5
287.213	113.5
287.444	93.5
287.675	87.5
287.906	103.5
288.138	101.5
288.369	110.5
288.6	84.5
288.831	87.5
289.062	91.5
289.293	98.5
289.524	93.5
289.755	94.5
289.986	109.5
290.217	107.5
290.448	90.5
290.679	97.5
290.91	110.5
291.141	98.5
291.371	104.5
291.602	94.5
291.833	100.5
292.064	108.5
292.295	98.5
292.526	105.5
292.757	110.5
292.987	101.5
293.218	102.5
293.449	114.5
293.68	110.5
293.91	101.5
294.141	88.5
294.372	86.5
294.603	96.5
294.833	104.5
295.064	113.5
295.295	106.5
295.525	108.5
295.756	122.5
295.987	96.5
296.217	100.5
296.448	105.5
296.679	104.5
296.909	100.5
297.14	105.5
297.37	93.5
297.601	105.5
297.831	110.5
298.062	114.5
298.292	90.5
298.523	103.5
298.753	104.5
298.984	91.5
299.214	109.5
299.445	104.5
299.675	110.5
299.905	107.5
300.136	106.5
300.366	110.5
300.597	113.5
300.827	94.5
301.057	107.5
301.288	108.5
301.518	105.5
301.748	92.5
301.979	104.5
302.209	87.5
302.439	100.5
302.669	111.5
302.9	119.5
303.13	111.5
303.36	98.5
303.59	100.5
303.82	95.5
304.051	108.5
304.281	106.5
304.511	117.5
304.741	99.5
304.971	99.5
305.201	118.5
305.431	113.5
305.661	101.5
305.891	98.5
306.121	108.5
306.352	106.5
306.582	91.5
306.812	108.5
307.042	115.5
307.272	105.5
307.502	103.5
307.731	106.5
307.961	117.5
308.191	99.5
308.421	111.5
308.651	90.5
308.881	95.5
309.111	108.5
309.341	105.5
309.571	103.5
309.8	108.5
310.03	104.5
310.26	108.5
310.49	99.5
310.72	101.5
310.949	103.5
311.179	94.5
311.409	119.5
311.639	99.5
311.868	112.5
312.098	120.5
312.328	99.5
312.557	108.5
312.787	83.5
313.017	88.5
313.246	109.5
313.476	113.5
313.706	95.5
313.935	104.5
314.165	95.5
314.394	95.5
314.624	107.5
314.853	106.5
315.083	103.5
315.312	119.5
315.542	107.5
315.771	98.5
316.001	109.5
316.23	111.5
316.46	103.5
316.689	116.5
316.919	101.5
317.148	109.5
317.377	96.5
317.607	108.5
317.836	124.5
318.065	107.5
318.295	112.5
318.524	109.5
318.753	116.5
318.983	124.5
319.212	98.5
319.441	95.5
319.67	108.5
319.9	111.5
320.129	105.5
320.358	109.5
320.587	100.5
320.816	101.5
321.046	114.5
321.275	101.5
321.504	119.5
321.733	100.5
321.962	93.5
322.191	113.5
322.42	106.5
322.649	113.5
322.878	117.5
323.108	103.5
323.337	120.5
323.566	104.5
323.795	109.5
324.024	100.5
324.253	123.5
324.482	131.5
324.71	154.5
324.939	173.5
325.168	165.5
325.397	129.5
325.626	115.5
325.855	117.5
326.084	115.5
326.313	119.5
326.542	111.5
326.77	104.5
326.999	119.5
327.228	129.5
327.457	143.5
327.686	159.5
327.914	140.5
328.143	123.5
328.372	113.5
328.6	109.5
328.829	115.5
329.058	118.5
329.287	110.5
329.515	99.5
329.744	105.5
329.972	115.5
330.201	107.5
330.43	105.5
330.658	116.5
330.887	108.5
331.115	106.5
331.344	109.5
331.572	119.5
331.801	125.5
332.03	116.5
332.258	119.5
332.486	115.5
332.715	122.5
332.943	115.5
333.172	101.5
333.4	111.5
333.629	125.5
333.857	129.5
334.085	128.5
334.314	123.5
334.542	117.5
334.771	121.5
334.999	112.5
335.227	108.5
335.455	124.5
335.684	115.5
335.912	117.5
336.14	126.5
336.369	113.5
336.597	86.5
336.825	123.5
337.053	117.5
337.281	110.5
337.51	123.5
337.738	97.5
337.966	119.5
338.194	111.5
338.422	101.5
338.65	107.5
338.878	108.5
339.106	107.5
339.334	111.5
339.562	103.5
339.79	104.5
340.018	106.5
340.246	118.5
340.474	109.5
340.702	125.5
340.93	98.5
341.158	111.5
341.386	111.5
341.614	111.5
341.842	123.5
342.07	106.5
342.298	106.5
342.526	111.5
342.754	98.5
342.981	101.5
343.209	116.5
343.437	118.5
343.665	105.5
343.893	125.5
344.12	109.5
344.348	121.5
344.576	115.5
344.804	115.5
345.031	111.5
345.259	102.5
345.487	117.5
345.714	102.5
345.942	101.5
346.17	107.5
346.397	103.5
346.625	117.5
346.853	87.5
347.08	115.5
347.308	110.5
347.535	107.5
347.763	121.5
347.99	100.5
348.218	110.5
348.445	122.5
348.673	102.5
348.9	111.5
349.128	100.5
349.355	110.5
349.583	110.5
349.81	111.5
350.037	109.5
350.265	119.5
350.492	101.5
350.72	104.5
350.947	103.5
351.174	116.5
351.402	112.5
351.629	105.5
351.856	119.5
352.083	117.5
352.311	122.5
352.538	115.5
352.765	107.5
352.992	111.5
353.22	120.5
353.447	108.5
353.674	98.5
353.901	96.5
354.128	102.5
354.355	115.5
354.583	114.5
354.81	111.5
355.037	103.5
355.264	104.5
355.491	104.5
355.718	114.5
355.945	105.5
356.172	115.5
356.399	114.5
356.626	101.5
356.853	96.5
357.08	114.5
357.307	108.5
357.534	107.5
357.761	119.5
357.988	115.5
358.215	108.5
358.441	110.5
358.668	99.5
358.895	109.5
359.122	117.5
359.349	115.5
359.576	123.5
359.802	119.5
360.029	115.5
360.256	109.5
360.483	105.5
360.709	117.5
360.936	115.5
361.163	106.5
361.39	116.5
361.616	117.5
361.843	125.5
362.07	117.5
362.296	119.5
362.523	99.5
362.749	102.5
362.976	110.5
363.203	114.5
363.429	113.5
363.656	117.5
363.882	108.5
364.109	119.5
364.335	124.5
364.562	121.5
364.788	113.5
365.015	109.5
365.241	107.5
365.468	105.5
365.694	117.5
365.92	99.5
366.147	109.5
366.373	113.5
366.599	95.5
366.826	107.5
367.052	113.5
367.278	98.5
367.505	97.5
367.731	110.5
367.957	114.5
368.184	103.5
368.41	101.5
368.636	115.5
368.862	108.5
369.089	115.5
369.315	110.5
369.541	117.5
369.767	96.5
369.993	98.5
370.219	101.5
370.445	105.5
370.672	113.5
370.898	100.5
371.124	107.5
371.35	111.5
371.576	117.5
371.802	89.5
372.028	121.5
372.254	115.5
372.48	110.5
372.706	125.5
372.932	103.5
373.158	115.5
373.384	125.5
373.61	109.5
373.835	114.5
374.061	110.5
374.287	114.5
374.513	104.5
374.739	106.5
374.965	115.5
375.191	113.5
375.416	122.5
375.642	118.5
375.868	117.5
376.094	123.5
376.319	108.5
376.545	109.5
376.771	94.5
376.997	118.5
377.222	115.5
377.448	119.5
377.674	119.5
377.899	108.5
378.125	107.5
378.35	94.5
378.576	114.5
378.802	115.5
379.027	117.5
379.253	103.5
379.478	109.5
379.704	110.5
379.929	106.5
380.155	94.5
380.38	103.5
380.606	91.5
380.831	110.5
381.057	111.5
381.282	127.5
381.507	130.5
381.733	108.5
381.958	109.5
382.184	110.5
382.409	110.5
382.634	103.5
382.86	105.5
383.085	118.5
383.31	122.5
383.535	119.5
383.761	118.5
383.986	121.5
384.211	108.5
384.436	121.5
384.662	121.5
384.887	128.5
385.112	111.5
385.337	106.5
385.562	117.5
385.787	106.5
386.013	105.5
386.238	117.5
386.463	114.5
386.688	111.5
386.913	125.5
387.138	117.5
387.363	114.5
387.588	119.5
387.813	117.5
388.038	109.5
388.263	111.5
388.488	121.5
388.713	113.5
388.938	110.5
389.163	113.5
389.387	109.5
389.612	114.5
389.837	114.5
390.062	116.5
390.287	126.5
390.512	108.5
390.736	113.5
390.961	113.5
391.186	122.5
391.411	103.5
391.636	121.5
391.86	139.5
392.085	117.5
392.31	128.5
392.534	123.5
392.759	123.5
392.984	122.5
393.208	120.5
393.433	108.5
393.658	110.5
393.882	119.5
394.107	116.5
394.331	128.5
394.556	112.5
394.78	105.5
395.005	116.5
395.229	129.5
395.454	125.5
395.678	135.5
395.903	113.5
396.127	117.5
396.352	129.5
396.576	106.5
396.801	108.5
397.025	113.5
397.249	123.5
397.474	113.5
397.698	109.5
397.922	102.5
398.147	134.5
398.371	130.5
398.595	119.5
398.82	124.5
399.044	126.5
399.268	135.5
399.492	135.5
399.717	131.5
399.941	139.5
400.165	136.5
400.389	127.5
400.613	125.5
400.837	131.5
401.062	125.5
401.286	120.5
401.51	130.5
401.734	121.5
401.958	141.5
402.182	118.5
402.406	123.5
402.63	123.5
402.854	124.5
403.078	122.5
403.302	130.5
403.526	125.5
403.75	127.5
403.974	140.5
404.198	124.5
404.422	134.5
404.645	142.5
404.869	115.5
405.093	120.5
405.317	137.5
405.541	129.5
405.765	125.5
405.988	140.5
406.212	128.5
406.436	141.5
406.66	129.5
406.883	127.5
407.107	129.5
407.331	130.5
407.555	137.5
407.778	142.5
408.002	129.5
408.226	144.5
408.449	133.5
408.673	130.5
408.896	119.5
409.12	130.5
409.344	151.5
409.567	131.5
409.791	136.5
410.014	115.5
410.238	127.5
410.461	127.5
410.685	132.5
410.908	121.5
411.132	139.5
411.355	133.5
411.578	131.5
411.802	139.5
412.025	134.5
412.249	129.5
412.472	132.5
412.695	132.5
412.919	131.5
413.142	123.5
413.365	124.5
413.589	136.5
413.812	122.5
414.035	122.5
414.258	119.5
414.482	116.5
414.705	120.5
414.928	115.5
415.151	125.5
415.374	121.5
415.597	127.5
415.821	123.5
416.044	118.5
416.267	124.5
416.49	122.5
416.713	124.5
416.936	136.5
417.159	121.5
417.382	123.5
417.605	130.5
417.828	118.5
418.051	113.5
418.274	119.5
418.497	123.5
418.72	137.5
418.943	134.5
419.166	135.5
419.389	138.5
419.611	129.5
419.834	137.5
420.057	135.5
420.28	136.5
420.503	113.5
420.726	120.5
420.948	129.5
421.171	150.5
421.394	129.5
421.617	138.5
421.839	125.5
422.062	125.5
422.285	116.5
422.507	138.5
422.73	132.5
422.953	131.5
423.175	119.5
423.398	117.5
423.621	142.5
423.843	131.5
424.066	133.5
424.288	141.5
424.511	140.5
424.733	130.5
424.956	141.5
425.178	129.5
425.401	142.5
425.623	120.5
425.846	123.5
426.068	115.5
426.291	131.5
426.513	137.5
426.735	135.5
426.958	122.5
427.18	127.5
427.402	140.5
427.625	139.5
427.847	137.5
428.069	126.5
428.292	125.5
428.514	117.5
428.736	137.5
428.958	124.5
429.181	124.5
429.403	108.5
429.625	127.5
429.847	114.5
430.069	121.5
430.292	114.5
430.514	129.5
430.736	107.5
430.958	119.5
431.18	124.5
431.402	121.5
431.624	125.5
431.846	126.5
432.068	124.5
432.29	126.5
432.512	137.5
432.734	125.5
432.956	139.5
433.178	127.5
433.4	123.5
433.622	113.5
433.844	110.5
434.066	131.5
434.287	121.5
434.509	129.5
434.731	134.5
434.953	144.5
435.175	135.5
435.397	114.5
435.618	127.5
435.84	129.5
436.062	131.5
436.284	145.5
436.505	131.5
436.727	131.5
436.949	132.5
437.17	134.5
437.392	131.5
437.614	114.5
437.835	120.5
438.057	128.5
438.278	127.5
438.5	155.5
438.721	154.5
438.943	143.5
439.165	126.5
439.386	110.5
439.608	121.5
439.829	136.5
440.05	126.5
440.272	123.5
440.493	121.5
440.715	136.5
440.936	140.5
441.158	130.5
441.379	135.5
441.6	140.5
441.822	138.5
442.043	118.5
442.264	137.5
442.486	123.5
442.707	122.5
442.928	129.5
443.149	126.5
443.371	143.5
443.592	136.5
443.813	144.5
444.034	149.5
444.255	146.5
444.476	137.5
444.698	133.5
444.919	138.5
445.14	206.5
445.361	179.5
445.582	141.5
445.803	144.5
446.024	116.5
446.245	141.5
446.466	126.5
446.687	102.5
446.908	117.5
447.129	119.5
447.35	132.5
447.571	137.5
447.792	125.5
448.013	125.5
448.234	116.5
448.455	113.5
448.675	133.5
448.896	139.5
449.117	124.5
449.338	134.5
449.559	133.5
449.779	132.5
450	130.5
450.221	130.5
450.442	122.5
450.662	118.5
450.883	119.5
451.104	122.5
451.324	125.5
451.545	115.5
451.766	117.5
451.986	126.5
452.207	114.5
452.428	120.5
452.648	112.5
452.869	104.5
453.089	102.5
453.31	104.5
453.53	113.5
453.751	133.5
453.971	117.5
454.192	111.5
454.412	132.5
454.633	108.5
454.853	111.5
455.073	107.5
455.294	130.5
455.514	120.5
455.734	121.5
455.955	123.5
456.175	112.5
456.395	117.5
456.616	114.5
456.836	118.5
457.056	119.5
457.276	111.5
457.497	125.5
457.717	114.5
457.937	104.5
458.157	118.5
458.377	118.5
458.598	131.5
458.818	118.5
459.038	122.5
459.258	134.5
459.478	119.5
459.698	123.5
459.918	123.5
460.138	119.5
460.358	134.5
460.578	127.5
460.798	140.5
461.018	128.5
461.238	124.5
461.458	116.5
461.678	129.5
461.898	120.5
462.118	131.5
462.338	127.5
462.558	126.5
462.777	143.5
462.997	132.5
463.217	137.5
463.437	147.5
463.657	133.5
463.876	127.5
464.096	123.5
464.316	135.5
464.536	125.5
464.755	135.5
464.975	119.5
465.195	114.5
465.414	95.5
465.634	133.5
465.854	127.5
466.073	119.5
466.293	127.5
466.512	132.5
466.732	132.5
466.951	135.5
467.171	130.5
467.391	106.5
467.61	118.5
467.829	102.5
468.049	135.5
468.268	120.5
468.488	120.5
468.707	126.5
468.927	127.5
469.146	106.5
469.365	115.5
469.585	105.5
469.804	115.5
470.023	120.5
470.243	124.5
470.462	126.5
470.681	132.5
470.901	133.5
471.12	123.5
471.339	125.5
471.558	131.5
471.777	144.5
471.997	118.5
472.216	125.5
472.435	106.5
472.654	123.5
472.873	117.5
473.092	141.5
473.311	125.5
473.53	105.5
473.749	117.5
473.968	136.5
474.187	129.5
474.406	129.5
474.625	108.5
474.844	109.5
475.063	107.5
475.282	122.5
475.501	113.5
475.72	135.5
475.939	101.5
476.158	121.5
476.377	127.5
476.596	121.5
476.814	119.5
477.033	119.5
477.252	132.5
477.471	122.5
477.69	131.5
477.908	131.5
478.127	151.5
478.346	135.5
478.564	136.5
478.783	137.5
479.002	127.5
479.22	126.5
479.439	127.5
479.658	135.5
479.876	149.5
480.095	141.5
480.313	135.5
480.532	126.5
480.751	126.5
480.969	140.5
481.188	136.5
481.406	142.5
481.624	129.5
481.843	133.5
482.061	125.5
482.28	123.5
482.498	135.5
482.717	125.5
482.935	140.5
483.153	135.5
483.372	144.5
483.59	146.5
483.808	137.5
484.027	127.5
484.245	137.5
484.463	129.5
484.681	140.5
484.9	126.5
485.118	136.5
485.336	137.5
485.554	132.5
485.772	134.5
485.99	138.5
486.209	130.5
486.427	131.5
486.645	118.5
486.863	141.5
487.081	141.5
487.299	133.5
487.517	132.5
487.735	129.5
487.953	134.5
488.171	136.5
488.389	134.5
488.607	130.5
488.825	150.5
489.043	130.5
489.261	145.5
489.479	134.5
489.696	151.5
489.914	124.5
490.132	139.5
490.35	139.5
490.568	124.5
490.786	138.5
491.003	144.5
491.221	128.5
491.439	147.5
491.657	141.5
491.874	143.5
492.092	139.5
492.31	147.5
492.527	148.5
492.745	123.5
492.963	140.5
493.18	140.5
493.398	146.5
493.615	143.5
493.833	147.5
494.05	165.5
494.268	131.5
494.485	138.5
494.703	150.5
494.92	143.5
495.138	142.5
495.355	135.5
495.573	132.5
495.79	132.5
496.008	142.5
496.225	133.5
496.442	140.5
496.66	151.5
496.877	138.5
497.094	155.5
497.312	139.5
497.529	147.5
497.746	160.5
497.963	150.5
498.181	140.5
498.398	155.5
498.615	153.5
498.832	151.5
499.049	158.5
499.267	160.5
499.484	172.5
499.701	169.5
499.918	192.5
500.135	181.5
500.352	211.5
500.569	195.5
500.786	213.5
501.003	190.5
501.22	170.5
501.437	180.5
501.654	171.5
501.871	179.5
502.088	166.5
502.305	155.5
502.522	168.5
502.739	167.5
502.956	157.5
503.172	142.5
503.389	133.5
503.606	133.5
503.823	151.5
504.04	144.5
504.256	138.5
504.473	140.5
504.69	144.5
504.907	146.5
505.123	134.5
505.34	139.5
505.557	134.5
505.773	132.5
505.99	140.5
506.207	131.5
506.423	137.5
506.64	131.5
506.856	125.5
507.073	133.5
507.289	135.5
507.506	137.5
507.722	136.5
507.939	141.5
508.155	133.5
508.372	132.5
508.588	134.5
508.805	133.5
509.021	122.5
509.238	133.5
509.454	131.5
509.67	120.5
509.887	125.5
510.103	118.5
510.319	135.5
510.536	139.5
510.752	174.5
510.968	143.5
511.184	117.5
511.401	129.5
511.617	124.5
511.833	117.5
512.049	136.5
512.265	128.5
512.481	128.5
512.698	132.5
512.914	132.5
513.13	142.5
513.346	119.5
513.562	115.5
513.778	127.5
513.994	133.5
514.21	97.5
514.426	108.5
514.642	139.5
514.858	109.5
515.074	133.5
515.29	143.5
515.506	159.5
515.721	153.5
515.937	124.5
516.153	121.5
516.369	127.5
516.585	127.5
516.801	134.5
517.016	143.5
517.232	128.5
517.448	141.5
517.664	135.5
517.879	128.5
518.095	143.5
518.311	130.5
518.527	125.5
518.742	126.5
518.958	123.5
519.173	139.5
519.389	134.5
519.605	138.5
519.82	125.5
520.036	135.5
520.251	137.5
520.467	125.5
520.682	130.5
520.898	133.5
521.113	124.5
521.329	124.5
521.544	132.5
521.76	151.5
521.975	202.5
522.19	188.5
522.406	132.5
522.621	115.5
522.836	116.5
523.052	118.5
523.267	125.5
523.482	119.5
523.698	118.5
523.913	112.5
