Data from 1968.PennyLincolnUp.Lamp.En5.5.200Scan.071719.P1._HRD10591_14-50-53-969.txt Node
Date: Thu Jul 18 14:50:53 EDT 2019
User: cochatt
Spectrometer: HR+D1059
Trigger mode: 1
Integration Time (sec): 1.000000E-1
Scans to average: 1
Electric dark correction enabled: true
Nonlinearity correction enabled: false
Boxcar width: 0
XAxis mode: Wavelengths
Number of Pixels in Spectrum: 2048
>>>>>Begin Spectral Data<<<<<
223.165	-25.5
223.4	-25.5
223.635	-25.5
223.869	-24.5
224.104	-17.5
224.338	-12.5
224.573	1.5
224.808	-5.5
225.042	-4.5
225.277	-3.5
225.511	-5.5
225.746	-2.5
225.98	10.5
226.215	8.5
226.449	10.5
226.683	24.5
226.918	22.5
227.152	23.5
227.387	32.5
227.621	33.5
227.856	46.5
228.09	56.5
228.324	39.5
228.559	64.5
228.793	63.5
229.027	56.5
229.262	79.5
229.496	78.5
229.73	76.5
229.964	84.5
230.199	85.5
230.433	74.5
230.667	79.5
230.901	82.5
231.136	78.5
231.37	73.5
231.604	62.5
231.838	84.5
232.072	67.5
232.306	76.5
232.541	75.5
232.775	89.5
233.009	78.5
233.243	85.5
233.477	102.5
233.711	100.5
233.945	72.5
234.179	79.5
234.413	73.5
234.647	90.5
234.881	88.5
235.115	92.5
235.349	69.5
235.583	92.5
235.817	73.5
236.051	94.5
236.285	77.5
236.519	88.5
236.753	92.5
236.987	75.5
237.221	77.5
237.455	85.5
237.689	105.5
237.922	91.5
238.156	72.5
238.39	79.5
238.624	84.5
238.858	87.5
239.091	76.5
239.325	80.5
239.559	70.5
239.793	74.5
240.027	74.5
240.26	88.5
240.494	86.5
240.728	79.5
240.961	90.5
241.195	75.5
241.429	77.5
241.662	74.5
241.896	78.5
242.13	74.5
242.363	76.5
242.597	78.5
242.83	84.5
243.064	98.5
243.298	81.5
243.531	78.5
243.765	89.5
243.998	101.5
244.232	80.5
244.465	89.5
244.699	82.5
244.932	83.5
245.166	83.5
245.399	81.5
245.633	89.5
245.866	87.5
246.099	95.5
246.333	82.5
246.566	81.5
246.8	83.5
247.033	79.5
247.266	79.5
247.5	88.5
247.733	92.5
247.966	103.5
248.2	98.5
248.433	77.5
248.666	85.5
248.899	69.5
249.133	89.5
249.366	99.5
249.599	95.5
249.832	73.5
250.066	83.5
250.299	84.5
250.532	93.5
250.765	81.5
250.998	90.5
251.231	96.5
251.465	81.5
251.698	85.5
251.931	98.5
252.164	96.5
252.397	91.5
252.63	87.5
252.863	85.5
253.096	83.5
253.329	93.5
253.562	98.5
253.795	90.5
254.028	93.5
254.261	98.5
254.494	92.5
254.727	98.5
254.96	86.5
255.193	92.5
255.426	80.5
255.659	80.5
255.892	90.5
256.124	86.5
256.357	89.5
256.59	77.5
256.823	95.5
257.056	88.5
257.289	94.5
257.521	77.5
257.754	91.5
257.987	71.5
258.22	91.5
258.452	91.5
258.685	88.5
258.918	85.5
259.151	68.5
259.383	79.5
259.616	89.5
259.849	96.5
260.081	90.5
260.314	89.5
260.547	96.5
260.779	83.5
261.012	91.5
261.244	99.5
261.477	99.5
261.71	110.5
261.942	95.5
262.175	102.5
262.407	86.5
262.64	97.5
262.872	90.5
263.105	100.5
263.337	103.5
263.57	91.5
263.802	98.5
264.035	93.5
264.267	94.5
264.499	100.5
264.732	100.5
264.964	84.5
265.197	88.5
265.429	98.5
265.661	107.5
265.894	97.5
266.126	90.5
266.358	95.5
266.591	82.5
266.823	102.5
267.055	99.5
267.287	86.5
267.52	80.5
267.752	107.5
267.984	95.5
268.216	105.5
268.448	100.5
268.681	103.5
268.913	101.5
269.145	83.5
269.377	97.5
269.609	99.5
269.841	104.5
270.073	87.5
270.306	107.5
270.538	95.5
270.77	92.5
271.002	99.5
271.234	108.5
271.466	105.5
271.698	100.5
271.93	100.5
272.162	107.5
272.394	108.5
272.626	95.5
272.858	95.5
273.09	90.5
273.322	91.5
273.553	92.5
273.785	100.5
274.017	72.5
274.249	94.5
274.481	91.5
274.713	106.5
274.945	111.5
275.176	99.5
275.408	92.5
275.64	98.5
275.872	94.5
276.104	93.5
276.335	97.5
276.567	87.5
276.799	83.5
277.031	96.5
277.262	92.5
277.494	90.5
277.726	94.5
277.957	93.5
278.189	90.5
278.421	98.5
278.652	101.5
278.884	101.5
279.115	100.5
279.347	80.5
279.579	110.5
279.81	100.5
280.042	106.5
280.273	106.5
280.505	110.5
280.736	93.5
280.968	103.5
281.199	116.5
281.431	95.5
281.662	96.5
281.894	101.5
282.125	105.5
282.356	112.5
282.588	102.5
282.819	111.5
283.051	87.5
283.282	75.5
283.513	100.5
283.745	101.5
283.976	90.5
284.207	106.5
284.439	107.5
284.67	88.5
284.901	96.5
285.132	113.5
285.364	96.5
285.595	104.5
285.826	93.5
286.057	108.5
286.288	104.5
286.52	95.5
286.751	117.5
286.982	102.5
287.213	86.5
287.444	106.5
287.675	125.5
287.906	117.5
288.138	111.5
288.369	98.5
288.6	102.5
288.831	96.5
289.062	114.5
289.293	105.5
289.524	103.5
289.755	99.5
289.986	104.5
290.217	107.5
290.448	93.5
290.679	97.5
290.91	95.5
291.141	102.5
291.371	96.5
291.602	101.5
291.833	101.5
292.064	102.5
292.295	113.5
292.526	95.5
292.757	90.5
292.987	119.5
293.218	98.5
293.449	108.5
293.68	100.5
293.91	95.5
294.141	95.5
294.372	100.5
294.603	89.5
294.833	106.5
295.064	110.5
295.295	94.5
295.525	115.5
295.756	106.5
295.987	113.5
296.217	114.5
296.448	105.5
296.679	94.5
296.909	88.5
297.14	111.5
297.37	107.5
297.601	111.5
297.831	96.5
298.062	93.5
298.292	99.5
298.523	116.5
298.753	106.5
298.984	103.5
299.214	94.5
299.445	111.5
299.675	108.5
299.905	94.5
300.136	130.5
300.366	102.5
300.597	107.5
300.827	95.5
301.057	112.5
301.288	118.5
301.518	111.5
301.748	99.5
301.979	109.5
302.209	101.5
302.439	110.5
302.669	105.5
302.9	90.5
303.13	112.5
303.36	104.5
303.59	112.5
303.82	103.5
304.051	99.5
304.281	96.5
304.511	102.5
304.741	90.5
304.971	97.5
305.201	98.5
305.431	106.5
305.661	112.5
305.891	108.5
306.121	105.5
306.352	103.5
306.582	92.5
306.812	112.5
307.042	114.5
307.272	110.5
307.502	105.5
307.731	108.5
307.961	111.5
308.191	109.5
308.421	121.5
308.651	110.5
308.881	104.5
309.111	118.5
309.341	101.5
309.571	107.5
309.8	95.5
310.03	103.5
310.26	108.5
310.49	107.5
310.72	100.5
310.949	93.5
311.179	108.5
311.409	96.5
311.639	106.5
311.868	116.5
312.098	116.5
312.328	112.5
312.557	108.5
312.787	104.5
313.017	114.5
313.246	98.5
313.476	105.5
313.706	96.5
313.935	104.5
314.165	109.5
314.394	110.5
314.624	120.5
314.853	104.5
315.083	110.5
315.312	104.5
315.542	119.5
315.771	124.5
316.001	98.5
316.23	91.5
316.46	113.5
316.689	94.5
316.919	116.5
317.148	103.5
317.377	110.5
317.607	114.5
317.836	107.5
318.065	96.5
318.295	104.5
318.524	116.5
318.753	112.5
318.983	115.5
319.212	118.5
319.441	111.5
319.67	96.5
319.9	103.5
320.129	98.5
320.358	111.5
320.587	109.5
320.816	102.5
321.046	102.5
321.275	119.5
321.504	117.5
321.733	101.5
321.962	99.5
322.191	122.5
322.42	117.5
322.649	107.5
322.878	110.5
323.108	114.5
323.337	120.5
323.566	120.5
323.795	94.5
324.024	121.5
324.253	123.5
324.482	126.5
324.71	152.5
324.939	175.5
325.168	149.5
325.397	118.5
325.626	123.5
325.855	116.5
326.084	117.5
326.313	109.5
326.542	108.5
326.77	114.5
326.999	112.5
327.228	129.5
327.457	134.5
327.686	141.5
327.914	143.5
328.143	134.5
328.372	122.5
328.6	121.5
328.829	103.5
329.058	120.5
329.287	102.5
329.515	112.5
329.744	112.5
329.972	115.5
330.201	109.5
330.43	106.5
330.658	121.5
330.887	113.5
331.115	104.5
331.344	103.5
331.572	109.5
331.801	115.5
332.03	100.5
332.258	109.5
332.486	116.5
332.715	109.5
332.943	104.5
333.172	111.5
333.4	102.5
333.629	115.5
333.857	115.5
334.085	125.5
334.314	121.5
334.542	124.5
334.771	121.5
334.999	122.5
335.227	125.5
335.455	124.5
335.684	128.5
335.912	129.5
336.14	98.5
336.369	128.5
336.597	119.5
336.825	126.5
337.053	119.5
337.281	92.5
337.51	111.5
337.738	105.5
337.966	114.5
338.194	120.5
338.422	114.5
338.65	123.5
338.878	101.5
339.106	111.5
339.334	114.5
339.562	109.5
339.79	114.5
340.018	98.5
340.246	116.5
340.474	96.5
340.702	116.5
340.93	108.5
341.158	113.5
341.386	109.5
341.614	102.5
341.842	101.5
342.07	111.5
342.298	103.5
342.526	118.5
342.754	93.5
342.981	119.5
343.209	110.5
343.437	101.5
343.665	106.5
343.893	109.5
344.12	111.5
344.348	121.5
344.576	108.5
344.804	106.5
345.031	105.5
345.259	111.5
345.487	117.5
345.714	121.5
345.942	110.5
346.17	116.5
346.397	114.5
346.625	109.5
346.853	107.5
347.08	102.5
347.308	107.5
347.535	98.5
347.763	102.5
347.99	99.5
348.218	108.5
348.445	108.5
348.673	100.5
348.9	96.5
349.128	111.5
349.355	100.5
349.583	102.5
349.81	123.5
350.037	118.5
350.265	117.5
350.492	107.5
350.72	109.5
350.947	109.5
351.174	108.5
351.402	103.5
351.629	100.5
351.856	108.5
352.083	116.5
352.311	110.5
352.538	110.5
352.765	104.5
352.992	105.5
353.22	110.5
353.447	110.5
353.674	103.5
353.901	102.5
354.128	117.5
354.355	106.5
354.583	110.5
354.81	127.5
355.037	104.5
355.264	114.5
355.491	111.5
355.718	117.5
355.945	121.5
356.172	125.5
356.399	119.5
356.626	92.5
356.853	104.5
357.08	95.5
357.307	100.5
357.534	100.5
357.761	124.5
357.988	117.5
358.215	90.5
358.441	108.5
358.668	107.5
358.895	118.5
359.122	119.5
359.349	120.5
359.576	118.5
359.802	110.5
360.029	116.5
360.256	123.5
360.483	116.5
360.709	99.5
360.936	107.5
361.163	132.5
361.39	118.5
361.616	123.5
361.843	130.5
362.07	117.5
362.296	117.5
362.523	112.5
362.749	112.5
362.976	125.5
363.203	109.5
363.429	124.5
363.656	126.5
363.882	123.5
364.109	111.5
364.335	112.5
364.562	114.5
364.788	102.5
365.015	110.5
365.241	111.5
365.468	107.5
365.694	105.5
365.92	109.5
366.147	122.5
366.373	102.5
366.599	106.5
366.826	112.5
367.052	102.5
367.278	114.5
367.505	109.5
367.731	114.5
367.957	122.5
368.184	129.5
368.41	107.5
368.636	117.5
368.862	107.5
369.089	121.5
369.315	100.5
369.541	107.5
369.767	112.5
369.993	102.5
370.219	115.5
370.445	95.5
370.672	110.5
370.898	105.5
371.124	105.5
371.35	121.5
371.576	122.5
371.802	126.5
372.028	105.5
372.254	111.5
372.48	111.5
372.706	105.5
372.932	106.5
373.158	117.5
373.384	111.5
373.61	124.5
373.835	112.5
374.061	107.5
374.287	116.5
374.513	119.5
374.739	123.5
374.965	121.5
375.191	117.5
375.416	115.5
375.642	102.5
375.868	102.5
376.094	104.5
376.319	115.5
376.545	107.5
376.771	102.5
376.997	130.5
377.222	103.5
377.448	114.5
377.674	106.5
377.899	113.5
378.125	118.5
378.35	103.5
378.576	103.5
378.802	111.5
379.027	104.5
379.253	110.5
379.478	96.5
379.704	111.5
379.929	109.5
380.155	103.5
380.38	98.5
380.606	110.5
380.831	110.5
381.057	122.5
381.282	128.5
381.507	106.5
381.733	114.5
381.958	114.5
382.184	110.5
382.409	105.5
382.634	109.5
382.86	99.5
383.085	121.5
383.31	111.5
383.535	116.5
383.761	119.5
383.986	103.5
384.211	106.5
384.436	114.5
384.662	115.5
384.887	127.5
385.112	114.5
385.337	114.5
385.562	108.5
385.787	116.5
386.013	124.5
386.238	108.5
386.463	130.5
386.688	115.5
386.913	115.5
387.138	109.5
387.363	111.5
387.588	119.5
387.813	122.5
388.038	129.5
388.263	127.5
388.488	122.5
388.713	123.5
388.938	114.5
389.163	125.5
389.387	109.5
389.612	124.5
389.837	110.5
390.062	111.5
390.287	104.5
390.512	110.5
390.736	98.5
390.961	100.5
391.186	118.5
391.411	130.5
391.636	122.5
391.86	117.5
392.085	113.5
392.31	126.5
392.534	122.5
392.759	122.5
392.984	122.5
393.208	115.5
393.433	118.5
393.658	130.5
393.882	138.5
394.107	127.5
394.331	108.5
394.556	114.5
394.78	119.5
395.005	117.5
395.229	121.5
395.454	132.5
395.678	113.5
395.903	125.5
396.127	115.5
396.352	113.5
396.576	125.5
396.801	127.5
397.025	131.5
397.249	114.5
397.474	132.5
397.698	110.5
397.922	120.5
398.147	128.5
398.371	112.5
398.595	112.5
398.82	118.5
399.044	126.5
399.268	124.5
399.492	133.5
399.717	137.5
399.941	135.5
400.165	146.5
400.389	138.5
400.613	121.5
400.837	136.5
401.062	130.5
401.286	122.5
401.51	120.5
401.734	112.5
401.958	132.5
402.182	134.5
402.406	118.5
402.63	135.5
402.854	134.5
403.078	130.5
403.302	131.5
403.526	123.5
403.75	140.5
403.974	119.5
404.198	127.5
404.422	127.5
404.645	135.5
404.869	136.5
405.093	125.5
405.317	140.5
405.541	138.5
405.765	133.5
405.988	119.5
406.212	134.5
406.436	131.5
406.66	130.5
406.883	150.5
407.107	131.5
407.331	158.5
407.555	127.5
407.778	150.5
408.002	134.5
408.226	136.5
408.449	132.5
408.673	127.5
408.896	140.5
409.12	142.5
409.344	130.5
409.567	124.5
409.791	132.5
410.014	137.5
410.238	138.5
410.461	135.5
410.685	120.5
410.908	132.5
411.132	144.5
411.355	142.5
411.578	132.5
411.802	136.5
412.025	123.5
412.249	122.5
412.472	120.5
412.695	139.5
412.919	143.5
413.142	136.5
413.365	126.5
413.589	136.5
413.812	105.5
414.035	134.5
414.258	122.5
414.482	126.5
414.705	135.5
414.928	128.5
415.151	136.5
415.374	129.5
415.597	132.5
415.821	131.5
416.044	129.5
416.267	125.5
416.49	128.5
416.713	118.5
416.936	117.5
417.159	136.5
417.382	142.5
417.605	126.5
417.828	119.5
418.051	138.5
418.274	121.5
418.497	143.5
418.72	128.5
418.943	133.5
419.166	127.5
419.389	128.5
419.611	134.5
419.834	126.5
420.057	129.5
420.28	127.5
420.503	139.5
420.726	131.5
420.948	119.5
421.171	134.5
421.394	117.5
421.617	126.5
421.839	130.5
422.062	127.5
422.285	127.5
422.507	136.5
422.73	133.5
422.953	133.5
423.175	137.5
423.398	122.5
423.621	134.5
423.843	141.5
424.066	127.5
424.288	125.5
424.511	137.5
424.733	134.5
424.956	141.5
425.178	134.5
425.401	122.5
425.623	145.5
425.846	143.5
426.068	132.5
426.291	128.5
426.513	130.5
426.735	123.5
426.958	125.5
427.18	125.5
427.402	152.5
427.625	153.5
427.847	129.5
428.069	134.5
428.292	134.5
428.514	116.5
428.736	117.5
428.958	129.5
429.181	111.5
429.403	130.5
429.625	119.5
429.847	123.5
430.069	113.5
430.292	126.5
430.514	121.5
430.736	129.5
430.958	135.5
431.18	134.5
431.402	130.5
431.624	128.5
431.846	118.5
432.068	122.5
432.29	107.5
432.512	128.5
432.734	134.5
432.956	126.5
433.178	134.5
433.4	108.5
433.622	121.5
433.844	120.5
434.066	119.5
434.287	124.5
434.509	134.5
434.731	134.5
434.953	132.5
435.175	146.5
435.397	138.5
435.618	104.5
435.84	132.5
436.062	145.5
436.284	150.5
436.505	129.5
436.727	120.5
436.949	138.5
437.17	130.5
437.392	126.5
437.614	130.5
437.835	132.5
438.057	124.5
438.278	124.5
438.5	126.5
438.721	125.5
438.943	135.5
439.165	134.5
439.386	109.5
439.608	123.5
439.829	114.5
440.05	123.5
440.272	122.5
440.493	137.5
440.715	119.5
440.936	112.5
441.158	130.5
441.379	128.5
441.6	126.5
441.822	143.5
442.043	126.5
442.264	140.5
442.486	134.5
442.707	136.5
442.928	137.5
443.149	135.5
443.371	133.5
443.592	122.5
443.813	138.5
444.034	145.5
444.255	130.5
444.476	126.5
444.698	141.5
444.919	138.5
445.14	235.5
445.361	166.5
445.582	128.5
445.803	132.5
446.024	135.5
446.245	138.5
446.466	140.5
446.687	132.5
446.908	127.5
447.129	124.5
447.35	131.5
447.571	135.5
447.792	124.5
448.013	123.5
448.234	125.5
448.455	121.5
448.675	129.5
448.896	130.5
449.117	141.5
449.338	134.5
449.559	127.5
449.779	156.5
450	128.5
450.221	126.5
450.442	107.5
450.662	122.5
450.883	136.5
451.104	121.5
451.324	114.5
451.545	107.5
451.766	118.5
451.986	116.5
452.207	109.5
452.428	123.5
452.648	115.5
452.869	107.5
453.089	120.5
453.31	114.5
453.53	120.5
453.751	111.5
453.971	116.5
454.192	118.5
454.412	112.5
454.633	107.5
454.853	107.5
455.073	118.5
455.294	118.5
455.514	126.5
455.734	127.5
455.955	126.5
456.175	123.5
456.395	111.5
456.616	122.5
456.836	125.5
457.056	117.5
457.276	114.5
457.497	124.5
457.717	111.5
457.937	127.5
458.157	112.5
458.377	115.5
458.598	107.5
458.818	123.5
459.038	138.5
459.258	150.5
459.478	128.5
459.698	102.5
459.918	105.5
460.138	126.5
460.358	118.5
460.578	127.5
460.798	115.5
461.018	134.5
461.238	123.5
461.458	116.5
461.678	137.5
461.898	109.5
462.118	124.5
462.338	130.5
462.558	126.5
462.777	118.5
462.997	147.5
463.217	149.5
463.437	150.5
463.657	143.5
463.876	119.5
464.096	122.5
464.316	129.5
464.536	130.5
464.755	141.5
464.975	143.5
465.195	148.5
465.414	143.5
465.634	130.5
465.854	132.5
466.073	122.5
466.293	120.5
466.512	105.5
466.732	118.5
466.951	114.5
467.171	110.5
467.391	128.5
467.61	123.5
467.829	127.5
468.049	120.5
468.268	122.5
468.488	108.5
468.707	118.5
468.927	132.5
469.146	132.5
469.365	126.5
469.585	128.5
469.804	134.5
470.023	133.5
470.243	119.5
470.462	124.5
470.681	118.5
470.901	109.5
471.12	139.5
471.339	114.5
471.558	123.5
471.777	110.5
471.997	125.5
472.216	123.5
472.435	122.5
472.654	127.5
472.873	134.5
473.092	109.5
473.311	108.5
473.53	119.5
473.749	133.5
473.968	132.5
474.187	125.5
474.406	116.5
474.625	139.5
474.844	123.5
475.063	119.5
475.282	116.5
475.501	116.5
475.72	110.5
475.939	136.5
476.158	123.5
476.377	120.5
476.596	123.5
476.814	115.5
477.033	122.5
477.252	128.5
477.471	137.5
477.69	118.5
477.908	136.5
478.127	128.5
478.346	128.5
478.564	147.5
478.783	142.5
479.002	130.5
479.22	137.5
479.439	124.5
479.658	123.5
479.876	134.5
480.095	138.5
480.313	139.5
480.532	124.5
480.751	138.5
480.969	133.5
481.188	132.5
481.406	136.5
481.624	142.5
481.843	130.5
482.061	125.5
482.28	139.5
482.498	108.5
482.717	117.5
482.935	118.5
483.153	123.5
483.372	124.5
483.59	124.5
483.808	135.5
484.027	142.5
484.245	123.5
484.463	141.5
484.681	136.5
484.9	115.5
485.118	126.5
485.336	130.5
485.554	123.5
485.772	126.5
485.99	136.5
486.209	122.5
486.427	128.5
486.645	128.5
486.863	118.5
487.081	138.5
487.299	156.5
487.517	134.5
487.735	126.5
487.953	125.5
488.171	144.5
488.389	131.5
488.607	123.5
488.825	142.5
489.043	138.5
489.261	147.5
489.479	150.5
489.696	123.5
489.914	126.5
490.132	136.5
490.35	136.5
490.568	135.5
490.786	128.5
491.003	132.5
491.221	135.5
491.439	128.5
491.657	132.5
491.874	157.5
492.092	139.5
492.31	148.5
492.527	138.5
492.745	145.5
492.963	138.5
493.18	132.5
493.398	155.5
493.615	147.5
493.833	144.5
494.05	141.5
494.268	144.5
494.485	145.5
494.703	151.5
494.92	137.5
495.138	142.5
495.355	149.5
495.573	135.5
495.79	147.5
496.008	136.5
496.225	144.5
496.442	148.5
496.66	154.5
496.877	152.5
497.094	148.5
497.312	152.5
497.529	143.5
497.746	151.5
497.963	147.5
498.181	150.5
498.398	151.5
498.615	158.5
498.832	150.5
499.049	161.5
499.267	156.5
499.484	173.5
499.701	172.5
499.918	182.5
500.135	204.5
500.352	194.5
500.569	203.5
500.786	215.5
501.003	211.5
501.22	190.5
501.437	170.5
501.654	187.5
501.871	171.5
502.088	173.5
502.305	167.5
502.522	156.5
502.739	161.5
502.956	140.5
503.172	152.5
503.389	135.5
503.606	150.5
503.823	144.5
504.04	159.5
504.256	137.5
504.473	154.5
504.69	152.5
504.907	149.5
505.123	127.5
505.34	138.5
505.557	144.5
505.773	127.5
505.99	132.5
506.207	141.5
506.423	150.5
506.64	137.5
506.856	146.5
507.073	132.5
507.289	129.5
507.506	131.5
507.722	128.5
507.939	130.5
508.155	132.5
508.372	128.5
508.588	136.5
508.805	138.5
509.021	131.5
509.238	125.5
509.454	123.5
509.67	120.5
509.887	134.5
510.103	134.5
510.319	143.5
510.536	140.5
510.752	170.5
510.968	125.5
511.184	145.5
511.401	118.5
511.617	123.5
511.833	127.5
512.049	115.5
512.265	117.5
512.481	144.5
512.698	133.5
512.914	134.5
513.13	137.5
513.346	120.5
513.562	120.5
513.778	128.5
513.994	124.5
514.21	123.5
514.426	116.5
514.642	104.5
514.858	120.5
515.074	134.5
515.29	134.5
515.506	157.5
515.721	150.5
515.937	136.5
516.153	141.5
516.369	123.5
516.585	132.5
516.801	133.5
517.016	131.5
517.232	149.5
517.448	138.5
517.664	140.5
517.879	144.5
518.095	153.5
518.311	147.5
518.527	126.5
518.742	120.5
518.958	123.5
519.173	135.5
519.389	126.5
519.605	138.5
519.82	136.5
520.036	122.5
520.251	136.5
520.467	136.5
520.682	125.5
520.898	130.5
521.113	128.5
521.329	138.5
521.544	120.5
521.76	128.5
521.975	178.5
522.19	169.5
522.406	146.5
522.621	133.5
522.836	120.5
523.052	136.5
523.267	134.5
523.482	132.5
523.698	134.5
