Data from 1968.PennyLincolnUp.Lamp.En5.5.200Scan.071719.P1._HRD10591_14-49-39-969.txt Node
Date: Thu Jul 18 14:49:39 EDT 2019
User: cochatt
Spectrometer: HR+D1059
Trigger mode: 1
Integration Time (sec): 1.000000E-1
Scans to average: 1
Electric dark correction enabled: true
Nonlinearity correction enabled: false
Boxcar width: 0
XAxis mode: Wavelengths
Number of Pixels in Spectrum: 2048
>>>>>Begin Spectral Data<<<<<
223.165	-25.56
223.4	-25.56
223.635	-25.56
223.869	-8.56
224.104	-12.56
224.338	-19.56
224.573	-19.56
224.808	-10.56
225.042	-13.56
225.277	-5.56
225.511	-4.56
225.746	-11.56
225.98	4.44
226.215	14.44
226.449	28.44
226.683	20.44
226.918	26.44
227.152	37.44
227.387	43.44
227.621	37.44
227.856	40.44
228.09	45.44
228.324	48.44
228.559	51.44
228.793	54.44
229.027	63.44
229.262	76.44
229.496	62.44
229.73	89.44
229.964	86.44
230.199	85.44
230.433	69.44
230.667	91.44
230.901	79.44
231.136	78.44
231.37	80.44
231.604	98.44
231.838	74.44
232.072	80.44
232.306	94.44
232.541	82.44
232.775	82.44
233.009	98.44
233.243	81.44
233.477	89.44
233.711	81.44
233.945	77.44
234.179	83.44
234.413	78.44
234.647	88.44
234.881	83.44
235.115	70.44
235.349	73.44
235.583	92.44
235.817	69.44
236.051	68.44
236.285	70.44
236.519	79.44
236.753	76.44
236.987	79.44
237.221	80.44
237.455	73.44
237.689	84.44
237.922	76.44
238.156	90.44
238.39	80.44
238.624	91.44
238.858	66.44
239.091	72.44
239.325	78.44
239.559	87.44
239.793	71.44
240.027	78.44
240.26	84.44
240.494	88.44
240.728	99.44
240.961	69.44
241.195	85.44
241.429	95.44
241.662	70.44
241.896	87.44
242.13	60.44
242.363	86.44
242.597	92.44
242.83	78.44
243.064	82.44
243.298	98.44
243.531	84.44
243.765	78.44
243.998	89.44
244.232	72.44
244.465	80.44
244.699	81.44
244.932	86.44
245.166	79.44
245.399	94.44
245.633	78.44
245.866	80.44
246.099	84.44
246.333	88.44
246.566	80.44
246.8	84.44
247.033	76.44
247.266	82.44
247.5	95.44
247.733	88.44
247.966	89.44
248.2	87.44
248.433	91.44
248.666	88.44
248.899	87.44
249.133	93.44
249.366	93.44
249.599	93.44
249.832	91.44
250.066	93.44
250.299	92.44
250.532	80.44
250.765	80.44
250.998	98.44
251.231	104.44
251.465	102.44
251.698	78.44
251.931	90.44
252.164	104.44
252.397	89.44
252.63	91.44
252.863	82.44
253.096	90.44
253.329	108.44
253.562	95.44
253.795	91.44
254.028	84.44
254.261	79.44
254.494	88.44
254.727	106.44
254.96	93.44
255.193	95.44
255.426	102.44
255.659	91.44
255.892	95.44
256.124	81.44
256.357	82.44
256.59	85.44
256.823	92.44
257.056	89.44
257.289	91.44
257.521	82.44
257.754	83.44
257.987	91.44
258.22	90.44
258.452	85.44
258.685	107.44
258.918	93.44
259.151	82.44
259.383	87.44
259.616	106.44
259.849	89.44
260.081	90.44
260.314	105.44
260.547	94.44
260.779	91.44
261.012	105.44
261.244	104.44
261.477	107.44
261.71	92.44
261.942	88.44
262.175	92.44
262.407	85.44
262.64	98.44
262.872	78.44
263.105	99.44
263.337	92.44
263.57	96.44
263.802	90.44
264.035	98.44
264.267	87.44
264.499	85.44
264.732	87.44
264.964	89.44
265.197	94.44
265.429	87.44
265.661	102.44
265.894	94.44
266.126	90.44
266.358	92.44
266.591	77.44
266.823	82.44
267.055	92.44
267.287	101.44
267.52	70.44
267.752	91.44
267.984	97.44
268.216	101.44
268.448	93.44
268.681	99.44
268.913	84.44
269.145	101.44
269.377	93.44
269.609	102.44
269.841	86.44
270.073	94.44
270.306	92.44
270.538	93.44
270.77	95.44
271.002	103.44
271.234	98.44
271.466	89.44
271.698	107.44
271.93	96.44
272.162	93.44
272.394	103.44
272.626	101.44
272.858	95.44
273.09	115.44
273.322	105.44
273.553	106.44
273.785	89.44
274.017	90.44
274.249	80.44
274.481	103.44
274.713	95.44
274.945	95.44
275.176	102.44
275.408	95.44
275.64	105.44
275.872	98.44
276.104	104.44
276.335	96.44
276.567	99.44
276.799	108.44
277.031	115.44
277.262	88.44
277.494	90.44
277.726	100.44
277.957	94.44
278.189	106.44
278.421	87.44
278.652	87.44
278.884	111.44
279.115	100.44
279.347	86.44
279.579	89.44
279.81	97.44
280.042	101.44
280.273	94.44
280.505	106.44
280.736	97.44
280.968	92.44
281.199	106.44
281.431	95.44
281.662	103.44
281.894	98.44
282.125	99.44
282.356	91.44
282.588	102.44
282.819	104.44
283.051	99.44
283.282	93.44
283.513	117.44
283.745	102.44
283.976	94.44
284.207	107.44
284.439	91.44
284.67	95.44
284.901	98.44
285.132	99.44
285.364	102.44
285.595	95.44
285.826	108.44
286.057	107.44
286.288	103.44
286.52	86.44
286.751	107.44
286.982	117.44
287.213	114.44
287.444	99.44
287.675	88.44
287.906	102.44
288.138	119.44
288.369	124.44
288.6	98.44
288.831	99.44
289.062	95.44
289.293	91.44
289.524	99.44
289.755	95.44
289.986	101.44
290.217	83.44
290.448	104.44
290.679	93.44
290.91	102.44
291.141	111.44
291.371	98.44
291.602	100.44
291.833	100.44
292.064	100.44
292.295	100.44
292.526	105.44
292.757	106.44
292.987	98.44
293.218	106.44
293.449	98.44
293.68	79.44
293.91	81.44
294.141	108.44
294.372	115.44
294.603	106.44
294.833	94.44
295.064	122.44
295.295	100.44
295.525	108.44
295.756	95.44
295.987	102.44
296.217	102.44
296.448	107.44
296.679	116.44
296.909	105.44
297.14	118.44
297.37	122.44
297.601	111.44
297.831	107.44
298.062	104.44
298.292	106.44
298.523	121.44
298.753	110.44
298.984	118.44
299.214	106.44
299.445	104.44
299.675	106.44
299.905	111.44
300.136	111.44
300.366	103.44
300.597	110.44
300.827	105.44
301.057	103.44
301.288	109.44
301.518	95.44
301.748	91.44
301.979	98.44
302.209	94.44
302.439	111.44
302.669	111.44
302.9	121.44
303.13	106.44
303.36	116.44
303.59	117.44
303.82	122.44
304.051	107.44
304.281	104.44
304.511	108.44
304.741	93.44
304.971	116.44
305.201	103.44
305.431	118.44
305.661	117.44
305.891	107.44
306.121	101.44
306.352	110.44
306.582	118.44
306.812	98.44
307.042	101.44
307.272	111.44
307.502	107.44
307.731	110.44
307.961	119.44
308.191	100.44
308.421	118.44
308.651	100.44
308.881	108.44
309.111	109.44
309.341	97.44
309.571	111.44
309.8	114.44
310.03	104.44
310.26	101.44
310.49	103.44
310.72	101.44
310.949	101.44
311.179	117.44
311.409	104.44
311.639	100.44
311.868	117.44
312.098	116.44
312.328	101.44
312.557	102.44
312.787	115.44
313.017	128.44
313.246	104.44
313.476	123.44
313.706	102.44
313.935	102.44
314.165	110.44
314.394	100.44
314.624	102.44
314.853	100.44
315.083	102.44
315.312	111.44
315.542	88.44
315.771	124.44
316.001	101.44
316.23	105.44
316.46	114.44
316.689	114.44
316.919	113.44
317.148	110.44
317.377	102.44
317.607	110.44
317.836	117.44
318.065	104.44
318.295	100.44
318.524	105.44
318.753	110.44
318.983	123.44
319.212	116.44
319.441	100.44
319.67	110.44
319.9	114.44
320.129	101.44
320.358	102.44
320.587	105.44
320.816	111.44
321.046	115.44
321.275	121.44
321.504	116.44
321.733	107.44
321.962	112.44
322.191	116.44
322.42	106.44
322.649	104.44
322.878	114.44
323.108	124.44
323.337	121.44
323.566	119.44
323.795	124.44
324.024	112.44
324.253	127.44
324.482	132.44
324.71	165.44
324.939	160.44
325.168	146.44
325.397	129.44
325.626	110.44
325.855	103.44
326.084	119.44
326.313	123.44
326.542	106.44
326.77	106.44
326.999	128.44
327.228	127.44
327.457	153.44
327.686	148.44
327.914	127.44
328.143	125.44
328.372	114.44
328.6	123.44
328.829	110.44
329.058	111.44
329.287	111.44
329.515	111.44
329.744	124.44
329.972	116.44
330.201	116.44
330.43	118.44
330.658	117.44
330.887	105.44
331.115	104.44
331.344	125.44
331.572	122.44
331.801	109.44
332.03	116.44
332.258	118.44
332.486	106.44
332.715	120.44
332.943	112.44
333.172	110.44
333.4	122.44
333.629	126.44
333.857	114.44
334.085	128.44
334.314	138.44
334.542	121.44
334.771	118.44
334.999	115.44
335.227	124.44
335.455	137.44
335.684	111.44
335.912	114.44
336.14	122.44
336.369	113.44
336.597	125.44
336.825	110.44
337.053	110.44
337.281	118.44
337.51	116.44
337.738	116.44
337.966	116.44
338.194	110.44
338.422	119.44
338.65	122.44
338.878	124.44
339.106	104.44
339.334	114.44
339.562	104.44
339.79	115.44
340.018	126.44
340.246	105.44
340.474	111.44
340.702	101.44
340.93	129.44
341.158	110.44
341.386	105.44
341.614	122.44
341.842	118.44
342.07	120.44
342.298	100.44
342.526	109.44
342.754	122.44
342.981	112.44
343.209	111.44
343.437	130.44
343.665	117.44
343.893	137.44
344.12	126.44
344.348	120.44
344.576	120.44
344.804	104.44
345.031	119.44
345.259	115.44
345.487	133.44
345.714	126.44
345.942	109.44
346.17	118.44
346.397	113.44
346.625	120.44
346.853	104.44
347.08	118.44
347.308	116.44
347.535	122.44
347.763	104.44
347.99	115.44
348.218	126.44
348.445	115.44
348.673	109.44
348.9	104.44
349.128	116.44
349.355	110.44
349.583	118.44
349.81	98.44
350.037	103.44
350.265	116.44
350.492	114.44
350.72	108.44
350.947	112.44
351.174	116.44
351.402	112.44
351.629	116.44
351.856	126.44
352.083	122.44
352.311	110.44
352.538	113.44
352.765	111.44
352.992	102.44
353.22	120.44
353.447	97.44
353.674	107.44
353.901	106.44
354.128	121.44
354.355	103.44
354.583	103.44
354.81	103.44
355.037	120.44
355.264	109.44
355.491	109.44
355.718	105.44
355.945	108.44
356.172	114.44
356.399	112.44
356.626	108.44
356.853	114.44
357.08	104.44
357.307	105.44
357.534	94.44
357.761	117.44
357.988	120.44
358.215	118.44
358.441	97.44
358.668	111.44
358.895	106.44
359.122	107.44
359.349	104.44
359.576	117.44
359.802	101.44
360.029	109.44
360.256	126.44
360.483	125.44
360.709	110.44
360.936	116.44
361.163	124.44
361.39	103.44
361.616	123.44
361.843	112.44
362.07	109.44
362.296	119.44
362.523	110.44
362.749	115.44
362.976	105.44
363.203	122.44
363.429	103.44
363.656	108.44
363.882	107.44
364.109	103.44
364.335	110.44
364.562	95.44
364.788	107.44
365.015	106.44
365.241	109.44
365.468	110.44
365.694	100.44
365.92	107.44
366.147	117.44
366.373	137.44
366.599	107.44
366.826	115.44
367.052	119.44
367.278	111.44
367.505	125.44
367.731	106.44
367.957	98.44
368.184	110.44
368.41	94.44
368.636	118.44
368.862	120.44
369.089	101.44
369.315	120.44
369.541	113.44
369.767	100.44
369.993	118.44
370.219	120.44
370.445	107.44
370.672	100.44
370.898	119.44
371.124	115.44
371.35	108.44
371.576	113.44
371.802	112.44
372.028	112.44
372.254	118.44
372.48	100.44
372.706	120.44
372.932	124.44
373.158	115.44
373.384	108.44
373.61	111.44
373.835	122.44
374.061	109.44
374.287	102.44
374.513	123.44
374.739	114.44
374.965	115.44
375.191	123.44
375.416	126.44
375.642	110.44
375.868	112.44
376.094	105.44
376.319	121.44
376.545	111.44
376.771	107.44
376.997	117.44
377.222	118.44
377.448	106.44
377.674	102.44
377.899	105.44
378.125	110.44
378.35	90.44
378.576	109.44
378.802	114.44
379.027	114.44
379.253	106.44
379.478	112.44
379.704	116.44
379.929	107.44
380.155	111.44
380.38	112.44
380.606	127.44
380.831	114.44
381.057	112.44
381.282	116.44
381.507	95.44
381.733	121.44
381.958	115.44
382.184	116.44
382.409	116.44
382.634	125.44
382.86	124.44
383.085	110.44
383.31	114.44
383.535	110.44
383.761	109.44
383.986	113.44
384.211	110.44
384.436	116.44
384.662	112.44
384.887	124.44
385.112	120.44
385.337	114.44
385.562	114.44
385.787	119.44
386.013	135.44
386.238	115.44
386.463	116.44
386.688	130.44
386.913	115.44
387.138	111.44
387.363	125.44
387.588	119.44
387.813	107.44
388.038	119.44
388.263	124.44
388.488	126.44
388.713	118.44
388.938	109.44
389.163	105.44
389.387	128.44
389.612	120.44
389.837	120.44
390.062	121.44
390.287	120.44
390.512	136.44
390.736	119.44
390.961	112.44
391.186	126.44
391.411	131.44
391.636	113.44
391.86	111.44
392.085	122.44
392.31	138.44
392.534	121.44
392.759	127.44
392.984	123.44
393.208	128.44
393.433	132.44
393.658	139.44
393.882	125.44
394.107	127.44
394.331	118.44
394.556	114.44
394.78	121.44
395.005	111.44
395.229	115.44
395.454	123.44
395.678	107.44
395.903	128.44
396.127	130.44
396.352	118.44
396.576	122.44
396.801	116.44
397.025	128.44
397.249	142.44
397.474	130.44
397.698	125.44
397.922	111.44
398.147	123.44
398.371	131.44
398.595	132.44
398.82	123.44
399.044	128.44
399.268	137.44
399.492	136.44
399.717	148.44
399.941	148.44
400.165	150.44
400.389	147.44
400.613	136.44
400.837	111.44
401.062	137.44
401.286	132.44
401.51	117.44
401.734	120.44
401.958	131.44
402.182	122.44
402.406	130.44
402.63	120.44
402.854	124.44
403.078	140.44
403.302	128.44
403.526	131.44
403.75	145.44
403.974	127.44
404.198	138.44
404.422	126.44
404.645	147.44
404.869	136.44
405.093	131.44
405.317	138.44
405.541	138.44
405.765	135.44
405.988	133.44
406.212	140.44
406.436	138.44
406.66	139.44
406.883	139.44
407.107	120.44
407.331	135.44
407.555	142.44
407.778	139.44
408.002	141.44
408.226	127.44
408.449	128.44
408.673	135.44
408.896	141.44
409.12	137.44
409.344	131.44
409.567	135.44
409.791	139.44
410.014	154.44
410.238	132.44
410.461	139.44
410.685	138.44
410.908	127.44
411.132	133.44
411.355	134.44
411.578	144.44
411.802	133.44
412.025	149.44
412.249	126.44
412.472	125.44
412.695	133.44
412.919	128.44
413.142	140.44
413.365	120.44
413.589	115.44
413.812	129.44
414.035	120.44
414.258	132.44
414.482	134.44
414.705	133.44
414.928	120.44
415.151	133.44
415.374	134.44
415.597	130.44
415.821	133.44
416.044	121.44
416.267	118.44
416.49	134.44
416.713	120.44
416.936	131.44
417.159	132.44
417.382	127.44
417.605	126.44
417.828	136.44
418.051	124.44
418.274	130.44
418.497	135.44
418.72	128.44
418.943	141.44
419.166	144.44
419.389	144.44
419.611	149.44
419.834	119.44
420.057	101.44
420.28	128.44
420.503	140.44
420.726	135.44
420.948	122.44
421.171	130.44
421.394	134.44
421.617	129.44
421.839	132.44
422.062	143.44
422.285	120.44
422.507	119.44
422.73	149.44
422.953	139.44
423.175	142.44
423.398	138.44
423.621	125.44
423.843	144.44
424.066	133.44
424.288	132.44
424.511	135.44
424.733	132.44
424.956	130.44
425.178	136.44
425.401	124.44
425.623	119.44
425.846	139.44
426.068	132.44
426.291	136.44
426.513	118.44
426.735	121.44
426.958	126.44
427.18	126.44
427.402	120.44
427.625	139.44
427.847	127.44
428.069	134.44
428.292	126.44
428.514	119.44
428.736	124.44
428.958	127.44
429.181	135.44
429.403	127.44
429.625	117.44
429.847	142.44
430.069	128.44
430.292	133.44
430.514	119.44
430.736	120.44
430.958	123.44
431.18	129.44
431.402	121.44
431.624	115.44
431.846	133.44
432.068	122.44
432.29	118.44
432.512	119.44
432.734	120.44
432.956	136.44
433.178	124.44
433.4	120.44
433.622	120.44
433.844	123.44
434.066	130.44
434.287	125.44
434.509	124.44
434.731	133.44
434.953	134.44
435.175	118.44
435.397	120.44
435.618	131.44
435.84	127.44
436.062	140.44
436.284	146.44
436.505	133.44
436.727	121.44
436.949	139.44
437.17	139.44
437.392	126.44
437.614	120.44
437.835	117.44
438.057	141.44
438.278	138.44
438.5	123.44
438.721	133.44
438.943	141.44
439.165	120.44
439.386	132.44
439.608	143.44
439.829	133.44
440.05	127.44
440.272	129.44
440.493	138.44
440.715	125.44
440.936	126.44
441.158	118.44
441.379	123.44
441.6	124.44
441.822	121.44
442.043	142.44
442.264	126.44
442.486	131.44
442.707	124.44
442.928	142.44
443.149	129.44
443.371	130.44
443.592	117.44
443.813	136.44
444.034	152.44
444.255	134.44
444.476	144.44
444.698	144.44
444.919	144.44
445.14	266.44
445.361	199.44
445.582	140.44
445.803	150.44
446.024	140.44
446.245	148.44
446.466	126.44
446.687	130.44
446.908	140.44
447.129	124.44
447.35	126.44
447.571	136.44
447.792	125.44
448.013	127.44
448.234	120.44
448.455	123.44
448.675	127.44
448.896	145.44
449.117	133.44
449.338	130.44
449.559	139.44
449.779	137.44
450	136.44
450.221	123.44
450.442	118.44
450.662	123.44
450.883	120.44
451.104	132.44
451.324	110.44
451.545	119.44
451.766	126.44
451.986	114.44
452.207	131.44
452.428	110.44
452.648	121.44
452.869	106.44
453.089	121.44
453.31	113.44
453.53	122.44
453.751	118.44
453.971	116.44
454.192	123.44
454.412	116.44
454.633	117.44
454.853	113.44
455.073	108.44
455.294	124.44
455.514	113.44
455.734	122.44
455.955	121.44
456.175	120.44
456.395	124.44
456.616	123.44
456.836	107.44
457.056	127.44
457.276	114.44
457.497	128.44
457.717	129.44
457.937	111.44
458.157	116.44
458.377	113.44
458.598	124.44
458.818	132.44
459.038	125.44
459.258	132.44
459.478	130.44
459.698	122.44
459.918	120.44
460.138	117.44
460.358	118.44
460.578	127.44
460.798	136.44
461.018	123.44
461.238	133.44
461.458	126.44
461.678	116.44
461.898	124.44
462.118	149.44
462.338	132.44
462.558	128.44
462.777	131.44
462.997	134.44
463.217	142.44
463.437	143.44
463.657	129.44
463.876	142.44
464.096	133.44
464.316	135.44
464.536	127.44
464.755	136.44
464.975	127.44
465.195	137.44
465.414	130.44
465.634	124.44
465.854	140.44
466.073	123.44
466.293	127.44
466.512	123.44
466.732	129.44
466.951	105.44
467.171	136.44
467.391	118.44
467.61	135.44
467.829	114.44
468.049	118.44
468.268	117.44
468.488	123.44
468.707	118.44
468.927	106.44
469.146	114.44
469.365	118.44
469.585	123.44
469.804	128.44
470.023	128.44
470.243	125.44
470.462	120.44
470.681	121.44
470.901	126.44
471.12	105.44
471.339	132.44
471.558	116.44
471.777	134.44
471.997	112.44
472.216	116.44
472.435	122.44
472.654	130.44
472.873	117.44
473.092	112.44
473.311	116.44
473.53	122.44
473.749	112.44
473.968	123.44
474.187	119.44
474.406	124.44
474.625	129.44
474.844	127.44
475.063	123.44
475.282	130.44
475.501	119.44
475.72	123.44
475.939	140.44
476.158	123.44
476.377	120.44
476.596	134.44
476.814	130.44
477.033	118.44
477.252	117.44
477.471	111.44
477.69	119.44
477.908	130.44
478.127	122.44
478.346	142.44
478.564	127.44
478.783	133.44
479.002	130.44
479.22	128.44
479.439	117.44
479.658	142.44
479.876	142.44
480.095	136.44
480.313	154.44
480.532	139.44
480.751	146.44
480.969	148.44
481.188	125.44
481.406	134.44
481.624	131.44
481.843	120.44
482.061	126.44
482.28	136.44
482.498	152.44
482.717	127.44
482.935	130.44
483.153	120.44
483.372	131.44
483.59	127.44
483.808	118.44
484.027	131.44
484.245	118.44
484.463	127.44
484.681	124.44
484.9	126.44
485.118	142.44
485.336	132.44
485.554	130.44
485.772	128.44
485.99	125.44
486.209	135.44
486.427	126.44
486.645	132.44
486.863	130.44
487.081	135.44
487.299	125.44
487.517	144.44
487.735	130.44
487.953	142.44
488.171	130.44
488.389	132.44
488.607	127.44
488.825	141.44
489.043	133.44
489.261	139.44
489.479	132.44
489.696	146.44
489.914	126.44
490.132	133.44
490.35	136.44
490.568	140.44
490.786	141.44
491.003	130.44
491.221	162.44
491.439	138.44
491.657	135.44
491.874	136.44
492.092	144.44
492.31	142.44
492.527	147.44
492.745	136.44
492.963	140.44
493.18	133.44
493.398	131.44
493.615	140.44
493.833	150.44
494.05	150.44
494.268	144.44
494.485	134.44
494.703	147.44
494.92	145.44
495.138	133.44
495.355	150.44
495.573	133.44
495.79	146.44
496.008	150.44
496.225	149.44
496.442	138.44
496.66	161.44
496.877	147.44
497.094	145.44
497.312	155.44
497.529	140.44
497.746	146.44
497.963	139.44
498.181	130.44
498.398	160.44
498.615	159.44
498.832	146.44
499.049	166.44
499.267	154.44
499.484	152.44
499.701	185.44
499.918	191.44
500.135	209.44
500.352	213.44
500.569	218.44
500.786	203.44
501.003	204.44
501.22	178.44
501.437	185.44
501.654	180.44
501.871	144.44
502.088	164.44
502.305	163.44
502.522	171.44
502.739	168.44
502.956	145.44
503.172	134.44
503.389	143.44
503.606	136.44
503.823	134.44
504.04	138.44
504.256	151.44
504.473	156.44
504.69	140.44
504.907	141.44
505.123	144.44
