Data from 1968.PennyLincolnUp.Lamp.En5.5.200Scan.071719.P1._HRD10591_14-50-11-969.txt Node
Date: Thu Jul 18 14:50:11 EDT 2019
User: cochatt
Spectrometer: HR+D1059
Trigger mode: 1
Integration Time (sec): 1.000000E-1
Scans to average: 1
Electric dark correction enabled: true
Nonlinearity correction enabled: false
Boxcar width: 0
XAxis mode: Wavelengths
Number of Pixels in Spectrum: 2048
>>>>>Begin Spectral Data<<<<<
223.165	-16.94
223.4	-16.94
223.635	-16.94
223.869	-12.94
224.104	-29.94
224.338	-24.94
224.573	-9.94
224.808	-7.94
225.042	-6.94
225.277	8.06
225.511	-6.94
225.746	4.06
225.98	7.06
226.215	11.06
226.449	17.06
226.683	15.06
226.918	24.06
227.152	30.06
227.387	31.06
227.621	41.06
227.856	36.06
228.09	40.06
228.324	44.06
228.559	56.06
228.793	57.06
229.027	62.06
229.262	48.06
229.496	50.06
229.73	60.06
229.964	77.06
230.199	74.06
230.433	62.06
230.667	83.06
230.901	72.06
231.136	75.06
231.37	78.06
231.604	68.06
231.838	94.06
232.072	81.06
232.306	88.06
232.541	88.06
232.775	94.06
233.009	85.06
233.243	79.06
233.477	83.06
233.711	99.06
233.945	82.06
234.179	82.06
234.413	83.06
234.647	80.06
234.881	87.06
235.115	82.06
235.349	73.06
235.583	80.06
235.817	75.06
236.051	80.06
236.285	90.06
236.519	95.06
236.753	77.06
236.987	94.06
237.221	77.06
237.455	89.06
237.689	73.06
237.922	75.06
238.156	79.06
238.39	64.06
238.624	78.06
238.858	86.06
239.091	78.06
239.325	93.06
239.559	81.06
239.793	84.06
240.027	98.06
240.26	87.06
240.494	82.06
240.728	78.06
240.961	60.06
241.195	82.06
241.429	83.06
241.662	82.06
241.896	72.06
242.13	71.06
242.363	79.06
242.597	80.06
242.83	90.06
243.064	79.06
243.298	77.06
243.531	80.06
243.765	74.06
243.998	91.06
244.232	66.06
244.465	92.06
244.699	87.06
244.932	64.06
245.166	83.06
245.399	88.06
245.633	74.06
245.866	71.06
246.099	62.06
246.333	89.06
246.566	94.06
246.8	76.06
247.033	75.06
247.266	82.06
247.5	87.06
247.733	86.06
247.966	82.06
248.2	94.06
248.433	91.06
248.666	95.06
248.899	92.06
249.133	96.06
249.366	79.06
249.599	67.06
249.832	75.06
250.066	99.06
250.299	89.06
250.532	89.06
250.765	90.06
250.998	89.06
251.231	75.06
251.465	76.06
251.698	83.06
251.931	92.06
252.164	74.06
252.397	91.06
252.63	94.06
252.863	86.06
253.096	93.06
253.329	99.06
253.562	80.06
253.795	88.06
254.028	94.06
254.261	78.06
254.494	94.06
254.727	82.06
254.96	67.06
255.193	86.06
255.426	74.06
255.659	92.06
255.892	90.06
256.124	84.06
256.357	103.06
256.59	80.06
256.823	72.06
257.056	87.06
257.289	100.06
257.521	93.06
257.754	80.06
257.987	86.06
258.22	89.06
258.452	84.06
258.685	96.06
258.918	92.06
259.151	87.06
259.383	90.06
259.616	95.06
259.849	75.06
260.081	78.06
260.314	101.06
260.547	83.06
260.779	92.06
261.012	90.06
261.244	91.06
261.477	96.06
261.71	82.06
261.942	94.06
262.175	77.06
262.407	88.06
262.64	91.06
262.872	90.06
263.105	75.06
263.337	108.06
263.57	84.06
263.802	102.06
264.035	86.06
264.267	104.06
264.499	96.06
264.732	79.06
264.964	77.06
265.197	87.06
265.429	97.06
265.661	83.06
265.894	96.06
266.126	102.06
266.358	82.06
266.591	94.06
266.823	97.06
267.055	73.06
267.287	95.06
267.52	95.06
267.752	93.06
267.984	103.06
268.216	74.06
268.448	100.06
268.681	84.06
268.913	89.06
269.145	99.06
269.377	94.06
269.609	92.06
269.841	85.06
270.073	82.06
270.306	96.06
270.538	88.06
270.77	88.06
271.002	80.06
271.234	84.06
271.466	88.06
271.698	78.06
271.93	98.06
272.162	98.06
272.394	84.06
272.626	96.06
272.858	91.06
273.09	85.06
273.322	95.06
273.553	99.06
273.785	85.06
274.017	81.06
274.249	86.06
274.481	98.06
274.713	88.06
274.945	86.06
275.176	94.06
275.408	95.06
275.64	98.06
275.872	98.06
276.104	91.06
276.335	88.06
276.567	98.06
276.799	88.06
277.031	100.06
277.262	97.06
277.494	91.06
277.726	86.06
277.957	91.06
278.189	89.06
278.421	92.06
278.652	107.06
278.884	95.06
279.115	82.06
279.347	98.06
279.579	73.06
279.81	88.06
280.042	85.06
280.273	90.06
280.505	82.06
280.736	111.06
280.968	94.06
281.199	100.06
281.431	90.06
281.662	107.06
281.894	99.06
282.125	95.06
282.356	112.06
282.588	98.06
282.819	99.06
283.051	102.06
283.282	96.06
283.513	94.06
283.745	107.06
283.976	95.06
284.207	89.06
284.439	108.06
284.67	100.06
284.901	102.06
285.132	114.06
285.364	112.06
285.595	101.06
285.826	102.06
286.057	108.06
286.288	108.06
286.52	121.06
286.751	102.06
286.982	118.06
287.213	95.06
287.444	90.06
287.675	105.06
287.906	107.06
288.138	94.06
288.369	104.06
288.6	110.06
288.831	111.06
289.062	100.06
289.293	110.06
289.524	88.06
289.755	89.06
289.986	97.06
290.217	108.06
290.448	95.06
290.679	102.06
290.91	99.06
291.141	88.06
291.371	88.06
291.602	102.06
291.833	90.06
292.064	102.06
292.295	92.06
292.526	103.06
292.757	110.06
292.987	105.06
293.218	110.06
293.449	90.06
293.68	92.06
293.91	99.06
294.141	97.06
294.372	95.06
294.603	110.06
294.833	95.06
295.064	112.06
295.295	112.06
295.525	101.06
295.756	99.06
295.987	103.06
296.217	98.06
296.448	94.06
296.679	101.06
296.909	101.06
297.14	106.06
297.37	103.06
297.601	100.06
297.831	101.06
298.062	102.06
298.292	100.06
298.523	114.06
298.753	110.06
298.984	94.06
299.214	91.06
299.445	106.06
299.675	98.06
299.905	102.06
300.136	104.06
300.366	115.06
300.597	100.06
300.827	97.06
301.057	105.06
301.288	93.06
301.518	99.06
301.748	103.06
301.979	92.06
302.209	102.06
302.439	100.06
302.669	114.06
302.9	95.06
303.13	96.06
303.36	102.06
303.59	96.06
303.82	114.06
304.051	103.06
304.281	98.06
304.511	107.06
304.741	111.06
304.971	76.06
305.201	94.06
305.431	99.06
305.661	104.06
305.891	119.06
306.121	102.06
306.352	104.06
306.582	99.06
306.812	98.06
307.042	106.06
307.272	91.06
307.502	94.06
307.731	107.06
307.961	86.06
308.191	107.06
308.421	103.06
308.651	98.06
308.881	97.06
309.111	99.06
309.341	89.06
309.571	102.06
309.8	110.06
310.03	111.06
310.26	102.06
310.49	112.06
310.72	107.06
310.949	105.06
311.179	92.06
311.409	93.06
311.639	105.06
311.868	105.06
312.098	113.06
312.328	118.06
312.557	95.06
312.787	92.06
313.017	112.06
313.246	87.06
313.476	102.06
313.706	88.06
313.935	112.06
314.165	116.06
314.394	93.06
314.624	94.06
314.853	103.06
315.083	104.06
315.312	100.06
315.542	112.06
315.771	110.06
316.001	105.06
316.23	122.06
316.46	93.06
316.689	93.06
316.919	116.06
317.148	103.06
317.377	111.06
317.607	101.06
317.836	107.06
318.065	105.06
318.295	109.06
318.524	101.06
318.753	116.06
318.983	107.06
319.212	95.06
319.441	104.06
319.67	109.06
319.9	108.06
320.129	91.06
320.358	111.06
320.587	106.06
320.816	107.06
321.046	106.06
321.275	100.06
321.504	102.06
321.733	93.06
321.962	104.06
322.191	95.06
322.42	102.06
322.649	108.06
322.878	105.06
323.108	107.06
323.337	127.06
323.566	106.06
323.795	108.06
324.024	124.06
324.253	112.06
324.482	126.06
324.71	144.06
324.939	165.06
325.168	147.06
325.397	138.06
325.626	121.06
325.855	106.06
326.084	120.06
326.313	116.06
326.542	107.06
326.77	112.06
326.999	110.06
327.228	124.06
327.457	142.06
327.686	149.06
327.914	138.06
328.143	116.06
328.372	119.06
328.6	110.06
328.829	104.06
329.058	102.06
329.287	107.06
329.515	99.06
329.744	95.06
329.972	104.06
330.201	127.06
330.43	114.06
330.658	114.06
330.887	123.06
331.115	120.06
331.344	113.06
331.572	127.06
331.801	116.06
332.03	100.06
332.258	110.06
332.486	120.06
332.715	122.06
332.943	116.06
333.172	113.06
333.4	100.06
333.629	116.06
333.857	126.06
334.085	108.06
334.314	125.06
334.542	121.06
334.771	121.06
334.999	120.06
335.227	121.06
335.455	114.06
335.684	123.06
335.912	104.06
336.14	104.06
336.369	106.06
336.597	115.06
336.825	110.06
337.053	106.06
337.281	105.06
337.51	117.06
337.738	116.06
337.966	110.06
338.194	106.06
338.422	120.06
338.65	111.06
338.878	111.06
339.106	111.06
339.334	112.06
339.562	102.06
339.79	102.06
340.018	109.06
340.246	112.06
340.474	114.06
340.702	101.06
340.93	99.06
341.158	111.06
341.386	114.06
341.614	107.06
341.842	121.06
342.07	118.06
342.298	110.06
342.526	108.06
342.754	107.06
342.981	112.06
343.209	122.06
343.437	112.06
343.665	112.06
343.893	102.06
344.12	112.06
344.348	120.06
344.576	118.06
344.804	114.06
345.031	111.06
345.259	107.06
345.487	111.06
345.714	104.06
345.942	114.06
346.17	92.06
346.397	99.06
346.625	102.06
346.853	97.06
347.08	110.06
347.308	102.06
347.535	95.06
347.763	110.06
347.99	105.06
348.218	102.06
348.445	107.06
348.673	107.06
348.9	126.06
349.128	110.06
349.355	110.06
349.583	113.06
349.81	104.06
350.037	108.06
350.265	104.06
350.492	103.06
350.72	110.06
350.947	106.06
351.174	118.06
351.402	99.06
351.629	91.06
351.856	116.06
352.083	110.06
352.311	115.06
352.538	103.06
352.765	100.06
352.992	116.06
353.22	97.06
353.447	112.06
353.674	99.06
353.901	105.06
354.128	105.06
354.355	111.06
354.583	105.06
354.81	107.06
355.037	103.06
355.264	108.06
355.491	121.06
355.718	98.06
355.945	113.06
356.172	96.06
356.399	111.06
356.626	110.06
356.853	107.06
357.08	97.06
357.307	116.06
357.534	103.06
357.761	112.06
357.988	108.06
358.215	100.06
358.441	92.06
358.668	100.06
358.895	118.06
359.122	102.06
359.349	105.06
359.576	102.06
359.802	100.06
360.029	96.06
360.256	117.06
360.483	104.06
360.709	100.06
360.936	112.06
361.163	110.06
361.39	101.06
361.616	89.06
361.843	98.06
362.07	107.06
362.296	95.06
362.523	110.06
362.749	89.06
362.976	88.06
363.203	104.06
363.429	96.06
363.656	102.06
363.882	99.06
364.109	124.06
364.335	113.06
364.562	116.06
364.788	105.06
365.015	99.06
365.241	121.06
365.468	100.06
365.694	113.06
365.92	120.06
366.147	100.06
366.373	110.06
366.599	98.06
366.826	110.06
367.052	95.06
367.278	100.06
367.505	119.06
367.731	122.06
367.957	101.06
368.184	95.06
368.41	107.06
368.636	103.06
368.862	101.06
369.089	92.06
369.315	112.06
369.541	121.06
369.767	98.06
369.993	99.06
370.219	112.06
370.445	108.06
370.672	118.06
370.898	105.06
371.124	103.06
371.35	122.06
371.576	121.06
371.802	110.06
372.028	92.06
372.254	103.06
372.48	113.06
372.706	106.06
372.932	101.06
373.158	106.06
373.384	121.06
373.61	102.06
373.835	107.06
374.061	110.06
374.287	119.06
374.513	100.06
374.739	116.06
374.965	113.06
375.191	107.06
375.416	105.06
375.642	119.06
375.868	130.06
376.094	117.06
376.319	115.06
376.545	107.06
376.771	95.06
376.997	107.06
377.222	121.06
377.448	98.06
377.674	104.06
377.899	119.06
378.125	115.06
378.35	101.06
378.576	128.06
378.802	106.06
379.027	115.06
379.253	97.06
379.478	100.06
379.704	118.06
379.929	106.06
380.155	114.06
380.38	100.06
380.606	106.06
380.831	111.06
381.057	118.06
381.282	106.06
381.507	110.06
381.733	114.06
381.958	98.06
382.184	110.06
382.409	115.06
382.634	106.06
382.86	113.06
383.085	112.06
383.31	115.06
383.535	107.06
383.761	108.06
383.986	120.06
384.211	106.06
384.436	119.06
384.662	107.06
384.887	106.06
385.112	96.06
385.337	111.06
385.562	100.06
385.787	108.06
386.013	131.06
386.238	119.06
386.463	120.06
386.688	83.06
386.913	106.06
387.138	112.06
387.363	122.06
387.588	106.06
387.813	114.06
388.038	110.06
388.263	115.06
388.488	125.06
388.713	111.06
388.938	125.06
389.163	110.06
389.387	96.06
389.612	90.06
389.837	118.06
390.062	117.06
390.287	107.06
390.512	100.06
390.736	107.06
390.961	123.06
391.186	115.06
391.411	111.06
391.636	122.06
391.86	119.06
392.085	107.06
392.31	117.06
392.534	122.06
392.759	116.06
392.984	118.06
393.208	102.06
393.433	103.06
393.658	113.06
393.882	114.06
394.107	106.06
394.331	121.06
394.556	128.06
394.78	126.06
395.005	133.06
395.229	124.06
395.454	120.06
395.678	116.06
395.903	111.06
396.127	118.06
396.352	106.06
396.576	114.06
396.801	122.06
397.025	120.06
397.249	110.06
397.474	125.06
397.698	111.06
397.922	120.06
398.147	119.06
398.371	104.06
398.595	127.06
398.82	118.06
399.044	108.06
399.268	138.06
399.492	130.06
399.717	150.06
399.941	138.06
400.165	122.06
400.389	129.06
400.613	137.06
400.837	122.06
401.062	132.06
401.286	134.06
401.51	132.06
401.734	132.06
401.958	116.06
402.182	114.06
402.406	132.06
402.63	123.06
402.854	122.06
403.078	122.06
403.302	125.06
403.526	137.06
403.75	138.06
403.974	104.06
404.198	118.06
404.422	117.06
404.645	124.06
404.869	130.06
405.093	134.06
405.317	113.06
405.541	140.06
405.765	130.06
405.988	118.06
406.212	124.06
406.436	147.06
406.66	130.06
406.883	132.06
407.107	135.06
407.331	133.06
407.555	146.06
407.778	130.06
408.002	155.06
408.226	141.06
408.449	127.06
408.673	124.06
408.896	123.06
409.12	126.06
409.344	128.06
409.567	131.06
409.791	135.06
410.014	142.06
410.238	132.06
410.461	124.06
410.685	130.06
410.908	130.06
411.132	121.06
411.355	144.06
411.578	122.06
411.802	122.06
412.025	126.06
412.249	126.06
412.472	128.06
412.695	144.06
412.919	119.06
413.142	124.06
413.365	126.06
413.589	121.06
413.812	114.06
414.035	122.06
414.258	110.06
414.482	127.06
414.705	123.06
414.928	116.06
415.151	126.06
415.374	136.06
415.597	136.06
415.821	126.06
416.044	118.06
416.267	117.06
416.49	132.06
416.713	129.06
416.936	132.06
417.159	122.06
417.382	122.06
417.605	119.06
417.828	111.06
418.051	113.06
418.274	130.06
418.497	132.06
418.72	125.06
418.943	123.06
419.166	139.06
419.389	124.06
419.611	126.06
419.834	114.06
420.057	120.06
420.28	120.06
420.503	124.06
420.726	115.06
420.948	129.06
421.171	119.06
421.394	144.06
421.617	135.06
421.839	132.06
422.062	110.06
422.285	130.06
422.507	122.06
422.73	121.06
422.953	120.06
423.175	129.06
423.398	124.06
423.621	130.06
423.843	118.06
424.066	132.06
424.288	121.06
424.511	127.06
424.733	130.06
424.956	132.06
425.178	127.06
425.401	144.06
425.623	132.06
425.846	116.06
426.068	117.06
426.291	122.06
426.513	129.06
426.735	115.06
426.958	130.06
427.18	125.06
427.402	147.06
427.625	142.06
427.847	124.06
428.069	130.06
428.292	118.06
428.514	110.06
428.736	122.06
428.958	131.06
429.181	128.06
429.403	128.06
429.625	116.06
429.847	118.06
430.069	137.06
430.292	125.06
430.514	111.06
430.736	116.06
430.958	127.06
431.18	126.06
431.402	106.06
431.624	116.06
431.846	121.06
432.068	116.06
432.29	131.06
432.512	120.06
432.734	122.06
432.956	132.06
433.178	120.06
433.4	120.06
433.622	127.06
433.844	123.06
434.066	121.06
434.287	102.06
434.509	118.06
434.731	134.06
434.953	117.06
435.175	116.06
435.397	127.06
435.618	129.06
435.84	146.06
436.062	138.06
436.284	132.06
436.505	122.06
436.727	124.06
436.949	128.06
437.17	114.06
437.392	141.06
437.614	125.06
437.835	123.06
438.057	140.06
438.278	129.06
438.5	126.06
438.721	133.06
438.943	144.06
439.165	115.06
439.386	128.06
439.608	138.06
439.829	121.06
440.05	126.06
440.272	118.06
440.493	135.06
440.715	108.06
440.936	121.06
441.158	124.06
441.379	107.06
441.6	132.06
441.822	130.06
442.043	118.06
442.264	120.06
442.486	135.06
442.707	126.06
442.928	120.06
443.149	116.06
443.371	136.06
443.592	141.06
443.813	142.06
444.034	121.06
444.255	129.06
444.476	126.06
444.698	137.06
444.919	138.06
445.14	284.06
445.361	180.06
445.582	151.06
445.803	128.06
446.024	122.06
446.245	132.06
446.466	132.06
446.687	128.06
446.908	136.06
447.129	113.06
447.35	124.06
447.571	121.06
447.792	119.06
448.013	104.06
448.234	123.06
448.455	117.06
448.675	128.06
448.896	136.06
449.117	127.06
449.338	129.06
449.559	123.06
449.779	128.06
450	133.06
450.221	132.06
450.442	117.06
450.662	117.06
450.883	117.06
451.104	121.06
451.324	114.06
451.545	111.06
451.766	119.06
451.986	111.06
452.207	102.06
452.428	126.06
452.648	120.06
452.869	108.06
453.089	114.06
453.31	123.06
453.53	121.06
453.751	123.06
453.971	111.06
454.192	121.06
454.412	113.06
454.633	93.06
454.853	115.06
455.073	106.06
455.294	123.06
455.514	114.06
455.734	113.06
455.955	128.06
456.175	126.06
456.395	124.06
456.616	103.06
456.836	111.06
457.056	111.06
457.276	111.06
457.497	97.06
457.717	120.06
457.937	117.06
458.157	115.06
458.377	119.06
458.598	124.06
458.818	116.06
459.038	127.06
459.258	118.06
459.478	118.06
459.698	125.06
459.918	110.06
460.138	116.06
460.358	145.06
460.578	126.06
460.798	138.06
461.018	137.06
461.238	132.06
461.458	128.06
461.678	132.06
461.898	117.06
462.118	125.06
462.338	130.06
462.558	122.06
462.777	120.06
462.997	127.06
463.217	135.06
463.437	135.06
463.657	135.06
463.876	127.06
464.096	139.06
464.316	138.06
464.536	135.06
464.755	142.06
464.975	149.06
465.195	136.06
465.414	128.06
465.634	131.06
465.854	130.06
466.073	120.06
466.293	118.06
466.512	124.06
466.732	116.06
466.951	122.06
467.171	132.06
467.391	122.06
467.61	119.06
467.829	114.06
468.049	98.06
468.268	126.06
468.488	110.06
468.707	128.06
468.927	107.06
469.146	110.06
469.365	106.06
469.585	118.06
469.804	120.06
470.023	110.06
470.243	127.06
470.462	116.06
470.681	116.06
470.901	116.06
471.12	122.06
471.339	122.06
471.558	132.06
471.777	121.06
471.997	119.06
472.216	112.06
472.435	118.06
472.654	110.06
472.873	126.06
473.092	115.06
473.311	114.06
473.53	119.06
473.749	113.06
473.968	118.06
474.187	122.06
474.406	126.06
474.625	119.06
474.844	127.06
475.063	116.06
475.282	113.06
475.501	120.06
475.72	106.06
475.939	126.06
476.158	127.06
476.377	126.06
476.596	127.06
476.814	105.06
477.033	111.06
477.252	120.06
477.471	123.06
477.69	105.06
477.908	110.06
478.127	126.06
478.346	129.06
478.564	138.06
478.783	133.06
479.002	120.06
479.22	144.06
479.439	119.06
479.658	122.06
479.876	121.06
480.095	131.06
480.313	134.06
480.532	122.06
480.751	128.06
480.969	135.06
481.188	130.06
481.406	137.06
481.624	115.06
481.843	123.06
482.061	120.06
482.28	115.06
482.498	127.06
482.717	131.06
482.935	117.06
483.153	115.06
483.372	118.06
483.59	122.06
483.808	123.06
484.027	127.06
484.245	132.06
484.463	124.06
484.681	130.06
484.9	128.06
485.118	132.06
485.336	128.06
485.554	136.06
485.772	126.06
485.99	139.06
486.209	120.06
486.427	127.06
486.645	115.06
486.863	136.06
487.081	128.06
487.299	131.06
487.517	122.06
487.735	127.06
487.953	142.06
488.171	133.06
488.389	135.06
488.607	114.06
488.825	144.06
489.043	129.06
489.261	128.06
489.479	134.06
489.696	132.06
489.914	122.06
490.132	130.06
490.35	141.06
490.568	136.06
490.786	130.06
491.003	150.06
491.221	134.06
491.439	150.06
491.657	136.06
491.874	145.06
492.092	132.06
492.31	155.06
492.527	135.06
492.745	133.06
492.963	158.06
493.18	157.06
493.398	145.06
493.615	150.06
493.833	127.06
494.05	146.06
494.268	139.06
494.485	142.06
494.703	134.06
494.92	127.06
495.138	137.06
495.355	131.06
495.573	128.06
495.79	145.06
496.008	141.06
496.225	128.06
496.442	154.06
496.66	139.06
496.877	144.06
497.094	146.06
497.312	135.06
497.529	157.06
497.746	162.06
497.963	137.06
498.181	160.06
498.398	146.06
498.615	138.06
498.832	147.06
499.049	154.06
499.267	167.06
499.484	163.06
499.701	175.06
499.918	180.06
500.135	196.06
500.352	204.06
500.569	215.06
500.786	201.06
501.003	179.06
501.22	187.06
501.437	172.06
501.654	178.06
501.871	155.06
502.088	158.06
502.305	151.06
502.522	144.06
502.739	164.06
502.956	146.06
503.172	135.06
503.389	150.06
503.606	132.06
503.823	147.06
504.04	151.06
504.256	151.06
504.473	150.06
504.69	156.06
504.907	119.06
505.123	128.06
505.34	130.06
505.557	136.06
505.773	138.06
505.99	128.06
506.207	134.06
506.423	126.06
