Data from 1968.PennyLincolnUp.Lamp.En5.5.200Scan.071719.P1._HRD10591_14-50-41-970.txt Node
Date: Thu Jul 18 14:50:41 EDT 2019
User: cochatt
Spectrometer: HR+D1059
Trigger mode: 1
Integration Time (sec): 1.000000E-1
Scans to average: 1
Electric dark correction enabled: true
Nonlinearity correction enabled: false
Boxcar width: 0
XAxis mode: Wavelengths
Number of Pixels in Spectrum: 2048
>>>>>Begin Spectral Data<<<<<
223.165	-16.94
223.4	-16.94
223.635	-16.94
223.869	-17.94
224.104	-2.94
224.338	-18.94
224.573	-7.94
224.808	0.06
225.042	-1.94
225.277	-15.94
225.511	-1.94
225.746	-1.94
225.98	9.06
226.215	14.06
226.449	12.06
226.683	10.06
226.918	15.06
227.152	26.06
227.387	39.06
227.621	44.06
227.856	21.06
228.09	55.06
228.324	37.06
228.559	67.06
228.793	63.06
229.027	68.06
229.262	64.06
229.496	69.06
229.73	81.06
229.964	86.06
230.199	85.06
230.433	80.06
230.667	82.06
230.901	93.06
231.136	92.06
231.37	91.06
231.604	84.06
231.838	77.06
232.072	83.06
232.306	110.06
232.541	92.06
232.775	94.06
233.009	93.06
233.243	95.06
233.477	83.06
233.711	94.06
233.945	88.06
234.179	94.06
234.413	93.06
234.647	93.06
234.881	93.06
235.115	85.06
235.349	80.06
235.583	80.06
235.817	72.06
236.051	75.06
236.285	76.06
236.519	99.06
236.753	94.06
236.987	85.06
237.221	78.06
237.455	85.06
237.689	85.06
237.922	88.06
238.156	75.06
238.39	80.06
238.624	85.06
238.858	79.06
239.091	83.06
239.325	75.06
239.559	93.06
239.793	82.06
240.027	81.06
240.26	96.06
240.494	85.06
240.728	88.06
240.961	81.06
241.195	88.06
241.429	87.06
241.662	76.06
241.896	91.06
242.13	83.06
242.363	88.06
242.597	73.06
242.83	79.06
243.064	89.06
243.298	86.06
243.531	87.06
243.765	86.06
243.998	83.06
244.232	83.06
244.465	85.06
244.699	89.06
244.932	84.06
245.166	81.06
245.399	85.06
245.633	87.06
245.866	86.06
246.099	90.06
246.333	93.06
246.566	85.06
246.8	80.06
247.033	88.06
247.266	92.06
247.5	91.06
247.733	73.06
247.966	82.06
248.2	102.06
248.433	85.06
248.666	87.06
248.899	86.06
249.133	85.06
249.366	93.06
249.599	93.06
249.832	105.06
250.066	113.06
250.299	88.06
250.532	83.06
250.765	102.06
250.998	91.06
251.231	77.06
251.465	97.06
251.698	82.06
251.931	87.06
252.164	89.06
252.397	80.06
252.63	85.06
252.863	81.06
253.096	87.06
253.329	90.06
253.562	79.06
253.795	81.06
254.028	88.06
254.261	85.06
254.494	76.06
254.727	99.06
254.96	105.06
255.193	107.06
255.426	92.06
255.659	95.06
255.892	84.06
256.124	94.06
256.357	90.06
256.59	93.06
256.823	85.06
257.056	91.06
257.289	90.06
257.521	90.06
257.754	91.06
257.987	87.06
258.22	88.06
258.452	87.06
258.685	101.06
258.918	85.06
259.151	71.06
259.383	87.06
259.616	94.06
259.849	86.06
260.081	76.06
260.314	92.06
260.547	104.06
260.779	98.06
261.012	101.06
261.244	95.06
261.477	94.06
261.71	85.06
261.942	92.06
262.175	96.06
262.407	93.06
262.64	112.06
262.872	92.06
263.105	103.06
263.337	91.06
263.57	102.06
263.802	91.06
264.035	100.06
264.267	105.06
264.499	96.06
264.732	101.06
264.964	87.06
265.197	97.06
265.429	89.06
265.661	101.06
265.894	97.06
266.126	103.06
266.358	99.06
266.591	93.06
266.823	87.06
267.055	98.06
267.287	88.06
267.52	89.06
267.752	86.06
267.984	88.06
268.216	90.06
268.448	92.06
268.681	99.06
268.913	91.06
269.145	93.06
269.377	93.06
269.609	102.06
269.841	85.06
270.073	93.06
270.306	81.06
270.538	107.06
270.77	93.06
271.002	101.06
271.234	96.06
271.466	89.06
271.698	89.06
271.93	101.06
272.162	98.06
272.394	88.06
272.626	120.06
272.858	100.06
273.09	87.06
273.322	91.06
273.553	100.06
273.785	90.06
274.017	95.06
274.249	106.06
274.481	100.06
274.713	93.06
274.945	91.06
275.176	99.06
275.408	106.06
275.64	101.06
275.872	97.06
276.104	87.06
276.335	90.06
276.567	110.06
276.799	104.06
277.031	99.06
277.262	99.06
277.494	93.06
277.726	99.06
277.957	81.06
278.189	101.06
278.421	103.06
278.652	98.06
278.884	99.06
279.115	99.06
279.347	104.06
279.579	105.06
279.81	96.06
280.042	97.06
280.273	104.06
280.505	93.06
280.736	96.06
280.968	105.06
281.199	101.06
281.431	89.06
281.662	105.06
281.894	92.06
282.125	105.06
282.356	84.06
282.588	111.06
282.819	110.06
283.051	88.06
283.282	111.06
283.513	101.06
283.745	100.06
283.976	93.06
284.207	96.06
284.439	118.06
284.67	97.06
284.901	95.06
285.132	97.06
285.364	98.06
285.595	106.06
285.826	98.06
286.057	100.06
286.288	97.06
286.52	101.06
286.751	115.06
286.982	107.06
287.213	101.06
287.444	106.06
287.675	92.06
287.906	87.06
288.138	105.06
288.369	96.06
288.6	112.06
288.831	104.06
289.062	111.06
289.293	97.06
289.524	111.06
289.755	95.06
289.986	105.06
290.217	110.06
290.448	105.06
290.679	111.06
290.91	115.06
291.141	106.06
291.371	99.06
291.602	110.06
291.833	100.06
292.064	108.06
292.295	105.06
292.526	87.06
292.757	109.06
292.987	91.06
293.218	97.06
293.449	110.06
293.68	104.06
293.91	123.06
294.141	100.06
294.372	104.06
294.603	97.06
294.833	101.06
295.064	110.06
295.295	103.06
295.525	100.06
295.756	97.06
295.987	112.06
296.217	111.06
296.448	121.06
296.679	110.06
296.909	115.06
297.14	103.06
297.37	113.06
297.601	98.06
297.831	100.06
298.062	110.06
298.292	101.06
298.523	111.06
298.753	110.06
298.984	105.06
299.214	112.06
299.445	102.06
299.675	111.06
299.905	104.06
300.136	118.06
300.366	116.06
300.597	96.06
300.827	113.06
301.057	99.06
301.288	96.06
301.518	109.06
301.748	108.06
301.979	111.06
302.209	101.06
302.439	95.06
302.669	98.06
302.9	111.06
303.13	107.06
303.36	96.06
303.59	106.06
303.82	97.06
304.051	105.06
304.281	113.06
304.511	112.06
304.741	105.06
304.971	113.06
305.201	99.06
305.431	115.06
305.661	111.06
305.891	107.06
306.121	112.06
306.352	103.06
306.582	97.06
306.812	111.06
307.042	92.06
307.272	101.06
307.502	105.06
307.731	110.06
307.961	103.06
308.191	110.06
308.421	98.06
308.651	105.06
308.881	93.06
309.111	116.06
309.341	92.06
309.571	116.06
309.8	105.06
310.03	109.06
310.26	108.06
310.49	103.06
310.72	106.06
310.949	98.06
311.179	103.06
311.409	101.06
311.639	118.06
311.868	104.06
312.098	131.06
312.328	134.06
312.557	120.06
312.787	119.06
313.017	115.06
313.246	117.06
313.476	118.06
313.706	128.06
313.935	115.06
314.165	115.06
314.394	120.06
314.624	110.06
314.853	110.06
315.083	109.06
315.312	116.06
315.542	121.06
315.771	102.06
316.001	106.06
316.23	117.06
316.46	100.06
316.689	117.06
316.919	101.06
317.148	107.06
317.377	104.06
317.607	123.06
317.836	117.06
318.065	112.06
318.295	111.06
318.524	110.06
318.753	110.06
318.983	111.06
319.212	109.06
319.441	117.06
319.67	87.06
319.9	121.06
320.129	110.06
320.358	105.06
320.587	118.06
320.816	105.06
321.046	105.06
321.275	116.06
321.504	110.06
321.733	113.06
321.962	111.06
322.191	98.06
322.42	124.06
322.649	124.06
322.878	107.06
323.108	113.06
323.337	116.06
323.566	113.06
323.795	115.06
324.024	110.06
324.253	134.06
324.482	141.06
324.71	161.06
324.939	184.06
325.168	165.06
325.397	116.06
325.626	125.06
325.855	106.06
326.084	117.06
326.313	123.06
326.542	110.06
326.77	115.06
326.999	127.06
327.228	131.06
327.457	126.06
327.686	146.06
327.914	134.06
328.143	126.06
328.372	123.06
328.6	119.06
328.829	108.06
329.058	122.06
329.287	118.06
329.515	111.06
329.744	103.06
329.972	112.06
330.201	113.06
330.43	120.06
330.658	116.06
330.887	114.06
331.115	110.06
331.344	111.06
331.572	117.06
331.801	118.06
332.03	111.06
332.258	117.06
332.486	119.06
332.715	125.06
332.943	117.06
333.172	105.06
333.4	131.06
333.629	119.06
333.857	129.06
334.085	133.06
334.314	120.06
334.542	136.06
334.771	124.06
334.999	117.06
335.227	111.06
335.455	129.06
335.684	113.06
335.912	122.06
336.14	118.06
336.369	124.06
336.597	103.06
336.825	127.06
337.053	112.06
337.281	110.06
337.51	125.06
337.738	120.06
337.966	107.06
338.194	107.06
338.422	104.06
338.65	111.06
338.878	109.06
339.106	106.06
339.334	107.06
339.562	119.06
339.79	116.06
340.018	109.06
340.246	107.06
340.474	116.06
340.702	113.06
340.93	122.06
341.158	121.06
341.386	121.06
341.614	104.06
341.842	96.06
342.07	124.06
342.298	113.06
342.526	115.06
342.754	101.06
342.981	109.06
343.209	110.06
343.437	111.06
343.665	121.06
343.893	125.06
344.12	131.06
344.348	121.06
344.576	103.06
344.804	116.06
345.031	125.06
345.259	138.06
345.487	111.06
345.714	117.06
345.942	127.06
346.17	116.06
346.397	111.06
346.625	106.06
346.853	101.06
347.08	111.06
347.308	112.06
347.535	119.06
347.763	125.06
347.99	112.06
348.218	118.06
348.445	105.06
348.673	113.06
348.9	116.06
349.128	108.06
349.355	109.06
349.583	109.06
349.81	92.06
350.037	115.06
350.265	110.06
350.492	120.06
350.72	105.06
350.947	117.06
351.174	110.06
351.402	116.06
351.629	118.06
351.856	109.06
352.083	110.06
352.311	122.06
352.538	118.06
352.765	116.06
352.992	118.06
353.22	104.06
353.447	125.06
353.674	120.06
353.901	115.06
354.128	125.06
354.355	116.06
354.583	112.06
354.81	119.06
355.037	118.06
355.264	106.06
355.491	108.06
355.718	101.06
355.945	110.06
356.172	100.06
356.399	128.06
356.626	111.06
356.853	127.06
357.08	119.06
357.307	119.06
357.534	102.06
357.761	102.06
357.988	110.06
358.215	117.06
358.441	114.06
358.668	108.06
358.895	106.06
359.122	116.06
359.349	123.06
359.576	119.06
359.802	110.06
360.029	120.06
360.256	127.06
360.483	111.06
360.709	100.06
360.936	119.06
361.163	115.06
361.39	99.06
361.616	109.06
361.843	114.06
362.07	110.06
362.296	110.06
362.523	128.06
362.749	115.06
362.976	120.06
363.203	107.06
363.429	101.06
363.656	112.06
363.882	117.06
364.109	110.06
364.335	135.06
364.562	124.06
364.788	109.06
365.015	106.06
365.241	107.06
365.468	94.06
365.694	117.06
365.92	109.06
366.147	123.06
366.373	112.06
366.599	105.06
366.826	124.06
367.052	117.06
367.278	108.06
367.505	115.06
367.731	105.06
367.957	116.06
368.184	112.06
368.41	115.06
368.636	137.06
368.862	119.06
369.089	110.06
369.315	88.06
369.541	106.06
369.767	105.06
369.993	97.06
370.219	121.06
370.445	101.06
370.672	112.06
370.898	105.06
371.124	120.06
371.35	93.06
371.576	119.06
371.802	108.06
372.028	127.06
372.254	132.06
372.48	115.06
372.706	117.06
372.932	124.06
373.158	109.06
373.384	117.06
373.61	127.06
373.835	106.06
374.061	118.06
374.287	104.06
374.513	123.06
374.739	109.06
374.965	116.06
375.191	116.06
375.416	117.06
375.642	104.06
375.868	109.06
376.094	113.06
376.319	111.06
376.545	112.06
376.771	102.06
376.997	120.06
377.222	117.06
377.448	109.06
377.674	112.06
377.899	127.06
378.125	124.06
378.35	94.06
378.576	113.06
378.802	124.06
379.027	121.06
379.253	119.06
379.478	110.06
379.704	112.06
379.929	118.06
380.155	118.06
380.38	109.06
380.606	128.06
380.831	125.06
381.057	144.06
381.282	107.06
381.507	123.06
381.733	119.06
381.958	101.06
382.184	93.06
382.409	112.06
382.634	115.06
382.86	112.06
383.085	115.06
383.31	115.06
383.535	141.06
383.761	119.06
383.986	123.06
384.211	120.06
384.436	115.06
384.662	124.06
384.887	130.06
385.112	113.06
385.337	123.06
385.562	112.06
385.787	133.06
386.013	112.06
386.238	109.06
386.463	131.06
386.688	123.06
386.913	113.06
387.138	127.06
387.363	113.06
387.588	126.06
387.813	115.06
388.038	115.06
388.263	152.06
388.488	118.06
388.713	108.06
388.938	110.06
389.163	122.06
389.387	116.06
389.612	123.06
389.837	120.06
390.062	120.06
390.287	131.06
390.512	124.06
390.736	125.06
390.961	116.06
391.186	120.06
391.411	106.06
391.636	117.06
391.86	119.06
392.085	120.06
392.31	131.06
392.534	117.06
392.759	125.06
392.984	115.06
393.208	128.06
393.433	124.06
393.658	123.06
393.882	119.06
394.107	120.06
394.331	115.06
394.556	108.06
394.78	114.06
395.005	124.06
395.229	121.06
395.454	111.06
395.678	115.06
395.903	123.06
396.127	123.06
396.352	135.06
396.576	116.06
396.801	117.06
397.025	117.06
397.249	142.06
397.474	117.06
397.698	121.06
397.922	127.06
398.147	141.06
398.371	127.06
398.595	139.06
398.82	122.06
399.044	134.06
399.268	132.06
399.492	141.06
399.717	152.06
399.941	152.06
400.165	147.06
400.389	132.06
400.613	129.06
400.837	136.06
401.062	125.06
401.286	125.06
401.51	138.06
401.734	129.06
401.958	137.06
402.182	135.06
402.406	126.06
402.63	136.06
402.854	123.06
403.078	125.06
403.302	132.06
403.526	150.06
403.75	126.06
403.974	139.06
404.198	126.06
404.422	136.06
404.645	144.06
404.869	143.06
405.093	142.06
405.317	136.06
405.541	130.06
405.765	140.06
405.988	129.06
406.212	134.06
406.436	139.06
406.66	124.06
406.883	127.06
407.107	137.06
407.331	141.06
407.555	171.06
407.778	144.06
408.002	126.06
408.226	151.06
408.449	140.06
408.673	144.06
408.896	126.06
409.12	129.06
409.344	118.06
409.567	141.06
409.791	141.06
410.014	135.06
410.238	138.06
410.461	108.06
410.685	133.06
410.908	133.06
411.132	141.06
411.355	127.06
411.578	132.06
411.802	124.06
412.025	129.06
412.249	136.06
412.472	132.06
412.695	138.06
412.919	134.06
413.142	132.06
413.365	136.06
413.589	134.06
413.812	133.06
414.035	142.06
414.258	135.06
414.482	144.06
414.705	136.06
414.928	139.06
415.151	126.06
415.374	143.06
415.597	133.06
415.821	131.06
416.044	120.06
416.267	111.06
416.49	139.06
416.713	116.06
416.936	139.06
417.159	137.06
417.382	135.06
417.605	135.06
417.828	138.06
418.051	130.06
418.274	119.06
418.497	136.06
418.72	124.06
418.943	124.06
419.166	127.06
419.389	146.06
419.611	148.06
419.834	134.06
420.057	127.06
420.28	110.06
420.503	120.06
420.726	129.06
420.948	124.06
421.171	124.06
421.394	139.06
421.617	145.06
421.839	123.06
422.062	127.06
422.285	136.06
422.507	131.06
422.73	123.06
422.953	135.06
423.175	142.06
423.398	146.06
423.621	124.06
423.843	136.06
424.066	131.06
424.288	132.06
424.511	131.06
424.733	131.06
424.956	140.06
425.178	148.06
425.401	136.06
425.623	136.06
425.846	141.06
426.068	129.06
426.291	136.06
426.513	140.06
426.735	126.06
426.958	128.06
427.18	137.06
427.402	151.06
427.625	142.06
427.847	129.06
428.069	137.06
428.292	134.06
428.514	133.06
428.736	135.06
428.958	123.06
429.181	135.06
429.403	133.06
429.625	113.06
429.847	149.06
430.069	129.06
430.292	127.06
430.514	136.06
430.736	122.06
430.958	143.06
431.18	124.06
431.402	131.06
431.624	132.06
431.846	123.06
432.068	134.06
432.29	127.06
432.512	139.06
432.734	132.06
432.956	128.06
433.178	136.06
433.4	133.06
433.622	130.06
433.844	127.06
434.066	137.06
434.287	107.06
434.509	136.06
434.731	127.06
434.953	135.06
435.175	134.06
435.397	132.06
435.618	137.06
435.84	131.06
436.062	146.06
436.284	136.06
436.505	132.06
436.727	119.06
436.949	137.06
437.17	119.06
437.392	133.06
437.614	133.06
437.835	108.06
438.057	131.06
438.278	133.06
438.5	149.06
438.721	143.06
438.943	143.06
439.165	124.06
439.386	132.06
439.608	130.06
439.829	123.06
440.05	134.06
440.272	131.06
440.493	128.06
440.715	140.06
440.936	132.06
441.158	127.06
441.379	139.06
441.6	148.06
441.822	137.06
442.043	134.06
442.264	135.06
442.486	132.06
442.707	131.06
442.928	134.06
443.149	119.06
443.371	121.06
443.592	155.06
443.813	149.06
444.034	154.06
444.255	142.06
444.476	137.06
444.698	139.06
444.919	135.06
445.14	223.06
445.361	179.06
445.582	134.06
445.803	149.06
446.024	145.06
446.245	134.06
446.466	142.06
446.687	123.06
446.908	129.06
447.129	127.06
447.35	131.06
447.571	130.06
447.792	120.06
448.013	132.06
448.234	128.06
448.455	124.06
448.675	145.06
448.896	126.06
449.117	130.06
449.338	137.06
449.559	142.06
449.779	127.06
450	151.06
450.221	130.06
450.442	119.06
450.662	115.06
450.883	120.06
451.104	122.06
451.324	130.06
451.545	133.06
451.766	124.06
451.986	128.06
452.207	135.06
452.428	133.06
452.648	117.06
452.869	142.06
453.089	122.06
453.31	123.06
453.53	124.06
453.751	134.06
453.971	117.06
454.192	117.06
454.412	137.06
454.633	130.06
454.853	120.06
455.073	133.06
455.294	124.06
455.514	114.06
455.734	120.06
455.955	133.06
456.175	121.06
456.395	129.06
456.616	115.06
456.836	131.06
457.056	116.06
457.276	110.06
457.497	118.06
457.717	105.06
457.937	126.06
458.157	117.06
458.377	129.06
458.598	117.06
458.818	115.06
459.038	133.06
459.258	128.06
459.478	124.06
459.698	121.06
459.918	139.06
460.138	120.06
460.358	131.06
460.578	123.06
460.798	128.06
461.018	138.06
461.238	110.06
461.458	135.06
461.678	146.06
461.898	124.06
462.118	135.06
462.338	143.06
462.558	141.06
462.777	145.06
462.997	147.06
463.217	149.06
463.437	131.06
463.657	142.06
463.876	149.06
464.096	147.06
464.316	130.06
464.536	139.06
464.755	146.06
464.975	134.06
465.195	135.06
465.414	125.06
465.634	136.06
465.854	131.06
466.073	130.06
466.293	130.06
466.512	116.06
466.732	116.06
466.951	117.06
467.171	130.06
467.391	122.06
467.61	126.06
467.829	99.06
468.049	123.06
468.268	118.06
468.488	128.06
468.707	122.06
468.927	112.06
469.146	126.06
469.365	110.06
469.585	135.06
469.804	127.06
470.023	127.06
470.243	120.06
470.462	135.06
470.681	117.06
470.901	125.06
471.12	115.06
471.339	131.06
471.558	113.06
471.777	107.06
471.997	127.06
472.216	133.06
472.435	133.06
472.654	109.06
472.873	142.06
473.092	134.06
473.311	130.06
473.53	123.06
473.749	125.06
473.968	127.06
474.187	135.06
474.406	131.06
474.625	132.06
474.844	116.06
475.063	133.06
475.282	121.06
475.501	124.06
475.72	127.06
475.939	127.06
476.158	123.06
476.377	137.06
476.596	119.06
476.814	119.06
477.033	130.06
477.252	129.06
477.471	109.06
477.69	123.06
477.908	123.06
478.127	140.06
478.346	131.06
478.564	122.06
478.783	132.06
479.002	127.06
479.22	133.06
479.439	138.06
479.658	143.06
479.876	135.06
480.095	136.06
480.313	129.06
480.532	139.06
480.751	145.06
480.969	137.06
481.188	143.06
481.406	145.06
481.624	122.06
481.843	140.06
482.061	135.06
482.28	138.06
482.498	149.06
482.717	126.06
482.935	126.06
483.153	123.06
483.372	141.06
483.59	134.06
483.808	143.06
484.027	129.06
484.245	121.06
484.463	130.06
484.681	128.06
484.9	131.06
485.118	142.06
485.336	136.06
485.554	138.06
485.772	137.06
485.99	132.06
486.209	143.06
486.427	149.06
486.645	156.06
486.863	135.06
487.081	127.06
487.299	127.06
487.517	136.06
487.735	131.06
487.953	132.06
488.171	137.06
488.389	132.06
488.607	137.06
488.825	144.06
489.043	118.06
489.261	135.06
489.479	135.06
489.696	141.06
489.914	137.06
490.132	134.06
490.35	120.06
490.568	131.06
490.786	125.06
491.003	156.06
491.221	142.06
491.439	139.06
491.657	145.06
491.874	150.06
492.092	168.06
492.31	152.06
492.527	140.06
492.745	140.06
492.963	150.06
493.18	133.06
493.398	139.06
493.615	159.06
493.833	136.06
494.05	150.06
494.268	141.06
494.485	139.06
494.703	135.06
494.92	145.06
495.138	132.06
495.355	156.06
495.573	139.06
495.79	147.06
496.008	143.06
496.225	141.06
496.442	131.06
496.66	156.06
496.877	133.06
497.094	146.06
497.312	158.06
497.529	146.06
497.746	143.06
497.963	148.06
498.181	149.06
498.398	151.06
498.615	145.06
498.832	149.06
499.049	174.06
499.267	165.06
499.484	187.06
499.701	183.06
499.918	199.06
500.135	210.06
500.352	222.06
500.569	215.06
500.786	221.06
501.003	203.06
501.22	195.06
501.437	192.06
501.654	192.06
501.871	168.06
502.088	162.06
502.305	167.06
502.522	173.06
502.739	164.06
502.956	157.06
503.172	148.06
503.389	163.06
503.606	158.06
503.823	153.06
504.04	149.06
504.256	155.06
504.473	163.06
504.69	152.06
504.907	148.06
505.123	142.06
505.34	147.06
