Data from 1968.PennyLincolnUp.Lamp.En5.5.200Scan.071719.P1._HRD10591_14-51-24-970.txt Node
Date: Thu Jul 18 14:51:24 EDT 2019
User: cochatt
Spectrometer: HR+D1059
Trigger mode: 1
Integration Time (sec): 1.000000E-1
Scans to average: 1
Electric dark correction enabled: true
Nonlinearity correction enabled: false
Boxcar width: 0
XAxis mode: Wavelengths
Number of Pixels in Spectrum: 2048
>>>>>Begin Spectral Data<<<<<
223.165	-18.88
223.4	-18.88
223.635	-18.88
223.869	-4.88
224.104	-12.88
224.338	-15.88
224.573	-3.88
224.808	-8.88
225.042	-23.88
225.277	-6.88
225.511	-6.88
225.746	15.12
225.98	8.12
226.215	14.12
226.449	8.12
226.683	23.12
226.918	11.12
227.152	23.12
227.387	33.12
227.621	43.12
227.856	47.12
228.09	37.12
228.324	59.12
228.559	68.12
228.793	56.12
229.027	63.12
229.262	59.12
229.496	77.12
229.73	77.12
229.964	97.12
230.199	88.12
230.433	90.12
230.667	86.12
230.901	80.12
231.136	82.12
231.37	92.12
231.604	87.12
231.838	83.12
232.072	76.12
232.306	80.12
232.541	81.12
232.775	93.12
233.009	85.12
233.243	90.12
233.477	89.12
233.711	95.12
233.945	73.12
234.179	80.12
234.413	73.12
234.647	80.12
234.881	87.12
235.115	84.12
235.349	78.12
235.583	96.12
235.817	77.12
236.051	92.12
236.285	71.12
236.519	77.12
236.753	80.12
236.987	83.12
237.221	89.12
237.455	72.12
237.689	95.12
237.922	88.12
238.156	95.12
238.39	85.12
238.624	62.12
238.858	89.12
239.091	86.12
239.325	86.12
239.559	82.12
239.793	78.12
240.027	91.12
240.26	101.12
240.494	84.12
240.728	91.12
240.961	81.12
241.195	74.12
241.429	72.12
241.662	86.12
241.896	77.12
242.13	98.12
242.363	71.12
242.597	85.12
242.83	73.12
243.064	82.12
243.298	92.12
243.531	86.12
243.765	76.12
243.998	75.12
244.232	86.12
244.465	81.12
244.699	94.12
244.932	94.12
245.166	75.12
245.399	87.12
245.633	89.12
245.866	85.12
246.099	80.12
246.333	93.12
246.566	85.12
246.8	102.12
247.033	84.12
247.266	91.12
247.5	89.12
247.733	81.12
247.966	87.12
248.2	89.12
248.433	93.12
248.666	88.12
248.899	81.12
249.133	89.12
249.366	106.12
249.599	85.12
249.832	99.12
250.066	115.12
250.299	94.12
250.532	97.12
250.765	93.12
250.998	80.12
251.231	96.12
251.465	88.12
251.698	83.12
251.931	86.12
252.164	97.12
252.397	95.12
252.63	89.12
252.863	82.12
253.096	96.12
253.329	83.12
253.562	91.12
253.795	92.12
254.028	87.12
254.261	92.12
254.494	91.12
254.727	90.12
254.96	97.12
255.193	94.12
255.426	98.12
255.659	84.12
255.892	91.12
256.124	88.12
256.357	103.12
256.59	101.12
256.823	92.12
257.056	90.12
257.289	96.12
257.521	99.12
257.754	96.12
257.987	87.12
258.22	96.12
258.452	93.12
258.685	95.12
258.918	95.12
259.151	89.12
259.383	105.12
259.616	93.12
259.849	95.12
260.081	98.12
260.314	97.12
260.547	104.12
260.779	96.12
261.012	109.12
261.244	95.12
261.477	94.12
261.71	99.12
261.942	105.12
262.175	101.12
262.407	99.12
262.64	86.12
262.872	85.12
263.105	88.12
263.337	99.12
263.57	90.12
263.802	88.12
264.035	87.12
264.267	110.12
264.499	85.12
264.732	87.12
264.964	86.12
265.197	97.12
265.429	89.12
265.661	74.12
265.894	102.12
266.126	94.12
266.358	87.12
266.591	101.12
266.823	102.12
267.055	96.12
267.287	101.12
267.52	98.12
267.752	88.12
267.984	98.12
268.216	104.12
268.448	113.12
268.681	109.12
268.913	102.12
269.145	110.12
269.377	105.12
269.609	95.12
269.841	110.12
270.073	99.12
270.306	94.12
270.538	102.12
270.77	113.12
271.002	91.12
271.234	101.12
271.466	109.12
271.698	102.12
271.93	99.12
272.162	100.12
272.394	95.12
272.626	103.12
272.858	97.12
273.09	121.12
273.322	103.12
273.553	88.12
273.785	107.12
274.017	84.12
274.249	102.12
274.481	112.12
274.713	101.12
274.945	108.12
275.176	96.12
275.408	98.12
275.64	90.12
275.872	108.12
276.104	105.12
276.335	97.12
276.567	97.12
276.799	109.12
277.031	105.12
277.262	117.12
277.494	89.12
277.726	95.12
277.957	99.12
278.189	109.12
278.421	97.12
278.652	108.12
278.884	89.12
279.115	109.12
279.347	98.12
279.579	99.12
279.81	87.12
280.042	108.12
280.273	107.12
280.505	91.12
280.736	109.12
280.968	109.12
281.199	91.12
281.431	101.12
281.662	103.12
281.894	96.12
282.125	104.12
282.356	98.12
282.588	97.12
282.819	92.12
283.051	102.12
283.282	110.12
283.513	114.12
283.745	87.12
283.976	93.12
284.207	91.12
284.439	108.12
284.67	106.12
284.901	107.12
285.132	81.12
285.364	99.12
285.595	115.12
285.826	103.12
286.057	96.12
286.288	100.12
286.52	95.12
286.751	111.12
286.982	103.12
287.213	102.12
287.444	111.12
287.675	98.12
287.906	100.12
288.138	113.12
288.369	108.12
288.6	103.12
288.831	118.12
289.062	118.12
289.293	91.12
289.524	107.12
289.755	103.12
289.986	107.12
290.217	120.12
290.448	106.12
290.679	94.12
290.91	101.12
291.141	106.12
291.371	104.12
291.602	105.12
291.833	87.12
292.064	104.12
292.295	110.12
292.526	111.12
292.757	112.12
292.987	99.12
293.218	98.12
293.449	109.12
293.68	111.12
293.91	98.12
294.141	114.12
294.372	109.12
294.603	110.12
294.833	103.12
295.064	94.12
295.295	102.12
295.525	114.12
295.756	102.12
295.987	113.12
296.217	111.12
296.448	103.12
296.679	94.12
296.909	120.12
297.14	112.12
297.37	112.12
297.601	122.12
297.831	118.12
298.062	112.12
298.292	97.12
298.523	129.12
298.753	101.12
298.984	122.12
299.214	109.12
299.445	106.12
299.675	102.12
299.905	97.12
300.136	113.12
300.366	95.12
300.597	103.12
300.827	121.12
301.057	101.12
301.288	109.12
301.518	113.12
301.748	125.12
301.979	115.12
302.209	101.12
302.439	110.12
302.669	106.12
302.9	92.12
303.13	104.12
303.36	99.12
303.59	104.12
303.82	89.12
304.051	114.12
304.281	115.12
304.511	105.12
304.741	117.12
304.971	104.12
305.201	105.12
305.431	111.12
305.661	105.12
305.891	98.12
306.121	107.12
306.352	110.12
306.582	112.12
306.812	113.12
307.042	111.12
307.272	105.12
307.502	104.12
307.731	98.12
307.961	102.12
308.191	95.12
308.421	114.12
308.651	110.12
308.881	106.12
309.111	110.12
309.341	108.12
309.571	126.12
309.8	110.12
310.03	117.12
310.26	93.12
310.49	103.12
310.72	107.12
310.949	121.12
311.179	117.12
311.409	117.12
311.639	100.12
311.868	114.12
312.098	106.12
312.328	115.12
312.557	113.12
312.787	112.12
313.017	113.12
313.246	114.12
313.476	109.12
313.706	116.12
313.935	115.12
314.165	109.12
314.394	127.12
314.624	119.12
314.853	104.12
315.083	117.12
315.312	116.12
315.542	118.12
315.771	104.12
316.001	113.12
316.23	107.12
316.46	107.12
316.689	106.12
316.919	106.12
317.148	110.12
317.377	108.12
317.607	106.12
317.836	93.12
318.065	114.12
318.295	113.12
318.524	123.12
318.753	106.12
318.983	102.12
319.212	122.12
319.441	96.12
319.67	106.12
319.9	119.12
320.129	127.12
320.358	112.12
320.587	107.12
320.816	106.12
321.046	114.12
321.275	119.12
321.504	104.12
321.733	111.12
321.962	112.12
322.191	124.12
322.42	103.12
322.649	119.12
322.878	111.12
323.108	109.12
323.337	113.12
323.566	111.12
323.795	115.12
324.024	114.12
324.253	126.12
324.482	134.12
324.71	163.12
324.939	185.12
325.168	177.12
325.397	127.12
325.626	113.12
325.855	104.12
326.084	109.12
326.313	122.12
326.542	120.12
326.77	114.12
326.999	119.12
327.228	133.12
327.457	153.12
327.686	174.12
327.914	139.12
328.143	119.12
328.372	129.12
328.6	122.12
328.829	108.12
329.058	113.12
329.287	105.12
329.515	124.12
329.744	116.12
329.972	110.12
330.201	123.12
330.43	129.12
330.658	127.12
330.887	128.12
331.115	117.12
331.344	121.12
331.572	119.12
331.801	118.12
332.03	114.12
332.258	114.12
332.486	114.12
332.715	123.12
332.943	121.12
333.172	126.12
333.4	131.12
333.629	134.12
333.857	130.12
334.085	118.12
334.314	139.12
334.542	126.12
334.771	121.12
334.999	107.12
335.227	109.12
335.455	129.12
335.684	127.12
335.912	112.12
336.14	112.12
336.369	103.12
336.597	99.12
336.825	125.12
337.053	121.12
337.281	115.12
337.51	117.12
337.738	127.12
337.966	128.12
338.194	118.12
338.422	133.12
338.65	110.12
338.878	123.12
339.106	102.12
339.334	114.12
339.562	104.12
339.79	126.12
340.018	105.12
340.246	117.12
340.474	120.12
340.702	124.12
340.93	121.12
341.158	123.12
341.386	125.12
341.614	121.12
341.842	114.12
342.07	119.12
342.298	132.12
342.526	114.12
342.754	123.12
342.981	121.12
343.209	121.12
343.437	118.12
343.665	109.12
343.893	129.12
344.12	119.12
344.348	118.12
344.576	117.12
344.804	108.12
345.031	102.12
345.259	109.12
345.487	115.12
345.714	103.12
345.942	107.12
346.17	133.12
346.397	99.12
346.625	124.12
346.853	117.12
347.08	108.12
347.308	117.12
347.535	125.12
347.763	111.12
347.99	123.12
348.218	114.12
348.445	111.12
348.673	97.12
348.9	115.12
349.128	120.12
349.355	127.12
349.583	104.12
349.81	108.12
350.037	107.12
350.265	114.12
350.492	115.12
350.72	109.12
350.947	123.12
351.174	121.12
351.402	109.12
351.629	121.12
351.856	106.12
352.083	117.12
352.311	110.12
352.538	117.12
352.765	101.12
352.992	121.12
353.22	106.12
353.447	131.12
353.674	117.12
353.901	109.12
354.128	128.12
354.355	99.12
354.583	107.12
354.81	100.12
355.037	92.12
355.264	111.12
355.491	115.12
355.718	113.12
355.945	107.12
356.172	104.12
356.399	112.12
356.626	126.12
356.853	129.12
357.08	122.12
357.307	112.12
357.534	103.12
357.761	117.12
357.988	110.12
358.215	114.12
358.441	100.12
358.668	122.12
358.895	121.12
359.122	125.12
359.349	117.12
359.576	113.12
359.802	112.12
360.029	105.12
360.256	130.12
360.483	114.12
360.709	103.12
360.936	121.12
361.163	111.12
361.39	112.12
361.616	125.12
361.843	126.12
362.07	124.12
362.296	118.12
362.523	117.12
362.749	113.12
362.976	117.12
363.203	130.12
363.429	103.12
363.656	117.12
363.882	107.12
364.109	117.12
364.335	123.12
364.562	106.12
364.788	115.12
365.015	123.12
365.241	116.12
365.468	137.12
365.694	125.12
365.92	115.12
366.147	122.12
366.373	101.12
366.599	99.12
366.826	114.12
367.052	118.12
367.278	112.12
367.505	108.12
367.731	131.12
367.957	103.12
368.184	117.12
368.41	106.12
368.636	102.12
368.862	124.12
369.089	96.12
369.315	114.12
369.541	107.12
369.767	117.12
369.993	106.12
370.219	118.12
370.445	106.12
370.672	111.12
370.898	95.12
371.124	118.12
371.35	106.12
371.576	112.12
371.802	113.12
372.028	109.12
372.254	118.12
372.48	122.12
372.706	110.12
372.932	114.12
373.158	125.12
373.384	113.12
373.61	126.12
373.835	118.12
374.061	105.12
374.287	106.12
374.513	124.12
374.739	119.12
374.965	114.12
375.191	119.12
375.416	101.12
375.642	122.12
375.868	119.12
376.094	104.12
376.319	113.12
376.545	104.12
376.771	131.12
376.997	125.12
377.222	122.12
377.448	119.12
377.674	116.12
377.899	117.12
378.125	104.12
378.35	112.12
378.576	117.12
378.802	119.12
379.027	107.12
379.253	121.12
379.478	105.12
379.704	125.12
379.929	102.12
380.155	111.12
380.38	106.12
380.606	101.12
380.831	101.12
381.057	109.12
381.282	112.12
381.507	115.12
381.733	119.12
381.958	115.12
382.184	129.12
382.409	124.12
382.634	117.12
382.86	125.12
383.085	130.12
383.31	112.12
383.535	125.12
383.761	116.12
383.986	117.12
384.211	130.12
384.436	122.12
384.662	104.12
384.887	112.12
385.112	122.12
385.337	111.12
385.562	123.12
385.787	121.12
386.013	135.12
386.238	129.12
386.463	129.12
386.688	135.12
386.913	117.12
387.138	112.12
387.363	130.12
387.588	134.12
387.813	127.12
388.038	107.12
388.263	119.12
388.488	112.12
388.713	112.12
388.938	114.12
389.163	129.12
389.387	105.12
389.612	135.12
389.837	130.12
390.062	132.12
390.287	130.12
390.512	120.12
390.736	123.12
390.961	125.12
391.186	128.12
391.411	121.12
391.636	129.12
391.86	127.12
392.085	113.12
392.31	130.12
392.534	133.12
392.759	119.12
392.984	128.12
393.208	127.12
393.433	127.12
393.658	119.12
393.882	118.12
394.107	115.12
394.331	121.12
394.556	121.12
394.78	127.12
395.005	121.12
395.229	116.12
395.454	139.12
395.678	118.12
395.903	121.12
396.127	121.12
396.352	121.12
396.576	113.12
396.801	127.12
397.025	133.12
397.249	122.12
397.474	134.12
397.698	128.12
397.922	127.12
398.147	117.12
398.371	137.12
398.595	133.12
398.82	121.12
399.044	130.12
399.268	130.12
399.492	144.12
399.717	143.12
399.941	150.12
400.165	141.12
400.389	137.12
400.613	139.12
400.837	135.12
401.062	137.12
401.286	137.12
401.51	126.12
401.734	129.12
401.958	137.12
402.182	143.12
402.406	130.12
402.63	129.12
402.854	128.12
403.078	139.12
403.302	141.12
403.526	137.12
403.75	137.12
403.974	132.12
404.198	127.12
404.422	145.12
404.645	135.12
404.869	134.12
405.093	132.12
405.317	131.12
405.541	165.12
405.765	145.12
405.988	152.12
406.212	141.12
406.436	135.12
406.66	153.12
406.883	135.12
407.107	137.12
407.331	152.12
407.555	142.12
407.778	158.12
408.002	155.12
408.226	167.12
408.449	129.12
408.673	125.12
408.896	144.12
409.12	153.12
409.344	125.12
409.567	121.12
409.791	138.12
410.014	133.12
410.238	144.12
410.461	155.12
410.685	139.12
410.908	130.12
411.132	127.12
411.355	131.12
411.578	118.12
411.802	128.12
412.025	139.12
412.249	131.12
412.472	129.12
412.695	123.12
412.919	136.12
413.142	133.12
413.365	138.12
413.589	135.12
413.812	129.12
414.035	133.12
414.258	135.12
414.482	136.12
414.705	126.12
414.928	144.12
415.151	128.12
415.374	113.12
415.597	122.12
415.821	137.12
416.044	123.12
416.267	135.12
416.49	135.12
416.713	130.12
416.936	135.12
417.159	107.12
417.382	139.12
417.605	123.12
417.828	121.12
418.051	128.12
418.274	132.12
418.497	120.12
418.72	138.12
418.943	127.12
419.166	144.12
419.389	125.12
419.611	139.12
419.834	123.12
420.057	134.12
420.28	135.12
420.503	143.12
420.726	131.12
420.948	136.12
421.171	132.12
421.394	136.12
421.617	149.12
421.839	142.12
422.062	136.12
422.285	129.12
422.507	127.12
422.73	130.12
422.953	136.12
423.175	128.12
423.398	133.12
423.621	140.12
423.843	143.12
424.066	144.12
424.288	135.12
424.511	135.12
424.733	140.12
424.956	129.12
425.178	145.12
425.401	152.12
425.623	143.12
425.846	138.12
426.068	130.12
426.291	140.12
426.513	122.12
426.735	143.12
426.958	137.12
427.18	137.12
427.402	151.12
427.625	135.12
427.847	141.12
428.069	138.12
428.292	135.12
428.514	126.12
428.736	126.12
428.958	121.12
429.181	130.12
429.403	124.12
429.625	130.12
429.847	124.12
430.069	126.12
430.292	130.12
430.514	129.12
430.736	122.12
430.958	114.12
431.18	133.12
431.402	137.12
431.624	136.12
431.846	130.12
432.068	125.12
432.29	118.12
432.512	125.12
432.734	131.12
432.956	127.12
433.178	113.12
433.4	122.12
433.622	133.12
433.844	133.12
434.066	130.12
434.287	126.12
434.509	128.12
434.731	131.12
434.953	133.12
435.175	124.12
435.397	138.12
435.618	141.12
435.84	147.12
436.062	145.12
436.284	138.12
436.505	139.12
436.727	150.12
436.949	125.12
437.17	135.12
437.392	113.12
437.614	133.12
437.835	135.12
438.057	137.12
438.278	129.12
438.5	155.12
438.721	150.12
438.943	143.12
439.165	137.12
439.386	123.12
439.608	127.12
439.829	130.12
440.05	142.12
440.272	129.12
440.493	130.12
440.715	146.12
440.936	122.12
441.158	132.12
441.379	122.12
441.6	142.12
441.822	142.12
442.043	150.12
442.264	127.12
442.486	135.12
442.707	134.12
442.928	131.12
443.149	148.12
443.371	140.12
443.592	131.12
443.813	142.12
444.034	143.12
444.255	133.12
444.476	147.12
444.698	143.12
444.919	146.12
445.14	236.12
445.361	167.12
445.582	137.12
445.803	141.12
446.024	147.12
446.245	129.12
446.466	141.12
446.687	122.12
446.908	128.12
447.129	131.12
447.35	139.12
447.571	138.12
447.792	125.12
448.013	129.12
448.234	127.12
448.455	130.12
448.675	133.12
448.896	139.12
449.117	131.12
449.338	132.12
449.559	134.12
449.779	139.12
450	123.12
450.221	128.12
450.442	128.12
450.662	124.12
450.883	135.12
451.104	126.12
451.324	121.12
451.545	127.12
451.766	135.12
451.986	119.12
452.207	130.12
452.428	132.12
452.648	127.12
452.869	131.12
453.089	126.12
453.31	129.12
453.53	119.12
453.751	128.12
453.971	127.12
454.192	124.12
454.412	115.12
454.633	121.12
454.853	121.12
455.073	127.12
455.294	131.12
455.514	136.12
455.734	125.12
455.955	125.12
456.175	123.12
456.395	122.12
456.616	107.12
456.836	129.12
457.056	108.12
457.276	119.12
457.497	133.12
457.717	134.12
457.937	110.12
458.157	125.12
458.377	131.12
458.598	120.12
458.818	123.12
459.038	121.12
459.258	138.12
459.478	125.12
459.698	121.12
459.918	119.12
460.138	120.12
460.358	127.12
460.578	135.12
460.798	145.12
461.018	126.12
461.238	119.12
461.458	132.12
461.678	125.12
461.898	123.12
462.118	136.12
462.338	144.12
462.558	144.12
462.777	138.12
462.997	140.12
463.217	138.12
463.437	142.12
463.657	153.12
463.876	133.12
464.096	140.12
464.316	143.12
464.536	134.12
464.755	147.12
464.975	150.12
465.195	144.12
465.414	135.12
465.634	133.12
465.854	135.12
466.073	126.12
466.293	122.12
466.512	118.12
466.732	121.12
466.951	138.12
467.171	120.12
467.391	120.12
467.61	140.12
467.829	143.12
468.049	119.12
468.268	132.12
468.488	131.12
468.707	109.12
468.927	116.12
469.146	125.12
469.365	142.12
469.585	137.12
469.804	125.12
470.023	143.12
470.243	131.12
470.462	141.12
470.681	143.12
470.901	130.12
471.12	117.12
471.339	141.12
471.558	122.12
471.777	133.12
471.997	135.12
472.216	135.12
472.435	125.12
472.654	123.12
472.873	138.12
473.092	125.12
473.311	127.12
473.53	134.12
473.749	122.12
473.968	117.12
474.187	147.12
474.406	144.12
474.625	125.12
474.844	127.12
475.063	128.12
475.282	130.12
475.501	125.12
475.72	126.12
475.939	123.12
476.158	138.12
476.377	124.12
476.596	130.12
476.814	119.12
477.033	130.12
477.252	135.12
477.471	131.12
477.69	135.12
477.908	129.12
478.127	126.12
478.346	122.12
478.564	136.12
478.783	134.12
479.002	141.12
479.22	148.12
479.439	139.12
479.658	135.12
479.876	139.12
480.095	132.12
480.313	148.12
480.532	139.12
480.751	139.12
480.969	145.12
481.188	139.12
481.406	132.12
481.624	129.12
481.843	117.12
482.061	135.12
482.28	125.12
482.498	145.12
482.717	121.12
482.935	131.12
483.153	138.12
483.372	142.12
483.59	140.12
483.808	128.12
484.027	128.12
484.245	137.12
484.463	129.12
484.681	131.12
484.9	134.12
485.118	141.12
485.336	135.12
485.554	126.12
485.772	133.12
485.99	126.12
486.209	131.12
486.427	143.12
486.645	153.12
486.863	143.12
487.081	133.12
487.299	149.12
487.517	125.12
487.735	138.12
487.953	145.12
488.171	130.12
488.389	161.12
488.607	129.12
488.825	129.12
489.043	133.12
489.261	148.12
489.479	132.12
489.696	151.12
489.914	141.12
490.132	134.12
490.35	140.12
490.568	131.12
490.786	141.12
491.003	149.12
491.221	142.12
491.439	143.12
491.657	144.12
491.874	144.12
492.092	178.12
492.31	149.12
492.527	147.12
492.745	147.12
492.963	152.12
493.18	151.12
493.398	151.12
493.615	153.12
493.833	148.12
494.05	130.12
494.268	160.12
494.485	152.12
494.703	158.12
494.92	161.12
495.138	150.12
495.355	158.12
495.573	160.12
495.79	153.12
496.008	159.12
496.225	155.12
496.442	149.12
496.66	149.12
496.877	136.12
497.094	155.12
497.312	157.12
497.529	135.12
497.746	161.12
497.963	155.12
498.181	157.12
498.398	149.12
498.615	169.12
498.832	164.12
499.049	155.12
499.267	171.12
499.484	173.12
499.701	197.12
499.918	206.12
500.135	206.12
500.352	211.12
500.569	213.12
500.786	206.12
501.003	211.12
501.22	192.12
501.437	211.12
501.654	181.12
501.871	169.12
502.088	182.12
502.305	164.12
502.522	161.12
502.739	156.12
502.956	165.12
503.172	166.12
503.389	147.12
503.606	148.12
503.823	139.12
504.04	157.12
504.256	151.12
504.473	157.12
504.69	138.12
504.907	147.12
