Data from 1968.PennyLincolnUp.Lamp.En5.5.200Scan.071719.P1._HRD10591_14-52-25-970.txt Node
Date: Thu Jul 18 14:52:25 EDT 2019
User: cochatt
Spectrometer: HR+D1059
Trigger mode: 1
Integration Time (sec): 1.000000E-1
Scans to average: 1
Electric dark correction enabled: true
Nonlinearity correction enabled: false
Boxcar width: 0
XAxis mode: Wavelengths
Number of Pixels in Spectrum: 2048
>>>>>Begin Spectral Data<<<<<
223.165	-14.69
223.4	-14.69
223.635	-14.69
223.869	-31.69
224.104	-19.69
224.338	-22.69
224.573	0.31
224.808	-7.69
225.042	-25.69
225.277	-7.69
225.511	1.31
225.746	15.31
225.98	8.31
226.215	13.31
226.449	23.31
226.683	27.31
226.918	11.31
227.152	29.31
227.387	36.31
227.621	40.31
227.856	36.31
228.09	42.31
228.324	46.31
228.559	52.31
228.793	53.31
229.027	60.31
229.262	80.31
229.496	79.31
229.73	61.31
229.964	80.31
230.199	70.31
230.433	60.31
230.667	73.31
230.901	84.31
231.136	86.31
231.37	78.31
231.604	70.31
231.838	85.31
232.072	70.31
232.306	71.31
232.541	94.31
232.775	84.31
233.009	83.31
233.243	83.31
233.477	87.31
233.711	88.31
233.945	86.31
234.179	87.31
234.413	91.31
234.647	91.31
234.881	83.31
235.115	85.31
235.349	92.31
235.583	86.31
235.817	84.31
236.051	79.31
236.285	87.31
236.519	67.31
236.753	81.31
236.987	85.31
237.221	79.31
237.455	73.31
237.689	78.31
237.922	83.31
238.156	85.31
238.39	83.31
238.624	88.31
238.858	79.31
239.091	95.31
239.325	92.31
239.559	81.31
239.793	92.31
240.027	82.31
240.26	91.31
240.494	83.31
240.728	86.31
240.961	86.31
241.195	91.31
241.429	85.31
241.662	80.31
241.896	79.31
242.13	77.31
242.363	83.31
242.597	77.31
242.83	81.31
243.064	101.31
243.298	91.31
243.531	87.31
243.765	81.31
243.998	86.31
244.232	88.31
244.465	71.31
244.699	88.31
244.932	93.31
245.166	84.31
245.399	70.31
245.633	87.31
245.866	76.31
246.099	88.31
246.333	75.31
246.566	73.31
246.8	79.31
247.033	78.31
247.266	75.31
247.5	89.31
247.733	74.31
247.966	92.31
248.2	88.31
248.433	85.31
248.666	70.31
248.899	87.31
249.133	95.31
249.366	100.31
249.599	96.31
249.832	89.31
250.066	88.31
250.299	80.31
250.532	95.31
250.765	76.31
250.998	95.31
251.231	87.31
251.465	80.31
251.698	86.31
251.931	81.31
252.164	95.31
252.397	92.31
252.63	94.31
252.863	100.31
253.096	90.31
253.329	91.31
253.562	94.31
253.795	94.31
254.028	86.31
254.261	93.31
254.494	88.31
254.727	87.31
254.96	76.31
255.193	99.31
255.426	93.31
255.659	85.31
255.892	89.31
256.124	90.31
256.357	98.31
256.59	87.31
256.823	93.31
257.056	95.31
257.289	97.31
257.521	112.31
257.754	79.31
257.987	96.31
258.22	99.31
258.452	100.31
258.685	89.31
258.918	92.31
259.151	88.31
259.383	97.31
259.616	88.31
259.849	83.31
260.081	101.31
260.314	89.31
260.547	107.31
260.779	91.31
261.012	91.31
261.244	100.31
261.477	102.31
261.71	92.31
261.942	69.31
262.175	92.31
262.407	85.31
262.64	98.31
262.872	111.31
263.105	79.31
263.337	89.31
263.57	89.31
263.802	112.31
264.035	103.31
264.267	99.31
264.499	81.31
264.732	91.31
264.964	101.31
265.197	87.31
265.429	80.31
265.661	98.31
265.894	91.31
266.126	90.31
266.358	72.31
266.591	72.31
266.823	80.31
267.055	100.31
267.287	99.31
267.52	100.31
267.752	94.31
267.984	99.31
268.216	96.31
268.448	94.31
268.681	91.31
268.913	91.31
269.145	98.31
269.377	92.31
269.609	110.31
269.841	89.31
270.073	96.31
270.306	97.31
270.538	86.31
270.77	95.31
271.002	108.31
271.234	95.31
271.466	97.31
271.698	96.31
271.93	107.31
272.162	114.31
272.394	101.31
272.626	99.31
272.858	106.31
273.09	96.31
273.322	87.31
273.553	97.31
273.785	99.31
274.017	103.31
274.249	107.31
274.481	102.31
274.713	82.31
274.945	89.31
275.176	88.31
275.408	102.31
275.64	103.31
275.872	106.31
276.104	93.31
276.335	92.31
276.567	97.31
276.799	92.31
277.031	96.31
277.262	104.31
277.494	107.31
277.726	104.31
277.957	101.31
278.189	111.31
278.421	101.31
278.652	100.31
278.884	105.31
279.115	105.31
279.347	103.31
279.579	112.31
279.81	106.31
280.042	101.31
280.273	102.31
280.505	97.31
280.736	96.31
280.968	117.31
281.199	92.31
281.431	92.31
281.662	106.31
281.894	93.31
282.125	101.31
282.356	100.31
282.588	96.31
282.819	95.31
283.051	94.31
283.282	99.31
283.513	108.31
283.745	103.31
283.976	106.31
284.207	96.31
284.439	103.31
284.67	108.31
284.901	94.31
285.132	110.31
285.364	109.31
285.595	105.31
285.826	105.31
286.057	115.31
286.288	112.31
286.52	97.31
286.751	94.31
286.982	87.31
287.213	86.31
287.444	90.31
287.675	115.31
287.906	98.31
288.138	104.31
288.369	105.31
288.6	116.31
288.831	102.31
289.062	116.31
289.293	97.31
289.524	102.31
289.755	111.31
289.986	113.31
290.217	98.31
290.448	110.31
290.679	98.31
290.91	100.31
291.141	109.31
291.371	98.31
291.602	96.31
291.833	113.31
292.064	110.31
292.295	95.31
292.526	96.31
292.757	90.31
292.987	120.31
293.218	117.31
293.449	100.31
293.68	101.31
293.91	106.31
294.141	103.31
294.372	95.31
294.603	105.31
294.833	111.31
295.064	93.31
295.295	124.31
295.525	103.31
295.756	101.31
295.987	87.31
296.217	109.31
296.448	91.31
296.679	109.31
296.909	110.31
297.14	101.31
297.37	96.31
297.601	91.31
297.831	101.31
298.062	108.31
298.292	97.31
298.523	110.31
298.753	103.31
298.984	118.31
299.214	95.31
299.445	112.31
299.675	122.31
299.905	100.31
300.136	89.31
300.366	103.31
300.597	94.31
300.827	123.31
301.057	109.31
301.288	123.31
301.518	103.31
301.748	99.31
301.979	107.31
302.209	103.31
302.439	114.31
302.669	113.31
302.9	99.31
303.13	106.31
303.36	103.31
303.59	104.31
303.82	107.31
304.051	117.31
304.281	111.31
304.511	110.31
304.741	123.31
304.971	101.31
305.201	86.31
305.431	110.31
305.661	116.31
305.891	106.31
306.121	99.31
306.352	106.31
306.582	100.31
306.812	91.31
307.042	103.31
307.272	102.31
307.502	108.31
307.731	91.31
307.961	105.31
308.191	109.31
308.421	92.31
308.651	116.31
308.881	105.31
309.111	115.31
309.341	117.31
309.571	105.31
309.8	114.31
310.03	109.31
310.26	112.31
310.49	104.31
310.72	112.31
310.949	110.31
311.179	117.31
311.409	121.31
311.639	99.31
311.868	96.31
312.098	102.31
312.328	122.31
312.557	115.31
312.787	108.31
313.017	108.31
313.246	117.31
313.476	101.31
313.706	118.31
313.935	114.31
314.165	113.31
314.394	115.31
314.624	121.31
314.853	111.31
315.083	97.31
315.312	97.31
315.542	104.31
315.771	113.31
316.001	100.31
316.23	117.31
316.46	117.31
316.689	107.31
316.919	101.31
317.148	110.31
317.377	96.31
317.607	107.31
317.836	108.31
318.065	103.31
318.295	99.31
318.524	123.31
318.753	93.31
318.983	116.31
319.212	115.31
319.441	102.31
319.67	127.31
319.9	104.31
320.129	115.31
320.358	106.31
320.587	109.31
320.816	109.31
321.046	119.31
321.275	119.31
321.504	120.31
321.733	105.31
321.962	123.31
322.191	119.31
322.42	116.31
322.649	106.31
322.878	109.31
323.108	110.31
323.337	122.31
323.566	110.31
323.795	103.31
324.024	123.31
324.253	125.31
324.482	143.31
324.71	161.31
324.939	191.31
325.168	172.31
325.397	125.31
325.626	127.31
325.855	119.31
326.084	109.31
326.313	111.31
326.542	116.31
326.77	111.31
326.999	123.31
327.228	149.31
327.457	148.31
327.686	175.31
327.914	135.31
328.143	129.31
328.372	121.31
328.6	116.31
328.829	127.31
329.058	131.31
329.287	128.31
329.515	124.31
329.744	121.31
329.972	98.31
330.201	104.31
330.43	126.31
330.658	118.31
330.887	135.31
331.115	115.31
331.344	116.31
331.572	135.31
331.801	107.31
332.03	118.31
332.258	119.31
332.486	119.31
332.715	108.31
332.943	115.31
333.172	105.31
333.4	125.31
333.629	126.31
333.857	123.31
334.085	111.31
334.314	127.31
334.542	127.31
334.771	128.31
334.999	129.31
335.227	120.31
335.455	118.31
335.684	96.31
335.912	135.31
336.14	120.31
336.369	128.31
336.597	132.31
336.825	107.31
337.053	119.31
337.281	117.31
337.51	131.31
337.738	121.31
337.966	121.31
338.194	119.31
338.422	101.31
338.65	119.31
338.878	115.31
339.106	104.31
339.334	115.31
339.562	106.31
339.79	121.31
340.018	122.31
340.246	123.31
340.474	106.31
340.702	119.31
340.93	96.31
341.158	117.31
341.386	127.31
341.614	117.31
341.842	115.31
342.07	113.31
342.298	111.31
342.526	109.31
342.754	111.31
342.981	114.31
343.209	100.31
343.437	105.31
343.665	113.31
343.893	118.31
344.12	124.31
344.348	120.31
344.576	121.31
344.804	124.31
345.031	121.31
345.259	121.31
345.487	114.31
345.714	121.31
345.942	107.31
346.17	105.31
346.397	101.31
346.625	113.31
346.853	116.31
347.08	119.31
347.308	119.31
347.535	115.31
347.763	107.31
347.99	106.31
348.218	111.31
348.445	100.31
348.673	106.31
348.9	109.31
349.128	109.31
349.355	110.31
349.583	112.31
349.81	105.31
350.037	109.31
350.265	95.31
350.492	113.31
350.72	115.31
350.947	117.31
351.174	117.31
351.402	96.31
351.629	105.31
351.856	111.31
352.083	115.31
352.311	116.31
352.538	122.31
352.765	116.31
352.992	116.31
353.22	125.31
353.447	129.31
353.674	106.31
353.901	120.31
354.128	116.31
354.355	120.31
354.583	117.31
354.81	119.31
355.037	106.31
355.264	107.31
355.491	108.31
355.718	99.31
355.945	108.31
356.172	124.31
356.399	125.31
356.626	117.31
356.853	115.31
357.08	136.31
357.307	106.31
357.534	119.31
357.761	119.31
357.988	102.31
358.215	107.31
358.441	112.31
358.668	104.31
358.895	117.31
359.122	127.31
359.349	104.31
359.576	101.31
359.802	110.31
360.029	127.31
360.256	120.31
360.483	117.31
360.709	131.31
360.936	104.31
361.163	117.31
361.39	119.31
361.616	111.31
361.843	116.31
362.07	129.31
362.296	120.31
362.523	121.31
362.749	105.31
362.976	112.31
363.203	121.31
363.429	112.31
363.656	125.31
363.882	107.31
364.109	122.31
364.335	115.31
364.562	119.31
364.788	105.31
365.015	99.31
365.241	122.31
365.468	121.31
365.694	121.31
365.92	107.31
366.147	115.31
366.373	113.31
366.599	104.31
366.826	99.31
367.052	122.31
367.278	111.31
367.505	121.31
367.731	123.31
367.957	115.31
368.184	108.31
368.41	101.31
368.636	112.31
368.862	124.31
369.089	119.31
369.315	112.31
369.541	123.31
369.767	111.31
369.993	103.31
370.219	118.31
370.445	119.31
370.672	110.31
370.898	108.31
371.124	94.31
371.35	119.31
371.576	131.31
371.802	122.31
372.028	119.31
372.254	112.31
372.48	115.31
372.706	115.31
372.932	101.31
373.158	100.31
373.384	122.31
373.61	105.31
373.835	121.31
374.061	106.31
374.287	111.31
374.513	109.31
374.739	113.31
374.965	108.31
375.191	110.31
375.416	128.31
375.642	98.31
375.868	125.31
376.094	127.31
376.319	109.31
376.545	118.31
376.771	104.31
376.997	110.31
377.222	109.31
377.448	96.31
377.674	108.31
377.899	111.31
378.125	120.31
378.35	105.31
378.576	125.31
378.802	110.31
379.027	127.31
379.253	111.31
379.478	112.31
379.704	109.31
379.929	123.31
380.155	112.31
380.38	119.31
380.606	113.31
380.831	111.31
381.057	107.31
381.282	103.31
381.507	113.31
381.733	118.31
381.958	123.31
382.184	107.31
382.409	126.31
382.634	129.31
382.86	119.31
383.085	123.31
383.31	131.31
383.535	124.31
383.761	127.31
383.986	120.31
384.211	128.31
384.436	121.31
384.662	126.31
384.887	124.31
385.112	120.31
385.337	127.31
385.562	122.31
385.787	118.31
386.013	124.31
386.238	109.31
386.463	127.31
386.688	119.31
386.913	127.31
387.138	119.31
387.363	120.31
387.588	122.31
387.813	131.31
388.038	123.31
388.263	126.31
388.488	110.31
388.713	119.31
388.938	120.31
389.163	119.31
389.387	141.31
389.612	122.31
389.837	126.31
390.062	127.31
390.287	132.31
390.512	123.31
390.736	128.31
390.961	126.31
391.186	118.31
391.411	111.31
391.636	115.31
391.86	120.31
392.085	115.31
392.31	127.31
392.534	120.31
392.759	135.31
392.984	123.31
393.208	120.31
393.433	121.31
393.658	119.31
393.882	134.31
394.107	128.31
394.331	114.31
394.556	127.31
394.78	126.31
395.005	118.31
395.229	105.31
395.454	114.31
395.678	127.31
395.903	139.31
396.127	124.31
396.352	111.31
396.576	125.31
396.801	119.31
397.025	107.31
397.249	124.31
397.474	137.31
397.698	119.31
397.922	118.31
398.147	136.31
398.371	134.31
398.595	118.31
398.82	127.31
399.044	144.31
399.268	138.31
399.492	143.31
399.717	136.31
399.941	149.31
400.165	141.31
400.389	135.31
400.613	137.31
400.837	148.31
401.062	142.31
401.286	126.31
401.51	137.31
401.734	125.31
401.958	135.31
402.182	143.31
402.406	133.31
402.63	128.31
402.854	138.31
403.078	131.31
403.302	130.31
403.526	132.31
403.75	146.31
403.974	128.31
404.198	112.31
404.422	117.31
404.645	136.31
404.869	127.31
405.093	132.31
405.317	139.31
405.541	145.31
405.765	132.31
405.988	137.31
406.212	142.31
406.436	135.31
406.66	128.31
406.883	125.31
407.107	160.31
407.331	154.31
407.555	147.31
407.778	139.31
408.002	154.31
408.226	135.31
408.449	133.31
408.673	136.31
408.896	136.31
409.12	139.31
409.344	141.31
409.567	139.31
409.791	143.31
410.014	136.31
410.238	135.31
410.461	135.31
410.685	136.31
410.908	127.31
411.132	133.31
411.355	135.31
411.578	141.31
411.802	141.31
412.025	127.31
412.249	141.31
412.472	134.31
412.695	151.31
412.919	141.31
413.142	128.31
413.365	131.31
413.589	129.31
413.812	122.31
414.035	147.31
414.258	131.31
414.482	142.31
414.705	137.31
414.928	132.31
415.151	134.31
415.374	140.31
415.597	128.31
415.821	131.31
416.044	128.31
416.267	137.31
416.49	137.31
416.713	136.31
416.936	127.31
417.159	121.31
417.382	132.31
417.605	144.31
417.828	128.31
418.051	141.31
418.274	133.31
418.497	133.31
418.72	139.31
418.943	130.31
419.166	138.31
419.389	126.31
419.611	129.31
419.834	127.31
420.057	127.31
420.28	153.31
420.503	133.31
420.726	124.31
420.948	113.31
421.171	148.31
421.394	149.31
421.617	133.31
421.839	135.31
422.062	140.31
422.285	129.31
422.507	137.31
422.73	129.31
422.953	137.31
423.175	131.31
423.398	139.31
423.621	141.31
423.843	145.31
424.066	131.31
424.288	138.31
424.511	130.31
424.733	141.31
424.956	151.31
425.178	137.31
425.401	138.31
425.623	147.31
425.846	152.31
426.068	150.31
426.291	127.31
426.513	137.31
426.735	138.31
426.958	143.31
427.18	143.31
427.402	155.31
427.625	143.31
427.847	128.31
428.069	127.31
428.292	127.31
428.514	124.31
428.736	133.31
428.958	119.31
429.181	137.31
429.403	113.31
429.625	129.31
429.847	139.31
430.069	134.31
430.292	127.31
430.514	131.31
430.736	124.31
430.958	119.31
431.18	119.31
431.402	121.31
431.624	124.31
431.846	135.31
432.068	128.31
432.29	123.31
432.512	124.31
432.734	137.31
432.956	137.31
433.178	147.31
433.4	125.31
433.622	113.31
433.844	143.31
434.066	113.31
434.287	142.31
434.509	131.31
434.731	117.31
434.953	126.31
435.175	124.31
435.397	132.31
435.618	140.31
435.84	151.31
436.062	162.31
436.284	143.31
436.505	145.31
436.727	137.31
436.949	140.31
437.17	124.31
437.392	112.31
437.614	123.31
437.835	127.31
438.057	140.31
438.278	136.31
438.5	140.31
438.721	135.31
438.943	142.31
439.165	131.31
439.386	145.31
439.608	154.31
439.829	125.31
440.05	139.31
440.272	140.31
440.493	144.31
440.715	153.31
440.936	140.31
441.158	133.31
441.379	142.31
441.6	134.31
441.822	136.31
442.043	145.31
442.264	153.31
442.486	157.31
442.707	132.31
442.928	140.31
443.149	130.31
443.371	137.31
443.592	124.31
443.813	139.31
444.034	144.31
444.255	157.31
444.476	149.31
444.698	142.31
444.919	143.31
445.14	230.31
445.361	173.31
445.582	165.31
445.803	152.31
446.024	147.31
446.245	144.31
446.466	146.31
446.687	139.31
446.908	137.31
447.129	137.31
447.35	135.31
447.571	128.31
447.792	125.31
448.013	119.31
448.234	126.31
448.455	143.31
448.675	130.31
448.896	149.31
449.117	139.31
449.338	133.31
449.559	146.31
449.779	159.31
450	144.31
450.221	143.31
450.442	119.31
450.662	128.31
450.883	139.31
451.104	128.31
451.324	125.31
451.545	124.31
451.766	133.31
451.986	121.31
452.207	135.31
452.428	128.31
452.648	126.31
452.869	132.31
453.089	115.31
453.31	108.31
453.53	129.31
453.751	119.31
453.971	114.31
454.192	131.31
454.412	125.31
454.633	111.31
454.853	121.31
455.073	113.31
455.294	120.31
455.514	121.31
455.734	139.31
455.955	131.31
456.175	122.31
456.395	123.31
456.616	135.31
456.836	118.31
457.056	116.31
457.276	123.31
457.497	119.31
457.717	124.31
457.937	124.31
458.157	104.31
458.377	127.31
458.598	114.31
458.818	125.31
459.038	111.31
459.258	133.31
459.478	135.31
459.698	136.31
459.918	135.31
460.138	144.31
460.358	127.31
460.578	146.31
460.798	139.31
461.018	132.31
461.238	115.31
461.458	129.31
461.678	131.31
461.898	131.31
462.118	146.31
462.338	135.31
462.558	131.31
462.777	149.31
462.997	146.31
463.217	144.31
463.437	149.31
463.657	127.31
463.876	130.31
464.096	145.31
464.316	143.31
464.536	133.31
464.755	130.31
464.975	145.31
465.195	135.31
465.414	116.31
465.634	134.31
465.854	129.31
466.073	125.31
466.293	122.31
466.512	129.31
466.732	124.31
466.951	126.31
467.171	120.31
467.391	133.31
467.61	112.31
467.829	123.31
468.049	123.31
468.268	126.31
468.488	129.31
468.707	118.31
468.927	148.31
469.146	121.31
469.365	139.31
469.585	127.31
469.804	124.31
470.023	128.31
470.243	119.31
470.462	122.31
470.681	124.31
470.901	129.31
471.12	118.31
471.339	127.31
471.558	123.31
471.777	123.31
471.997	134.31
472.216	120.31
472.435	120.31
472.654	121.31
472.873	123.31
473.092	115.31
473.311	115.31
473.53	121.31
473.749	128.31
473.968	128.31
474.187	119.31
474.406	125.31
474.625	126.31
474.844	119.31
475.063	149.31
475.282	127.31
475.501	123.31
475.72	123.31
475.939	128.31
476.158	124.31
476.377	118.31
476.596	123.31
476.814	123.31
477.033	113.31
477.252	135.31
477.471	119.31
477.69	140.31
477.908	149.31
478.127	117.31
478.346	128.31
478.564	148.31
478.783	149.31
479.002	128.31
479.22	129.31
479.439	135.31
479.658	136.31
479.876	127.31
480.095	125.31
480.313	139.31
480.532	128.31
480.751	135.31
480.969	133.31
481.188	145.31
481.406	127.31
481.624	128.31
481.843	133.31
482.061	141.31
482.28	137.31
482.498	119.31
482.717	135.31
482.935	130.31
483.153	135.31
483.372	129.31
483.59	128.31
483.808	131.31
484.027	135.31
484.245	131.31
484.463	135.31
484.681	152.31
484.9	139.31
485.118	128.31
485.336	125.31
485.554	120.31
485.772	138.31
485.99	130.31
486.209	152.31
486.427	133.31
486.645	124.31
486.863	155.31
487.081	138.31
487.299	151.31
487.517	149.31
487.735	147.31
487.953	143.31
488.171	149.31
488.389	147.31
488.607	137.31
488.825	140.31
489.043	148.31
489.261	144.31
489.479	144.31
489.696	137.31
489.914	135.31
490.132	131.31
490.35	150.31
490.568	128.31
490.786	137.31
491.003	153.31
491.221	136.31
491.439	142.31
491.657	137.31
491.874	166.31
492.092	152.31
492.31	164.31
492.527	156.31
492.745	127.31
492.963	142.31
493.18	151.31
493.398	157.31
493.615	145.31
493.833	147.31
494.05	137.31
494.268	151.31
494.485	144.31
494.703	146.31
494.92	137.31
495.138	145.31
495.355	146.31
495.573	147.31
495.79	160.31
496.008	161.31
496.225	160.31
496.442	158.31
496.66	151.31
496.877	142.31
497.094	136.31
497.312	140.31
497.529	140.31
497.746	154.31
497.963	142.31
498.181	140.31
498.398	143.31
498.615	156.31
498.832	173.31
499.049	159.31
499.267	163.31
499.484	165.31
499.701	177.31
499.918	176.31
500.135	201.31
500.352	211.31
500.569	220.31
500.786	215.31
501.003	228.31
501.22	212.31
501.437	196.31
501.654	190.31
501.871	179.31
502.088	179.31
502.305	148.31
502.522	168.31
502.739	144.31
502.956	141.31
503.172	156.31
503.389	152.31
503.606	145.31
503.823	157.31
504.04	154.31
504.256	154.31
504.473	144.31
504.69	151.31
504.907	161.31
505.123	135.31
505.34	144.31
