Data from 1968.PennyLincolnUp.Lamp.En5.5.200Scan.071719.P1._HRD10591_14-50-10-969.txt Node
Date: Thu Jul 18 14:50:10 EDT 2019
User: cochatt
Spectrometer: HR+D1059
Trigger mode: 1
Integration Time (sec): 1.000000E-1
Scans to average: 1
Electric dark correction enabled: true
Nonlinearity correction enabled: false
Boxcar width: 0
XAxis mode: Wavelengths
Number of Pixels in Spectrum: 2048
>>>>>Begin Spectral Data<<<<<
223.165	-29
223.4	-29
223.635	-29
223.869	-17
224.104	-10
224.338	-24
224.573	-15
224.808	-14
225.042	-11
225.277	-15
225.511	-3
225.746	23
225.98	5
226.215	11
226.449	12
226.683	23
226.918	18
227.152	46
227.387	51
227.621	39
227.856	56
228.09	55
228.324	50
228.559	52
228.793	51
229.027	71
229.262	86
229.496	81
229.73	91
229.964	73
230.199	91
230.433	72
230.667	75
230.901	75
231.136	88
231.37	83
231.604	87
231.838	87
232.072	80
232.306	91
232.541	91
232.775	97
233.009	93
233.243	91
233.477	84
233.711	91
233.945	90
234.179	74
234.413	98
234.647	82
234.881	96
235.115	85
235.349	94
235.583	81
235.817	101
236.051	102
236.285	94
236.519	86
236.753	77
236.987	83
237.221	85
237.455	87
237.689	73
237.922	86
238.156	87
238.39	87
238.624	74
238.858	96
239.091	84
239.325	80
239.559	86
239.793	78
240.027	79
240.26	93
240.494	86
240.728	85
240.961	90
241.195	94
241.429	81
241.662	93
241.896	98
242.13	82
242.363	85
242.597	91
242.83	95
243.064	88
243.298	80
243.531	91
243.765	89
243.998	95
244.232	93
244.465	74
244.699	97
244.932	79
245.166	86
245.399	87
245.633	97
245.866	95
246.099	82
246.333	83
246.566	81
246.8	91
247.033	77
247.266	80
247.5	92
247.733	95
247.966	92
248.2	89
248.433	96
248.666	93
248.899	93
249.133	84
249.366	92
249.599	84
249.832	96
250.066	99
250.299	104
250.532	100
250.765	90
250.998	97
251.231	83
251.465	79
251.698	70
251.931	84
252.164	89
252.397	103
252.63	81
252.863	91
253.096	98
253.329	85
253.562	102
253.795	89
254.028	89
254.261	88
254.494	74
254.727	96
254.96	94
255.193	96
255.426	102
255.659	106
255.892	94
256.124	91
256.357	83
256.59	75
256.823	78
257.056	95
257.289	90
257.521	97
257.754	99
257.987	89
258.22	91
258.452	93
258.685	94
258.918	86
259.151	88
259.383	88
259.616	86
259.849	103
260.081	96
260.314	81
260.547	101
260.779	102
261.012	102
261.244	101
261.477	97
261.71	94
261.942	94
262.175	92
262.407	89
262.64	71
262.872	94
263.105	78
263.337	87
263.57	96
263.802	96
264.035	90
264.267	111
264.499	82
264.732	113
264.964	107
265.197	103
265.429	110
265.661	88
265.894	95
266.126	87
266.358	87
266.591	104
266.823	100
267.055	108
267.287	90
267.52	109
267.752	76
267.984	98
268.216	97
268.448	98
268.681	104
268.913	103
269.145	102
269.377	111
269.609	98
269.841	109
270.073	80
270.306	95
270.538	106
270.77	100
271.002	79
271.234	99
271.466	111
271.698	98
271.93	103
272.162	85
272.394	88
272.626	122
272.858	109
273.09	94
273.322	112
273.553	104
273.785	97
274.017	103
274.249	105
274.481	103
274.713	105
274.945	95
275.176	93
275.408	113
275.64	117
275.872	100
276.104	105
276.335	88
276.567	102
276.799	103
277.031	96
277.262	93
277.494	103
277.726	102
277.957	98
278.189	107
278.421	102
278.652	85
278.884	97
279.115	91
279.347	109
279.579	126
279.81	93
280.042	101
280.273	99
280.505	98
280.736	90
280.968	98
281.199	103
281.431	97
281.662	106
281.894	115
282.125	117
282.356	125
282.588	105
282.819	100
283.051	106
283.282	90
283.513	118
283.745	100
283.976	85
284.207	100
284.439	99
284.67	107
284.901	111
285.132	107
285.364	111
285.595	105
285.826	109
286.057	85
286.288	103
286.52	102
286.751	98
286.982	106
287.213	94
287.444	120
287.675	93
287.906	99
288.138	107
288.369	91
288.6	91
288.831	102
289.062	100
289.293	81
289.524	105
289.755	93
289.986	110
290.217	101
290.448	107
290.679	115
290.91	109
291.141	84
291.371	111
291.602	118
291.833	118
292.064	118
292.295	113
292.526	100
292.757	105
292.987	98
293.218	103
293.449	117
293.68	110
293.91	99
294.141	92
294.372	101
294.603	102
294.833	100
295.064	94
295.295	120
295.525	109
295.756	103
295.987	91
296.217	112
296.448	105
296.679	112
296.909	90
297.14	120
297.37	110
297.601	117
297.831	102
298.062	119
298.292	104
298.523	117
298.753	106
298.984	99
299.214	90
299.445	113
299.675	110
299.905	97
300.136	109
300.366	86
300.597	123
300.827	113
301.057	106
301.288	98
301.518	103
301.748	105
301.979	116
302.209	112
302.439	115
302.669	106
302.9	109
303.13	113
303.36	111
303.59	115
303.82	97
304.051	118
304.281	110
304.511	103
304.741	112
304.971	110
305.201	118
305.431	119
305.661	108
305.891	122
306.121	110
306.352	108
306.582	89
306.812	113
307.042	113
307.272	111
307.502	94
307.731	107
307.961	106
308.191	113
308.421	92
308.651	106
308.881	108
309.111	104
309.341	115
309.571	124
309.8	130
310.03	109
310.26	106
310.49	119
310.72	111
310.949	95
311.179	111
311.409	111
311.639	92
311.868	115
312.098	99
312.328	112
312.557	111
312.787	122
313.017	115
313.246	115
313.476	124
313.706	109
313.935	107
314.165	109
314.394	128
314.624	117
314.853	109
315.083	112
315.312	104
315.542	104
315.771	118
316.001	110
316.23	105
316.46	111
316.689	109
316.919	107
317.148	115
317.377	104
317.607	108
317.836	107
318.065	113
318.295	112
318.524	112
318.753	103
318.983	109
319.212	115
319.441	109
319.67	117
319.9	99
320.129	99
320.358	101
320.587	117
320.816	118
321.046	112
321.275	121
321.504	105
321.733	115
321.962	118
322.191	111
322.42	126
322.649	117
322.878	101
323.108	104
323.337	112
323.566	99
323.795	118
324.024	117
324.253	136
324.482	131
324.71	147
324.939	162
325.168	158
325.397	123
325.626	132
325.855	120
326.084	114
326.313	112
326.542	117
326.77	110
326.999	107
327.228	123
327.457	148
327.686	139
327.914	141
328.143	121
328.372	112
328.6	103
328.829	117
329.058	130
329.287	89
329.515	111
329.744	115
329.972	117
330.201	102
330.43	119
330.658	129
330.887	121
331.115	105
331.344	125
331.572	121
331.801	107
332.03	122
332.258	118
332.486	125
332.715	118
332.943	122
333.172	134
333.4	129
333.629	113
333.857	117
334.085	112
334.314	127
334.542	120
334.771	118
334.999	128
335.227	115
335.455	115
335.684	117
335.912	109
336.14	124
336.369	99
336.597	122
336.825	115
337.053	119
337.281	113
337.51	107
337.738	124
337.966	124
338.194	121
338.422	99
338.65	110
338.878	128
339.106	117
339.334	115
339.562	116
339.79	111
340.018	107
340.246	130
340.474	107
340.702	108
340.93	132
341.158	108
341.386	114
341.614	112
341.842	116
342.07	122
342.298	109
342.526	115
342.754	121
342.981	107
343.209	121
343.437	122
343.665	103
343.893	117
344.12	127
344.348	120
344.576	116
344.804	127
345.031	105
345.259	110
345.487	118
345.714	117
345.942	109
346.17	110
346.397	117
346.625	117
346.853	112
347.08	112
347.308	114
347.535	129
347.763	119
347.99	96
348.218	117
348.445	114
348.673	98
348.9	117
349.128	119
349.355	107
349.583	115
349.81	101
350.037	118
350.265	107
350.492	111
350.72	125
350.947	108
351.174	102
351.402	111
351.629	95
351.856	99
352.083	105
352.311	120
352.538	119
352.765	114
352.992	103
353.22	123
353.447	112
353.674	105
353.901	115
354.128	96
354.355	118
354.583	111
354.81	99
355.037	104
355.264	99
355.491	106
355.718	111
355.945	108
356.172	118
356.399	99
356.626	121
356.853	113
357.08	130
357.307	123
357.534	107
357.761	104
357.988	109
358.215	110
358.441	122
358.668	110
358.895	117
359.122	112
359.349	108
359.576	115
359.802	111
360.029	118
360.256	107
360.483	106
360.709	121
360.936	119
361.163	113
361.39	127
361.616	125
361.843	111
362.07	115
362.296	117
362.523	117
362.749	115
362.976	123
363.203	99
363.429	121
363.656	115
363.882	103
364.109	127
364.335	119
364.562	109
364.788	105
365.015	127
365.241	115
365.468	120
365.694	106
365.92	113
366.147	121
366.373	118
366.599	111
366.826	114
367.052	109
367.278	126
367.505	117
367.731	121
367.957	118
368.184	123
368.41	122
368.636	119
368.862	106
369.089	119
369.315	105
369.541	112
369.767	82
369.993	117
370.219	118
370.445	122
370.672	114
370.898	105
371.124	104
371.35	114
371.576	122
371.802	110
372.028	113
372.254	108
372.48	124
372.706	118
372.932	117
373.158	133
373.384	125
373.61	118
373.835	118
374.061	117
374.287	108
374.513	108
374.739	114
374.965	125
375.191	121
375.416	111
375.642	122
375.868	115
376.094	114
376.319	99
376.545	126
376.771	108
376.997	120
377.222	110
377.448	125
377.674	109
377.899	104
378.125	102
378.35	122
378.576	104
378.802	106
379.027	110
379.253	114
379.478	117
379.704	119
379.929	127
380.155	107
380.38	114
380.606	112
380.831	118
381.057	129
381.282	109
381.507	136
381.733	98
381.958	129
382.184	121
382.409	114
382.634	89
382.86	114
383.085	114
383.31	119
383.535	127
383.761	126
383.986	124
384.211	122
384.436	113
384.662	133
384.887	120
385.112	137
385.337	119
385.562	119
385.787	123
386.013	124
386.238	125
386.463	108
386.688	114
386.913	123
387.138	106
387.363	97
387.588	126
387.813	115
388.038	121
388.263	117
388.488	123
388.713	129
388.938	112
389.163	115
389.387	117
389.612	129
389.837	113
390.062	131
390.287	129
390.512	117
390.736	127
390.961	131
391.186	126
391.411	135
391.636	122
391.86	119
392.085	128
392.31	112
392.534	100
392.759	130
392.984	113
393.208	139
393.433	120
393.658	119
393.882	133
394.107	117
394.331	112
394.556	120
394.78	114
395.005	114
395.229	129
395.454	137
395.678	119
395.903	117
396.127	136
396.352	126
396.576	131
396.801	135
397.025	120
397.249	135
397.474	137
397.698	119
397.922	128
398.147	119
398.371	128
398.595	117
398.82	126
399.044	126
399.268	137
399.492	152
399.717	155
399.941	143
400.165	144
400.389	143
400.613	144
400.837	133
401.062	133
401.286	138
401.51	113
401.734	134
401.958	134
402.182	127
402.406	137
402.63	129
402.854	126
403.078	131
403.302	113
403.526	139
403.75	139
403.974	128
404.198	123
404.422	151
404.645	136
404.869	131
405.093	133
405.317	147
405.541	138
405.765	137
405.988	151
406.212	138
406.436	118
406.66	134
406.883	144
407.107	148
407.331	127
407.555	143
407.778	148
408.002	143
408.226	153
408.449	141
408.673	132
408.896	129
409.12	133
409.344	141
409.567	134
409.791	134
410.014	139
410.238	141
410.461	139
410.685	142
410.908	135
411.132	138
411.355	133
411.578	135
411.802	138
412.025	128
412.249	135
412.472	129
412.695	129
412.919	153
413.142	127
413.365	141
413.589	130
413.812	146
414.035	138
414.258	139
414.482	137
414.705	136
414.928	134
415.151	135
415.374	145
415.597	125
415.821	133
416.044	120
416.267	127
416.49	129
416.713	127
416.936	134
417.159	136
417.382	135
417.605	121
417.828	133
418.051	129
418.274	135
418.497	144
418.72	130
418.943	140
419.166	129
419.389	146
419.611	135
419.834	126
420.057	137
420.28	127
420.503	144
420.726	145
420.948	132
421.171	130
421.394	153
421.617	130
421.839	133
422.062	135
422.285	125
422.507	145
422.73	151
422.953	133
423.175	126
423.398	133
423.621	139
423.843	149
424.066	143
424.288	141
424.511	134
424.733	133
424.956	141
425.178	129
425.401	142
425.623	142
425.846	130
426.068	130
426.291	138
426.513	134
426.735	146
426.958	157
427.18	131
427.402	156
427.625	151
427.847	145
428.069	115
428.292	129
428.514	129
428.736	142
428.958	123
429.181	133
429.403	125
429.625	141
429.847	130
430.069	137
430.292	137
430.514	132
430.736	122
430.958	128
431.18	143
431.402	125
431.624	134
431.846	116
432.068	126
432.29	125
432.512	126
432.734	131
432.956	128
433.178	135
433.4	138
433.622	130
433.844	126
434.066	137
434.287	136
434.509	140
434.731	129
434.953	127
435.175	130
435.397	145
435.618	141
435.84	134
436.062	161
436.284	131
436.505	121
436.727	129
436.949	118
437.17	138
437.392	117
437.614	121
437.835	136
438.057	142
438.278	139
438.5	133
438.721	144
438.943	134
439.165	136
439.386	138
439.608	140
439.829	130
440.05	145
440.272	137
440.493	134
440.715	132
440.936	129
441.158	129
441.379	126
441.6	127
441.822	136
442.043	143
442.264	158
442.486	140
442.707	144
442.928	128
443.149	125
443.371	128
443.592	129
443.813	148
444.034	151
444.255	123
444.476	146
444.698	153
444.919	148
445.14	269
445.361	203
445.582	137
445.803	143
446.024	135
446.245	142
446.466	139
446.687	137
446.908	123
447.129	138
447.35	141
447.571	145
447.792	132
448.013	133
448.234	137
448.455	140
448.675	145
448.896	148
449.117	137
449.338	135
449.559	142
449.779	127
450	128
450.221	126
450.442	134
450.662	141
450.883	133
451.104	134
451.324	121
451.545	125
451.766	124
451.986	111
452.207	120
452.428	124
452.648	132
452.869	130
453.089	133
453.31	149
453.53	131
453.751	118
453.971	124
454.192	122
454.412	130
454.633	119
454.853	123
455.073	131
455.294	130
455.514	103
455.734	125
455.955	127
456.175	107
456.395	113
456.616	125
456.836	119
457.056	115
457.276	121
457.497	128
457.717	122
457.937	106
458.157	137
458.377	117
458.598	122
458.818	120
459.038	123
459.258	127
459.478	127
459.698	136
459.918	136
460.138	133
460.358	127
460.578	136
460.798	123
461.018	133
461.238	130
461.458	137
461.678	140
461.898	127
462.118	133
462.338	136
462.558	139
462.777	138
462.997	137
463.217	137
463.437	140
463.657	146
463.876	135
464.096	133
464.316	137
464.536	132
464.755	141
464.975	134
465.195	151
465.414	142
465.634	135
465.854	131
466.073	135
466.293	120
466.512	111
466.732	118
466.951	121
467.171	120
467.391	119
467.61	118
467.829	128
468.049	129
468.268	117
468.488	117
468.707	123
468.927	122
469.146	133
469.365	118
469.585	126
469.804	134
470.023	151
470.243	121
470.462	132
470.681	133
470.901	126
471.12	134
471.339	127
471.558	131
471.777	133
471.997	141
472.216	139
472.435	122
472.654	135
472.873	139
473.092	130
473.311	119
473.53	120
473.749	134
473.968	134
474.187	141
474.406	147
474.625	127
474.844	135
475.063	126
475.282	137
475.501	121
475.72	133
475.939	118
476.158	133
476.377	123
476.596	127
476.814	115
477.033	117
477.252	131
477.471	130
477.69	124
477.908	127
478.127	128
478.346	128
478.564	137
478.783	145
479.002	127
479.22	145
479.439	148
479.658	127
479.876	129
480.095	134
480.313	142
480.532	146
480.751	133
480.969	137
481.188	146
481.406	139
481.624	133
481.843	131
482.061	128
482.28	136
482.498	130
482.717	133
482.935	135
483.153	123
483.372	122
483.59	141
483.808	129
484.027	130
484.245	133
484.463	137
484.681	131
484.9	126
485.118	136
485.336	131
485.554	129
485.772	137
485.99	137
486.209	123
486.427	128
486.645	145
486.863	150
487.081	145
487.299	138
487.517	136
487.735	141
487.953	146
488.171	143
488.389	140
488.607	133
488.825	138
489.043	143
489.261	142
489.479	146
489.696	137
489.914	135
490.132	154
490.35	151
490.568	138
490.786	142
491.003	141
491.221	143
491.439	134
491.657	148
491.874	148
492.092	158
492.31	146
492.527	149
492.745	144
492.963	155
493.18	151
493.398	164
493.615	137
493.833	155
494.05	147
494.268	162
494.485	153
494.703	158
494.92	146
495.138	165
495.355	139
495.573	144
495.79	142
496.008	151
496.225	151
496.442	147
496.66	155
496.877	142
497.094	138
497.312	143
497.529	152
497.746	169
497.963	165
498.181	155
498.398	164
498.615	165
498.832	160
499.049	157
499.267	172
499.484	164
499.701	183
499.918	181
500.135	191
500.352	231
500.569	215
500.786	208
501.003	214
501.22	175
501.437	179
501.654	183
501.871	187
502.088	162
502.305	169
502.522	174
502.739	163
502.956	144
503.172	158
503.389	137
503.606	146
503.823	141
504.04	144
504.256	159
504.473	154
504.69	146
504.907	160
505.123	152
505.34	135
505.557	132
505.773	122
505.99	153
506.207	135
506.423	143
506.64	144
506.856	147
507.073	134
507.289	139
507.506	137
507.722	134
507.939	119
508.155	128
508.372	127
508.588	142
508.805	125
509.021	135
509.238	127
509.454	126
509.67	129
509.887	139
510.103	133
510.319	131
510.536	145
510.752	163
510.968	155
511.184	128
511.401	145
511.617	125
511.833	143
512.049	125
512.265	132
512.481	133
512.698	133
512.914	138
513.13	145
513.346	130
513.562	129
513.778	139
513.994	134
514.21	128
514.426	122
514.642	129
514.858	131
515.074	137
515.29	150
515.506	168
515.721	157
515.937	127
516.153	135
516.369	152
516.585	135
516.801	132
517.016	134
517.232	142
517.448	136
517.664	141
517.879	159
518.095	136
518.311	143
518.527	139
518.742	143
518.958	144
519.173	129
519.389	138
519.605	129
519.82	135
520.036	141
520.251	144
520.467	133
520.682	126
520.898	134
521.113	140
521.329	141
521.544	142
521.76	165
521.975	197
522.19	191
522.406	137
522.621	110
522.836	123
523.052	126
523.267	144
523.482	130
523.698	144
523.913	133
524.128	120
524.343	122
524.559	134
524.774	141
524.989	122
525.204	127
525.419	107
525.634	122
525.849	124
526.064	120
526.28	128
526.495	128
526.71	118
526.925	121
527.14	118
527.355	124
527.57	131
527.785	121
527.999	129
528.214	113
528.429	135
528.644	136
528.859	129
529.074	126
529.289	127
529.503	139
529.718	123
529.933	121
530.148	122
530.363	133
530.577	119
530.792	129
531.007	128
531.221	127
531.436	131
531.651	119
531.865	118
532.08	125
532.295	131
532.509	135
532.724	117
532.938	126
533.153	134
533.367	130
533.582	106
533.796	143
534.011	130
534.225	117
534.44	133
534.654	134
534.868	127
535.083	140
535.297	130
535.511	121
535.726	122
535.94	118
536.154	128
536.369	120
536.583	129
536.797	129
537.011	121
537.225	121
537.44	134
537.654	127
537.868	117
538.082	125
538.296	124
538.51	134
538.724	118
538.938	121
539.153	114
539.367	145
539.581	122
539.795	125
540.009	131
540.222	127
540.436	122
540.65	139
540.864	148
541.078	135
541.292	134
541.506	130
541.72	141
541.934	150
542.147	141
542.361	157
542.575	136
542.789	139
543.002	140
543.216	140
543.43	127
543.644	144
543.857	146
544.071	135
544.285	136
544.498	137
544.712	138
544.925	150
545.139	133
545.352	142
545.566	144
545.779	133
545.993	134
546.206	139
546.42	133
546.633	146
546.847	137
547.06	140
547.274	127
547.487	130
547.7	122
547.914	138
548.127	145
548.34	135
548.554	127
548.767	145
548.98	144
549.193	139
549.407	131
549.62	146
549.833	140
550.046	129
550.259	119
550.473	127
550.686	120
550.899	125
551.112	126
551.325	129
551.538	128
551.751	119
551.964	114
552.177	126
552.39	129
552.603	131
552.816	129
553.029	136
553.242	129
553.455	137
553.667	137
553.88	129
554.093	118
554.306	129
554.519	127
554.732	131
554.944	133
555.157	124
555.37	110
555.583	143
555.795	118
556.008	126
556.221	110
556.433	110
556.646	123
556.859	110
557.071	127
557.284	112
557.496	115
557.709	120
557.921	134
558.134	129
558.346	127
558.559	105
558.771	114
558.984	123
559.196	121
559.409	112
559.621	115
559.833	120
560.046	128
560.258	116
560.47	130
560.683	135
560.895	131
561.107	141
561.32	122
561.532	125
561.744	123
561.956	125
562.168	115
562.381	113
562.593	118
562.805	125
563.017	124
563.229	121
563.441	126
563.653	129
563.865	112
564.077	121
564.289	116
564.501	139
564.713	123
564.925	135
565.137	129
565.349	129
565.561	117
565.773	126
565.985	130
566.197	131
566.408	133
566.62	135
566.832	142
567.044	138
567.255	117
