Data from 1968.PennyLincolnUp.Lamp.En5.5.200Scan.071719.P1._HRD10591_14-51-56-970.txt Node
Date: Thu Jul 18 14:51:56 EDT 2019
User: cochatt
Spectrometer: HR+D1059
Trigger mode: 1
Integration Time (sec): 1.000000E-1
Scans to average: 1
Electric dark correction enabled: true
Nonlinearity correction enabled: false
Boxcar width: 0
XAxis mode: Wavelengths
Number of Pixels in Spectrum: 2048
>>>>>Begin Spectral Data<<<<<
223.165	-2.56
223.4	-2.56
223.635	-2.56
223.869	-22.56
224.104	-18.56
224.338	-11.56
224.573	-12.56
224.808	-10.56
225.042	-12.56
225.277	-16.56
225.511	-8.56
225.746	6.44
225.98	22.44
226.215	5.44
226.449	12.44
226.683	22.44
226.918	26.44
227.152	20.44
227.387	43.44
227.621	44.44
227.856	48.44
228.09	35.44
228.324	45.44
228.559	52.44
228.793	72.44
229.027	68.44
229.262	66.44
229.496	76.44
229.73	77.44
229.964	78.44
230.199	83.44
230.433	84.44
230.667	95.44
230.901	87.44
231.136	77.44
231.37	83.44
231.604	82.44
231.838	79.44
232.072	92.44
232.306	92.44
232.541	88.44
232.775	80.44
233.009	89.44
233.243	87.44
233.477	88.44
233.711	96.44
233.945	83.44
234.179	84.44
234.413	90.44
234.647	83.44
234.881	83.44
235.115	78.44
235.349	103.44
235.583	99.44
235.817	94.44
236.051	77.44
236.285	72.44
236.519	74.44
236.753	75.44
236.987	91.44
237.221	80.44
237.455	89.44
237.689	86.44
237.922	87.44
238.156	71.44
238.39	75.44
238.624	76.44
238.858	83.44
239.091	80.44
239.325	90.44
239.559	74.44
239.793	79.44
240.027	98.44
240.26	72.44
240.494	81.44
240.728	78.44
240.961	81.44
241.195	70.44
241.429	88.44
241.662	72.44
241.896	100.44
242.13	90.44
242.363	79.44
242.597	76.44
242.83	83.44
243.064	81.44
243.298	79.44
243.531	91.44
243.765	97.44
243.998	82.44
244.232	79.44
244.465	93.44
244.699	88.44
244.932	83.44
245.166	87.44
245.399	79.44
245.633	71.44
245.866	82.44
246.099	70.44
246.333	79.44
246.566	84.44
246.8	92.44
247.033	80.44
247.266	86.44
247.5	81.44
247.733	84.44
247.966	79.44
248.2	96.44
248.433	85.44
248.666	99.44
248.899	88.44
249.133	103.44
249.366	88.44
249.599	83.44
249.832	94.44
250.066	90.44
250.299	88.44
250.532	94.44
250.765	69.44
250.998	76.44
251.231	92.44
251.465	93.44
251.698	86.44
251.931	91.44
252.164	86.44
252.397	83.44
252.63	95.44
252.863	90.44
253.096	95.44
253.329	98.44
253.562	94.44
253.795	95.44
254.028	88.44
254.261	83.44
254.494	84.44
254.727	90.44
254.96	85.44
255.193	87.44
255.426	85.44
255.659	82.44
255.892	107.44
256.124	90.44
256.357	86.44
256.59	88.44
256.823	80.44
257.056	94.44
257.289	93.44
257.521	94.44
257.754	90.44
257.987	94.44
258.22	98.44
258.452	94.44
258.685	89.44
258.918	85.44
259.151	88.44
259.383	92.44
259.616	80.44
259.849	87.44
260.081	86.44
260.314	87.44
260.547	85.44
260.779	93.44
261.012	103.44
261.244	81.44
261.477	89.44
261.71	98.44
261.942	88.44
262.175	82.44
262.407	87.44
262.64	98.44
262.872	80.44
263.105	89.44
263.337	99.44
263.57	92.44
263.802	88.44
264.035	99.44
264.267	89.44
264.499	83.44
264.732	94.44
264.964	92.44
265.197	87.44
265.429	99.44
265.661	77.44
265.894	87.44
266.126	97.44
266.358	92.44
266.591	107.44
266.823	68.44
267.055	82.44
267.287	85.44
267.52	82.44
267.752	90.44
267.984	94.44
268.216	99.44
268.448	92.44
268.681	84.44
268.913	96.44
269.145	96.44
269.377	93.44
269.609	101.44
269.841	99.44
270.073	90.44
270.306	85.44
270.538	87.44
270.77	96.44
271.002	91.44
271.234	92.44
271.466	91.44
271.698	91.44
271.93	98.44
272.162	91.44
272.394	109.44
272.626	112.44
272.858	97.44
273.09	87.44
273.322	95.44
273.553	91.44
273.785	99.44
274.017	98.44
274.249	93.44
274.481	104.44
274.713	86.44
274.945	86.44
275.176	100.44
275.408	108.44
275.64	109.44
275.872	83.44
276.104	102.44
276.335	100.44
276.567	101.44
276.799	98.44
277.031	99.44
277.262	94.44
277.494	102.44
277.726	104.44
277.957	102.44
278.189	101.44
278.421	105.44
278.652	95.44
278.884	104.44
279.115	107.44
279.347	103.44
279.579	87.44
279.81	91.44
280.042	106.44
280.273	84.44
280.505	107.44
280.736	91.44
280.968	102.44
281.199	95.44
281.431	96.44
281.662	99.44
281.894	99.44
282.125	102.44
282.356	107.44
282.588	95.44
282.819	106.44
283.051	110.44
283.282	119.44
283.513	104.44
283.745	115.44
283.976	93.44
284.207	99.44
284.439	99.44
284.67	86.44
284.901	103.44
285.132	94.44
285.364	98.44
285.595	98.44
285.826	106.44
286.057	99.44
286.288	98.44
286.52	105.44
286.751	102.44
286.982	98.44
287.213	99.44
287.444	86.44
287.675	99.44
287.906	96.44
288.138	101.44
288.369	97.44
288.6	103.44
288.831	101.44
289.062	106.44
289.293	101.44
289.524	89.44
289.755	103.44
289.986	116.44
290.217	96.44
290.448	105.44
290.679	104.44
290.91	99.44
291.141	103.44
291.371	98.44
291.602	98.44
291.833	114.44
292.064	100.44
292.295	117.44
292.526	115.44
292.757	106.44
292.987	87.44
293.218	93.44
293.449	101.44
293.68	106.44
293.91	107.44
294.141	108.44
294.372	99.44
294.603	99.44
294.833	88.44
295.064	95.44
295.295	95.44
295.525	99.44
295.756	103.44
295.987	98.44
296.217	96.44
296.448	90.44
296.679	122.44
296.909	113.44
297.14	101.44
297.37	103.44
297.601	100.44
297.831	90.44
298.062	83.44
298.292	107.44
298.523	105.44
298.753	116.44
298.984	108.44
299.214	92.44
299.445	99.44
299.675	109.44
299.905	104.44
300.136	110.44
300.366	111.44
300.597	110.44
300.827	99.44
301.057	108.44
301.288	107.44
301.518	102.44
301.748	114.44
301.979	107.44
302.209	98.44
302.439	115.44
302.669	103.44
302.9	118.44
303.13	110.44
303.36	98.44
303.59	102.44
303.82	97.44
304.051	99.44
304.281	118.44
304.511	134.44
304.741	107.44
304.971	98.44
305.201	119.44
305.431	110.44
305.661	109.44
305.891	99.44
306.121	99.44
306.352	113.44
306.582	107.44
306.812	99.44
307.042	123.44
307.272	106.44
307.502	117.44
307.731	117.44
307.961	90.44
308.191	98.44
308.421	110.44
308.651	101.44
308.881	100.44
309.111	114.44
309.341	102.44
309.571	109.44
309.8	118.44
310.03	101.44
310.26	109.44
310.49	111.44
310.72	101.44
310.949	122.44
311.179	109.44
311.409	118.44
311.639	114.44
311.868	112.44
312.098	106.44
312.328	104.44
312.557	95.44
312.787	99.44
313.017	108.44
313.246	110.44
313.476	101.44
313.706	104.44
313.935	101.44
314.165	95.44
314.394	121.44
314.624	118.44
314.853	112.44
315.083	101.44
315.312	107.44
315.542	105.44
315.771	122.44
316.001	103.44
316.23	107.44
316.46	109.44
316.689	101.44
316.919	96.44
317.148	110.44
317.377	103.44
317.607	112.44
317.836	104.44
318.065	101.44
318.295	114.44
318.524	102.44
318.753	110.44
318.983	115.44
319.212	102.44
319.441	109.44
319.67	113.44
319.9	101.44
320.129	118.44
320.358	120.44
320.587	98.44
320.816	123.44
321.046	109.44
321.275	106.44
321.504	104.44
321.733	99.44
321.962	111.44
322.191	115.44
322.42	98.44
322.649	115.44
322.878	114.44
323.108	115.44
323.337	96.44
323.566	100.44
323.795	106.44
324.024	121.44
324.253	118.44
324.482	139.44
324.71	168.44
324.939	197.44
325.168	163.44
325.397	139.44
325.626	122.44
325.855	117.44
326.084	109.44
326.313	119.44
326.542	122.44
326.77	134.44
326.999	128.44
327.228	125.44
327.457	155.44
327.686	148.44
327.914	138.44
328.143	122.44
328.372	109.44
328.6	122.44
328.829	123.44
329.058	111.44
329.287	126.44
329.515	106.44
329.744	117.44
329.972	106.44
330.201	117.44
330.43	116.44
330.658	121.44
330.887	114.44
331.115	122.44
331.344	111.44
331.572	114.44
331.801	109.44
332.03	112.44
332.258	115.44
332.486	114.44
332.715	111.44
332.943	111.44
333.172	119.44
333.4	120.44
333.629	110.44
333.857	122.44
334.085	132.44
334.314	125.44
334.542	129.44
334.771	132.44
334.999	110.44
335.227	103.44
335.455	119.44
335.684	122.44
335.912	113.44
336.14	115.44
336.369	111.44
336.597	104.44
336.825	122.44
337.053	134.44
337.281	118.44
337.51	123.44
337.738	119.44
337.966	113.44
338.194	108.44
338.422	112.44
338.65	118.44
338.878	99.44
339.106	110.44
339.334	119.44
339.562	114.44
339.79	123.44
340.018	122.44
340.246	114.44
340.474	123.44
340.702	107.44
340.93	98.44
341.158	101.44
341.386	114.44
341.614	121.44
341.842	124.44
342.07	103.44
342.298	116.44
342.526	102.44
342.754	100.44
342.981	124.44
343.209	104.44
343.437	106.44
343.665	112.44
343.893	122.44
344.12	116.44
344.348	118.44
344.576	107.44
344.804	111.44
345.031	117.44
345.259	116.44
345.487	109.44
345.714	114.44
345.942	114.44
346.17	120.44
346.397	114.44
346.625	119.44
346.853	122.44
347.08	101.44
347.308	102.44
347.535	110.44
347.763	118.44
347.99	99.44
348.218	108.44
348.445	106.44
348.673	111.44
348.9	104.44
349.128	117.44
349.355	96.44
349.583	122.44
349.81	116.44
350.037	119.44
350.265	118.44
350.492	101.44
350.72	108.44
350.947	118.44
351.174	112.44
351.402	114.44
351.629	102.44
351.856	116.44
352.083	114.44
352.311	113.44
352.538	111.44
352.765	126.44
352.992	105.44
353.22	98.44
353.447	104.44
353.674	117.44
353.901	107.44
354.128	116.44
354.355	113.44
354.583	109.44
354.81	109.44
355.037	111.44
355.264	110.44
355.491	113.44
355.718	116.44
355.945	103.44
356.172	110.44
356.399	108.44
356.626	106.44
356.853	104.44
357.08	109.44
357.307	98.44
357.534	108.44
357.761	107.44
357.988	118.44
358.215	107.44
358.441	113.44
358.668	106.44
358.895	102.44
359.122	107.44
359.349	110.44
359.576	118.44
359.802	121.44
360.029	124.44
360.256	103.44
360.483	111.44
360.709	125.44
360.936	113.44
361.163	107.44
361.39	124.44
361.616	106.44
361.843	104.44
362.07	113.44
362.296	108.44
362.523	108.44
362.749	118.44
362.976	120.44
363.203	119.44
363.429	101.44
363.656	105.44
363.882	112.44
364.109	120.44
364.335	114.44
364.562	119.44
364.788	124.44
365.015	118.44
365.241	130.44
365.468	105.44
365.694	110.44
365.92	119.44
366.147	97.44
366.373	104.44
366.599	92.44
366.826	118.44
367.052	107.44
367.278	112.44
367.505	115.44
367.731	115.44
367.957	122.44
368.184	122.44
368.41	102.44
368.636	101.44
368.862	108.44
369.089	116.44
369.315	121.44
369.541	110.44
369.767	110.44
369.993	106.44
370.219	102.44
370.445	118.44
370.672	122.44
370.898	124.44
371.124	120.44
371.35	102.44
371.576	104.44
371.802	99.44
372.028	102.44
372.254	103.44
372.48	102.44
372.706	112.44
372.932	116.44
373.158	109.44
373.384	123.44
373.61	100.44
373.835	118.44
374.061	121.44
374.287	102.44
374.513	102.44
374.739	110.44
374.965	119.44
375.191	118.44
375.416	101.44
375.642	121.44
375.868	127.44
376.094	124.44
376.319	97.44
376.545	105.44
376.771	104.44
376.997	107.44
377.222	102.44
377.448	102.44
377.674	118.44
377.899	102.44
378.125	104.44
378.35	118.44
378.576	108.44
378.802	104.44
379.027	103.44
379.253	106.44
379.478	117.44
379.704	116.44
379.929	109.44
380.155	114.44
380.38	122.44
380.606	106.44
380.831	102.44
381.057	99.44
381.282	109.44
381.507	108.44
381.733	98.44
381.958	111.44
382.184	125.44
382.409	108.44
382.634	104.44
382.86	120.44
383.085	105.44
383.31	117.44
383.535	116.44
383.761	127.44
383.986	122.44
384.211	113.44
384.436	118.44
384.662	111.44
384.887	126.44
385.112	106.44
385.337	110.44
385.562	118.44
385.787	121.44
386.013	108.44
386.238	122.44
386.463	120.44
386.688	115.44
386.913	112.44
387.138	122.44
387.363	120.44
387.588	126.44
387.813	107.44
388.038	116.44
388.263	100.44
388.488	123.44
388.713	106.44
388.938	109.44
389.163	114.44
389.387	122.44
389.612	92.44
389.837	108.44
390.062	102.44
390.287	109.44
390.512	112.44
390.736	107.44
390.961	126.44
391.186	132.44
391.411	121.44
391.636	126.44
391.86	113.44
392.085	118.44
392.31	117.44
392.534	115.44
392.759	116.44
392.984	125.44
393.208	115.44
393.433	121.44
393.658	128.44
393.882	126.44
394.107	128.44
394.331	125.44
394.556	116.44
394.78	104.44
395.005	125.44
395.229	114.44
395.454	119.44
395.678	117.44
395.903	116.44
396.127	122.44
396.352	110.44
396.576	122.44
396.801	117.44
397.025	121.44
397.249	122.44
397.474	132.44
397.698	121.44
397.922	124.44
398.147	133.44
398.371	121.44
398.595	127.44
398.82	124.44
399.044	142.44
399.268	142.44
399.492	138.44
399.717	143.44
399.941	141.44
400.165	137.44
400.389	144.44
400.613	142.44
400.837	144.44
401.062	132.44
401.286	117.44
401.51	121.44
401.734	125.44
401.958	127.44
402.182	132.44
402.406	132.44
402.63	133.44
402.854	136.44
403.078	128.44
403.302	136.44
403.526	131.44
403.75	134.44
403.974	130.44
404.198	143.44
404.422	127.44
404.645	127.44
404.869	124.44
405.093	134.44
405.317	136.44
405.541	137.44
405.765	141.44
405.988	133.44
406.212	148.44
406.436	139.44
406.66	147.44
406.883	135.44
407.107	148.44
407.331	145.44
407.555	141.44
407.778	145.44
408.002	139.44
408.226	123.44
408.449	134.44
408.673	125.44
408.896	133.44
409.12	135.44
409.344	127.44
409.567	133.44
409.791	140.44
410.014	132.44
410.238	142.44
410.461	134.44
410.685	144.44
410.908	130.44
411.132	126.44
411.355	115.44
411.578	130.44
411.802	120.44
412.025	126.44
412.249	142.44
412.472	123.44
412.695	108.44
412.919	128.44
413.142	130.44
413.365	119.44
413.589	130.44
413.812	138.44
414.035	130.44
414.258	140.44
414.482	136.44
414.705	137.44
414.928	122.44
415.151	124.44
415.374	122.44
415.597	127.44
415.821	130.44
416.044	99.44
416.267	128.44
416.49	118.44
416.713	124.44
416.936	129.44
417.159	138.44
417.382	129.44
417.605	133.44
417.828	134.44
418.051	132.44
418.274	132.44
418.497	131.44
418.72	125.44
418.943	126.44
419.166	126.44
419.389	140.44
419.611	127.44
419.834	132.44
420.057	128.44
420.28	129.44
420.503	126.44
420.726	126.44
420.948	126.44
421.171	135.44
421.394	126.44
421.617	122.44
421.839	118.44
422.062	112.44
422.285	134.44
422.507	128.44
422.73	142.44
422.953	145.44
423.175	140.44
423.398	137.44
423.621	129.44
423.843	127.44
424.066	123.44
424.288	120.44
424.511	131.44
424.733	150.44
424.956	131.44
425.178	138.44
425.401	136.44
425.623	142.44
425.846	136.44
426.068	134.44
426.291	117.44
426.513	125.44
426.735	132.44
426.958	138.44
427.18	150.44
427.402	142.44
427.625	166.44
427.847	149.44
428.069	126.44
428.292	128.44
428.514	128.44
428.736	123.44
428.958	118.44
429.181	123.44
429.403	120.44
429.625	130.44
429.847	126.44
430.069	120.44
430.292	121.44
430.514	122.44
430.736	124.44
430.958	113.44
431.18	126.44
431.402	128.44
431.624	132.44
431.846	109.44
432.068	112.44
432.29	116.44
432.512	115.44
432.734	122.44
432.956	144.44
433.178	119.44
433.4	126.44
433.622	131.44
433.844	130.44
434.066	125.44
434.287	132.44
434.509	134.44
434.731	126.44
434.953	118.44
435.175	122.44
435.397	155.44
435.618	135.44
435.84	128.44
436.062	138.44
436.284	140.44
436.505	126.44
436.727	122.44
436.949	118.44
437.17	126.44
437.392	111.44
437.614	134.44
437.835	106.44
438.057	124.44
438.278	130.44
438.5	137.44
438.721	139.44
438.943	144.44
439.165	123.44
439.386	128.44
439.608	140.44
439.829	130.44
440.05	141.44
440.272	134.44
440.493	131.44
440.715	124.44
440.936	136.44
441.158	117.44
441.379	130.44
441.6	140.44
441.822	129.44
442.043	142.44
442.264	138.44
442.486	138.44
442.707	137.44
442.928	137.44
443.149	130.44
443.371	131.44
443.592	134.44
443.813	132.44
444.034	138.44
444.255	148.44
444.476	121.44
444.698	116.44
444.919	132.44
445.14	269.44
445.361	204.44
445.582	135.44
445.803	132.44
446.024	127.44
446.245	126.44
446.466	140.44
446.687	130.44
446.908	125.44
447.129	128.44
447.35	139.44
447.571	140.44
447.792	119.44
448.013	124.44
448.234	138.44
448.455	132.44
448.675	133.44
448.896	140.44
449.117	136.44
449.338	125.44
449.559	126.44
449.779	150.44
450	129.44
450.221	128.44
450.442	120.44
450.662	135.44
450.883	121.44
451.104	119.44
451.324	118.44
451.545	123.44
451.766	130.44
451.986	108.44
452.207	112.44
452.428	120.44
452.648	131.44
452.869	117.44
453.089	125.44
453.31	125.44
453.53	114.44
453.751	122.44
453.971	124.44
454.192	114.44
454.412	119.44
454.633	118.44
454.853	112.44
455.073	106.44
455.294	121.44
455.514	126.44
455.734	113.44
455.955	118.44
456.175	120.44
456.395	128.44
456.616	122.44
456.836	108.44
457.056	109.44
457.276	115.44
457.497	125.44
457.717	100.44
457.937	120.44
458.157	117.44
458.377	110.44
458.598	132.44
458.818	126.44
459.038	118.44
459.258	135.44
459.478	122.44
459.698	128.44
459.918	131.44
460.138	114.44
460.358	124.44
460.578	138.44
460.798	138.44
461.018	114.44
461.238	123.44
461.458	127.44
461.678	131.44
461.898	133.44
462.118	126.44
462.338	132.44
462.558	125.44
462.777	132.44
462.997	133.44
463.217	132.44
463.437	138.44
463.657	124.44
463.876	126.44
464.096	132.44
464.316	126.44
464.536	142.44
464.755	150.44
464.975	136.44
465.195	145.44
465.414	126.44
465.634	140.44
465.854	127.44
466.073	140.44
466.293	130.44
466.512	128.44
466.732	122.44
466.951	114.44
467.171	128.44
467.391	113.44
467.61	120.44
467.829	114.44
468.049	127.44
468.268	132.44
468.488	115.44
468.707	128.44
468.927	123.44
469.146	123.44
469.365	119.44
469.585	131.44
469.804	118.44
470.023	122.44
470.243	116.44
470.462	130.44
470.681	123.44
470.901	123.44
471.12	138.44
471.339	140.44
471.558	118.44
471.777	119.44
471.997	111.44
472.216	121.44
472.435	118.44
472.654	128.44
472.873	119.44
473.092	112.44
473.311	124.44
473.53	131.44
473.749	123.44
473.968	121.44
474.187	130.44
474.406	132.44
474.625	127.44
474.844	133.44
475.063	114.44
475.282	130.44
475.501	142.44
475.72	124.44
475.939	118.44
476.158	108.44
476.377	130.44
476.596	121.44
476.814	128.44
477.033	122.44
477.252	117.44
477.471	116.44
477.69	132.44
477.908	133.44
478.127	125.44
478.346	133.44
478.564	127.44
478.783	121.44
479.002	135.44
479.22	142.44
479.439	144.44
479.658	127.44
479.876	128.44
480.095	133.44
480.313	138.44
480.532	124.44
480.751	121.44
480.969	138.44
481.188	138.44
481.406	128.44
481.624	120.44
481.843	129.44
482.061	140.44
482.28	125.44
482.498	145.44
482.717	131.44
482.935	131.44
483.153	122.44
483.372	133.44
483.59	136.44
483.808	116.44
484.027	140.44
484.245	121.44
484.463	128.44
484.681	121.44
484.9	130.44
485.118	130.44
485.336	125.44
485.554	122.44
485.772	124.44
485.99	127.44
486.209	126.44
486.427	131.44
486.645	137.44
486.863	138.44
487.081	130.44
487.299	126.44
487.517	134.44
487.735	139.44
487.953	136.44
488.171	144.44
488.389	130.44
488.607	125.44
488.825	132.44
489.043	141.44
489.261	136.44
489.479	126.44
489.696	124.44
489.914	141.44
490.132	129.44
490.35	128.44
490.568	143.44
490.786	134.44
491.003	145.44
491.221	156.44
491.439	134.44
491.657	120.44
491.874	158.44
492.092	138.44
492.31	162.44
492.527	139.44
492.745	141.44
492.963	127.44
493.18	126.44
493.398	141.44
493.615	133.44
493.833	143.44
494.05	139.44
494.268	150.44
494.485	144.44
494.703	145.44
494.92	132.44
495.138	144.44
495.355	143.44
495.573	144.44
495.79	144.44
496.008	139.44
496.225	128.44
496.442	146.44
496.66	150.44
496.877	151.44
497.094	154.44
497.312	140.44
497.529	145.44
497.746	157.44
497.963	148.44
498.181	137.44
498.398	132.44
498.615	159.44
498.832	159.44
499.049	155.44
499.267	171.44
499.484	168.44
499.701	174.44
499.918	188.44
500.135	207.44
500.352	196.44
500.569	208.44
500.786	212.44
501.003	210.44
501.22	197.44
501.437	197.44
501.654	169.44
501.871	169.44
502.088	162.44
502.305	152.44
502.522	162.44
502.739	151.44
502.956	153.44
503.172	148.44
503.389	142.44
503.606	145.44
503.823	139.44
504.04	139.44
504.256	142.44
504.473	137.44
504.69	147.44
504.907	150.44
505.123	160.44
505.34	154.44
505.557	134.44
505.773	147.44
