Data from 1968.PennyLincolnUp.Lamp.En5.5.200Scan.071719.P1._HRD10591_14-52-06-970.txt Node
Date: Thu Jul 18 14:52:06 EDT 2019
User: cochatt
Spectrometer: HR+D1059
Trigger mode: 1
Integration Time (sec): 1.000000E-1
Scans to average: 1
Electric dark correction enabled: true
Nonlinearity correction enabled: false
Boxcar width: 0
XAxis mode: Wavelengths
Number of Pixels in Spectrum: 2048
>>>>>Begin Spectral Data<<<<<
223.165	-15.38
223.4	-15.38
223.635	-15.38
223.869	-32.38
224.104	-30.38
224.338	-8.38
224.573	-6.38
224.808	-18.38
225.042	-4.38
225.277	6.62
225.511	4.62
225.746	0.62
225.98	2.62
226.215	6.62
226.449	22.62
226.683	24.62
226.918	29.62
227.152	17.62
227.387	28.62
227.621	34.62
227.856	44.62
228.09	44.62
228.324	45.62
228.559	41.62
228.793	51.62
229.027	54.62
229.262	72.62
229.496	69.62
229.73	83.62
229.964	77.62
230.199	73.62
230.433	86.62
230.667	76.62
230.901	94.62
231.136	87.62
231.37	76.62
231.604	90.62
231.838	76.62
232.072	87.62
232.306	87.62
232.541	94.62
232.775	80.62
233.009	85.62
233.243	89.62
233.477	70.62
233.711	85.62
233.945	94.62
234.179	82.62
234.413	77.62
234.647	92.62
234.881	72.62
235.115	84.62
235.349	77.62
235.583	78.62
235.817	91.62
236.051	93.62
236.285	86.62
236.519	86.62
236.753	81.62
236.987	66.62
237.221	85.62
237.455	89.62
237.689	101.62
237.922	60.62
238.156	73.62
238.39	76.62
238.624	87.62
238.858	74.62
239.091	81.62
239.325	79.62
239.559	75.62
239.793	78.62
240.027	81.62
240.26	83.62
240.494	84.62
240.728	74.62
240.961	76.62
241.195	90.62
241.429	73.62
241.662	76.62
241.896	91.62
242.13	81.62
242.363	76.62
242.597	77.62
242.83	68.62
243.064	102.62
243.298	80.62
243.531	72.62
243.765	84.62
243.998	87.62
244.232	79.62
244.465	83.62
244.699	85.62
244.932	96.62
245.166	91.62
245.399	90.62
245.633	81.62
245.866	85.62
246.099	85.62
246.333	82.62
246.566	83.62
246.8	105.62
247.033	83.62
247.266	87.62
247.5	93.62
247.733	74.62
247.966	87.62
248.2	93.62
248.433	99.62
248.666	75.62
248.899	76.62
249.133	85.62
249.366	96.62
249.599	78.62
249.832	81.62
250.066	82.62
250.299	91.62
250.532	93.62
250.765	95.62
250.998	90.62
251.231	90.62
251.465	91.62
251.698	91.62
251.931	102.62
252.164	78.62
252.397	87.62
252.63	81.62
252.863	92.62
253.096	92.62
253.329	97.62
253.562	95.62
253.795	88.62
254.028	113.62
254.261	80.62
254.494	86.62
254.727	105.62
254.96	73.62
255.193	95.62
255.426	79.62
255.659	94.62
255.892	91.62
256.124	83.62
256.357	97.62
256.59	87.62
256.823	98.62
257.056	90.62
257.289	83.62
257.521	81.62
257.754	90.62
257.987	76.62
258.22	87.62
258.452	80.62
258.685	89.62
258.918	92.62
259.151	101.62
259.383	86.62
259.616	92.62
259.849	100.62
260.081	78.62
260.314	101.62
260.547	105.62
260.779	91.62
261.012	87.62
261.244	92.62
261.477	91.62
261.71	86.62
261.942	97.62
262.175	89.62
262.407	84.62
262.64	94.62
262.872	90.62
263.105	86.62
263.337	96.62
263.57	87.62
263.802	102.62
264.035	87.62
264.267	98.62
264.499	84.62
264.732	92.62
264.964	82.62
265.197	87.62
265.429	87.62
265.661	95.62
265.894	90.62
266.126	97.62
266.358	91.62
266.591	101.62
266.823	93.62
267.055	103.62
267.287	96.62
267.52	95.62
267.752	103.62
267.984	91.62
268.216	101.62
268.448	104.62
268.681	91.62
268.913	90.62
269.145	90.62
269.377	90.62
269.609	94.62
269.841	98.62
270.073	105.62
270.306	103.62
270.538	104.62
270.77	94.62
271.002	106.62
271.234	112.62
271.466	108.62
271.698	96.62
271.93	99.62
272.162	101.62
272.394	103.62
272.626	102.62
272.858	100.62
273.09	108.62
273.322	103.62
273.553	100.62
273.785	89.62
274.017	99.62
274.249	80.62
274.481	88.62
274.713	93.62
274.945	95.62
275.176	105.62
275.408	104.62
275.64	95.62
275.872	103.62
276.104	85.62
276.335	100.62
276.567	95.62
276.799	84.62
277.031	93.62
277.262	103.62
277.494	105.62
277.726	105.62
277.957	92.62
278.189	99.62
278.421	99.62
278.652	105.62
278.884	98.62
279.115	107.62
279.347	99.62
279.579	108.62
279.81	100.62
280.042	100.62
280.273	99.62
280.505	101.62
280.736	106.62
280.968	99.62
281.199	109.62
281.431	110.62
281.662	107.62
281.894	102.62
282.125	99.62
282.356	99.62
282.588	98.62
282.819	94.62
283.051	110.62
283.282	105.62
283.513	96.62
283.745	97.62
283.976	95.62
284.207	103.62
284.439	114.62
284.67	97.62
284.901	101.62
285.132	92.62
285.364	90.62
285.595	96.62
285.826	102.62
286.057	100.62
286.288	109.62
286.52	108.62
286.751	110.62
286.982	103.62
287.213	102.62
287.444	107.62
287.675	89.62
287.906	119.62
288.138	96.62
288.369	91.62
288.6	103.62
288.831	95.62
289.062	96.62
289.293	93.62
289.524	103.62
289.755	107.62
289.986	86.62
290.217	101.62
290.448	119.62
290.679	94.62
290.91	108.62
291.141	106.62
291.371	109.62
291.602	97.62
291.833	116.62
292.064	95.62
292.295	99.62
292.526	105.62
292.757	106.62
292.987	100.62
293.218	103.62
293.449	102.62
293.68	101.62
293.91	94.62
294.141	91.62
294.372	104.62
294.603	110.62
294.833	98.62
295.064	109.62
295.295	103.62
295.525	106.62
295.756	120.62
295.987	107.62
296.217	106.62
296.448	106.62
296.679	106.62
296.909	111.62
297.14	101.62
297.37	97.62
297.601	94.62
297.831	121.62
298.062	105.62
298.292	106.62
298.523	112.62
298.753	115.62
298.984	93.62
299.214	111.62
299.445	100.62
299.675	110.62
299.905	94.62
300.136	110.62
300.366	93.62
300.597	94.62
300.827	99.62
301.057	115.62
301.288	109.62
301.518	105.62
301.748	110.62
301.979	93.62
302.209	93.62
302.439	114.62
302.669	103.62
302.9	112.62
303.13	113.62
303.36	103.62
303.59	115.62
303.82	101.62
304.051	101.62
304.281	101.62
304.511	107.62
304.741	101.62
304.971	95.62
305.201	110.62
305.431	113.62
305.661	110.62
305.891	109.62
306.121	93.62
306.352	115.62
306.582	109.62
306.812	97.62
307.042	108.62
307.272	86.62
307.502	107.62
307.731	104.62
307.961	104.62
308.191	102.62
308.421	102.62
308.651	97.62
308.881	103.62
309.111	107.62
309.341	97.62
309.571	117.62
309.8	122.62
310.03	117.62
310.26	116.62
310.49	115.62
310.72	121.62
310.949	107.62
311.179	110.62
311.409	120.62
311.639	108.62
311.868	116.62
312.098	121.62
312.328	119.62
312.557	115.62
312.787	103.62
313.017	103.62
313.246	108.62
313.476	109.62
313.706	109.62
313.935	97.62
314.165	107.62
314.394	102.62
314.624	114.62
314.853	115.62
315.083	100.62
315.312	115.62
315.542	117.62
315.771	114.62
316.001	111.62
316.23	115.62
316.46	112.62
316.689	98.62
316.919	110.62
317.148	125.62
317.377	114.62
317.607	106.62
317.836	92.62
318.065	110.62
318.295	115.62
318.524	106.62
318.753	107.62
318.983	112.62
319.212	97.62
319.441	108.62
319.67	126.62
319.9	105.62
320.129	105.62
320.358	122.62
320.587	106.62
320.816	101.62
321.046	127.62
321.275	121.62
321.504	118.62
321.733	93.62
321.962	119.62
322.191	115.62
322.42	122.62
322.649	101.62
322.878	131.62
323.108	107.62
323.337	117.62
323.566	119.62
323.795	119.62
324.024	114.62
324.253	125.62
324.482	137.62
324.71	173.62
324.939	177.62
325.168	157.62
325.397	111.62
325.626	123.62
325.855	111.62
326.084	117.62
326.313	121.62
326.542	117.62
326.77	104.62
326.999	110.62
327.228	125.62
327.457	155.62
327.686	179.62
327.914	133.62
328.143	132.62
328.372	113.62
328.6	131.62
328.829	130.62
329.058	119.62
329.287	116.62
329.515	106.62
329.744	107.62
329.972	123.62
330.201	124.62
330.43	126.62
330.658	118.62
330.887	126.62
331.115	122.62
331.344	127.62
331.572	121.62
331.801	117.62
332.03	114.62
332.258	121.62
332.486	106.62
332.715	129.62
332.943	122.62
333.172	122.62
333.4	121.62
333.629	108.62
333.857	129.62
334.085	126.62
334.314	121.62
334.542	127.62
334.771	134.62
334.999	122.62
335.227	107.62
335.455	119.62
335.684	127.62
335.912	118.62
336.14	104.62
336.369	103.62
336.597	120.62
336.825	111.62
337.053	122.62
337.281	127.62
337.51	103.62
337.738	122.62
337.966	113.62
338.194	99.62
338.422	99.62
338.65	117.62
338.878	128.62
339.106	107.62
339.334	107.62
339.562	113.62
339.79	114.62
340.018	114.62
340.246	102.62
340.474	125.62
340.702	117.62
340.93	113.62
341.158	107.62
341.386	105.62
341.614	116.62
341.842	105.62
342.07	107.62
342.298	109.62
342.526	101.62
342.754	111.62
342.981	127.62
343.209	114.62
343.437	108.62
343.665	116.62
343.893	115.62
344.12	106.62
344.348	113.62
344.576	110.62
344.804	117.62
345.031	117.62
345.259	106.62
345.487	102.62
345.714	107.62
345.942	105.62
346.17	122.62
346.397	118.62
346.625	113.62
346.853	102.62
347.08	109.62
347.308	94.62
347.535	105.62
347.763	120.62
347.99	110.62
348.218	106.62
348.445	123.62
348.673	116.62
348.9	109.62
349.128	101.62
349.355	104.62
349.583	123.62
349.81	121.62
350.037	119.62
350.265	103.62
350.492	123.62
350.72	120.62
350.947	107.62
351.174	120.62
351.402	102.62
351.629	105.62
351.856	98.62
352.083	123.62
352.311	124.62
352.538	125.62
352.765	102.62
352.992	92.62
353.22	103.62
353.447	118.62
353.674	117.62
353.901	119.62
354.128	117.62
354.355	119.62
354.583	109.62
354.81	113.62
355.037	110.62
355.264	105.62
355.491	117.62
355.718	97.62
355.945	118.62
356.172	109.62
356.399	105.62
356.626	110.62
356.853	110.62
357.08	113.62
357.307	107.62
357.534	125.62
357.761	122.62
357.988	113.62
358.215	119.62
358.441	116.62
358.668	99.62
358.895	125.62
359.122	124.62
359.349	115.62
359.576	127.62
359.802	109.62
360.029	115.62
360.256	113.62
360.483	113.62
360.709	118.62
360.936	117.62
361.163	94.62
361.39	120.62
361.616	113.62
361.843	98.62
362.07	121.62
362.296	103.62
362.523	124.62
362.749	113.62
362.976	106.62
363.203	121.62
363.429	114.62
363.656	104.62
363.882	110.62
364.109	111.62
364.335	115.62
364.562	119.62
364.788	115.62
365.015	110.62
365.241	103.62
365.468	119.62
365.694	109.62
365.92	111.62
366.147	108.62
366.373	116.62
366.599	113.62
366.826	105.62
367.052	123.62
367.278	117.62
367.505	110.62
367.731	92.62
367.957	114.62
368.184	90.62
368.41	119.62
368.636	112.62
368.862	134.62
369.089	113.62
369.315	107.62
369.541	127.62
369.767	111.62
369.993	108.62
370.219	124.62
370.445	115.62
370.672	109.62
370.898	121.62
371.124	100.62
371.35	111.62
371.576	93.62
371.802	110.62
372.028	105.62
372.254	114.62
372.48	119.62
372.706	107.62
372.932	104.62
373.158	135.62
373.384	124.62
373.61	109.62
373.835	101.62
374.061	116.62
374.287	122.62
374.513	118.62
374.739	113.62
374.965	118.62
375.191	114.62
375.416	107.62
375.642	106.62
375.868	111.62
376.094	113.62
376.319	102.62
376.545	113.62
376.771	108.62
376.997	113.62
377.222	119.62
377.448	112.62
377.674	123.62
377.899	121.62
378.125	115.62
378.35	124.62
378.576	124.62
378.802	100.62
379.027	113.62
379.253	116.62
379.478	111.62
379.704	125.62
379.929	121.62
380.155	121.62
380.38	118.62
380.606	114.62
380.831	121.62
381.057	121.62
381.282	118.62
381.507	115.62
381.733	105.62
381.958	111.62
382.184	106.62
382.409	118.62
382.634	113.62
382.86	129.62
383.085	110.62
383.31	125.62
383.535	113.62
383.761	115.62
383.986	126.62
384.211	106.62
384.436	119.62
384.662	103.62
384.887	115.62
385.112	116.62
385.337	110.62
385.562	121.62
385.787	101.62
386.013	123.62
386.238	97.62
386.463	121.62
386.688	110.62
386.913	95.62
387.138	117.62
387.363	123.62
387.588	125.62
387.813	123.62
388.038	115.62
388.263	110.62
388.488	113.62
388.713	103.62
388.938	105.62
389.163	127.62
389.387	115.62
389.612	115.62
389.837	122.62
390.062	120.62
390.287	113.62
390.512	109.62
390.736	111.62
390.961	113.62
391.186	127.62
391.411	125.62
391.636	142.62
391.86	136.62
392.085	124.62
392.31	113.62
392.534	125.62
392.759	126.62
392.984	105.62
393.208	114.62
393.433	109.62
393.658	111.62
393.882	125.62
394.107	104.62
394.331	118.62
394.556	124.62
394.78	127.62
395.005	125.62
395.229	133.62
395.454	142.62
395.678	135.62
395.903	125.62
396.127	125.62
396.352	129.62
396.576	116.62
396.801	120.62
397.025	111.62
397.249	123.62
397.474	123.62
397.698	134.62
397.922	138.62
398.147	141.62
398.371	125.62
398.595	128.62
398.82	137.62
399.044	128.62
399.268	145.62
399.492	149.62
399.717	135.62
399.941	144.62
400.165	143.62
400.389	138.62
400.613	118.62
400.837	135.62
401.062	129.62
401.286	127.62
401.51	134.62
401.734	133.62
401.958	116.62
402.182	127.62
402.406	127.62
402.63	126.62
402.854	119.62
403.078	127.62
403.302	125.62
403.526	133.62
403.75	144.62
403.974	133.62
404.198	129.62
404.422	136.62
404.645	127.62
404.869	134.62
405.093	129.62
405.317	131.62
405.541	129.62
405.765	139.62
405.988	142.62
406.212	126.62
406.436	137.62
406.66	137.62
406.883	138.62
407.107	127.62
407.331	149.62
407.555	147.62
407.778	141.62
408.002	136.62
408.226	142.62
408.449	136.62
408.673	139.62
408.896	134.62
409.12	122.62
409.344	133.62
409.567	136.62
409.791	129.62
410.014	135.62
410.238	138.62
410.461	131.62
410.685	138.62
410.908	129.62
411.132	137.62
411.355	139.62
411.578	147.62
411.802	139.62
412.025	137.62
412.249	134.62
412.472	129.62
412.695	135.62
412.919	130.62
413.142	131.62
413.365	117.62
413.589	127.62
413.812	147.62
414.035	126.62
414.258	129.62
414.482	135.62
414.705	122.62
414.928	141.62
415.151	121.62
415.374	132.62
415.597	120.62
415.821	133.62
416.044	123.62
416.267	139.62
416.49	140.62
416.713	138.62
416.936	135.62
417.159	127.62
417.382	133.62
417.605	132.62
417.828	139.62
418.051	123.62
418.274	141.62
418.497	126.62
418.72	128.62
418.943	143.62
419.166	129.62
419.389	123.62
419.611	131.62
419.834	133.62
420.057	144.62
420.28	133.62
420.503	133.62
420.726	114.62
420.948	113.62
421.171	125.62
421.394	130.62
421.617	139.62
421.839	126.62
422.062	115.62
422.285	125.62
422.507	144.62
422.73	129.62
422.953	139.62
423.175	127.62
423.398	123.62
423.621	121.62
423.843	135.62
424.066	129.62
424.288	128.62
424.511	121.62
424.733	133.62
424.956	142.62
425.178	143.62
425.401	156.62
425.623	135.62
425.846	146.62
426.068	141.62
426.291	137.62
426.513	132.62
426.735	122.62
426.958	129.62
427.18	131.62
427.402	150.62
427.625	141.62
427.847	132.62
428.069	129.62
428.292	124.62
428.514	138.62
428.736	124.62
428.958	125.62
429.181	129.62
429.403	118.62
429.625	133.62
429.847	121.62
430.069	140.62
430.292	132.62
430.514	115.62
430.736	127.62
430.958	123.62
431.18	118.62
431.402	118.62
431.624	130.62
431.846	119.62
432.068	109.62
432.29	127.62
432.512	133.62
432.734	123.62
432.956	125.62
433.178	122.62
433.4	123.62
433.622	116.62
433.844	125.62
434.066	126.62
434.287	126.62
434.509	118.62
434.731	122.62
434.953	122.62
435.175	125.62
435.397	127.62
435.618	117.62
435.84	115.62
436.062	143.62
436.284	151.62
436.505	114.62
436.727	118.62
436.949	135.62
437.17	133.62
437.392	121.62
437.614	111.62
437.835	141.62
438.057	137.62
438.278	139.62
438.5	122.62
438.721	142.62
438.943	148.62
439.165	133.62
439.386	133.62
439.608	126.62
439.829	123.62
440.05	120.62
440.272	137.62
440.493	127.62
440.715	127.62
440.936	120.62
441.158	127.62
441.379	139.62
441.6	129.62
441.822	135.62
442.043	118.62
442.264	142.62
442.486	135.62
442.707	136.62
442.928	135.62
443.149	128.62
443.371	127.62
443.592	129.62
443.813	144.62
444.034	150.62
444.255	137.62
444.476	136.62
444.698	151.62
444.919	141.62
445.14	267.62
445.361	185.62
445.582	140.62
445.803	152.62
446.024	149.62
446.245	167.62
446.466	148.62
446.687	151.62
446.908	133.62
447.129	133.62
447.35	115.62
447.571	155.62
447.792	125.62
448.013	117.62
448.234	129.62
448.455	131.62
448.675	122.62
448.896	140.62
449.117	127.62
449.338	127.62
449.559	121.62
449.779	144.62
450	131.62
450.221	122.62
450.442	129.62
450.662	133.62
450.883	119.62
451.104	127.62
451.324	123.62
451.545	120.62
451.766	130.62
451.986	116.62
452.207	138.62
452.428	122.62
452.648	120.62
452.869	113.62
453.089	108.62
453.31	116.62
453.53	119.62
453.751	108.62
453.971	129.62
454.192	118.62
454.412	103.62
454.633	124.62
454.853	123.62
455.073	119.62
455.294	127.62
455.514	119.62
455.734	127.62
455.955	115.62
456.175	114.62
456.395	118.62
456.616	106.62
456.836	113.62
457.056	114.62
457.276	107.62
457.497	123.62
457.717	122.62
457.937	124.62
458.157	123.62
458.377	123.62
458.598	120.62
458.818	125.62
459.038	122.62
459.258	126.62
459.478	117.62
459.698	123.62
459.918	120.62
460.138	124.62
460.358	141.62
460.578	132.62
460.798	127.62
461.018	126.62
461.238	131.62
461.458	144.62
461.678	125.62
461.898	133.62
462.118	122.62
462.338	123.62
462.558	137.62
462.777	148.62
462.997	133.62
463.217	141.62
463.437	161.62
463.657	136.62
463.876	114.62
464.096	139.62
464.316	145.62
464.536	141.62
464.755	133.62
464.975	119.62
465.195	136.62
465.414	146.62
465.634	120.62
465.854	129.62
466.073	121.62
466.293	126.62
466.512	126.62
466.732	141.62
466.951	125.62
467.171	131.62
467.391	111.62
467.61	136.62
467.829	123.62
468.049	124.62
468.268	129.62
468.488	123.62
468.707	117.62
468.927	134.62
469.146	123.62
469.365	115.62
469.585	133.62
469.804	132.62
470.023	119.62
470.243	129.62
470.462	116.62
470.681	133.62
470.901	134.62
471.12	123.62
471.339	119.62
471.558	127.62
471.777	123.62
471.997	128.62
472.216	123.62
472.435	133.62
472.654	118.62
472.873	134.62
473.092	122.62
473.311	121.62
473.53	123.62
473.749	116.62
473.968	128.62
474.187	125.62
474.406	120.62
474.625	131.62
474.844	121.62
475.063	123.62
475.282	121.62
475.501	117.62
475.72	142.62
475.939	127.62
476.158	139.62
476.377	127.62
476.596	116.62
476.814	121.62
477.033	125.62
477.252	115.62
477.471	116.62
477.69	116.62
477.908	124.62
478.127	121.62
478.346	138.62
478.564	135.62
478.783	126.62
479.002	127.62
479.22	132.62
479.439	135.62
479.658	137.62
479.876	135.62
480.095	133.62
480.313	138.62
480.532	130.62
480.751	140.62
480.969	130.62
481.188	138.62
481.406	139.62
481.624	124.62
481.843	119.62
482.061	130.62
482.28	126.62
482.498	133.62
482.717	126.62
482.935	121.62
483.153	123.62
483.372	122.62
483.59	149.62
483.808	135.62
484.027	118.62
484.245	141.62
484.463	127.62
484.681	130.62
484.9	135.62
485.118	135.62
485.336	137.62
485.554	126.62
485.772	139.62
485.99	140.62
486.209	122.62
486.427	134.62
486.645	132.62
486.863	137.62
487.081	141.62
487.299	137.62
487.517	131.62
487.735	142.62
487.953	128.62
488.171	133.62
488.389	139.62
488.607	138.62
488.825	127.62
489.043	121.62
489.261	114.62
489.479	141.62
489.696	138.62
489.914	136.62
490.132	130.62
490.35	137.62
490.568	151.62
490.786	134.62
491.003	132.62
491.221	142.62
491.439	147.62
491.657	137.62
491.874	132.62
492.092	150.62
492.31	161.62
492.527	151.62
492.745	156.62
492.963	144.62
493.18	142.62
493.398	131.62
493.615	143.62
493.833	159.62
494.05	150.62
494.268	155.62
494.485	152.62
494.703	153.62
494.92	145.62
495.138	142.62
495.355	157.62
495.573	143.62
495.79	139.62
496.008	141.62
496.225	140.62
496.442	150.62
496.66	158.62
496.877	153.62
497.094	135.62
497.312	150.62
497.529	131.62
497.746	157.62
497.963	139.62
498.181	155.62
498.398	161.62
498.615	165.62
498.832	149.62
499.049	174.62
499.267	167.62
499.484	166.62
499.701	188.62
499.918	189.62
500.135	189.62
500.352	221.62
500.569	214.62
500.786	214.62
501.003	214.62
501.22	188.62
501.437	190.62
501.654	195.62
501.871	172.62
502.088	155.62
502.305	168.62
502.522	172.62
502.739	167.62
502.956	156.62
503.172	150.62
503.389	152.62
503.606	143.62
503.823	135.62
504.04	142.62
504.256	149.62
504.473	147.62
504.69	157.62
504.907	142.62
505.123	144.62
505.34	135.62
