Data from 1968.PennyLincolnUp.Lamp.En5.5.200Scan.071719.P1._HRD10591_14-52-22-970.txt Node
Date: Thu Jul 18 14:52:22 EDT 2019
User: cochatt
Spectrometer: HR+D1059
Trigger mode: 1
Integration Time (sec): 1.000000E-1
Scans to average: 1
Electric dark correction enabled: true
Nonlinearity correction enabled: false
Boxcar width: 0
XAxis mode: Wavelengths
Number of Pixels in Spectrum: 2048
>>>>>Begin Spectral Data<<<<<
223.165	-11.88
223.4	-11.88
223.635	-11.88
223.869	-16.88
224.104	-21.88
224.338	-20.88
224.573	-10.88
224.808	-8.88
225.042	-8.88
225.277	-3.88
225.511	3.12
225.746	-0.88
225.98	3.12
226.215	4.12
226.449	21.12
226.683	23.12
226.918	15.12
227.152	35.12
227.387	51.12
227.621	32.12
227.856	25.12
228.09	52.12
228.324	44.12
228.559	47.12
228.793	60.12
229.027	66.12
229.262	62.12
229.496	63.12
229.73	64.12
229.964	75.12
230.199	62.12
230.433	75.12
230.667	87.12
230.901	78.12
231.136	76.12
231.37	78.12
231.604	74.12
231.838	86.12
232.072	85.12
232.306	76.12
232.541	71.12
232.775	83.12
233.009	81.12
233.243	72.12
233.477	91.12
233.711	74.12
233.945	61.12
234.179	81.12
234.413	80.12
234.647	84.12
234.881	92.12
235.115	86.12
235.349	77.12
235.583	76.12
235.817	79.12
236.051	85.12
236.285	76.12
236.519	89.12
236.753	91.12
236.987	81.12
237.221	81.12
237.455	90.12
237.689	97.12
237.922	71.12
238.156	75.12
238.39	68.12
238.624	74.12
238.858	84.12
239.091	82.12
239.325	78.12
239.559	76.12
239.793	74.12
240.027	74.12
240.26	98.12
240.494	86.12
240.728	76.12
240.961	72.12
241.195	76.12
241.429	80.12
241.662	82.12
241.896	73.12
242.13	78.12
242.363	66.12
242.597	76.12
242.83	73.12
243.064	80.12
243.298	96.12
243.531	74.12
243.765	80.12
243.998	81.12
244.232	91.12
244.465	76.12
244.699	83.12
244.932	75.12
245.166	72.12
245.399	84.12
245.633	78.12
245.866	74.12
246.099	81.12
246.333	81.12
246.566	76.12
246.8	85.12
247.033	82.12
247.266	89.12
247.5	71.12
247.733	77.12
247.966	104.12
248.2	88.12
248.433	84.12
248.666	67.12
248.899	90.12
249.133	87.12
249.366	70.12
249.599	82.12
249.832	82.12
250.066	98.12
250.299	82.12
250.532	81.12
250.765	84.12
250.998	86.12
251.231	76.12
251.465	88.12
251.698	83.12
251.931	57.12
252.164	80.12
252.397	90.12
252.63	86.12
252.863	86.12
253.096	78.12
253.329	76.12
253.562	85.12
253.795	91.12
254.028	85.12
254.261	76.12
254.494	91.12
254.727	95.12
254.96	83.12
255.193	97.12
255.426	99.12
255.659	76.12
255.892	84.12
256.124	72.12
256.357	86.12
256.59	79.12
256.823	88.12
257.056	86.12
257.289	83.12
257.521	83.12
257.754	77.12
257.987	90.12
258.22	90.12
258.452	95.12
258.685	71.12
258.918	88.12
259.151	91.12
259.383	94.12
259.616	89.12
259.849	97.12
260.081	99.12
260.314	98.12
260.547	83.12
260.779	86.12
261.012	94.12
261.244	73.12
261.477	93.12
261.71	92.12
261.942	95.12
262.175	86.12
262.407	81.12
262.64	86.12
262.872	87.12
263.105	93.12
263.337	95.12
263.57	69.12
263.802	80.12
264.035	79.12
264.267	99.12
264.499	89.12
264.732	94.12
264.964	96.12
265.197	94.12
265.429	89.12
265.661	98.12
265.894	75.12
266.126	93.12
266.358	85.12
266.591	96.12
266.823	81.12
267.055	86.12
267.287	72.12
267.52	90.12
267.752	90.12
267.984	76.12
268.216	93.12
268.448	90.12
268.681	80.12
268.913	91.12
269.145	88.12
269.377	86.12
269.609	87.12
269.841	96.12
270.073	92.12
270.306	88.12
270.538	95.12
270.77	91.12
271.002	96.12
271.234	94.12
271.466	101.12
271.698	94.12
271.93	97.12
272.162	98.12
272.394	98.12
272.626	96.12
272.858	99.12
273.09	94.12
273.322	99.12
273.553	99.12
273.785	88.12
274.017	98.12
274.249	98.12
274.481	106.12
274.713	97.12
274.945	99.12
275.176	95.12
275.408	97.12
275.64	100.12
275.872	77.12
276.104	97.12
276.335	109.12
276.567	101.12
276.799	103.12
277.031	88.12
277.262	86.12
277.494	96.12
277.726	95.12
277.957	91.12
278.189	87.12
278.421	100.12
278.652	99.12
278.884	90.12
279.115	73.12
279.347	101.12
279.579	105.12
279.81	102.12
280.042	91.12
280.273	95.12
280.505	84.12
280.736	102.12
280.968	96.12
281.199	98.12
281.431	88.12
281.662	88.12
281.894	82.12
282.125	83.12
282.356	112.12
282.588	103.12
282.819	106.12
283.051	91.12
283.282	106.12
283.513	91.12
283.745	95.12
283.976	88.12
284.207	102.12
284.439	82.12
284.67	114.12
284.901	99.12
285.132	94.12
285.364	94.12
285.595	100.12
285.826	112.12
286.057	111.12
286.288	106.12
286.52	93.12
286.751	97.12
286.982	102.12
287.213	92.12
287.444	91.12
287.675	116.12
287.906	84.12
288.138	105.12
288.369	104.12
288.6	114.12
288.831	94.12
289.062	94.12
289.293	99.12
289.524	92.12
289.755	106.12
289.986	108.12
290.217	91.12
290.448	105.12
290.679	104.12
290.91	108.12
291.141	96.12
291.371	105.12
291.602	110.12
291.833	105.12
292.064	95.12
292.295	99.12
292.526	115.12
292.757	104.12
292.987	99.12
293.218	91.12
293.449	92.12
293.68	98.12
293.91	108.12
294.141	111.12
294.372	93.12
294.603	94.12
294.833	99.12
295.064	97.12
295.295	93.12
295.525	100.12
295.756	104.12
295.987	103.12
296.217	104.12
296.448	96.12
296.679	106.12
296.909	107.12
297.14	97.12
297.37	106.12
297.601	99.12
297.831	108.12
298.062	91.12
298.292	111.12
298.523	96.12
298.753	102.12
298.984	106.12
299.214	98.12
299.445	103.12
299.675	96.12
299.905	91.12
300.136	94.12
300.366	104.12
300.597	117.12
300.827	101.12
301.057	88.12
301.288	107.12
301.518	95.12
301.748	96.12
301.979	113.12
302.209	110.12
302.439	111.12
302.669	100.12
302.9	124.12
303.13	118.12
303.36	108.12
303.59	114.12
303.82	118.12
304.051	106.12
304.281	115.12
304.511	108.12
304.741	116.12
304.971	111.12
305.201	108.12
305.431	106.12
305.661	98.12
305.891	97.12
306.121	101.12
306.352	99.12
306.582	86.12
306.812	102.12
307.042	112.12
307.272	116.12
307.502	103.12
307.731	103.12
307.961	117.12
308.191	108.12
308.421	90.12
308.651	108.12
308.881	111.12
309.111	104.12
309.341	102.12
309.571	97.12
309.8	110.12
310.03	103.12
310.26	109.12
310.49	104.12
310.72	108.12
310.949	103.12
311.179	110.12
311.409	112.12
311.639	90.12
311.868	98.12
312.098	98.12
312.328	102.12
312.557	117.12
312.787	115.12
313.017	107.12
313.246	101.12
313.476	120.12
313.706	101.12
313.935	105.12
314.165	99.12
314.394	89.12
314.624	105.12
314.853	105.12
315.083	111.12
315.312	118.12
315.542	97.12
315.771	104.12
316.001	106.12
316.23	121.12
316.46	98.12
316.689	109.12
316.919	105.12
317.148	110.12
317.377	113.12
317.607	104.12
317.836	91.12
318.065	118.12
318.295	101.12
318.524	96.12
318.753	105.12
318.983	96.12
319.212	110.12
319.441	108.12
319.67	119.12
319.9	107.12
320.129	102.12
320.358	117.12
320.587	110.12
320.816	95.12
321.046	107.12
321.275	114.12
321.504	112.12
321.733	112.12
321.962	104.12
322.191	111.12
322.42	124.12
322.649	99.12
322.878	119.12
323.108	118.12
323.337	97.12
323.566	115.12
323.795	120.12
324.024	104.12
324.253	119.12
324.482	133.12
324.71	152.12
324.939	183.12
325.168	173.12
325.397	130.12
325.626	105.12
325.855	116.12
326.084	105.12
326.313	116.12
326.542	113.12
326.77	99.12
326.999	122.12
327.228	136.12
327.457	160.12
327.686	174.12
327.914	147.12
328.143	123.12
328.372	117.12
328.6	117.12
328.829	106.12
329.058	127.12
329.287	131.12
329.515	117.12
329.744	122.12
329.972	119.12
330.201	116.12
330.43	121.12
330.658	119.12
330.887	131.12
331.115	122.12
331.344	119.12
331.572	118.12
331.801	115.12
332.03	114.12
332.258	102.12
332.486	112.12
332.715	102.12
332.943	124.12
333.172	106.12
333.4	121.12
333.629	114.12
333.857	112.12
334.085	112.12
334.314	119.12
334.542	113.12
334.771	118.12
334.999	121.12
335.227	124.12
335.455	107.12
335.684	114.12
335.912	106.12
336.14	116.12
336.369	110.12
336.597	126.12
336.825	114.12
337.053	112.12
337.281	116.12
337.51	120.12
337.738	112.12
337.966	111.12
338.194	122.12
338.422	118.12
338.65	118.12
338.878	99.12
339.106	118.12
339.334	102.12
339.562	111.12
339.79	116.12
340.018	102.12
340.246	112.12
340.474	119.12
340.702	114.12
340.93	116.12
341.158	104.12
341.386	113.12
341.614	105.12
341.842	108.12
342.07	114.12
342.298	99.12
342.526	104.12
342.754	114.12
342.981	113.12
343.209	91.12
343.437	100.12
343.665	107.12
343.893	114.12
344.12	134.12
344.348	112.12
344.576	98.12
344.804	112.12
345.031	129.12
345.259	118.12
345.487	118.12
345.714	98.12
345.942	111.12
346.17	112.12
346.397	113.12
346.625	105.12
346.853	102.12
347.08	112.12
347.308	102.12
347.535	105.12
347.763	107.12
347.99	112.12
348.218	112.12
348.445	111.12
348.673	94.12
348.9	108.12
349.128	112.12
349.355	122.12
349.583	120.12
349.81	106.12
350.037	96.12
350.265	90.12
350.492	98.12
350.72	106.12
350.947	116.12
351.174	98.12
351.402	114.12
351.629	126.12
351.856	99.12
352.083	105.12
352.311	108.12
352.538	111.12
352.765	112.12
352.992	111.12
353.22	113.12
353.447	114.12
353.674	101.12
353.901	118.12
354.128	115.12
354.355	120.12
354.583	109.12
354.81	116.12
355.037	107.12
355.264	114.12
355.491	124.12
355.718	110.12
355.945	110.12
356.172	102.12
356.399	110.12
356.626	114.12
356.853	91.12
357.08	95.12
357.307	104.12
357.534	99.12
357.761	119.12
357.988	119.12
358.215	107.12
358.441	102.12
358.668	96.12
358.895	102.12
359.122	95.12
359.349	112.12
359.576	89.12
359.802	117.12
360.029	109.12
360.256	111.12
360.483	106.12
360.709	114.12
360.936	131.12
361.163	118.12
361.39	105.12
361.616	104.12
361.843	123.12
362.07	118.12
362.296	116.12
362.523	89.12
362.749	105.12
362.976	102.12
363.203	116.12
363.429	102.12
363.656	110.12
363.882	102.12
364.109	123.12
364.335	122.12
364.562	115.12
364.788	113.12
365.015	111.12
365.241	124.12
365.468	104.12
365.694	99.12
365.92	102.12
366.147	118.12
366.373	111.12
366.599	103.12
366.826	104.12
367.052	106.12
367.278	112.12
367.505	105.12
367.731	98.12
367.957	90.12
368.184	116.12
368.41	109.12
368.636	112.12
368.862	119.12
369.089	107.12
369.315	114.12
369.541	104.12
369.767	118.12
369.993	98.12
370.219	118.12
370.445	102.12
370.672	117.12
370.898	107.12
371.124	107.12
371.35	108.12
371.576	119.12
371.802	100.12
372.028	104.12
372.254	108.12
372.48	100.12
372.706	107.12
372.932	123.12
373.158	114.12
373.384	123.12
373.61	118.12
373.835	100.12
374.061	95.12
374.287	105.12
374.513	104.12
374.739	119.12
374.965	104.12
375.191	102.12
375.416	123.12
375.642	126.12
375.868	122.12
376.094	118.12
376.319	119.12
376.545	109.12
376.771	124.12
376.997	110.12
377.222	118.12
377.448	121.12
377.674	130.12
377.899	107.12
378.125	112.12
378.35	95.12
378.576	118.12
378.802	117.12
379.027	110.12
379.253	103.12
379.478	109.12
379.704	105.12
379.929	105.12
380.155	102.12
380.38	119.12
380.606	104.12
380.831	104.12
381.057	112.12
381.282	122.12
381.507	102.12
381.733	120.12
381.958	117.12
382.184	104.12
382.409	116.12
382.634	109.12
382.86	99.12
383.085	100.12
383.31	126.12
383.535	113.12
383.761	114.12
383.986	106.12
384.211	115.12
384.436	110.12
384.662	102.12
384.887	111.12
385.112	122.12
385.337	120.12
385.562	110.12
385.787	120.12
386.013	105.12
386.238	126.12
386.463	111.12
386.688	110.12
386.913	118.12
387.138	118.12
387.363	106.12
387.588	110.12
387.813	121.12
388.038	115.12
388.263	126.12
388.488	118.12
388.713	125.12
388.938	117.12
389.163	123.12
389.387	110.12
389.612	128.12
389.837	119.12
390.062	112.12
390.287	109.12
390.512	106.12
390.736	112.12
390.961	116.12
391.186	138.12
391.411	134.12
391.636	118.12
391.86	116.12
392.085	128.12
392.31	110.12
392.534	127.12
392.759	118.12
392.984	120.12
393.208	120.12
393.433	108.12
393.658	112.12
393.882	127.12
394.107	122.12
394.331	114.12
394.556	116.12
394.78	120.12
395.005	110.12
395.229	126.12
395.454	123.12
395.678	106.12
395.903	118.12
396.127	129.12
396.352	120.12
396.576	121.12
396.801	122.12
397.025	113.12
397.249	126.12
397.474	128.12
397.698	123.12
397.922	134.12
398.147	121.12
398.371	125.12
398.595	123.12
398.82	113.12
399.044	127.12
399.268	148.12
399.492	131.12
399.717	154.12
399.941	151.12
400.165	136.12
400.389	130.12
400.613	120.12
400.837	132.12
401.062	127.12
401.286	128.12
401.51	118.12
401.734	114.12
401.958	132.12
402.182	122.12
402.406	114.12
402.63	130.12
402.854	126.12
403.078	125.12
403.302	140.12
403.526	136.12
403.75	135.12
403.974	136.12
404.198	143.12
404.422	127.12
404.645	131.12
404.869	119.12
405.093	146.12
405.317	130.12
405.541	136.12
405.765	117.12
405.988	128.12
406.212	124.12
406.436	138.12
406.66	144.12
406.883	128.12
407.107	131.12
407.331	150.12
407.555	147.12
407.778	143.12
408.002	137.12
408.226	130.12
408.449	146.12
408.673	128.12
408.896	147.12
409.12	152.12
409.344	138.12
409.567	128.12
409.791	130.12
410.014	156.12
410.238	123.12
410.461	116.12
410.685	133.12
410.908	114.12
411.132	129.12
411.355	133.12
411.578	124.12
411.802	136.12
412.025	129.12
412.249	116.12
412.472	137.12
412.695	133.12
412.919	147.12
413.142	118.12
413.365	122.12
413.589	112.12
413.812	131.12
414.035	132.12
414.258	132.12
414.482	135.12
414.705	123.12
414.928	123.12
415.151	131.12
415.374	119.12
415.597	131.12
415.821	134.12
416.044	121.12
416.267	116.12
416.49	130.12
416.713	120.12
416.936	124.12
417.159	120.12
417.382	129.12
417.605	127.12
417.828	131.12
418.051	123.12
418.274	132.12
418.497	124.12
418.72	115.12
418.943	114.12
419.166	123.12
419.389	118.12
419.611	135.12
419.834	122.12
420.057	129.12
420.28	126.12
420.503	134.12
420.726	127.12
420.948	124.12
421.171	134.12
421.394	136.12
421.617	115.12
421.839	138.12
422.062	129.12
422.285	130.12
422.507	126.12
422.73	145.12
422.953	117.12
423.175	132.12
423.398	116.12
423.621	117.12
423.843	142.12
424.066	137.12
424.288	130.12
424.511	142.12
424.733	134.12
424.956	130.12
425.178	142.12
425.401	139.12
425.623	114.12
425.846	110.12
426.068	138.12
426.291	138.12
426.513	137.12
426.735	139.12
426.958	154.12
427.18	135.12
427.402	133.12
427.625	150.12
427.847	138.12
428.069	127.12
428.292	123.12
428.514	116.12
428.736	123.12
428.958	124.12
429.181	118.12
429.403	108.12
429.625	122.12
429.847	124.12
430.069	132.12
430.292	136.12
430.514	123.12
430.736	118.12
430.958	143.12
431.18	119.12
431.402	128.12
431.624	127.12
431.846	110.12
432.068	126.12
432.29	105.12
432.512	118.12
432.734	122.12
432.956	125.12
433.178	126.12
433.4	124.12
433.622	122.12
433.844	121.12
434.066	124.12
434.287	128.12
434.509	119.12
434.731	116.12
434.953	129.12
435.175	119.12
435.397	136.12
435.618	135.12
435.84	134.12
436.062	135.12
436.284	153.12
436.505	138.12
436.727	126.12
436.949	124.12
437.17	117.12
437.392	127.12
437.614	122.12
437.835	118.12
438.057	128.12
438.278	145.12
438.5	142.12
438.721	148.12
438.943	130.12
439.165	126.12
439.386	134.12
439.608	126.12
439.829	126.12
440.05	144.12
440.272	130.12
440.493	124.12
440.715	125.12
440.936	117.12
441.158	128.12
441.379	117.12
441.6	126.12
441.822	125.12
442.043	138.12
442.264	137.12
442.486	138.12
442.707	129.12
442.928	129.12
443.149	135.12
443.371	134.12
443.592	132.12
443.813	129.12
444.034	131.12
444.255	154.12
444.476	140.12
444.698	134.12
444.919	134.12
445.14	218.12
445.361	170.12
445.582	141.12
445.803	131.12
446.024	138.12
446.245	140.12
446.466	126.12
446.687	136.12
446.908	126.12
447.129	121.12
447.35	132.12
447.571	112.12
447.792	120.12
448.013	118.12
448.234	123.12
448.455	126.12
448.675	132.12
448.896	147.12
449.117	142.12
449.338	128.12
449.559	146.12
449.779	142.12
450	132.12
450.221	137.12
450.442	118.12
450.662	112.12
450.883	139.12
451.104	137.12
451.324	115.12
451.545	130.12
451.766	112.12
451.986	98.12
452.207	112.12
452.428	105.12
452.648	130.12
452.869	113.12
453.089	113.12
453.31	119.12
453.53	117.12
453.751	112.12
453.971	124.12
454.192	115.12
454.412	122.12
454.633	113.12
454.853	116.12
455.073	119.12
455.294	109.12
455.514	122.12
455.734	112.12
455.955	127.12
456.175	114.12
456.395	118.12
456.616	115.12
456.836	107.12
457.056	114.12
457.276	109.12
457.497	132.12
457.717	103.12
457.937	119.12
458.157	120.12
458.377	123.12
458.598	140.12
458.818	121.12
459.038	137.12
459.258	127.12
459.478	139.12
459.698	127.12
459.918	113.12
460.138	101.12
460.358	116.12
460.578	130.12
460.798	131.12
461.018	120.12
461.238	130.12
461.458	128.12
461.678	134.12
461.898	119.12
462.118	133.12
462.338	127.12
462.558	127.12
462.777	135.12
462.997	137.12
463.217	131.12
463.437	136.12
463.657	147.12
463.876	131.12
464.096	139.12
464.316	131.12
464.536	131.12
464.755	148.12
464.975	134.12
465.195	143.12
465.414	130.12
465.634	126.12
465.854	121.12
466.073	130.12
466.293	116.12
466.512	117.12
466.732	130.12
466.951	121.12
467.171	127.12
467.391	128.12
467.61	124.12
467.829	112.12
468.049	126.12
468.268	116.12
468.488	119.12
468.707	121.12
468.927	128.12
469.146	114.12
469.365	111.12
469.585	116.12
469.804	139.12
470.023	130.12
470.243	132.12
470.462	126.12
470.681	113.12
470.901	122.12
471.12	116.12
471.339	134.12
471.558	114.12
471.777	119.12
471.997	120.12
472.216	122.12
472.435	126.12
472.654	125.12
472.873	107.12
473.092	138.12
473.311	122.12
473.53	120.12
473.749	126.12
473.968	117.12
474.187	129.12
474.406	123.12
474.625	119.12
474.844	117.12
475.063	103.12
475.282	115.12
475.501	112.12
475.72	131.12
475.939	123.12
476.158	124.12
476.377	111.12
476.596	119.12
476.814	121.12
477.033	109.12
477.252	123.12
477.471	121.12
477.69	126.12
477.908	123.12
478.127	135.12
478.346	121.12
478.564	142.12
478.783	132.12
479.002	139.12
479.22	130.12
479.439	130.12
479.658	120.12
479.876	133.12
480.095	128.12
480.313	120.12
480.532	139.12
480.751	134.12
480.969	133.12
481.188	143.12
481.406	134.12
481.624	140.12
481.843	132.12
482.061	127.12
482.28	126.12
482.498	115.12
482.717	119.12
482.935	126.12
483.153	115.12
483.372	138.12
483.59	141.12
483.808	129.12
484.027	114.12
484.245	135.12
484.463	135.12
484.681	135.12
484.9	119.12
485.118	122.12
485.336	123.12
485.554	135.12
485.772	119.12
485.99	140.12
486.209	128.12
486.427	141.12
486.645	126.12
486.863	141.12
487.081	136.12
487.299	128.12
487.517	121.12
487.735	132.12
487.953	138.12
488.171	135.12
488.389	128.12
488.607	144.12
488.825	133.12
489.043	128.12
489.261	146.12
489.479	138.12
489.696	147.12
489.914	130.12
490.132	122.12
490.35	127.12
490.568	146.12
490.786	124.12
491.003	125.12
491.221	140.12
491.439	136.12
491.657	135.12
491.874	150.12
492.092	152.12
492.31	143.12
492.527	141.12
492.745	143.12
492.963	150.12
493.18	126.12
493.398	135.12
493.615	136.12
493.833	148.12
494.05	132.12
494.268	141.12
494.485	140.12
494.703	142.12
494.92	142.12
495.138	137.12
495.355	134.12
495.573	146.12
495.79	133.12
496.008	150.12
496.225	136.12
496.442	144.12
496.66	147.12
496.877	139.12
497.094	133.12
497.312	146.12
497.529	127.12
497.746	153.12
497.963	146.12
498.181	147.12
498.398	157.12
498.615	161.12
498.832	154.12
499.049	163.12
499.267	166.12
499.484	170.12
499.701	191.12
499.918	193.12
500.135	193.12
500.352	220.12
500.569	210.12
500.786	215.12
501.003	197.12
501.22	187.12
501.437	182.12
501.654	169.12
501.871	166.12
502.088	161.12
502.305	167.12
502.522	149.12
502.739	153.12
502.956	151.12
503.172	152.12
503.389	140.12
503.606	164.12
503.823	127.12
504.04	145.12
504.256	147.12
504.473	155.12
504.69	141.12
504.907	140.12
505.123	132.12
505.34	152.12
505.557	144.12
505.773	142.12
505.99	149.12
506.207	128.12
