Data from 1968.PennyLincolnUp.Lamp.En5.5.200Scan.071719.P1._HRD10591_14-51-45-970.txt Node
Date: Thu Jul 18 14:51:45 EDT 2019
User: cochatt
Spectrometer: HR+D1059
Trigger mode: 1
Integration Time (sec): 1.000000E-1
Scans to average: 1
Electric dark correction enabled: true
Nonlinearity correction enabled: false
Boxcar width: 0
XAxis mode: Wavelengths
Number of Pixels in Spectrum: 2048
>>>>>Begin Spectral Data<<<<<
223.165	3.12
223.4	3.12
223.635	3.12
223.869	-23.88
224.104	-19.88
224.338	-16.88
224.573	-12.88
224.808	-15.88
225.042	-12.88
225.277	-3.88
225.511	2.12
225.746	2.12
225.98	3.12
226.215	14.12
226.449	8.12
226.683	22.12
226.918	20.12
227.152	31.12
227.387	39.12
227.621	38.12
227.856	33.12
228.09	40.12
228.324	32.12
228.559	58.12
228.793	50.12
229.027	48.12
229.262	65.12
229.496	71.12
229.73	71.12
229.964	70.12
230.199	68.12
230.433	62.12
230.667	68.12
230.901	95.12
231.136	85.12
231.37	88.12
231.604	69.12
231.838	84.12
232.072	83.12
232.306	88.12
232.541	75.12
232.775	79.12
233.009	80.12
233.243	75.12
233.477	82.12
233.711	72.12
233.945	90.12
234.179	75.12
234.413	100.12
234.647	74.12
234.881	84.12
235.115	84.12
235.349	73.12
235.583	77.12
235.817	92.12
236.051	82.12
236.285	81.12
236.519	92.12
236.753	76.12
236.987	60.12
237.221	81.12
237.455	80.12
237.689	86.12
237.922	76.12
238.156	83.12
238.39	92.12
238.624	55.12
238.858	82.12
239.091	77.12
239.325	91.12
239.559	63.12
239.793	74.12
240.027	73.12
240.26	75.12
240.494	70.12
240.728	81.12
240.961	75.12
241.195	78.12
241.429	80.12
241.662	84.12
241.896	75.12
242.13	72.12
242.363	83.12
242.597	59.12
242.83	97.12
243.064	87.12
243.298	87.12
243.531	65.12
243.765	76.12
243.998	80.12
244.232	67.12
244.465	88.12
244.699	85.12
244.932	72.12
245.166	74.12
245.399	84.12
245.633	79.12
245.866	80.12
246.099	82.12
246.333	73.12
246.566	88.12
246.8	82.12
247.033	65.12
247.266	83.12
247.5	75.12
247.733	82.12
247.966	79.12
248.2	92.12
248.433	83.12
248.666	79.12
248.899	68.12
249.133	79.12
249.366	91.12
249.599	86.12
249.832	75.12
250.066	80.12
250.299	73.12
250.532	84.12
250.765	75.12
250.998	79.12
251.231	79.12
251.465	82.12
251.698	79.12
251.931	87.12
252.164	89.12
252.397	80.12
252.63	95.12
252.863	85.12
253.096	88.12
253.329	78.12
253.562	76.12
253.795	84.12
254.028	83.12
254.261	89.12
254.494	84.12
254.727	83.12
254.96	90.12
255.193	87.12
255.426	77.12
255.659	99.12
255.892	88.12
256.124	90.12
256.357	95.12
256.59	100.12
256.823	88.12
257.056	75.12
257.289	84.12
257.521	88.12
257.754	87.12
257.987	86.12
258.22	90.12
258.452	87.12
258.685	85.12
258.918	98.12
259.151	95.12
259.383	90.12
259.616	87.12
259.849	87.12
260.081	81.12
260.314	83.12
260.547	101.12
260.779	93.12
261.012	91.12
261.244	89.12
261.477	76.12
261.71	93.12
261.942	100.12
262.175	79.12
262.407	78.12
262.64	102.12
262.872	98.12
263.105	94.12
263.337	100.12
263.57	93.12
263.802	107.12
264.035	94.12
264.267	80.12
264.499	84.12
264.732	88.12
264.964	89.12
265.197	74.12
265.429	78.12
265.661	88.12
265.894	87.12
266.126	79.12
266.358	98.12
266.591	105.12
266.823	90.12
267.055	91.12
267.287	96.12
267.52	80.12
267.752	89.12
267.984	78.12
268.216	91.12
268.448	100.12
268.681	107.12
268.913	108.12
269.145	92.12
269.377	96.12
269.609	93.12
269.841	98.12
270.073	100.12
270.306	87.12
270.538	94.12
270.77	89.12
271.002	118.12
271.234	103.12
271.466	90.12
271.698	98.12
271.93	102.12
272.162	97.12
272.394	90.12
272.626	89.12
272.858	92.12
273.09	98.12
273.322	87.12
273.553	95.12
273.785	84.12
274.017	103.12
274.249	101.12
274.481	94.12
274.713	92.12
274.945	96.12
275.176	82.12
275.408	97.12
275.64	83.12
275.872	97.12
276.104	96.12
276.335	89.12
276.567	82.12
276.799	81.12
277.031	90.12
277.262	105.12
277.494	102.12
277.726	99.12
277.957	92.12
278.189	87.12
278.421	97.12
278.652	95.12
278.884	95.12
279.115	83.12
279.347	102.12
279.579	99.12
279.81	98.12
280.042	107.12
280.273	96.12
280.505	108.12
280.736	103.12
280.968	91.12
281.199	91.12
281.431	82.12
281.662	90.12
281.894	104.12
282.125	112.12
282.356	101.12
282.588	100.12
282.819	95.12
283.051	86.12
283.282	94.12
283.513	107.12
283.745	89.12
283.976	96.12
284.207	95.12
284.439	95.12
284.67	105.12
284.901	113.12
285.132	88.12
285.364	92.12
285.595	102.12
285.826	95.12
286.057	111.12
286.288	101.12
286.52	94.12
286.751	98.12
286.982	94.12
287.213	92.12
287.444	96.12
287.675	86.12
287.906	95.12
288.138	103.12
288.369	99.12
288.6	100.12
288.831	97.12
289.062	102.12
289.293	84.12
289.524	95.12
289.755	100.12
289.986	89.12
290.217	107.12
290.448	107.12
290.679	85.12
290.91	91.12
291.141	99.12
291.371	91.12
291.602	103.12
291.833	90.12
292.064	106.12
292.295	102.12
292.526	102.12
292.757	99.12
292.987	110.12
293.218	98.12
293.449	103.12
293.68	114.12
293.91	114.12
294.141	95.12
294.372	93.12
294.603	92.12
294.833	90.12
295.064	99.12
295.295	107.12
295.525	98.12
295.756	93.12
295.987	106.12
296.217	112.12
296.448	109.12
296.679	105.12
296.909	108.12
297.14	98.12
297.37	113.12
297.601	100.12
297.831	106.12
298.062	97.12
298.292	99.12
298.523	100.12
298.753	104.12
298.984	123.12
299.214	111.12
299.445	91.12
299.675	101.12
299.905	100.12
300.136	98.12
300.366	111.12
300.597	95.12
300.827	96.12
301.057	107.12
301.288	98.12
301.518	99.12
301.748	97.12
301.979	115.12
302.209	102.12
302.439	92.12
302.669	97.12
302.9	107.12
303.13	100.12
303.36	100.12
303.59	104.12
303.82	99.12
304.051	110.12
304.281	94.12
304.511	118.12
304.741	98.12
304.971	102.12
305.201	101.12
305.431	109.12
305.661	112.12
305.891	100.12
306.121	107.12
306.352	105.12
306.582	88.12
306.812	100.12
307.042	97.12
307.272	113.12
307.502	112.12
307.731	101.12
307.961	110.12
308.191	94.12
308.421	114.12
308.651	103.12
308.881	97.12
309.111	95.12
309.341	89.12
309.571	104.12
309.8	104.12
310.03	96.12
310.26	107.12
310.49	98.12
310.72	101.12
310.949	96.12
311.179	92.12
311.409	107.12
311.639	108.12
311.868	106.12
312.098	114.12
312.328	102.12
312.557	110.12
312.787	94.12
313.017	113.12
313.246	91.12
313.476	115.12
313.706	116.12
313.935	119.12
314.165	103.12
314.394	101.12
314.624	110.12
314.853	99.12
315.083	103.12
315.312	98.12
315.542	95.12
315.771	112.12
316.001	103.12
316.23	116.12
316.46	100.12
316.689	100.12
316.919	107.12
317.148	105.12
317.377	98.12
317.607	112.12
317.836	106.12
318.065	101.12
318.295	104.12
318.524	113.12
318.753	107.12
318.983	110.12
319.212	102.12
319.441	103.12
319.67	113.12
319.9	103.12
320.129	84.12
320.358	103.12
320.587	106.12
320.816	102.12
321.046	96.12
321.275	95.12
321.504	119.12
321.733	110.12
321.962	95.12
322.191	111.12
322.42	116.12
322.649	122.12
322.878	117.12
323.108	96.12
323.337	122.12
323.566	128.12
323.795	116.12
324.024	117.12
324.253	117.12
324.482	124.12
324.71	167.12
324.939	171.12
325.168	177.12
325.397	138.12
325.626	112.12
325.855	106.12
326.084	107.12
326.313	110.12
326.542	108.12
326.77	112.12
326.999	116.12
327.228	136.12
327.457	149.12
327.686	152.12
327.914	134.12
328.143	120.12
328.372	102.12
328.6	114.12
328.829	106.12
329.058	117.12
329.287	108.12
329.515	110.12
329.744	114.12
329.972	116.12
330.201	115.12
330.43	124.12
330.658	123.12
330.887	123.12
331.115	127.12
331.344	122.12
331.572	115.12
331.801	110.12
332.03	130.12
332.258	111.12
332.486	105.12
332.715	126.12
332.943	125.12
333.172	120.12
333.4	119.12
333.629	121.12
333.857	117.12
334.085	109.12
334.314	112.12
334.542	139.12
334.771	115.12
334.999	114.12
335.227	115.12
335.455	118.12
335.684	118.12
335.912	120.12
336.14	115.12
336.369	127.12
336.597	113.12
336.825	114.12
337.053	111.12
337.281	101.12
337.51	115.12
337.738	121.12
337.966	105.12
338.194	87.12
338.422	112.12
338.65	120.12
338.878	113.12
339.106	104.12
339.334	113.12
339.562	116.12
339.79	110.12
340.018	99.12
340.246	100.12
340.474	95.12
340.702	112.12
340.93	118.12
341.158	114.12
341.386	114.12
341.614	112.12
341.842	114.12
342.07	111.12
342.298	107.12
342.526	111.12
342.754	105.12
342.981	96.12
343.209	112.12
343.437	108.12
343.665	102.12
343.893	120.12
344.12	119.12
344.348	118.12
344.576	97.12
344.804	116.12
345.031	112.12
345.259	127.12
345.487	108.12
345.714	122.12
345.942	116.12
346.17	121.12
346.397	101.12
346.625	115.12
346.853	105.12
347.08	112.12
347.308	108.12
347.535	94.12
347.763	104.12
347.99	106.12
348.218	111.12
348.445	117.12
348.673	110.12
348.9	97.12
349.128	118.12
349.355	102.12
349.583	102.12
349.81	101.12
350.037	110.12
350.265	103.12
350.492	110.12
350.72	102.12
350.947	112.12
351.174	111.12
351.402	106.12
351.629	102.12
351.856	102.12
352.083	120.12
352.311	110.12
352.538	103.12
352.765	106.12
352.992	126.12
353.22	112.12
353.447	114.12
353.674	107.12
353.901	98.12
354.128	100.12
354.355	80.12
354.583	105.12
354.81	89.12
355.037	107.12
355.264	109.12
355.491	111.12
355.718	125.12
355.945	118.12
356.172	98.12
356.399	116.12
356.626	112.12
356.853	100.12
357.08	103.12
357.307	103.12
357.534	104.12
357.761	110.12
357.988	112.12
358.215	92.12
358.441	97.12
358.668	103.12
358.895	107.12
359.122	119.12
359.349	102.12
359.576	107.12
359.802	115.12
360.029	114.12
360.256	131.12
360.483	102.12
360.709	114.12
360.936	119.12
361.163	103.12
361.39	110.12
361.616	101.12
361.843	121.12
362.07	126.12
362.296	110.12
362.523	106.12
362.749	97.12
362.976	113.12
363.203	108.12
363.429	120.12
363.656	99.12
363.882	126.12
364.109	115.12
364.335	116.12
364.562	103.12
364.788	114.12
365.015	95.12
365.241	126.12
365.468	123.12
365.694	103.12
365.92	118.12
366.147	107.12
366.373	105.12
366.599	104.12
366.826	105.12
367.052	105.12
367.278	103.12
367.505	99.12
367.731	111.12
367.957	112.12
368.184	109.12
368.41	122.12
368.636	114.12
368.862	99.12
369.089	114.12
369.315	101.12
369.541	110.12
369.767	108.12
369.993	103.12
370.219	105.12
370.445	107.12
370.672	101.12
370.898	96.12
371.124	114.12
371.35	112.12
371.576	110.12
371.802	112.12
372.028	117.12
372.254	107.12
372.48	110.12
372.706	102.12
372.932	119.12
373.158	110.12
373.384	111.12
373.61	115.12
373.835	105.12
374.061	118.12
374.287	115.12
374.513	109.12
374.739	118.12
374.965	112.12
375.191	111.12
375.416	101.12
375.642	112.12
375.868	110.12
376.094	119.12
376.319	112.12
376.545	106.12
376.771	122.12
376.997	110.12
377.222	111.12
377.448	116.12
377.674	99.12
377.899	102.12
378.125	107.12
378.35	99.12
378.576	119.12
378.802	117.12
379.027	102.12
379.253	120.12
379.478	103.12
379.704	107.12
379.929	102.12
380.155	117.12
380.38	106.12
380.606	104.12
380.831	106.12
381.057	119.12
381.282	110.12
381.507	115.12
381.733	99.12
381.958	108.12
382.184	116.12
382.409	102.12
382.634	110.12
382.86	115.12
383.085	115.12
383.31	107.12
383.535	112.12
383.761	128.12
383.986	109.12
384.211	121.12
384.436	121.12
384.662	112.12
384.887	121.12
385.112	115.12
385.337	120.12
385.562	104.12
385.787	121.12
386.013	129.12
386.238	127.12
386.463	116.12
386.688	121.12
386.913	113.12
387.138	99.12
387.363	116.12
387.588	114.12
387.813	97.12
388.038	125.12
388.263	110.12
388.488	118.12
388.713	112.12
388.938	112.12
389.163	120.12
389.387	119.12
389.612	116.12
389.837	114.12
390.062	105.12
390.287	107.12
390.512	113.12
390.736	120.12
390.961	120.12
391.186	115.12
391.411	113.12
391.636	117.12
391.86	111.12
392.085	123.12
392.31	111.12
392.534	119.12
392.759	121.12
392.984	119.12
393.208	116.12
393.433	120.12
393.658	101.12
393.882	130.12
394.107	118.12
394.331	119.12
394.556	120.12
394.78	121.12
395.005	117.12
395.229	111.12
395.454	107.12
395.678	124.12
395.903	140.12
396.127	110.12
396.352	111.12
396.576	121.12
396.801	126.12
397.025	127.12
397.249	120.12
397.474	110.12
397.698	117.12
397.922	133.12
398.147	111.12
398.371	123.12
398.595	126.12
398.82	110.12
399.044	132.12
399.268	143.12
399.492	131.12
399.717	138.12
399.941	145.12
400.165	140.12
400.389	135.12
400.613	139.12
400.837	113.12
401.062	133.12
401.286	143.12
401.51	117.12
401.734	118.12
401.958	131.12
402.182	126.12
402.406	123.12
402.63	115.12
402.854	116.12
403.078	126.12
403.302	141.12
403.526	137.12
403.75	106.12
403.974	120.12
404.198	130.12
404.422	122.12
404.645	129.12
404.869	124.12
405.093	120.12
405.317	137.12
405.541	144.12
405.765	140.12
405.988	123.12
406.212	121.12
406.436	128.12
406.66	139.12
406.883	136.12
407.107	135.12
407.331	146.12
407.555	152.12
407.778	132.12
408.002	140.12
408.226	124.12
408.449	125.12
408.673	132.12
408.896	146.12
409.12	134.12
409.344	139.12
409.567	129.12
409.791	127.12
410.014	137.12
410.238	122.12
410.461	132.12
410.685	132.12
410.908	152.12
411.132	143.12
411.355	123.12
411.578	131.12
411.802	116.12
412.025	127.12
412.249	124.12
412.472	138.12
412.695	121.12
412.919	123.12
413.142	129.12
413.365	120.12
413.589	128.12
413.812	127.12
414.035	126.12
414.258	138.12
414.482	117.12
414.705	122.12
414.928	125.12
415.151	124.12
415.374	119.12
415.597	132.12
415.821	118.12
416.044	130.12
416.267	123.12
416.49	125.12
416.713	123.12
416.936	153.12
417.159	137.12
417.382	125.12
417.605	124.12
417.828	110.12
418.051	116.12
418.274	115.12
418.497	126.12
418.72	130.12
418.943	123.12
419.166	137.12
419.389	141.12
419.611	127.12
419.834	151.12
420.057	135.12
420.28	118.12
420.503	120.12
420.726	116.12
420.948	126.12
421.171	130.12
421.394	135.12
421.617	143.12
421.839	131.12
422.062	131.12
422.285	117.12
422.507	128.12
422.73	139.12
422.953	124.12
423.175	133.12
423.398	128.12
423.621	138.12
423.843	137.12
424.066	144.12
424.288	126.12
424.511	130.12
424.733	122.12
424.956	131.12
425.178	132.12
425.401	138.12
425.623	156.12
425.846	137.12
426.068	147.12
426.291	135.12
426.513	122.12
426.735	121.12
426.958	123.12
427.18	132.12
427.402	131.12
427.625	144.12
427.847	141.12
428.069	126.12
428.292	124.12
428.514	135.12
428.736	120.12
428.958	129.12
429.181	117.12
429.403	104.12
429.625	116.12
429.847	130.12
430.069	127.12
430.292	111.12
430.514	110.12
430.736	113.12
430.958	128.12
431.18	112.12
431.402	119.12
431.624	110.12
431.846	118.12
432.068	134.12
432.29	127.12
432.512	123.12
432.734	129.12
432.956	135.12
433.178	117.12
433.4	110.12
433.622	122.12
433.844	136.12
434.066	126.12
434.287	117.12
434.509	119.12
434.731	130.12
434.953	138.12
435.175	127.12
435.397	138.12
435.618	125.12
435.84	138.12
436.062	139.12
436.284	132.12
436.505	135.12
436.727	126.12
436.949	123.12
437.17	115.12
437.392	122.12
437.614	118.12
437.835	120.12
438.057	123.12
438.278	124.12
438.5	134.12
438.721	137.12
438.943	142.12
439.165	131.12
439.386	131.12
439.608	130.12
439.829	131.12
440.05	129.12
440.272	124.12
440.493	120.12
440.715	115.12
440.936	121.12
441.158	130.12
441.379	134.12
441.6	124.12
441.822	124.12
442.043	131.12
442.264	121.12
442.486	130.12
442.707	133.12
442.928	123.12
443.149	141.12
443.371	130.12
443.592	126.12
443.813	137.12
444.034	136.12
444.255	155.12
444.476	138.12
444.698	141.12
444.919	131.12
445.14	264.12
445.361	187.12
445.582	118.12
445.803	139.12
446.024	146.12
446.245	143.12
446.466	133.12
446.687	130.12
446.908	116.12
447.129	126.12
447.35	122.12
447.571	118.12
447.792	121.12
448.013	130.12
448.234	125.12
448.455	105.12
448.675	138.12
448.896	131.12
449.117	142.12
449.338	140.12
449.559	137.12
449.779	134.12
450	138.12
450.221	130.12
450.442	126.12
450.662	107.12
450.883	111.12
451.104	116.12
451.324	127.12
451.545	133.12
451.766	112.12
451.986	120.12
452.207	100.12
452.428	121.12
452.648	120.12
452.869	128.12
453.089	126.12
453.31	123.12
453.53	103.12
453.751	112.12
453.971	118.12
454.192	119.12
454.412	119.12
454.633	118.12
454.853	105.12
455.073	108.12
455.294	122.12
455.514	124.12
455.734	132.12
455.955	123.12
456.175	115.12
456.395	111.12
456.616	116.12
456.836	121.12
457.056	119.12
457.276	120.12
457.497	109.12
457.717	105.12
457.937	114.12
458.157	124.12
458.377	122.12
458.598	106.12
458.818	112.12
459.038	122.12
459.258	127.12
459.478	122.12
459.698	119.12
459.918	122.12
460.138	123.12
460.358	126.12
460.578	121.12
460.798	115.12
461.018	134.12
461.238	125.12
461.458	120.12
461.678	130.12
461.898	143.12
462.118	139.12
462.338	138.12
462.558	144.12
462.777	138.12
462.997	140.12
463.217	135.12
463.437	148.12
463.657	123.12
463.876	127.12
464.096	139.12
464.316	129.12
464.536	136.12
464.755	150.12
464.975	133.12
465.195	140.12
465.414	131.12
465.634	118.12
465.854	116.12
466.073	138.12
466.293	104.12
466.512	114.12
466.732	115.12
466.951	122.12
467.171	114.12
467.391	123.12
467.61	116.12
467.829	123.12
468.049	119.12
468.268	132.12
468.488	130.12
468.707	113.12
468.927	135.12
469.146	115.12
469.365	116.12
469.585	122.12
469.804	124.12
470.023	121.12
470.243	111.12
470.462	120.12
470.681	119.12
470.901	113.12
471.12	111.12
471.339	114.12
471.558	122.12
471.777	133.12
471.997	114.12
472.216	130.12
472.435	110.12
472.654	125.12
472.873	106.12
473.092	118.12
473.311	126.12
473.53	135.12
473.749	121.12
473.968	126.12
474.187	124.12
474.406	115.12
474.625	114.12
474.844	122.12
475.063	121.12
475.282	118.12
475.501	121.12
475.72	121.12
475.939	129.12
476.158	124.12
476.377	122.12
476.596	131.12
476.814	112.12
477.033	117.12
477.252	122.12
477.471	116.12
477.69	123.12
477.908	114.12
478.127	120.12
478.346	122.12
478.564	126.12
478.783	143.12
479.002	139.12
479.22	118.12
479.439	127.12
479.658	130.12
479.876	125.12
480.095	133.12
480.313	133.12
480.532	129.12
480.751	142.12
480.969	136.12
481.188	142.12
481.406	131.12
481.624	127.12
481.843	134.12
482.061	131.12
482.28	128.12
482.498	127.12
482.717	127.12
482.935	126.12
483.153	119.12
483.372	141.12
483.59	125.12
483.808	119.12
484.027	136.12
484.245	131.12
484.463	118.12
484.681	137.12
484.9	127.12
485.118	142.12
485.336	147.12
485.554	137.12
485.772	118.12
485.99	134.12
486.209	136.12
486.427	137.12
486.645	107.12
486.863	141.12
487.081	118.12
487.299	128.12
487.517	136.12
487.735	145.12
487.953	146.12
488.171	139.12
488.389	134.12
488.607	134.12
488.825	131.12
489.043	128.12
489.261	131.12
489.479	126.12
489.696	135.12
489.914	130.12
490.132	122.12
490.35	134.12
490.568	122.12
490.786	140.12
491.003	140.12
491.221	130.12
491.439	143.12
491.657	150.12
491.874	153.12
492.092	138.12
492.31	143.12
492.527	135.12
492.745	140.12
492.963	124.12
493.18	125.12
493.398	142.12
493.615	131.12
493.833	132.12
494.05	129.12
494.268	137.12
494.485	138.12
494.703	134.12
494.92	130.12
495.138	145.12
495.355	130.12
495.573	136.12
495.79	143.12
496.008	146.12
496.225	137.12
496.442	138.12
496.66	148.12
496.877	145.12
497.094	150.12
497.312	151.12
497.529	154.12
497.746	158.12
497.963	155.12
498.181	158.12
498.398	146.12
498.615	146.12
498.832	177.12
499.049	162.12
499.267	158.12
499.484	168.12
499.701	171.12
499.918	185.12
500.135	187.12
500.352	211.12
500.569	201.12
500.786	213.12
501.003	219.12
501.22	191.12
501.437	189.12
501.654	178.12
501.871	176.12
502.088	166.12
502.305	152.12
502.522	178.12
502.739	167.12
502.956	148.12
503.172	161.12
503.389	148.12
503.606	154.12
503.823	142.12
504.04	152.12
504.256	142.12
504.473	144.12
504.69	155.12
504.907	144.12
505.123	134.12
505.34	134.12
505.557	140.12
505.773	130.12
505.99	145.12
506.207	144.12
