Data from 1968.PennyLincolnUp.Lamp.En5.5.200Scan.071719.P1._HRD10591_14-51-47-970.txt Node
Date: Thu Jul 18 14:51:47 EDT 2019
User: cochatt
Spectrometer: HR+D1059
Trigger mode: 1
Integration Time (sec): 1.000000E-1
Scans to average: 1
Electric dark correction enabled: true
Nonlinearity correction enabled: false
Boxcar width: 0
XAxis mode: Wavelengths
Number of Pixels in Spectrum: 2048
>>>>>Begin Spectral Data<<<<<
223.165	-14.19
223.4	-14.19
223.635	-14.19
223.869	-11.19
224.104	-22.19
224.338	-0.19
224.573	-15.19
224.808	-18.19
225.042	-18.19
225.277	-9.19
225.511	3.81
225.746	-0.19
225.98	1.81
226.215	28.81
226.449	9.81
226.683	12.81
226.918	20.81
227.152	30.81
227.387	40.81
227.621	33.81
227.856	39.81
228.09	46.81
228.324	54.81
228.559	54.81
228.793	46.81
229.027	39.81
229.262	68.81
229.496	68.81
229.73	79.81
229.964	58.81
230.199	73.81
230.433	87.81
230.667	87.81
230.901	79.81
231.136	83.81
231.37	96.81
231.604	89.81
231.838	94.81
232.072	77.81
232.306	86.81
232.541	77.81
232.775	83.81
233.009	90.81
233.243	77.81
233.477	85.81
233.711	89.81
233.945	86.81
234.179	103.81
234.413	90.81
234.647	83.81
234.881	81.81
235.115	83.81
235.349	82.81
235.583	91.81
235.817	79.81
236.051	77.81
236.285	85.81
236.519	80.81
236.753	85.81
236.987	94.81
237.221	93.81
237.455	73.81
237.689	83.81
237.922	77.81
238.156	83.81
238.39	86.81
238.624	73.81
238.858	68.81
239.091	85.81
239.325	83.81
239.559	79.81
239.793	96.81
240.027	101.81
240.26	102.81
240.494	92.81
240.728	73.81
240.961	76.81
241.195	85.81
241.429	66.81
241.662	76.81
241.896	79.81
242.13	83.81
242.363	82.81
242.597	69.81
242.83	88.81
243.064	77.81
243.298	74.81
243.531	80.81
243.765	78.81
243.998	79.81
244.232	88.81
244.465	100.81
244.699	85.81
244.932	86.81
245.166	78.81
245.399	97.81
245.633	99.81
245.866	90.81
246.099	90.81
246.333	86.81
246.566	80.81
246.8	78.81
247.033	89.81
247.266	84.81
247.5	89.81
247.733	89.81
247.966	98.81
248.2	87.81
248.433	77.81
248.666	84.81
248.899	90.81
249.133	84.81
249.366	97.81
249.599	101.81
249.832	88.81
250.066	92.81
250.299	92.81
250.532	74.81
250.765	87.81
250.998	96.81
251.231	95.81
251.465	90.81
251.698	79.81
251.931	81.81
252.164	86.81
252.397	90.81
252.63	107.81
252.863	87.81
253.096	85.81
253.329	90.81
253.562	81.81
253.795	91.81
254.028	86.81
254.261	97.81
254.494	84.81
254.727	92.81
254.96	93.81
255.193	86.81
255.426	97.81
255.659	96.81
255.892	88.81
256.124	83.81
256.357	99.81
256.59	96.81
256.823	89.81
257.056	87.81
257.289	101.81
257.521	94.81
257.754	92.81
257.987	92.81
258.22	100.81
258.452	93.81
258.685	93.81
258.918	84.81
259.151	78.81
259.383	109.81
259.616	89.81
259.849	82.81
260.081	97.81
260.314	89.81
260.547	91.81
260.779	82.81
261.012	100.81
261.244	90.81
261.477	89.81
261.71	108.81
261.942	100.81
262.175	92.81
262.407	88.81
262.64	98.81
262.872	95.81
263.105	100.81
263.337	98.81
263.57	84.81
263.802	82.81
264.035	82.81
264.267	89.81
264.499	77.81
264.732	91.81
264.964	87.81
265.197	100.81
265.429	89.81
265.661	101.81
265.894	83.81
266.126	89.81
266.358	93.81
266.591	90.81
266.823	101.81
267.055	96.81
267.287	90.81
267.52	100.81
267.752	92.81
267.984	99.81
268.216	97.81
268.448	93.81
268.681	94.81
268.913	104.81
269.145	96.81
269.377	108.81
269.609	94.81
269.841	108.81
270.073	97.81
270.306	98.81
270.538	90.81
270.77	114.81
271.002	97.81
271.234	102.81
271.466	103.81
271.698	95.81
271.93	73.81
272.162	111.81
272.394	119.81
272.626	104.81
272.858	90.81
273.09	91.81
273.322	113.81
273.553	95.81
273.785	88.81
274.017	98.81
274.249	97.81
274.481	99.81
274.713	103.81
274.945	101.81
275.176	102.81
275.408	86.81
275.64	97.81
275.872	84.81
276.104	91.81
276.335	85.81
276.567	92.81
276.799	102.81
277.031	93.81
277.262	99.81
277.494	85.81
277.726	93.81
277.957	103.81
278.189	112.81
278.421	89.81
278.652	104.81
278.884	101.81
279.115	102.81
279.347	105.81
279.579	100.81
279.81	107.81
280.042	93.81
280.273	95.81
280.505	83.81
280.736	106.81
280.968	105.81
281.199	96.81
281.431	99.81
281.662	109.81
281.894	104.81
282.125	102.81
282.356	104.81
282.588	100.81
282.819	90.81
283.051	96.81
283.282	93.81
283.513	108.81
283.745	101.81
283.976	90.81
284.207	103.81
284.439	108.81
284.67	91.81
284.901	103.81
285.132	103.81
285.364	113.81
285.595	98.81
285.826	108.81
286.057	113.81
286.288	114.81
286.52	100.81
286.751	100.81
286.982	97.81
287.213	106.81
287.444	103.81
287.675	108.81
287.906	109.81
288.138	96.81
288.369	97.81
288.6	105.81
288.831	113.81
289.062	94.81
289.293	96.81
289.524	114.81
289.755	87.81
289.986	95.81
290.217	111.81
290.448	104.81
290.679	92.81
290.91	104.81
291.141	102.81
291.371	93.81
291.602	106.81
291.833	102.81
292.064	101.81
292.295	98.81
292.526	108.81
292.757	95.81
292.987	100.81
293.218	88.81
293.449	102.81
293.68	103.81
293.91	87.81
294.141	113.81
294.372	99.81
294.603	97.81
294.833	102.81
295.064	103.81
295.295	114.81
295.525	120.81
295.756	114.81
295.987	115.81
296.217	106.81
296.448	105.81
296.679	111.81
296.909	99.81
297.14	103.81
297.37	117.81
297.601	119.81
297.831	106.81
298.062	100.81
298.292	109.81
298.523	107.81
298.753	101.81
298.984	105.81
299.214	107.81
299.445	100.81
299.675	99.81
299.905	110.81
300.136	105.81
300.366	111.81
300.597	107.81
300.827	102.81
301.057	97.81
301.288	106.81
301.518	109.81
301.748	120.81
301.979	104.81
302.209	109.81
302.439	100.81
302.669	95.81
302.9	100.81
303.13	106.81
303.36	100.81
303.59	101.81
303.82	96.81
304.051	116.81
304.281	99.81
304.511	121.81
304.741	106.81
304.971	104.81
305.201	102.81
305.431	104.81
305.661	105.81
305.891	98.81
306.121	117.81
306.352	117.81
306.582	107.81
306.812	92.81
307.042	105.81
307.272	129.81
307.502	118.81
307.731	96.81
307.961	99.81
308.191	89.81
308.421	109.81
308.651	101.81
308.881	90.81
309.111	122.81
309.341	101.81
309.571	115.81
309.8	106.81
310.03	104.81
310.26	85.81
310.49	102.81
310.72	111.81
310.949	106.81
311.179	115.81
311.409	111.81
311.639	107.81
311.868	113.81
312.098	109.81
312.328	107.81
312.557	125.81
312.787	97.81
313.017	107.81
313.246	101.81
313.476	104.81
313.706	108.81
313.935	106.81
314.165	111.81
314.394	99.81
314.624	106.81
314.853	127.81
315.083	105.81
315.312	103.81
315.542	113.81
315.771	98.81
316.001	106.81
316.23	113.81
316.46	105.81
316.689	117.81
316.919	97.81
317.148	127.81
317.377	117.81
317.607	121.81
317.836	113.81
318.065	110.81
318.295	109.81
318.524	108.81
318.753	104.81
318.983	101.81
319.212	109.81
319.441	120.81
319.67	114.81
319.9	104.81
320.129	103.81
320.358	117.81
320.587	109.81
320.816	102.81
321.046	106.81
321.275	108.81
321.504	124.81
321.733	104.81
321.962	106.81
322.191	106.81
322.42	118.81
322.649	114.81
322.878	105.81
323.108	100.81
323.337	128.81
323.566	113.81
323.795	107.81
324.024	110.81
324.253	118.81
324.482	133.81
324.71	157.81
324.939	186.81
325.168	167.81
325.397	126.81
325.626	113.81
325.855	116.81
326.084	105.81
326.313	107.81
326.542	112.81
326.77	124.81
326.999	120.81
327.228	150.81
327.457	139.81
327.686	173.81
327.914	131.81
328.143	141.81
328.372	122.81
328.6	129.81
328.829	111.81
329.058	105.81
329.287	119.81
329.515	123.81
329.744	128.81
329.972	124.81
330.201	105.81
330.43	123.81
330.658	133.81
330.887	119.81
331.115	124.81
331.344	108.81
331.572	113.81
331.801	117.81
332.03	125.81
332.258	124.81
332.486	126.81
332.715	125.81
332.943	136.81
333.172	111.81
333.4	109.81
333.629	132.81
333.857	106.81
334.085	117.81
334.314	129.81
334.542	126.81
334.771	119.81
334.999	123.81
335.227	108.81
335.455	111.81
335.684	117.81
335.912	119.81
336.14	116.81
336.369	123.81
336.597	122.81
336.825	119.81
337.053	108.81
337.281	115.81
337.51	110.81
337.738	129.81
337.966	107.81
338.194	121.81
338.422	119.81
338.65	115.81
338.878	126.81
339.106	105.81
339.334	107.81
339.562	116.81
339.79	108.81
340.018	112.81
340.246	105.81
340.474	111.81
340.702	116.81
340.93	115.81
341.158	103.81
341.386	118.81
341.614	115.81
341.842	101.81
342.07	114.81
342.298	113.81
342.526	113.81
342.754	116.81
342.981	106.81
343.209	107.81
343.437	123.81
343.665	106.81
343.893	122.81
344.12	130.81
344.348	115.81
344.576	120.81
344.804	98.81
345.031	110.81
345.259	107.81
345.487	115.81
345.714	115.81
345.942	107.81
346.17	108.81
346.397	120.81
346.625	104.81
346.853	101.81
347.08	111.81
347.308	123.81
347.535	119.81
347.763	116.81
347.99	112.81
348.218	110.81
348.445	111.81
348.673	117.81
348.9	102.81
349.128	99.81
349.355	114.81
349.583	98.81
349.81	118.81
350.037	118.81
350.265	105.81
350.492	114.81
350.72	119.81
350.947	97.81
351.174	113.81
351.402	93.81
351.629	90.81
351.856	121.81
352.083	110.81
352.311	120.81
352.538	106.81
352.765	121.81
352.992	118.81
353.22	107.81
353.447	113.81
353.674	106.81
353.901	103.81
354.128	113.81
354.355	105.81
354.583	101.81
354.81	118.81
355.037	109.81
355.264	105.81
355.491	103.81
355.718	98.81
355.945	113.81
356.172	107.81
356.399	133.81
356.626	98.81
356.853	105.81
357.08	109.81
357.307	112.81
357.534	104.81
357.761	116.81
357.988	114.81
358.215	123.81
358.441	122.81
358.668	110.81
358.895	119.81
359.122	103.81
359.349	97.81
359.576	108.81
359.802	107.81
360.029	124.81
360.256	124.81
360.483	123.81
360.709	105.81
360.936	121.81
361.163	101.81
361.39	119.81
361.616	125.81
361.843	125.81
362.07	107.81
362.296	110.81
362.523	107.81
362.749	102.81
362.976	122.81
363.203	123.81
363.429	110.81
363.656	124.81
363.882	97.81
364.109	116.81
364.335	103.81
364.562	119.81
364.788	116.81
365.015	100.81
365.241	102.81
365.468	102.81
365.694	123.81
365.92	109.81
366.147	126.81
366.373	110.81
366.599	104.81
366.826	106.81
367.052	118.81
367.278	110.81
367.505	127.81
367.731	124.81
367.957	115.81
368.184	109.81
368.41	101.81
368.636	116.81
368.862	118.81
369.089	102.81
369.315	115.81
369.541	115.81
369.767	100.81
369.993	101.81
370.219	102.81
370.445	99.81
370.672	100.81
370.898	114.81
371.124	110.81
371.35	99.81
371.576	102.81
371.802	104.81
372.028	102.81
372.254	111.81
372.48	108.81
372.706	123.81
372.932	137.81
373.158	103.81
373.384	118.81
373.61	119.81
373.835	124.81
374.061	117.81
374.287	115.81
374.513	103.81
374.739	101.81
374.965	105.81
375.191	116.81
375.416	111.81
375.642	113.81
375.868	119.81
376.094	121.81
376.319	107.81
376.545	123.81
376.771	110.81
376.997	92.81
377.222	121.81
377.448	116.81
377.674	107.81
377.899	103.81
378.125	104.81
378.35	105.81
378.576	113.81
378.802	117.81
379.027	113.81
379.253	108.81
379.478	108.81
379.704	109.81
379.929	116.81
380.155	115.81
380.38	117.81
380.606	119.81
380.831	105.81
381.057	105.81
381.282	103.81
381.507	125.81
381.733	115.81
381.958	103.81
382.184	100.81
382.409	107.81
382.634	110.81
382.86	108.81
383.085	117.81
383.31	109.81
383.535	113.81
383.761	121.81
383.986	120.81
384.211	119.81
384.436	117.81
384.662	118.81
384.887	124.81
385.112	130.81
385.337	113.81
385.562	119.81
385.787	128.81
386.013	123.81
386.238	114.81
386.463	107.81
386.688	106.81
386.913	111.81
387.138	110.81
387.363	119.81
387.588	138.81
387.813	107.81
388.038	124.81
388.263	121.81
388.488	122.81
388.713	122.81
388.938	122.81
389.163	108.81
389.387	125.81
389.612	124.81
389.837	120.81
390.062	105.81
390.287	107.81
390.512	125.81
390.736	95.81
390.961	123.81
391.186	115.81
391.411	117.81
391.636	104.81
391.86	117.81
392.085	126.81
392.31	130.81
392.534	111.81
392.759	123.81
392.984	110.81
393.208	110.81
393.433	127.81
393.658	126.81
393.882	113.81
394.107	113.81
394.331	119.81
394.556	115.81
394.78	134.81
395.005	129.81
395.229	120.81
395.454	115.81
395.678	128.81
395.903	130.81
396.127	114.81
396.352	129.81
396.576	108.81
396.801	125.81
397.025	121.81
397.249	104.81
397.474	127.81
397.698	123.81
397.922	117.81
398.147	122.81
398.371	110.81
398.595	117.81
398.82	118.81
399.044	136.81
399.268	143.81
399.492	148.81
399.717	161.81
399.941	133.81
400.165	130.81
400.389	134.81
400.613	131.81
400.837	133.81
401.062	134.81
401.286	118.81
401.51	126.81
401.734	130.81
401.958	133.81
402.182	136.81
402.406	127.81
402.63	134.81
402.854	130.81
403.078	127.81
403.302	139.81
403.526	141.81
403.75	135.81
403.974	128.81
404.198	122.81
404.422	120.81
404.645	133.81
404.869	136.81
405.093	131.81
405.317	124.81
405.541	137.81
405.765	137.81
405.988	128.81
406.212	144.81
406.436	133.81
406.66	142.81
406.883	137.81
407.107	145.81
407.331	131.81
407.555	155.81
407.778	129.81
408.002	133.81
408.226	138.81
408.449	134.81
408.673	130.81
408.896	121.81
409.12	139.81
409.344	141.81
409.567	134.81
409.791	125.81
410.014	139.81
410.238	139.81
410.461	137.81
410.685	143.81
410.908	132.81
411.132	132.81
411.355	133.81
411.578	125.81
411.802	129.81
412.025	133.81
412.249	120.81
412.472	143.81
412.695	132.81
412.919	125.81
413.142	135.81
413.365	143.81
413.589	125.81
413.812	136.81
414.035	130.81
414.258	125.81
414.482	127.81
414.705	139.81
414.928	139.81
415.151	130.81
415.374	125.81
415.597	118.81
415.821	118.81
416.044	137.81
416.267	123.81
416.49	115.81
416.713	123.81
416.936	130.81
417.159	128.81
417.382	119.81
417.605	113.81
417.828	136.81
418.051	127.81
418.274	127.81
418.497	124.81
418.72	138.81
418.943	134.81
419.166	142.81
419.389	142.81
419.611	134.81
419.834	133.81
420.057	137.81
420.28	125.81
420.503	131.81
420.726	126.81
420.948	97.81
421.171	128.81
421.394	135.81
421.617	113.81
421.839	131.81
422.062	132.81
422.285	124.81
422.507	131.81
422.73	133.81
422.953	141.81
423.175	130.81
423.398	129.81
423.621	131.81
423.843	136.81
424.066	117.81
424.288	138.81
424.511	129.81
424.733	137.81
424.956	147.81
425.178	139.81
425.401	134.81
425.623	133.81
425.846	130.81
426.068	120.81
426.291	126.81
426.513	137.81
426.735	141.81
426.958	139.81
427.18	129.81
427.402	141.81
427.625	155.81
427.847	126.81
428.069	129.81
428.292	117.81
428.514	124.81
428.736	116.81
428.958	126.81
429.181	121.81
429.403	119.81
429.625	130.81
429.847	109.81
430.069	120.81
430.292	128.81
430.514	125.81
430.736	132.81
430.958	124.81
431.18	125.81
431.402	122.81
431.624	135.81
431.846	117.81
432.068	121.81
432.29	126.81
432.512	131.81
432.734	118.81
432.956	128.81
433.178	125.81
433.4	126.81
433.622	129.81
433.844	132.81
434.066	129.81
434.287	122.81
434.509	127.81
434.731	126.81
434.953	133.81
435.175	132.81
435.397	126.81
435.618	121.81
435.84	125.81
436.062	146.81
436.284	141.81
436.505	127.81
436.727	134.81
436.949	134.81
437.17	142.81
437.392	126.81
437.614	124.81
437.835	129.81
438.057	148.81
438.278	140.81
438.5	147.81
438.721	123.81
438.943	147.81
439.165	131.81
439.386	127.81
439.608	126.81
439.829	102.81
440.05	125.81
440.272	120.81
440.493	138.81
440.715	144.81
440.936	133.81
441.158	145.81
441.379	136.81
441.6	151.81
441.822	133.81
442.043	131.81
442.264	125.81
442.486	147.81
442.707	131.81
442.928	120.81
443.149	132.81
443.371	126.81
443.592	125.81
443.813	141.81
444.034	130.81
444.255	141.81
444.476	125.81
444.698	131.81
444.919	142.81
445.14	257.81
445.361	195.81
445.582	148.81
445.803	138.81
446.024	142.81
446.245	147.81
446.466	144.81
446.687	135.81
446.908	137.81
447.129	125.81
447.35	128.81
447.571	126.81
447.792	115.81
448.013	115.81
448.234	126.81
448.455	126.81
448.675	122.81
448.896	150.81
449.117	129.81
449.338	121.81
449.559	156.81
449.779	151.81
450	139.81
450.221	122.81
450.442	129.81
450.662	106.81
450.883	121.81
451.104	129.81
451.324	122.81
451.545	127.81
451.766	121.81
451.986	140.81
452.207	127.81
452.428	127.81
452.648	116.81
452.869	110.81
453.089	124.81
453.31	122.81
453.53	114.81
453.751	117.81
453.971	119.81
454.192	121.81
454.412	125.81
454.633	123.81
454.853	107.81
455.073	115.81
455.294	132.81
455.514	129.81
455.734	132.81
455.955	138.81
456.175	103.81
456.395	114.81
456.616	128.81
456.836	122.81
457.056	126.81
457.276	124.81
457.497	117.81
457.717	121.81
457.937	124.81
458.157	107.81
458.377	128.81
458.598	117.81
458.818	139.81
459.038	129.81
459.258	141.81
459.478	135.81
459.698	131.81
459.918	126.81
460.138	131.81
460.358	130.81
460.578	137.81
460.798	126.81
461.018	141.81
461.238	128.81
461.458	98.81
461.678	123.81
461.898	120.81
462.118	124.81
462.338	129.81
462.558	129.81
462.777	126.81
462.997	150.81
463.217	161.81
463.437	139.81
463.657	131.81
463.876	127.81
464.096	116.81
464.316	130.81
464.536	135.81
464.755	126.81
464.975	124.81
465.195	135.81
465.414	133.81
465.634	142.81
465.854	131.81
466.073	123.81
466.293	116.81
466.512	111.81
466.732	131.81
466.951	130.81
467.171	130.81
467.391	150.81
467.61	121.81
467.829	122.81
468.049	126.81
468.268	115.81
468.488	121.81
468.707	117.81
468.927	120.81
469.146	120.81
469.365	115.81
469.585	118.81
469.804	131.81
470.023	145.81
470.243	119.81
470.462	113.81
470.681	125.81
470.901	130.81
471.12	129.81
471.339	117.81
471.558	109.81
471.777	111.81
471.997	132.81
472.216	118.81
472.435	119.81
472.654	118.81
472.873	128.81
473.092	124.81
473.311	122.81
473.53	121.81
473.749	120.81
473.968	135.81
474.187	139.81
474.406	123.81
474.625	128.81
474.844	126.81
475.063	117.81
475.282	123.81
475.501	118.81
475.72	133.81
475.939	137.81
476.158	118.81
476.377	123.81
476.596	130.81
476.814	131.81
477.033	131.81
477.252	126.81
477.471	150.81
477.69	132.81
477.908	133.81
478.127	111.81
478.346	129.81
478.564	136.81
478.783	127.81
479.002	114.81
479.22	132.81
479.439	122.81
479.658	137.81
479.876	132.81
480.095	138.81
480.313	143.81
480.532	131.81
480.751	140.81
480.969	129.81
481.188	131.81
481.406	126.81
481.624	125.81
481.843	132.81
482.061	126.81
482.28	127.81
482.498	142.81
482.717	123.81
482.935	121.81
483.153	125.81
483.372	135.81
483.59	135.81
483.808	137.81
484.027	133.81
484.245	125.81
484.463	136.81
484.681	136.81
484.9	136.81
485.118	138.81
485.336	124.81
485.554	127.81
485.772	129.81
485.99	137.81
486.209	136.81
486.427	138.81
486.645	143.81
486.863	129.81
487.081	153.81
487.299	136.81
487.517	127.81
487.735	130.81
487.953	139.81
488.171	137.81
488.389	135.81
488.607	162.81
488.825	131.81
489.043	133.81
489.261	135.81
489.479	126.81
489.696	133.81
489.914	139.81
490.132	130.81
490.35	132.81
490.568	138.81
490.786	139.81
491.003	149.81
491.221	147.81
491.439	147.81
491.657	137.81
491.874	151.81
492.092	139.81
492.31	146.81
492.527	143.81
492.745	138.81
492.963	149.81
493.18	153.81
493.398	136.81
493.615	145.81
493.833	141.81
494.05	150.81
494.268	150.81
494.485	139.81
494.703	129.81
494.92	140.81
495.138	153.81
495.355	138.81
495.573	142.81
495.79	142.81
496.008	151.81
496.225	153.81
496.442	132.81
496.66	135.81
496.877	141.81
497.094	148.81
497.312	148.81
497.529	156.81
497.746	138.81
497.963	151.81
498.181	156.81
498.398	132.81
498.615	168.81
498.832	175.81
499.049	149.81
499.267	158.81
499.484	173.81
499.701	169.81
499.918	210.81
500.135	211.81
500.352	219.81
500.569	205.81
500.786	214.81
501.003	213.81
501.22	201.81
501.437	183.81
501.654	181.81
501.871	182.81
502.088	158.81
502.305	159.81
502.522	165.81
502.739	155.81
502.956	142.81
503.172	153.81
503.389	158.81
503.606	141.81
503.823	158.81
504.04	155.81
504.256	158.81
504.473	138.81
504.69	156.81
504.907	158.81
505.123	161.81
505.34	157.81
