Data from 1968.PennyLincolnUp.Lamp.En5.5.200Scan.071719.P1._HRD10591_14-51-22-969.txt Node
Date: Thu Jul 18 14:51:22 EDT 2019
User: cochatt
Spectrometer: HR+D1059
Trigger mode: 1
Integration Time (sec): 1.000000E-1
Scans to average: 1
Electric dark correction enabled: true
Nonlinearity correction enabled: false
Boxcar width: 0
XAxis mode: Wavelengths
Number of Pixels in Spectrum: 2048
>>>>>Begin Spectral Data<<<<<
223.165	-13.5
223.4	-13.5
223.635	-13.5
223.869	-29.5
224.104	-21.5
224.338	-15.5
224.573	-15.5
224.808	-11.5
225.042	-1.5
225.277	-4.5
225.511	12.5
225.746	4.5
225.98	15.5
226.215	3.5
226.449	14.5
226.683	4.5
226.918	24.5
227.152	33.5
227.387	28.5
227.621	40.5
227.856	58.5
228.09	45.5
228.324	45.5
228.559	62.5
228.793	63.5
229.027	67.5
229.262	80.5
229.496	78.5
229.73	71.5
229.964	74.5
230.199	92.5
230.433	77.5
230.667	83.5
230.901	85.5
231.136	69.5
231.37	92.5
231.604	89.5
231.838	95.5
232.072	96.5
232.306	83.5
232.541	94.5
232.775	92.5
233.009	92.5
233.243	88.5
233.477	93.5
233.711	85.5
233.945	91.5
234.179	93.5
234.413	95.5
234.647	103.5
234.881	76.5
235.115	82.5
235.349	90.5
235.583	83.5
235.817	93.5
236.051	96.5
236.285	81.5
236.519	78.5
236.753	97.5
236.987	107.5
237.221	82.5
237.455	91.5
237.689	99.5
237.922	97.5
238.156	93.5
238.39	84.5
238.624	79.5
238.858	78.5
239.091	84.5
239.325	90.5
239.559	95.5
239.793	95.5
240.027	89.5
240.26	90.5
240.494	82.5
240.728	97.5
240.961	71.5
241.195	91.5
241.429	97.5
241.662	91.5
241.896	90.5
242.13	91.5
242.363	86.5
242.597	84.5
242.83	82.5
243.064	79.5
243.298	86.5
243.531	93.5
243.765	83.5
243.998	88.5
244.232	84.5
244.465	81.5
244.699	85.5
244.932	97.5
245.166	78.5
245.399	102.5
245.633	91.5
245.866	85.5
246.099	91.5
246.333	90.5
246.566	76.5
246.8	96.5
247.033	77.5
247.266	91.5
247.5	100.5
247.733	98.5
247.966	97.5
248.2	90.5
248.433	91.5
248.666	100.5
248.899	95.5
249.133	108.5
249.366	102.5
249.599	95.5
249.832	93.5
250.066	81.5
250.299	91.5
250.532	93.5
250.765	94.5
250.998	95.5
251.231	85.5
251.465	100.5
251.698	79.5
251.931	94.5
252.164	92.5
252.397	95.5
252.63	87.5
252.863	86.5
253.096	91.5
253.329	91.5
253.562	91.5
253.795	94.5
254.028	89.5
254.261	97.5
254.494	92.5
254.727	103.5
254.96	108.5
255.193	91.5
255.426	92.5
255.659	96.5
255.892	94.5
256.124	97.5
256.357	101.5
256.59	106.5
256.823	103.5
257.056	96.5
257.289	87.5
257.521	112.5
257.754	100.5
257.987	88.5
258.22	105.5
258.452	90.5
258.685	105.5
258.918	102.5
259.151	101.5
259.383	92.5
259.616	92.5
259.849	73.5
260.081	101.5
260.314	92.5
260.547	87.5
260.779	103.5
261.012	96.5
261.244	90.5
261.477	111.5
261.71	91.5
261.942	102.5
262.175	99.5
262.407	94.5
262.64	81.5
262.872	104.5
263.105	102.5
263.337	99.5
263.57	102.5
263.802	82.5
264.035	104.5
264.267	99.5
264.499	94.5
264.732	98.5
264.964	95.5
265.197	96.5
265.429	101.5
265.661	89.5
265.894	92.5
266.126	98.5
266.358	106.5
266.591	100.5
266.823	97.5
267.055	84.5
267.287	95.5
267.52	99.5
267.752	108.5
267.984	93.5
268.216	98.5
268.448	95.5
268.681	102.5
268.913	100.5
269.145	94.5
269.377	103.5
269.609	88.5
269.841	86.5
270.073	97.5
270.306	113.5
270.538	101.5
270.77	100.5
271.002	93.5
271.234	102.5
271.466	104.5
271.698	114.5
271.93	110.5
272.162	100.5
272.394	117.5
272.626	99.5
272.858	108.5
273.09	99.5
273.322	103.5
273.553	99.5
273.785	109.5
274.017	101.5
274.249	104.5
274.481	105.5
274.713	90.5
274.945	107.5
275.176	110.5
275.408	108.5
275.64	94.5
275.872	105.5
276.104	105.5
276.335	97.5
276.567	101.5
276.799	94.5
277.031	108.5
277.262	106.5
277.494	126.5
277.726	107.5
277.957	107.5
278.189	113.5
278.421	113.5
278.652	106.5
278.884	98.5
279.115	103.5
279.347	88.5
279.579	111.5
279.81	93.5
280.042	103.5
280.273	113.5
280.505	101.5
280.736	92.5
280.968	108.5
281.199	96.5
281.431	100.5
281.662	107.5
281.894	101.5
282.125	106.5
282.356	103.5
282.588	114.5
282.819	103.5
283.051	103.5
283.282	95.5
283.513	110.5
283.745	120.5
283.976	98.5
284.207	81.5
284.439	104.5
284.67	107.5
284.901	113.5
285.132	113.5
285.364	108.5
285.595	121.5
285.826	109.5
286.057	107.5
286.288	113.5
286.52	97.5
286.751	112.5
286.982	107.5
287.213	103.5
287.444	113.5
287.675	111.5
287.906	109.5
288.138	115.5
288.369	113.5
288.6	110.5
288.831	121.5
289.062	124.5
289.293	110.5
289.524	127.5
289.755	110.5
289.986	108.5
290.217	109.5
290.448	94.5
290.679	100.5
290.91	98.5
291.141	100.5
291.371	117.5
291.602	123.5
291.833	125.5
292.064	95.5
292.295	102.5
292.526	83.5
292.757	102.5
292.987	101.5
293.218	98.5
293.449	113.5
293.68	128.5
293.91	105.5
294.141	108.5
294.372	108.5
294.603	111.5
294.833	111.5
295.064	117.5
295.295	120.5
295.525	115.5
295.756	106.5
295.987	116.5
296.217	105.5
296.448	100.5
296.679	119.5
296.909	111.5
297.14	108.5
297.37	106.5
297.601	105.5
297.831	104.5
298.062	115.5
298.292	104.5
298.523	121.5
298.753	115.5
298.984	112.5
299.214	108.5
299.445	87.5
299.675	109.5
299.905	120.5
300.136	110.5
300.366	116.5
300.597	103.5
300.827	110.5
301.057	112.5
301.288	109.5
301.518	105.5
301.748	103.5
301.979	124.5
302.209	111.5
302.439	110.5
302.669	115.5
302.9	113.5
303.13	93.5
303.36	114.5
303.59	107.5
303.82	112.5
304.051	106.5
304.281	113.5
304.511	124.5
304.741	114.5
304.971	115.5
305.201	115.5
305.431	109.5
305.661	98.5
305.891	117.5
306.121	115.5
306.352	103.5
306.582	103.5
306.812	111.5
307.042	115.5
307.272	97.5
307.502	100.5
307.731	105.5
307.961	108.5
308.191	93.5
308.421	111.5
308.651	96.5
308.881	109.5
309.111	114.5
309.341	104.5
309.571	111.5
309.8	113.5
310.03	115.5
310.26	115.5
310.49	113.5
310.72	115.5
310.949	107.5
311.179	112.5
311.409	117.5
311.639	102.5
311.868	108.5
312.098	119.5
312.328	103.5
312.557	95.5
312.787	115.5
313.017	115.5
313.246	102.5
313.476	113.5
313.706	111.5
313.935	111.5
314.165	116.5
314.394	116.5
314.624	131.5
314.853	115.5
315.083	99.5
315.312	120.5
315.542	103.5
315.771	103.5
316.001	118.5
316.23	111.5
316.46	113.5
316.689	126.5
316.919	119.5
317.148	124.5
317.377	101.5
317.607	125.5
317.836	123.5
318.065	128.5
318.295	113.5
318.524	123.5
318.753	107.5
318.983	111.5
319.212	101.5
319.441	117.5
319.67	107.5
319.9	112.5
320.129	131.5
320.358	121.5
320.587	119.5
320.816	115.5
321.046	120.5
321.275	115.5
321.504	107.5
321.733	111.5
321.962	115.5
322.191	107.5
322.42	102.5
322.649	122.5
322.878	123.5
323.108	115.5
323.337	117.5
323.566	116.5
323.795	129.5
324.024	133.5
324.253	138.5
324.482	147.5
324.71	175.5
324.939	182.5
325.168	157.5
325.397	136.5
325.626	141.5
325.855	120.5
326.084	118.5
326.313	115.5
326.542	112.5
326.77	113.5
326.999	137.5
327.228	135.5
327.457	175.5
327.686	189.5
327.914	135.5
328.143	125.5
328.372	130.5
328.6	124.5
328.829	129.5
329.058	138.5
329.287	131.5
329.515	120.5
329.744	131.5
329.972	111.5
330.201	124.5
330.43	129.5
330.658	119.5
330.887	121.5
331.115	107.5
331.344	133.5
331.572	129.5
331.801	127.5
332.03	132.5
332.258	139.5
332.486	123.5
332.715	122.5
332.943	120.5
333.172	111.5
333.4	117.5
333.629	132.5
333.857	136.5
334.085	116.5
334.314	124.5
334.542	123.5
334.771	119.5
334.999	142.5
335.227	129.5
335.455	121.5
335.684	113.5
335.912	112.5
336.14	129.5
336.369	116.5
336.597	113.5
336.825	128.5
337.053	124.5
337.281	134.5
337.51	130.5
337.738	108.5
337.966	112.5
338.194	119.5
338.422	124.5
338.65	129.5
338.878	128.5
339.106	128.5
339.334	116.5
339.562	123.5
339.79	131.5
340.018	125.5
340.246	124.5
340.474	122.5
340.702	124.5
340.93	125.5
341.158	130.5
341.386	117.5
341.614	122.5
341.842	105.5
342.07	109.5
342.298	116.5
342.526	102.5
342.754	121.5
342.981	113.5
343.209	133.5
343.437	126.5
343.665	127.5
343.893	117.5
344.12	125.5
344.348	114.5
344.576	116.5
344.804	92.5
345.031	124.5
345.259	103.5
345.487	125.5
345.714	134.5
345.942	116.5
346.17	127.5
346.397	109.5
346.625	120.5
346.853	128.5
347.08	113.5
347.308	123.5
347.535	128.5
347.763	127.5
347.99	122.5
348.218	120.5
348.445	108.5
348.673	115.5
348.9	117.5
349.128	125.5
349.355	112.5
349.583	103.5
349.81	123.5
350.037	125.5
350.265	118.5
350.492	125.5
350.72	119.5
350.947	117.5
351.174	112.5
351.402	108.5
351.629	120.5
351.856	109.5
352.083	123.5
352.311	117.5
352.538	110.5
352.765	123.5
352.992	121.5
353.22	117.5
353.447	116.5
353.674	107.5
353.901	115.5
354.128	118.5
354.355	95.5
354.583	113.5
354.81	124.5
355.037	131.5
355.264	115.5
355.491	104.5
355.718	106.5
355.945	130.5
356.172	106.5
356.399	114.5
356.626	116.5
356.853	124.5
357.08	121.5
357.307	115.5
357.534	114.5
357.761	124.5
357.988	127.5
358.215	122.5
358.441	113.5
358.668	121.5
358.895	105.5
359.122	103.5
359.349	115.5
359.576	114.5
359.802	122.5
360.029	112.5
360.256	108.5
360.483	108.5
360.709	112.5
360.936	114.5
361.163	122.5
361.39	108.5
361.616	122.5
361.843	110.5
362.07	116.5
362.296	132.5
362.523	125.5
362.749	113.5
362.976	117.5
363.203	106.5
363.429	106.5
363.656	123.5
363.882	115.5
364.109	113.5
364.335	122.5
364.562	119.5
364.788	106.5
365.015	119.5
365.241	120.5
365.468	128.5
365.694	130.5
365.92	121.5
366.147	115.5
366.373	109.5
366.599	105.5
366.826	93.5
367.052	115.5
367.278	102.5
367.505	124.5
367.731	127.5
367.957	122.5
368.184	117.5
368.41	99.5
368.636	120.5
368.862	128.5
369.089	120.5
369.315	121.5
369.541	122.5
369.767	127.5
369.993	117.5
370.219	123.5
370.445	107.5
370.672	129.5
370.898	132.5
371.124	108.5
371.35	135.5
371.576	117.5
371.802	115.5
372.028	121.5
372.254	123.5
372.48	133.5
372.706	116.5
372.932	116.5
373.158	124.5
373.384	119.5
373.61	120.5
373.835	113.5
374.061	115.5
374.287	123.5
374.513	124.5
374.739	122.5
374.965	126.5
375.191	117.5
375.416	116.5
375.642	116.5
375.868	129.5
376.094	119.5
376.319	117.5
376.545	121.5
376.771	123.5
376.997	112.5
377.222	119.5
377.448	119.5
377.674	113.5
377.899	132.5
378.125	127.5
378.35	116.5
378.576	121.5
378.802	112.5
379.027	121.5
379.253	124.5
379.478	106.5
379.704	131.5
379.929	117.5
380.155	119.5
380.38	125.5
380.606	115.5
380.831	122.5
381.057	125.5
381.282	125.5
381.507	128.5
381.733	123.5
381.958	123.5
382.184	116.5
382.409	131.5
382.634	121.5
382.86	123.5
383.085	134.5
383.31	135.5
383.535	141.5
383.761	127.5
383.986	127.5
384.211	113.5
384.436	125.5
384.662	139.5
384.887	129.5
385.112	123.5
385.337	115.5
385.562	127.5
385.787	135.5
386.013	139.5
386.238	129.5
386.463	125.5
386.688	122.5
386.913	133.5
387.138	135.5
387.363	132.5
387.588	124.5
387.813	139.5
388.038	119.5
388.263	130.5
388.488	115.5
388.713	125.5
388.938	117.5
389.163	119.5
389.387	110.5
389.612	117.5
389.837	128.5
390.062	119.5
390.287	111.5
390.512	122.5
390.736	133.5
390.961	130.5
391.186	113.5
391.411	114.5
391.636	112.5
391.86	127.5
392.085	131.5
392.31	139.5
392.534	142.5
392.759	127.5
392.984	107.5
393.208	121.5
393.433	135.5
393.658	133.5
393.882	119.5
394.107	115.5
394.331	121.5
394.556	125.5
394.78	130.5
395.005	125.5
395.229	119.5
395.454	139.5
395.678	123.5
395.903	130.5
396.127	146.5
396.352	108.5
396.576	120.5
396.801	122.5
397.025	107.5
397.249	116.5
397.474	133.5
397.698	135.5
397.922	130.5
398.147	121.5
398.371	129.5
398.595	133.5
398.82	112.5
399.044	121.5
399.268	135.5
399.492	140.5
399.717	145.5
399.941	157.5
400.165	142.5
400.389	155.5
400.613	144.5
400.837	132.5
401.062	135.5
401.286	147.5
401.51	138.5
401.734	133.5
401.958	141.5
402.182	137.5
402.406	136.5
402.63	141.5
402.854	122.5
403.078	128.5
403.302	136.5
403.526	146.5
403.75	142.5
403.974	141.5
404.198	150.5
404.422	131.5
404.645	143.5
404.869	128.5
405.093	135.5
405.317	157.5
405.541	145.5
405.765	147.5
405.988	141.5
406.212	133.5
406.436	133.5
406.66	146.5
406.883	143.5
407.107	142.5
407.331	147.5
407.555	157.5
407.778	136.5
408.002	148.5
408.226	147.5
408.449	135.5
408.673	143.5
408.896	144.5
409.12	149.5
409.344	140.5
409.567	148.5
409.791	137.5
410.014	139.5
410.238	123.5
410.461	125.5
410.685	150.5
410.908	133.5
411.132	124.5
411.355	142.5
411.578	139.5
411.802	139.5
412.025	146.5
412.249	137.5
412.472	144.5
412.695	142.5
412.919	145.5
413.142	135.5
413.365	136.5
413.589	130.5
413.812	146.5
414.035	142.5
414.258	129.5
414.482	131.5
414.705	149.5
414.928	133.5
415.151	136.5
415.374	116.5
415.597	131.5
415.821	143.5
416.044	129.5
416.267	128.5
416.49	140.5
416.713	130.5
416.936	137.5
417.159	129.5
417.382	140.5
417.605	122.5
417.828	128.5
418.051	142.5
418.274	133.5
418.497	140.5
418.72	131.5
418.943	141.5
419.166	148.5
419.389	165.5
419.611	150.5
419.834	136.5
420.057	145.5
420.28	137.5
420.503	148.5
420.726	146.5
420.948	135.5
421.171	139.5
421.394	144.5
421.617	139.5
421.839	138.5
422.062	139.5
422.285	137.5
422.507	134.5
422.73	149.5
422.953	137.5
423.175	128.5
423.398	152.5
423.621	135.5
423.843	140.5
424.066	123.5
424.288	156.5
424.511	128.5
424.733	154.5
424.956	153.5
425.178	150.5
425.401	159.5
425.623	145.5
425.846	134.5
426.068	125.5
426.291	140.5
426.513	123.5
426.735	131.5
426.958	137.5
427.18	143.5
427.402	166.5
427.625	155.5
427.847	155.5
428.069	155.5
428.292	133.5
428.514	139.5
428.736	129.5
428.958	130.5
429.181	140.5
429.403	142.5
429.625	126.5
429.847	115.5
430.069	159.5
430.292	136.5
430.514	130.5
430.736	127.5
430.958	133.5
431.18	146.5
431.402	121.5
431.624	133.5
431.846	139.5
432.068	123.5
432.29	135.5
432.512	125.5
432.734	124.5
432.956	129.5
433.178	127.5
433.4	136.5
433.622	111.5
433.844	127.5
434.066	133.5
434.287	135.5
434.509	134.5
434.731	132.5
434.953	133.5
435.175	119.5
435.397	145.5
435.618	128.5
435.84	142.5
436.062	157.5
436.284	137.5
436.505	130.5
436.727	128.5
436.949	128.5
437.17	136.5
437.392	139.5
437.614	153.5
437.835	131.5
438.057	139.5
438.278	157.5
438.5	131.5
438.721	151.5
438.943	127.5
439.165	133.5
439.386	146.5
439.608	132.5
439.829	151.5
440.05	143.5
440.272	145.5
440.493	131.5
440.715	125.5
440.936	122.5
441.158	118.5
441.379	148.5
441.6	135.5
441.822	149.5
442.043	148.5
442.264	153.5
442.486	142.5
442.707	155.5
442.928	139.5
443.149	145.5
443.371	140.5
443.592	137.5
443.813	154.5
444.034	155.5
444.255	124.5
444.476	138.5
444.698	133.5
444.919	127.5
445.14	228.5
445.361	171.5
445.582	147.5
445.803	137.5
446.024	145.5
446.245	163.5
446.466	139.5
446.687	142.5
446.908	129.5
447.129	155.5
447.35	139.5
447.571	125.5
447.792	131.5
448.013	121.5
448.234	139.5
448.455	134.5
448.675	136.5
448.896	144.5
449.117	143.5
449.338	137.5
449.559	144.5
449.779	155.5
450	135.5
450.221	124.5
450.442	137.5
450.662	114.5
450.883	138.5
451.104	135.5
451.324	132.5
451.545	136.5
451.766	108.5
451.986	117.5
452.207	129.5
452.428	131.5
452.648	138.5
452.869	131.5
453.089	127.5
453.31	115.5
453.53	121.5
453.751	123.5
453.971	127.5
454.192	119.5
454.412	129.5
454.633	114.5
454.853	122.5
455.073	112.5
455.294	123.5
455.514	122.5
455.734	118.5
455.955	117.5
456.175	103.5
456.395	107.5
456.616	120.5
456.836	109.5
457.056	131.5
457.276	106.5
457.497	125.5
457.717	126.5
457.937	128.5
458.157	124.5
458.377	120.5
458.598	123.5
458.818	128.5
459.038	128.5
459.258	128.5
459.478	127.5
459.698	129.5
459.918	128.5
460.138	117.5
460.358	135.5
460.578	134.5
460.798	131.5
461.018	133.5
461.238	131.5
461.458	150.5
461.678	132.5
461.898	132.5
462.118	121.5
462.338	131.5
462.558	142.5
462.777	151.5
462.997	152.5
463.217	162.5
463.437	143.5
463.657	148.5
463.876	142.5
464.096	137.5
464.316	149.5
464.536	133.5
464.755	140.5
464.975	139.5
465.195	155.5
465.414	138.5
465.634	121.5
465.854	126.5
466.073	135.5
466.293	139.5
466.512	121.5
466.732	139.5
466.951	134.5
467.171	126.5
467.391	119.5
467.61	128.5
467.829	123.5
468.049	134.5
468.268	130.5
468.488	127.5
468.707	138.5
468.927	129.5
469.146	137.5
469.365	137.5
469.585	121.5
469.804	141.5
470.023	134.5
470.243	127.5
470.462	122.5
470.681	124.5
470.901	134.5
471.12	124.5
471.339	118.5
471.558	112.5
471.777	132.5
471.997	127.5
472.216	122.5
472.435	135.5
472.654	145.5
472.873	140.5
473.092	128.5
473.311	109.5
473.53	122.5
473.749	134.5
473.968	147.5
474.187	144.5
474.406	135.5
474.625	134.5
474.844	128.5
475.063	141.5
475.282	111.5
475.501	123.5
475.72	128.5
475.939	127.5
476.158	127.5
476.377	127.5
476.596	120.5
476.814	147.5
477.033	131.5
477.252	140.5
477.471	145.5
477.69	124.5
477.908	136.5
478.127	136.5
478.346	144.5
478.564	145.5
478.783	143.5
479.002	136.5
479.22	131.5
479.439	143.5
479.658	147.5
479.876	142.5
480.095	144.5
480.313	141.5
480.532	154.5
480.751	159.5
480.969	148.5
481.188	145.5
481.406	147.5
481.624	128.5
481.843	131.5
482.061	138.5
482.28	139.5
482.498	126.5
482.717	133.5
482.935	129.5
483.153	156.5
483.372	124.5
483.59	156.5
483.808	142.5
484.027	126.5
484.245	136.5
484.463	133.5
484.681	138.5
484.9	144.5
485.118	141.5
485.336	123.5
485.554	140.5
485.772	141.5
485.99	149.5
486.209	148.5
486.427	121.5
486.645	138.5
486.863	141.5
487.081	139.5
487.299	142.5
487.517	159.5
487.735	131.5
487.953	152.5
488.171	140.5
488.389	123.5
488.607	150.5
488.825	143.5
489.043	142.5
489.261	156.5
489.479	141.5
489.696	133.5
489.914	148.5
490.132	137.5
490.35	149.5
490.568	134.5
490.786	137.5
491.003	143.5
491.221	156.5
491.439	153.5
491.657	153.5
491.874	156.5
492.092	160.5
492.31	136.5
492.527	141.5
492.745	147.5
492.963	141.5
493.18	157.5
493.398	150.5
493.615	146.5
493.833	153.5
494.05	154.5
494.268	164.5
494.485	137.5
494.703	147.5
494.92	150.5
495.138	157.5
495.355	146.5
495.573	155.5
495.79	151.5
496.008	167.5
496.225	156.5
496.442	143.5
496.66	144.5
496.877	161.5
497.094	139.5
497.312	153.5
497.529	162.5
497.746	156.5
497.963	176.5
498.181	146.5
498.398	161.5
498.615	161.5
498.832	167.5
499.049	163.5
499.267	178.5
499.484	171.5
499.701	193.5
499.918	195.5
500.135	196.5
500.352	220.5
500.569	216.5
500.786	239.5
501.003	207.5
501.22	187.5
501.437	176.5
501.654	189.5
501.871	171.5
502.088	173.5
502.305	157.5
502.522	159.5
502.739	169.5
502.956	164.5
503.172	167.5
503.389	149.5
503.606	159.5
503.823	163.5
504.04	156.5
504.256	157.5
504.473	143.5
504.69	154.5
504.907	169.5
505.123	143.5
505.34	145.5
505.557	149.5
505.773	149.5
505.99	140.5
506.207	139.5
506.423	132.5
506.64	146.5
506.856	147.5
507.073	135.5
507.289	131.5
507.506	136.5
507.722	129.5
507.939	137.5
508.155	148.5
508.372	131.5
508.588	120.5
508.805	148.5
509.021	135.5
509.238	151.5
509.454	131.5
509.67	138.5
509.887	137.5
510.103	136.5
510.319	131.5
510.536	155.5
510.752	187.5
510.968	157.5
511.184	143.5
511.401	142.5
511.617	121.5
511.833	126.5
512.049	131.5
512.265	144.5
512.481	137.5
512.698	124.5
512.914	138.5
513.13	137.5
513.346	141.5
513.562	136.5
513.778	132.5
513.994	139.5
514.21	140.5
514.426	139.5
514.642	135.5
514.858	133.5
515.074	139.5
515.29	155.5
515.506	182.5
515.721	159.5
515.937	142.5
516.153	141.5
516.369	137.5
516.585	135.5
516.801	137.5
517.016	140.5
517.232	161.5
517.448	138.5
517.664	147.5
517.879	152.5
518.095	142.5
518.311	147.5
518.527	132.5
518.742	161.5
518.958	148.5
519.173	139.5
519.389	128.5
519.605	127.5
519.82	127.5
520.036	138.5
520.251	128.5
520.467	157.5
520.682	124.5
520.898	141.5
521.113	130.5
521.329	147.5
521.544	148.5
521.76	172.5
521.975	194.5
522.19	199.5
522.406	164.5
