Data from 1968.PennyLincolnUp.Lamp.En5.5.200Scan.071719.P1._HRD10591_14-52-16-970.txt Node
Date: Thu Jul 18 14:52:16 EDT 2019
User: cochatt
Spectrometer: HR+D1059
Trigger mode: 1
Integration Time (sec): 1.000000E-1
Scans to average: 1
Electric dark correction enabled: true
Nonlinearity correction enabled: false
Boxcar width: 0
XAxis mode: Wavelengths
Number of Pixels in Spectrum: 2048
>>>>>Begin Spectral Data<<<<<
223.165	-11.06
223.4	-11.06
223.635	-11.06
223.869	-13.06
224.104	-9.06
224.338	1.94
224.573	-32.06
224.808	-21.06
225.042	4.94
225.277	-12.06
225.511	12.94
225.746	0.94
225.98	-8.06
226.215	2.94
226.449	8.94
226.683	27.94
226.918	17.94
227.152	27.94
227.387	14.94
227.621	22.94
227.856	48.94
228.09	54.94
228.324	50.94
228.559	49.94
228.793	48.94
229.027	59.94
229.262	71.94
229.496	71.94
229.73	72.94
229.964	83.94
230.199	82.94
230.433	79.94
230.667	85.94
230.901	78.94
231.136	79.94
231.37	83.94
231.604	88.94
231.838	88.94
232.072	83.94
232.306	107.94
232.541	85.94
232.775	79.94
233.009	71.94
233.243	80.94
233.477	69.94
233.711	90.94
233.945	73.94
234.179	88.94
234.413	75.94
234.647	84.94
234.881	74.94
235.115	65.94
235.349	76.94
235.583	85.94
235.817	93.94
236.051	74.94
236.285	88.94
236.519	74.94
236.753	81.94
236.987	85.94
237.221	69.94
237.455	71.94
237.689	93.94
237.922	77.94
238.156	81.94
238.39	70.94
238.624	84.94
238.858	77.94
239.091	68.94
239.325	75.94
239.559	77.94
239.793	75.94
240.027	68.94
240.26	82.94
240.494	86.94
240.728	85.94
240.961	71.94
241.195	83.94
241.429	91.94
241.662	87.94
241.896	92.94
242.13	76.94
242.363	71.94
242.597	86.94
242.83	91.94
243.064	89.94
243.298	84.94
243.531	78.94
243.765	64.94
243.998	97.94
244.232	81.94
244.465	91.94
244.699	86.94
244.932	89.94
245.166	90.94
245.399	88.94
245.633	79.94
245.866	83.94
246.099	78.94
246.333	93.94
246.566	74.94
246.8	70.94
247.033	86.94
247.266	81.94
247.5	84.94
247.733	76.94
247.966	71.94
248.2	95.94
248.433	97.94
248.666	87.94
248.899	101.94
249.133	81.94
249.366	90.94
249.599	77.94
249.832	87.94
250.066	86.94
250.299	86.94
250.532	90.94
250.765	76.94
250.998	84.94
251.231	98.94
251.465	82.94
251.698	84.94
251.931	87.94
252.164	103.94
252.397	92.94
252.63	82.94
252.863	81.94
253.096	102.94
253.329	101.94
253.562	98.94
253.795	91.94
254.028	75.94
254.261	96.94
254.494	82.94
254.727	89.94
254.96	91.94
255.193	87.94
255.426	95.94
255.659	96.94
255.892	101.94
256.124	86.94
256.357	98.94
256.59	89.94
256.823	96.94
257.056	91.94
257.289	89.94
257.521	104.94
257.754	86.94
257.987	86.94
258.22	84.94
258.452	90.94
258.685	92.94
258.918	81.94
259.151	95.94
259.383	85.94
259.616	95.94
259.849	80.94
260.081	88.94
260.314	91.94
260.547	80.94
260.779	92.94
261.012	89.94
261.244	77.94
261.477	81.94
261.71	85.94
261.942	85.94
262.175	97.94
262.407	98.94
262.64	92.94
262.872	87.94
263.105	93.94
263.337	91.94
263.57	90.94
263.802	106.94
264.035	97.94
264.267	81.94
264.499	87.94
264.732	93.94
264.964	79.94
265.197	107.94
265.429	96.94
265.661	99.94
265.894	81.94
266.126	109.94
266.358	90.94
266.591	82.94
266.823	88.94
267.055	89.94
267.287	83.94
267.52	72.94
267.752	91.94
267.984	86.94
268.216	85.94
268.448	94.94
268.681	73.94
268.913	97.94
269.145	87.94
269.377	90.94
269.609	86.94
269.841	96.94
270.073	94.94
270.306	103.94
270.538	100.94
270.77	102.94
271.002	107.94
271.234	102.94
271.466	97.94
271.698	87.94
271.93	92.94
272.162	86.94
272.394	88.94
272.626	85.94
272.858	97.94
273.09	102.94
273.322	85.94
273.553	98.94
273.785	93.94
274.017	89.94
274.249	109.94
274.481	115.94
274.713	97.94
274.945	114.94
275.176	101.94
275.408	104.94
275.64	91.94
275.872	93.94
276.104	96.94
276.335	86.94
276.567	98.94
276.799	92.94
277.031	94.94
277.262	106.94
277.494	94.94
277.726	94.94
277.957	86.94
278.189	98.94
278.421	102.94
278.652	94.94
278.884	97.94
279.115	86.94
279.347	114.94
279.579	97.94
279.81	85.94
280.042	105.94
280.273	82.94
280.505	102.94
280.736	87.94
280.968	91.94
281.199	99.94
281.431	87.94
281.662	94.94
281.894	86.94
282.125	96.94
282.356	112.94
282.588	89.94
282.819	85.94
283.051	99.94
283.282	91.94
283.513	107.94
283.745	122.94
283.976	106.94
284.207	100.94
284.439	103.94
284.67	92.94
284.901	103.94
285.132	100.94
285.364	87.94
285.595	93.94
285.826	102.94
286.057	100.94
286.288	100.94
286.52	114.94
286.751	104.94
286.982	91.94
287.213	91.94
287.444	98.94
287.675	92.94
287.906	102.94
288.138	107.94
288.369	97.94
288.6	106.94
288.831	98.94
289.062	107.94
289.293	79.94
289.524	92.94
289.755	89.94
289.986	87.94
290.217	108.94
290.448	84.94
290.679	107.94
290.91	87.94
291.141	98.94
291.371	94.94
291.602	100.94
291.833	92.94
292.064	102.94
292.295	106.94
292.526	98.94
292.757	114.94
292.987	100.94
293.218	105.94
293.449	101.94
293.68	104.94
293.91	85.94
294.141	102.94
294.372	99.94
294.603	104.94
294.833	94.94
295.064	106.94
295.295	108.94
295.525	112.94
295.756	88.94
295.987	87.94
296.217	109.94
296.448	114.94
296.679	110.94
296.909	120.94
297.14	111.94
297.37	104.94
297.601	99.94
297.831	107.94
298.062	109.94
298.292	93.94
298.523	103.94
298.753	112.94
298.984	101.94
299.214	91.94
299.445	103.94
299.675	98.94
299.905	122.94
300.136	115.94
300.366	109.94
300.597	96.94
300.827	98.94
301.057	101.94
301.288	102.94
301.518	97.94
301.748	101.94
301.979	90.94
302.209	107.94
302.439	97.94
302.669	94.94
302.9	114.94
303.13	112.94
303.36	101.94
303.59	102.94
303.82	109.94
304.051	104.94
304.281	103.94
304.511	96.94
304.741	112.94
304.971	107.94
305.201	103.94
305.431	109.94
305.661	118.94
305.891	112.94
306.121	112.94
306.352	106.94
306.582	106.94
306.812	99.94
307.042	96.94
307.272	108.94
307.502	100.94
307.731	106.94
307.961	103.94
308.191	98.94
308.421	102.94
308.651	115.94
308.881	112.94
309.111	108.94
309.341	115.94
309.571	100.94
309.8	118.94
310.03	107.94
310.26	97.94
310.49	100.94
310.72	115.94
310.949	92.94
311.179	92.94
311.409	107.94
311.639	89.94
311.868	108.94
312.098	101.94
312.328	113.94
312.557	112.94
312.787	113.94
313.017	106.94
313.246	104.94
313.476	106.94
313.706	100.94
313.935	102.94
314.165	116.94
314.394	105.94
314.624	112.94
314.853	102.94
315.083	101.94
315.312	97.94
315.542	118.94
315.771	112.94
316.001	98.94
316.23	108.94
316.46	95.94
316.689	112.94
316.919	112.94
317.148	99.94
317.377	109.94
317.607	104.94
317.836	115.94
318.065	100.94
318.295	110.94
318.524	105.94
318.753	109.94
318.983	100.94
319.212	102.94
319.441	113.94
319.67	109.94
319.9	112.94
320.129	106.94
320.358	105.94
320.587	103.94
320.816	104.94
321.046	104.94
321.275	93.94
321.504	112.94
321.733	115.94
321.962	91.94
322.191	110.94
322.42	103.94
322.649	105.94
322.878	114.94
323.108	108.94
323.337	110.94
323.566	109.94
323.795	97.94
324.024	105.94
324.253	113.94
324.482	134.94
324.71	156.94
324.939	174.94
325.168	157.94
325.397	131.94
325.626	114.94
325.855	123.94
326.084	123.94
326.313	114.94
326.542	124.94
326.77	119.94
326.999	129.94
327.228	128.94
327.457	140.94
327.686	144.94
327.914	146.94
328.143	102.94
328.372	119.94
328.6	120.94
328.829	115.94
329.058	116.94
329.287	105.94
329.515	99.94
329.744	118.94
329.972	117.94
330.201	97.94
330.43	109.94
330.658	104.94
330.887	119.94
331.115	114.94
331.344	119.94
331.572	107.94
331.801	130.94
332.03	115.94
332.258	117.94
332.486	120.94
332.715	107.94
332.943	107.94
333.172	105.94
333.4	114.94
333.629	114.94
333.857	112.94
334.085	124.94
334.314	119.94
334.542	120.94
334.771	122.94
334.999	113.94
335.227	104.94
335.455	103.94
335.684	127.94
335.912	108.94
336.14	105.94
336.369	118.94
336.597	116.94
336.825	119.94
337.053	123.94
337.281	104.94
337.51	110.94
337.738	109.94
337.966	126.94
338.194	109.94
338.422	104.94
338.65	105.94
338.878	115.94
339.106	118.94
339.334	118.94
339.562	118.94
339.79	110.94
340.018	110.94
340.246	125.94
340.474	112.94
340.702	100.94
340.93	102.94
341.158	114.94
341.386	105.94
341.614	116.94
341.842	98.94
342.07	114.94
342.298	107.94
342.526	106.94
342.754	104.94
342.981	114.94
343.209	121.94
343.437	138.94
343.665	103.94
343.893	109.94
344.12	104.94
344.348	123.94
344.576	124.94
344.804	109.94
345.031	117.94
345.259	119.94
345.487	117.94
345.714	105.94
345.942	112.94
346.17	102.94
346.397	108.94
346.625	107.94
346.853	84.94
347.08	114.94
347.308	104.94
347.535	103.94
347.763	105.94
347.99	114.94
348.218	97.94
348.445	93.94
348.673	103.94
348.9	110.94
349.128	104.94
349.355	114.94
349.583	103.94
349.81	109.94
350.037	106.94
350.265	108.94
350.492	109.94
350.72	90.94
350.947	121.94
351.174	103.94
351.402	105.94
351.629	114.94
351.856	116.94
352.083	105.94
352.311	108.94
352.538	90.94
352.765	116.94
352.992	105.94
353.22	97.94
353.447	104.94
353.674	99.94
353.901	105.94
354.128	106.94
354.355	93.94
354.583	112.94
354.81	105.94
355.037	114.94
355.264	108.94
355.491	104.94
355.718	110.94
355.945	117.94
356.172	100.94
356.399	105.94
356.626	105.94
356.853	118.94
357.08	116.94
357.307	115.94
357.534	95.94
357.761	107.94
357.988	94.94
358.215	99.94
358.441	85.94
358.668	100.94
358.895	89.94
359.122	106.94
359.349	100.94
359.576	119.94
359.802	100.94
360.029	96.94
360.256	114.94
360.483	109.94
360.709	118.94
360.936	112.94
361.163	117.94
361.39	130.94
361.616	119.94
361.843	110.94
362.07	114.94
362.296	101.94
362.523	101.94
362.749	107.94
362.976	112.94
363.203	116.94
363.429	115.94
363.656	114.94
363.882	113.94
364.109	125.94
364.335	105.94
364.562	105.94
364.788	113.94
365.015	116.94
365.241	105.94
365.468	111.94
365.694	100.94
365.92	97.94
366.147	112.94
366.373	102.94
366.599	102.94
366.826	86.94
367.052	99.94
367.278	101.94
367.505	98.94
367.731	119.94
367.957	102.94
368.184	101.94
368.41	99.94
368.636	109.94
368.862	107.94
369.089	105.94
369.315	123.94
369.541	116.94
369.767	122.94
369.993	105.94
370.219	108.94
370.445	103.94
370.672	104.94
370.898	98.94
371.124	105.94
371.35	117.94
371.576	109.94
371.802	119.94
372.028	112.94
372.254	108.94
372.48	93.94
372.706	106.94
372.932	131.94
373.158	106.94
373.384	115.94
373.61	118.94
373.835	118.94
374.061	107.94
374.287	137.94
374.513	115.94
374.739	110.94
374.965	112.94
375.191	109.94
375.416	107.94
375.642	104.94
375.868	115.94
376.094	118.94
376.319	108.94
376.545	98.94
376.771	108.94
376.997	121.94
377.222	116.94
377.448	111.94
377.674	109.94
377.899	99.94
378.125	94.94
378.35	124.94
378.576	117.94
378.802	109.94
379.027	112.94
379.253	103.94
379.478	126.94
379.704	101.94
379.929	123.94
380.155	98.94
380.38	96.94
380.606	104.94
380.831	112.94
381.057	128.94
381.282	133.94
381.507	111.94
381.733	102.94
381.958	112.94
382.184	98.94
382.409	93.94
382.634	116.94
382.86	114.94
383.085	106.94
383.31	111.94
383.535	106.94
383.761	112.94
383.986	112.94
384.211	109.94
384.436	126.94
384.662	117.94
384.887	101.94
385.112	116.94
385.337	122.94
385.562	99.94
385.787	122.94
386.013	124.94
386.238	126.94
386.463	112.94
386.688	112.94
386.913	118.94
387.138	114.94
387.363	114.94
387.588	124.94
387.813	102.94
388.038	114.94
388.263	114.94
388.488	110.94
388.713	112.94
388.938	124.94
389.163	116.94
389.387	125.94
389.612	112.94
389.837	117.94
390.062	114.94
390.287	114.94
390.512	114.94
390.736	122.94
390.961	117.94
391.186	117.94
391.411	126.94
391.636	121.94
391.86	123.94
392.085	122.94
392.31	117.94
392.534	109.94
392.759	114.94
392.984	117.94
393.208	119.94
393.433	113.94
393.658	116.94
393.882	106.94
394.107	118.94
394.331	106.94
394.556	115.94
394.78	116.94
395.005	125.94
395.229	108.94
395.454	116.94
395.678	118.94
395.903	128.94
396.127	106.94
396.352	133.94
396.576	116.94
396.801	129.94
397.025	124.94
397.249	120.94
397.474	119.94
397.698	116.94
397.922	118.94
398.147	121.94
398.371	121.94
398.595	137.94
398.82	130.94
399.044	117.94
399.268	141.94
399.492	146.94
399.717	140.94
399.941	132.94
400.165	139.94
400.389	142.94
400.613	123.94
400.837	119.94
401.062	122.94
401.286	120.94
401.51	108.94
401.734	128.94
401.958	140.94
402.182	124.94
402.406	124.94
402.63	128.94
402.854	121.94
403.078	140.94
403.302	126.94
403.526	136.94
403.75	122.94
403.974	147.94
404.198	120.94
404.422	120.94
404.645	125.94
404.869	120.94
405.093	142.94
405.317	134.94
405.541	140.94
405.765	125.94
405.988	128.94
406.212	127.94
406.436	116.94
406.66	144.94
406.883	121.94
407.107	133.94
407.331	135.94
407.555	118.94
407.778	125.94
408.002	133.94
408.226	140.94
408.449	128.94
408.673	121.94
408.896	128.94
409.12	130.94
409.344	155.94
409.567	134.94
409.791	116.94
410.014	135.94
410.238	134.94
410.461	140.94
410.685	116.94
410.908	120.94
411.132	121.94
411.355	138.94
411.578	127.94
411.802	125.94
412.025	122.94
412.249	133.94
412.472	144.94
412.695	123.94
412.919	135.94
413.142	123.94
413.365	141.94
413.589	123.94
413.812	120.94
414.035	130.94
414.258	126.94
414.482	128.94
414.705	133.94
414.928	137.94
415.151	139.94
415.374	141.94
415.597	110.94
415.821	125.94
416.044	140.94
416.267	117.94
416.49	116.94
416.713	124.94
416.936	135.94
417.159	132.94
417.382	108.94
417.605	121.94
417.828	114.94
418.051	122.94
418.274	124.94
418.497	130.94
418.72	127.94
418.943	130.94
419.166	129.94
419.389	136.94
419.611	126.94
419.834	121.94
420.057	132.94
420.28	117.94
420.503	118.94
420.726	117.94
420.948	132.94
421.171	122.94
421.394	113.94
421.617	117.94
421.839	129.94
422.062	130.94
422.285	128.94
422.507	122.94
422.73	144.94
422.953	127.94
423.175	133.94
423.398	146.94
423.621	128.94
423.843	127.94
424.066	125.94
424.288	125.94
424.511	121.94
424.733	130.94
424.956	151.94
425.178	138.94
425.401	131.94
425.623	130.94
425.846	124.94
426.068	128.94
426.291	130.94
426.513	101.94
426.735	140.94
426.958	120.94
427.18	132.94
427.402	143.94
427.625	152.94
427.847	140.94
428.069	126.94
428.292	131.94
428.514	132.94
428.736	129.94
428.958	132.94
429.181	107.94
429.403	121.94
429.625	117.94
429.847	133.94
430.069	123.94
430.292	129.94
430.514	114.94
430.736	132.94
430.958	111.94
431.18	117.94
431.402	125.94
431.624	134.94
431.846	117.94
432.068	124.94
432.29	122.94
432.512	131.94
432.734	114.94
432.956	134.94
433.178	133.94
433.4	127.94
433.622	134.94
433.844	117.94
434.066	124.94
434.287	124.94
434.509	133.94
434.731	123.94
434.953	129.94
435.175	117.94
435.397	127.94
435.618	124.94
435.84	138.94
436.062	147.94
436.284	132.94
436.505	133.94
436.727	116.94
436.949	129.94
437.17	114.94
437.392	123.94
437.614	107.94
437.835	114.94
438.057	130.94
438.278	129.94
438.5	122.94
438.721	138.94
438.943	130.94
439.165	138.94
439.386	122.94
439.608	128.94
439.829	120.94
440.05	133.94
440.272	122.94
440.493	120.94
440.715	121.94
440.936	123.94
441.158	126.94
441.379	125.94
441.6	133.94
441.822	119.94
442.043	131.94
442.264	148.94
442.486	136.94
442.707	144.94
442.928	124.94
443.149	123.94
443.371	121.94
443.592	141.94
443.813	153.94
444.034	143.94
444.255	126.94
444.476	133.94
444.698	125.94
444.919	125.94
445.14	201.94
445.361	176.94
445.582	133.94
445.803	148.94
446.024	140.94
446.245	138.94
446.466	136.94
446.687	134.94
446.908	124.94
447.129	122.94
447.35	128.94
447.571	124.94
447.792	119.94
448.013	109.94
448.234	123.94
448.455	122.94
448.675	112.94
448.896	132.94
449.117	120.94
449.338	121.94
449.559	134.94
449.779	140.94
450	129.94
450.221	116.94
450.442	120.94
450.662	102.94
450.883	126.94
451.104	134.94
451.324	115.94
451.545	109.94
451.766	117.94
451.986	115.94
452.207	109.94
452.428	114.94
452.648	107.94
452.869	112.94
453.089	123.94
453.31	126.94
453.53	121.94
453.751	130.94
453.971	117.94
454.192	118.94
454.412	117.94
454.633	105.94
454.853	120.94
455.073	124.94
455.294	119.94
455.514	129.94
455.734	115.94
455.955	112.94
456.175	101.94
456.395	120.94
456.616	116.94
456.836	110.94
457.056	114.94
457.276	123.94
457.497	104.94
457.717	109.94
457.937	127.94
458.157	114.94
458.377	119.94
458.598	114.94
458.818	119.94
459.038	121.94
459.258	116.94
459.478	122.94
459.698	130.94
459.918	118.94
460.138	127.94
460.358	114.94
460.578	132.94
460.798	131.94
461.018	122.94
461.238	129.94
461.458	128.94
461.678	130.94
461.898	133.94
462.118	134.94
462.338	134.94
462.558	133.94
462.777	137.94
462.997	131.94
463.217	148.94
463.437	132.94
463.657	125.94
463.876	138.94
464.096	134.94
464.316	130.94
464.536	136.94
464.755	123.94
464.975	125.94
465.195	141.94
465.414	128.94
465.634	111.94
465.854	101.94
466.073	117.94
466.293	128.94
466.512	116.94
466.732	126.94
466.951	113.94
467.171	118.94
467.391	107.94
467.61	133.94
467.829	105.94
468.049	110.94
468.268	120.94
468.488	119.94
468.707	130.94
468.927	126.94
469.146	104.94
469.365	127.94
469.585	118.94
469.804	128.94
470.023	121.94
470.243	117.94
470.462	120.94
470.681	133.94
470.901	118.94
471.12	117.94
471.339	106.94
471.558	116.94
471.777	104.94
471.997	112.94
472.216	120.94
472.435	124.94
472.654	120.94
472.873	114.94
473.092	121.94
473.311	119.94
473.53	128.94
473.749	104.94
473.968	136.94
474.187	125.94
474.406	120.94
474.625	126.94
474.844	123.94
475.063	119.94
475.282	118.94
475.501	121.94
475.72	114.94
475.939	109.94
476.158	128.94
476.377	115.94
476.596	127.94
476.814	123.94
477.033	122.94
477.252	123.94
477.471	121.94
477.69	133.94
477.908	118.94
478.127	117.94
478.346	132.94
478.564	125.94
478.783	131.94
479.002	132.94
479.22	123.94
479.439	124.94
479.658	129.94
479.876	135.94
480.095	134.94
480.313	122.94
480.532	133.94
480.751	123.94
480.969	123.94
481.188	136.94
481.406	138.94
481.624	123.94
481.843	124.94
482.061	113.94
482.28	113.94
482.498	131.94
482.717	124.94
482.935	123.94
483.153	127.94
483.372	132.94
483.59	125.94
483.808	121.94
484.027	129.94
484.245	131.94
484.463	133.94
484.681	106.94
484.9	128.94
485.118	123.94
485.336	120.94
485.554	126.94
485.772	109.94
485.99	125.94
486.209	140.94
486.427	118.94
486.645	133.94
486.863	132.94
487.081	135.94
487.299	116.94
487.517	135.94
487.735	124.94
487.953	132.94
488.171	140.94
488.389	132.94
488.607	134.94
488.825	138.94
489.043	124.94
489.261	146.94
489.479	134.94
489.696	116.94
489.914	124.94
490.132	133.94
490.35	123.94
490.568	141.94
490.786	132.94
491.003	137.94
491.221	146.94
491.439	125.94
491.657	148.94
491.874	143.94
492.092	142.94
492.31	144.94
492.527	130.94
492.745	133.94
492.963	146.94
493.18	138.94
493.398	153.94
493.615	142.94
493.833	137.94
494.05	142.94
494.268	140.94
494.485	119.94
494.703	130.94
494.92	136.94
495.138	139.94
495.355	149.94
495.573	142.94
495.79	132.94
496.008	137.94
496.225	150.94
496.442	141.94
496.66	156.94
496.877	156.94
497.094	139.94
497.312	129.94
497.529	145.94
497.746	144.94
497.963	136.94
498.181	135.94
498.398	151.94
498.615	138.94
498.832	158.94
499.049	155.94
499.267	171.94
499.484	180.94
499.701	176.94
499.918	186.94
500.135	192.94
500.352	205.94
500.569	208.94
500.786	216.94
501.003	202.94
501.22	197.94
501.437	177.94
501.654	167.94
501.871	165.94
502.088	156.94
502.305	167.94
502.522	147.94
502.739	161.94
502.956	149.94
503.172	153.94
503.389	144.94
503.606	142.94
503.823	139.94
504.04	150.94
504.256	142.94
504.473	143.94
504.69	126.94
504.907	148.94
505.123	139.94
505.34	126.94
505.557	136.94
505.773	140.94
505.99	131.94
