Data from 1968.PennyLincolnUp.Lamp.En5.5.200Scan.071719.P1._HRD10591_14-51-00-970.txt Node
Date: Thu Jul 18 14:51:00 EDT 2019
User: cochatt
Spectrometer: HR+D1059
Trigger mode: 1
Integration Time (sec): 1.000000E-1
Scans to average: 1
Electric dark correction enabled: true
Nonlinearity correction enabled: false
Boxcar width: 0
XAxis mode: Wavelengths
Number of Pixels in Spectrum: 2048
>>>>>Begin Spectral Data<<<<<
223.165	-30.44
223.4	-30.44
223.635	-30.44
223.869	-13.44
224.104	-22.44
224.338	-18.44
224.573	-21.44
224.808	-2.44
225.042	2.56
225.277	-8.44
225.511	-1.44
225.746	3.56
225.98	9.56
226.215	-2.44
226.449	19.56
226.683	12.56
226.918	32.56
227.152	40.56
227.387	45.56
227.621	31.56
227.856	25.56
228.09	40.56
228.324	53.56
228.559	51.56
228.793	39.56
229.027	49.56
229.262	71.56
229.496	56.56
229.73	80.56
229.964	84.56
230.199	89.56
230.433	62.56
230.667	88.56
230.901	83.56
231.136	73.56
231.37	80.56
231.604	86.56
231.838	65.56
232.072	73.56
232.306	66.56
232.541	92.56
232.775	88.56
233.009	87.56
233.243	85.56
233.477	84.56
233.711	79.56
233.945	93.56
234.179	90.56
234.413	85.56
234.647	91.56
234.881	87.56
235.115	77.56
235.349	85.56
235.583	85.56
235.817	80.56
236.051	94.56
236.285	86.56
236.519	71.56
236.753	78.56
236.987	85.56
237.221	80.56
237.455	90.56
237.689	85.56
237.922	80.56
238.156	90.56
238.39	76.56
238.624	77.56
238.858	83.56
239.091	81.56
239.325	74.56
239.559	80.56
239.793	66.56
240.027	72.56
240.26	87.56
240.494	88.56
240.728	89.56
240.961	70.56
241.195	71.56
241.429	90.56
241.662	78.56
241.896	83.56
242.13	83.56
242.363	81.56
242.597	66.56
242.83	92.56
243.064	81.56
243.298	89.56
243.531	81.56
243.765	80.56
243.998	79.56
244.232	73.56
244.465	72.56
244.699	80.56
244.932	92.56
245.166	75.56
245.399	76.56
245.633	63.56
245.866	83.56
246.099	79.56
246.333	87.56
246.566	78.56
246.8	71.56
247.033	80.56
247.266	77.56
247.5	80.56
247.733	84.56
247.966	87.56
248.2	70.56
248.433	81.56
248.666	86.56
248.899	83.56
249.133	74.56
249.366	107.56
249.599	98.56
249.832	77.56
250.066	86.56
250.299	87.56
250.532	87.56
250.765	98.56
250.998	71.56
251.231	78.56
251.465	90.56
251.698	83.56
251.931	92.56
252.164	79.56
252.397	90.56
252.63	92.56
252.863	91.56
253.096	74.56
253.329	100.56
253.562	81.56
253.795	86.56
254.028	90.56
254.261	93.56
254.494	89.56
254.727	80.56
254.96	94.56
255.193	85.56
255.426	76.56
255.659	78.56
255.892	96.56
256.124	86.56
256.357	82.56
256.59	68.56
256.823	81.56
257.056	91.56
257.289	70.56
257.521	91.56
257.754	95.56
257.987	81.56
258.22	89.56
258.452	80.56
258.685	85.56
258.918	75.56
259.151	89.56
259.383	87.56
259.616	95.56
259.849	75.56
260.081	86.56
260.314	83.56
260.547	87.56
260.779	87.56
261.012	96.56
261.244	90.56
261.477	109.56
261.71	84.56
261.942	84.56
262.175	88.56
262.407	85.56
262.64	99.56
262.872	82.56
263.105	86.56
263.337	93.56
263.57	86.56
263.802	90.56
264.035	91.56
264.267	95.56
264.499	92.56
264.732	93.56
264.964	86.56
265.197	79.56
265.429	94.56
265.661	80.56
265.894	94.56
266.126	90.56
266.358	97.56
266.591	88.56
266.823	94.56
267.055	102.56
267.287	81.56
267.52	78.56
267.752	92.56
267.984	87.56
268.216	90.56
268.448	97.56
268.681	81.56
268.913	88.56
269.145	82.56
269.377	93.56
269.609	95.56
269.841	103.56
270.073	90.56
270.306	86.56
270.538	87.56
270.77	98.56
271.002	90.56
271.234	84.56
271.466	95.56
271.698	76.56
271.93	94.56
272.162	104.56
272.394	114.56
272.626	84.56
272.858	98.56
273.09	94.56
273.322	83.56
273.553	101.56
273.785	80.56
274.017	82.56
274.249	87.56
274.481	74.56
274.713	107.56
274.945	100.56
275.176	97.56
275.408	114.56
275.64	93.56
275.872	89.56
276.104	80.56
276.335	93.56
276.567	95.56
276.799	96.56
277.031	89.56
277.262	85.56
277.494	105.56
277.726	104.56
277.957	113.56
278.189	103.56
278.421	87.56
278.652	88.56
278.884	101.56
279.115	86.56
279.347	93.56
279.579	86.56
279.81	85.56
280.042	64.56
280.273	86.56
280.505	93.56
280.736	105.56
280.968	90.56
281.199	113.56
281.431	93.56
281.662	78.56
281.894	100.56
282.125	98.56
282.356	100.56
282.588	89.56
282.819	98.56
283.051	101.56
283.282	107.56
283.513	100.56
283.745	91.56
283.976	88.56
284.207	86.56
284.439	95.56
284.67	83.56
284.901	100.56
285.132	109.56
285.364	99.56
285.595	88.56
285.826	95.56
286.057	98.56
286.288	106.56
286.52	85.56
286.751	91.56
286.982	110.56
287.213	117.56
287.444	98.56
287.675	109.56
287.906	102.56
288.138	98.56
288.369	113.56
288.6	99.56
288.831	101.56
289.062	101.56
289.293	88.56
289.524	97.56
289.755	103.56
289.986	86.56
290.217	94.56
290.448	89.56
290.679	103.56
290.91	102.56
291.141	89.56
291.371	108.56
291.602	91.56
291.833	96.56
292.064	102.56
292.295	103.56
292.526	94.56
292.757	100.56
292.987	106.56
293.218	88.56
293.449	96.56
293.68	94.56
293.91	97.56
294.141	92.56
294.372	86.56
294.603	113.56
294.833	98.56
295.064	97.56
295.295	91.56
295.525	99.56
295.756	108.56
295.987	94.56
296.217	97.56
296.448	101.56
296.679	101.56
296.909	102.56
297.14	95.56
297.37	110.56
297.601	98.56
297.831	106.56
298.062	102.56
298.292	90.56
298.523	105.56
298.753	97.56
298.984	82.56
299.214	92.56
299.445	112.56
299.675	92.56
299.905	99.56
300.136	83.56
300.366	102.56
300.597	101.56
300.827	104.56
301.057	105.56
301.288	105.56
301.518	103.56
301.748	99.56
301.979	116.56
302.209	103.56
302.439	109.56
302.669	99.56
302.9	97.56
303.13	105.56
303.36	109.56
303.59	98.56
303.82	96.56
304.051	100.56
304.281	107.56
304.511	115.56
304.741	103.56
304.971	83.56
305.201	115.56
305.431	101.56
305.661	99.56
305.891	88.56
306.121	102.56
306.352	110.56
306.582	113.56
306.812	107.56
307.042	96.56
307.272	87.56
307.502	93.56
307.731	105.56
307.961	99.56
308.191	100.56
308.421	86.56
308.651	104.56
308.881	109.56
309.111	113.56
309.341	98.56
309.571	97.56
309.8	102.56
310.03	104.56
310.26	114.56
310.49	108.56
310.72	112.56
310.949	113.56
311.179	103.56
311.409	102.56
311.639	105.56
311.868	95.56
312.098	120.56
312.328	102.56
312.557	117.56
312.787	105.56
313.017	111.56
313.246	102.56
313.476	94.56
313.706	119.56
313.935	100.56
314.165	99.56
314.394	109.56
314.624	103.56
314.853	102.56
315.083	91.56
315.312	97.56
315.542	85.56
315.771	124.56
316.001	117.56
316.23	110.56
316.46	114.56
316.689	104.56
316.919	90.56
317.148	105.56
317.377	103.56
317.607	104.56
317.836	99.56
318.065	102.56
318.295	100.56
318.524	92.56
318.753	111.56
318.983	104.56
319.212	93.56
319.441	99.56
319.67	102.56
319.9	109.56
320.129	109.56
320.358	122.56
320.587	105.56
320.816	87.56
321.046	101.56
321.275	98.56
321.504	121.56
321.733	109.56
321.962	104.56
322.191	116.56
322.42	105.56
322.649	111.56
322.878	97.56
323.108	110.56
323.337	98.56
323.566	109.56
323.795	110.56
324.024	111.56
324.253	118.56
324.482	120.56
324.71	153.56
324.939	185.56
325.168	144.56
325.397	120.56
325.626	107.56
325.855	113.56
326.084	97.56
326.313	112.56
326.542	105.56
326.77	107.56
326.999	112.56
327.228	120.56
327.457	146.56
327.686	156.56
327.914	125.56
328.143	123.56
328.372	102.56
328.6	115.56
328.829	99.56
329.058	106.56
329.287	98.56
329.515	117.56
329.744	106.56
329.972	114.56
330.201	100.56
330.43	127.56
330.658	122.56
330.887	119.56
331.115	118.56
331.344	110.56
331.572	122.56
331.801	119.56
332.03	118.56
332.258	110.56
332.486	111.56
332.715	123.56
332.943	118.56
333.172	107.56
333.4	110.56
333.629	123.56
333.857	105.56
334.085	135.56
334.314	116.56
334.542	130.56
334.771	130.56
334.999	116.56
335.227	112.56
335.455	115.56
335.684	129.56
335.912	101.56
336.14	112.56
336.369	114.56
336.597	118.56
336.825	96.56
337.053	113.56
337.281	103.56
337.51	125.56
337.738	119.56
337.966	105.56
338.194	94.56
338.422	95.56
338.65	117.56
338.878	117.56
339.106	108.56
339.334	100.56
339.562	102.56
339.79	113.56
340.018	113.56
340.246	115.56
340.474	112.56
340.702	95.56
340.93	103.56
341.158	93.56
341.386	116.56
341.614	123.56
341.842	119.56
342.07	113.56
342.298	127.56
342.526	100.56
342.754	102.56
342.981	90.56
343.209	115.56
343.437	117.56
343.665	111.56
343.893	102.56
344.12	131.56
344.348	104.56
344.576	121.56
344.804	109.56
345.031	98.56
345.259	115.56
345.487	118.56
345.714	119.56
345.942	95.56
346.17	100.56
346.397	104.56
346.625	121.56
346.853	101.56
347.08	100.56
347.308	117.56
347.535	114.56
347.763	101.56
347.99	96.56
348.218	108.56
348.445	104.56
348.673	106.56
348.9	110.56
349.128	125.56
349.355	117.56
349.583	107.56
349.81	106.56
350.037	117.56
350.265	95.56
350.492	110.56
350.72	106.56
350.947	107.56
351.174	124.56
351.402	106.56
351.629	99.56
351.856	117.56
352.083	104.56
352.311	109.56
352.538	118.56
352.765	113.56
352.992	112.56
353.22	116.56
353.447	112.56
353.674	112.56
353.901	121.56
354.128	116.56
354.355	119.56
354.583	109.56
354.81	105.56
355.037	96.56
355.264	107.56
355.491	100.56
355.718	92.56
355.945	107.56
356.172	106.56
356.399	118.56
356.626	99.56
356.853	106.56
357.08	109.56
357.307	117.56
357.534	90.56
357.761	95.56
357.988	107.56
358.215	107.56
358.441	106.56
358.668	109.56
358.895	101.56
359.122	86.56
359.349	113.56
359.576	120.56
359.802	98.56
360.029	96.56
360.256	111.56
360.483	113.56
360.709	109.56
360.936	98.56
361.163	95.56
361.39	103.56
361.616	91.56
361.843	99.56
362.07	111.56
362.296	114.56
362.523	98.56
362.749	103.56
362.976	113.56
363.203	106.56
363.429	105.56
363.656	97.56
363.882	99.56
364.109	102.56
364.335	119.56
364.562	106.56
364.788	84.56
365.015	118.56
365.241	111.56
365.468	95.56
365.694	95.56
365.92	112.56
366.147	99.56
366.373	110.56
366.599	109.56
366.826	118.56
367.052	88.56
367.278	112.56
367.505	107.56
367.731	96.56
367.957	104.56
368.184	91.56
368.41	112.56
368.636	101.56
368.862	103.56
369.089	104.56
369.315	108.56
369.541	113.56
369.767	101.56
369.993	108.56
370.219	103.56
370.445	109.56
370.672	107.56
370.898	106.56
371.124	114.56
371.35	121.56
371.576	104.56
371.802	107.56
372.028	107.56
372.254	108.56
372.48	100.56
372.706	99.56
372.932	115.56
373.158	102.56
373.384	123.56
373.61	112.56
373.835	113.56
374.061	113.56
374.287	121.56
374.513	100.56
374.739	97.56
374.965	106.56
375.191	104.56
375.416	97.56
375.642	107.56
375.868	126.56
376.094	106.56
376.319	101.56
376.545	109.56
376.771	115.56
376.997	103.56
377.222	119.56
377.448	118.56
377.674	121.56
377.899	103.56
378.125	117.56
378.35	105.56
378.576	119.56
378.802	115.56
379.027	102.56
379.253	109.56
379.478	102.56
379.704	98.56
379.929	114.56
380.155	104.56
380.38	95.56
380.606	106.56
380.831	104.56
381.057	119.56
381.282	111.56
381.507	104.56
381.733	107.56
381.958	102.56
382.184	109.56
382.409	115.56
382.634	106.56
382.86	113.56
383.085	103.56
383.31	101.56
383.535	107.56
383.761	118.56
383.986	106.56
384.211	116.56
384.436	107.56
384.662	120.56
384.887	118.56
385.112	109.56
385.337	96.56
385.562	111.56
385.787	118.56
386.013	133.56
386.238	127.56
386.463	102.56
386.688	107.56
386.913	113.56
387.138	116.56
387.363	109.56
387.588	106.56
387.813	118.56
388.038	94.56
388.263	113.56
388.488	116.56
388.713	107.56
388.938	111.56
389.163	106.56
389.387	105.56
389.612	112.56
389.837	99.56
390.062	99.56
390.287	113.56
390.512	113.56
390.736	112.56
390.961	111.56
391.186	109.56
391.411	117.56
391.636	111.56
391.86	111.56
392.085	115.56
392.31	117.56
392.534	93.56
392.759	129.56
392.984	129.56
393.208	118.56
393.433	113.56
393.658	126.56
393.882	131.56
394.107	118.56
394.331	121.56
394.556	114.56
394.78	125.56
395.005	123.56
395.229	103.56
395.454	111.56
395.678	108.56
395.903	107.56
396.127	120.56
396.352	121.56
396.576	112.56
396.801	118.56
397.025	125.56
397.249	113.56
397.474	120.56
397.698	117.56
397.922	137.56
398.147	125.56
398.371	123.56
398.595	114.56
398.82	110.56
399.044	123.56
399.268	137.56
399.492	146.56
399.717	141.56
399.941	129.56
400.165	121.56
400.389	139.56
400.613	127.56
400.837	109.56
401.062	120.56
401.286	128.56
401.51	115.56
401.734	131.56
401.958	120.56
402.182	119.56
402.406	137.56
402.63	131.56
402.854	121.56
403.078	113.56
403.302	114.56
403.526	121.56
403.75	141.56
403.974	138.56
404.198	133.56
404.422	130.56
404.645	121.56
404.869	146.56
405.093	137.56
405.317	125.56
405.541	134.56
405.765	116.56
405.988	121.56
406.212	141.56
406.436	130.56
406.66	125.56
406.883	129.56
407.107	129.56
407.331	130.56
407.555	141.56
407.778	138.56
408.002	134.56
408.226	148.56
408.449	127.56
408.673	122.56
408.896	135.56
409.12	133.56
409.344	124.56
409.567	127.56
409.791	128.56
410.014	113.56
410.238	116.56
410.461	123.56
410.685	110.56
410.908	127.56
411.132	128.56
411.355	132.56
411.578	122.56
411.802	125.56
412.025	117.56
412.249	131.56
412.472	139.56
412.695	144.56
412.919	131.56
413.142	122.56
413.365	127.56
413.589	133.56
413.812	124.56
414.035	125.56
414.258	131.56
414.482	117.56
414.705	123.56
414.928	122.56
415.151	131.56
415.374	137.56
415.597	111.56
415.821	116.56
416.044	122.56
416.267	125.56
416.49	113.56
416.713	133.56
416.936	115.56
417.159	117.56
417.382	120.56
417.605	120.56
417.828	117.56
418.051	117.56
418.274	121.56
418.497	127.56
418.72	120.56
418.943	128.56
419.166	130.56
419.389	118.56
419.611	119.56
419.834	132.56
420.057	122.56
420.28	131.56
420.503	127.56
420.726	122.56
420.948	120.56
421.171	124.56
421.394	141.56
421.617	122.56
421.839	124.56
422.062	133.56
422.285	126.56
422.507	121.56
422.73	120.56
422.953	126.56
423.175	134.56
423.398	125.56
423.621	129.56
423.843	131.56
424.066	123.56
424.288	110.56
424.511	137.56
424.733	137.56
424.956	138.56
425.178	148.56
425.401	135.56
425.623	133.56
425.846	120.56
426.068	119.56
426.291	133.56
426.513	105.56
426.735	121.56
426.958	124.56
427.18	128.56
427.402	138.56
427.625	136.56
427.847	116.56
428.069	133.56
428.292	132.56
428.514	117.56
428.736	129.56
428.958	114.56
429.181	131.56
429.403	105.56
429.625	109.56
429.847	121.56
430.069	139.56
430.292	121.56
430.514	128.56
430.736	126.56
430.958	122.56
431.18	121.56
431.402	125.56
431.624	131.56
431.846	106.56
432.068	117.56
432.29	119.56
432.512	117.56
432.734	122.56
432.956	125.56
433.178	135.56
433.4	117.56
433.622	129.56
433.844	129.56
434.066	114.56
434.287	115.56
434.509	118.56
434.731	121.56
434.953	118.56
435.175	129.56
435.397	145.56
435.618	128.56
435.84	138.56
436.062	136.56
436.284	117.56
436.505	115.56
436.727	105.56
436.949	115.56
437.17	104.56
437.392	117.56
437.614	115.56
437.835	125.56
438.057	126.56
438.278	121.56
438.5	121.56
438.721	141.56
438.943	122.56
439.165	119.56
439.386	125.56
439.608	117.56
439.829	125.56
440.05	138.56
440.272	139.56
440.493	130.56
440.715	138.56
440.936	131.56
441.158	119.56
441.379	115.56
441.6	117.56
441.822	118.56
442.043	130.56
442.264	138.56
442.486	118.56
442.707	126.56
442.928	122.56
443.149	122.56
443.371	126.56
443.592	113.56
443.813	134.56
444.034	145.56
444.255	136.56
444.476	135.56
444.698	133.56
444.919	144.56
445.14	210.56
445.361	167.56
445.582	135.56
445.803	132.56
446.024	133.56
446.245	140.56
446.466	153.56
446.687	122.56
446.908	131.56
447.129	135.56
447.35	121.56
447.571	96.56
447.792	119.56
448.013	110.56
448.234	122.56
448.455	136.56
448.675	111.56
448.896	131.56
449.117	126.56
449.338	117.56
449.559	130.56
449.779	143.56
450	121.56
450.221	119.56
450.442	120.56
450.662	104.56
450.883	109.56
451.104	128.56
451.324	122.56
451.545	126.56
451.766	115.56
451.986	113.56
452.207	114.56
452.428	106.56
452.648	115.56
452.869	120.56
453.089	113.56
453.31	113.56
453.53	117.56
453.751	117.56
453.971	114.56
454.192	115.56
454.412	116.56
454.633	115.56
454.853	121.56
455.073	128.56
455.294	123.56
455.514	116.56
455.734	109.56
455.955	123.56
456.175	117.56
456.395	115.56
456.616	100.56
456.836	105.56
457.056	115.56
457.276	109.56
457.497	106.56
457.717	115.56
457.937	101.56
458.157	95.56
458.377	96.56
458.598	108.56
458.818	124.56
459.038	125.56
459.258	110.56
459.478	114.56
459.698	111.56
459.918	126.56
460.138	117.56
460.358	122.56
460.578	120.56
460.798	117.56
461.018	122.56
461.238	118.56
461.458	111.56
461.678	132.56
461.898	129.56
462.118	121.56
462.338	144.56
462.558	123.56
462.777	120.56
462.997	151.56
463.217	135.56
463.437	137.56
463.657	120.56
463.876	112.56
464.096	130.56
464.316	128.56
464.536	136.56
464.755	135.56
464.975	105.56
465.195	121.56
465.414	141.56
465.634	121.56
465.854	125.56
466.073	130.56
466.293	118.56
466.512	97.56
466.732	118.56
466.951	109.56
467.171	122.56
467.391	111.56
467.61	122.56
467.829	112.56
468.049	115.56
468.268	126.56
468.488	126.56
468.707	110.56
468.927	117.56
469.146	122.56
469.365	120.56
469.585	118.56
469.804	116.56
470.023	100.56
470.243	127.56
470.462	109.56
470.681	121.56
470.901	121.56
471.12	113.56
471.339	103.56
471.558	107.56
471.777	122.56
471.997	129.56
472.216	115.56
472.435	113.56
472.654	128.56
472.873	118.56
473.092	115.56
473.311	117.56
473.53	104.56
473.749	117.56
473.968	125.56
474.187	117.56
474.406	111.56
474.625	127.56
474.844	127.56
475.063	118.56
475.282	119.56
475.501	127.56
475.72	121.56
475.939	109.56
476.158	118.56
476.377	110.56
476.596	120.56
476.814	125.56
477.033	111.56
477.252	103.56
477.471	129.56
477.69	130.56
477.908	129.56
478.127	118.56
478.346	141.56
478.564	133.56
478.783	129.56
479.002	128.56
479.22	126.56
479.439	117.56
479.658	123.56
479.876	128.56
480.095	122.56
480.313	131.56
480.532	125.56
480.751	138.56
480.969	125.56
481.188	142.56
481.406	135.56
481.624	120.56
481.843	134.56
482.061	105.56
482.28	135.56
482.498	124.56
482.717	114.56
482.935	114.56
483.153	132.56
483.372	127.56
483.59	128.56
483.808	139.56
484.027	127.56
484.245	123.56
484.463	118.56
484.681	120.56
484.9	124.56
485.118	122.56
485.336	129.56
485.554	123.56
485.772	136.56
485.99	130.56
486.209	143.56
486.427	131.56
486.645	133.56
486.863	129.56
487.081	128.56
487.299	125.56
487.517	122.56
487.735	139.56
487.953	139.56
488.171	132.56
488.389	126.56
488.607	119.56
488.825	129.56
489.043	127.56
489.261	126.56
489.479	140.56
489.696	141.56
489.914	158.56
490.132	128.56
490.35	115.56
490.568	141.56
490.786	142.56
491.003	137.56
491.221	145.56
491.439	147.56
491.657	137.56
491.874	149.56
492.092	140.56
492.31	149.56
492.527	143.56
492.745	139.56
492.963	119.56
493.18	129.56
493.398	138.56
493.615	145.56
493.833	133.56
494.05	139.56
494.268	145.56
494.485	133.56
494.703	133.56
494.92	137.56
495.138	133.56
495.355	138.56
495.573	138.56
495.79	146.56
496.008	145.56
496.225	145.56
496.442	128.56
496.66	148.56
496.877	161.56
497.094	147.56
497.312	149.56
497.529	155.56
497.746	141.56
497.963	151.56
498.181	155.56
498.398	139.56
498.615	138.56
498.832	158.56
499.049	175.56
499.267	175.56
499.484	169.56
499.701	171.56
499.918	179.56
500.135	197.56
500.352	201.56
500.569	216.56
500.786	198.56
501.003	180.56
501.22	181.56
501.437	184.56
501.654	171.56
501.871	171.56
502.088	176.56
502.305	150.56
502.522	151.56
502.739	145.56
502.956	163.56
503.172	143.56
503.389	146.56
503.606	155.56
503.823	142.56
504.04	143.56
504.256	160.56
504.473	141.56
504.69	123.56
504.907	143.56
505.123	139.56
505.34	140.56
505.557	145.56
505.773	129.56
505.99	140.56
506.207	127.56
506.423	143.56
506.64	142.56
