Data from 1968.PennyLincolnUp.Lamp.En5.5.200Scan.071719.P1._HRD10591_14-51-18-969.txt Node
Date: Thu Jul 18 14:51:18 EDT 2019
User: cochatt
Spectrometer: HR+D1059
Trigger mode: 1
Integration Time (sec): 1.000000E-1
Scans to average: 1
Electric dark correction enabled: true
Nonlinearity correction enabled: false
Boxcar width: 0
XAxis mode: Wavelengths
Number of Pixels in Spectrum: 2048
>>>>>Begin Spectral Data<<<<<
223.165	-19.5
223.4	-19.5
223.635	-19.5
223.869	-10.5
224.104	-13.5
224.338	-18.5
224.573	-19.5
224.808	-12.5
225.042	-13.5
225.277	-1.5
225.511	-7.5
225.746	0.5
225.98	-1.5
226.215	18.5
226.449	21.5
226.683	20.5
226.918	33.5
227.152	23.5
227.387	24.5
227.621	46.5
227.856	28.5
228.09	46.5
228.324	50.5
228.559	61.5
228.793	60.5
229.027	53.5
229.262	52.5
229.496	77.5
229.73	74.5
229.964	78.5
230.199	74.5
230.433	82.5
230.667	82.5
230.901	90.5
231.136	90.5
231.37	87.5
231.604	82.5
231.838	89.5
232.072	82.5
232.306	73.5
232.541	79.5
232.775	92.5
233.009	93.5
233.243	93.5
233.477	78.5
233.711	88.5
233.945	93.5
234.179	89.5
234.413	90.5
234.647	87.5
234.881	84.5
235.115	90.5
235.349	75.5
235.583	84.5
235.817	82.5
236.051	75.5
236.285	92.5
236.519	89.5
236.753	89.5
236.987	91.5
237.221	87.5
237.455	82.5
237.689	80.5
237.922	77.5
238.156	86.5
238.39	91.5
238.624	85.5
238.858	82.5
239.091	71.5
239.325	73.5
239.559	92.5
239.793	75.5
240.027	87.5
240.26	82.5
240.494	89.5
240.728	80.5
240.961	83.5
241.195	89.5
241.429	81.5
241.662	88.5
241.896	79.5
242.13	87.5
242.363	72.5
242.597	80.5
242.83	73.5
243.064	79.5
243.298	86.5
243.531	82.5
243.765	81.5
243.998	82.5
244.232	78.5
244.465	84.5
244.699	84.5
244.932	77.5
245.166	81.5
245.399	88.5
245.633	93.5
245.866	70.5
246.099	87.5
246.333	90.5
246.566	83.5
246.8	83.5
247.033	82.5
247.266	72.5
247.5	89.5
247.733	77.5
247.966	91.5
248.2	75.5
248.433	76.5
248.666	91.5
248.899	78.5
249.133	92.5
249.366	82.5
249.599	91.5
249.832	90.5
250.066	92.5
250.299	90.5
250.532	95.5
250.765	82.5
250.998	91.5
251.231	76.5
251.465	95.5
251.698	89.5
251.931	86.5
252.164	82.5
252.397	91.5
252.63	100.5
252.863	85.5
253.096	85.5
253.329	77.5
253.562	87.5
253.795	75.5
254.028	84.5
254.261	92.5
254.494	92.5
254.727	87.5
254.96	104.5
255.193	86.5
255.426	92.5
255.659	94.5
255.892	88.5
256.124	100.5
256.357	103.5
256.59	89.5
256.823	74.5
257.056	89.5
257.289	97.5
257.521	101.5
257.754	88.5
257.987	85.5
258.22	95.5
258.452	96.5
258.685	95.5
258.918	83.5
259.151	78.5
259.383	84.5
259.616	77.5
259.849	92.5
260.081	97.5
260.314	98.5
260.547	89.5
260.779	109.5
261.012	103.5
261.244	80.5
261.477	86.5
261.71	111.5
261.942	100.5
262.175	88.5
262.407	88.5
262.64	90.5
262.872	95.5
263.105	97.5
263.337	92.5
263.57	94.5
263.802	88.5
264.035	86.5
264.267	83.5
264.499	96.5
264.732	88.5
264.964	83.5
265.197	78.5
265.429	103.5
265.661	105.5
265.894	98.5
266.126	90.5
266.358	98.5
266.591	85.5
266.823	89.5
267.055	85.5
267.287	96.5
267.52	87.5
267.752	96.5
267.984	83.5
268.216	89.5
268.448	89.5
268.681	95.5
268.913	93.5
269.145	93.5
269.377	88.5
269.609	97.5
269.841	93.5
270.073	88.5
270.306	100.5
270.538	92.5
270.77	96.5
271.002	89.5
271.234	92.5
271.466	103.5
271.698	104.5
271.93	97.5
272.162	97.5
272.394	118.5
272.626	116.5
272.858	86.5
273.09	90.5
273.322	98.5
273.553	87.5
273.785	98.5
274.017	91.5
274.249	97.5
274.481	101.5
274.713	97.5
274.945	109.5
275.176	102.5
275.408	97.5
275.64	92.5
275.872	103.5
276.104	92.5
276.335	101.5
276.567	101.5
276.799	112.5
277.031	97.5
277.262	91.5
277.494	86.5
277.726	99.5
277.957	104.5
278.189	92.5
278.421	81.5
278.652	90.5
278.884	98.5
279.115	102.5
279.347	96.5
279.579	99.5
279.81	97.5
280.042	91.5
280.273	103.5
280.505	88.5
280.736	96.5
280.968	101.5
281.199	118.5
281.431	99.5
281.662	105.5
281.894	96.5
282.125	99.5
282.356	92.5
282.588	88.5
282.819	96.5
283.051	89.5
283.282	92.5
283.513	95.5
283.745	104.5
283.976	99.5
284.207	105.5
284.439	97.5
284.67	108.5
284.901	98.5
285.132	104.5
285.364	92.5
285.595	102.5
285.826	105.5
286.057	106.5
286.288	92.5
286.52	108.5
286.751	98.5
286.982	107.5
287.213	96.5
287.444	103.5
287.675	104.5
287.906	103.5
288.138	93.5
288.369	106.5
288.6	99.5
288.831	104.5
289.062	108.5
289.293	110.5
289.524	99.5
289.755	121.5
289.986	97.5
290.217	100.5
290.448	94.5
290.679	98.5
290.91	104.5
291.141	101.5
291.371	97.5
291.602	99.5
291.833	99.5
292.064	98.5
292.295	97.5
292.526	104.5
292.757	95.5
292.987	93.5
293.218	97.5
293.449	97.5
293.68	101.5
293.91	97.5
294.141	94.5
294.372	102.5
294.603	97.5
294.833	98.5
295.064	102.5
295.295	91.5
295.525	105.5
295.756	101.5
295.987	103.5
296.217	102.5
296.448	113.5
296.679	110.5
296.909	122.5
297.14	106.5
297.37	92.5
297.601	93.5
297.831	108.5
298.062	105.5
298.292	109.5
298.523	112.5
298.753	112.5
298.984	105.5
299.214	96.5
299.445	114.5
299.675	114.5
299.905	107.5
300.136	104.5
300.366	112.5
300.597	108.5
300.827	101.5
301.057	100.5
301.288	107.5
301.518	96.5
301.748	97.5
301.979	111.5
302.209	107.5
302.439	101.5
302.669	93.5
302.9	98.5
303.13	112.5
303.36	100.5
303.59	115.5
303.82	84.5
304.051	112.5
304.281	110.5
304.511	99.5
304.741	105.5
304.971	112.5
305.201	114.5
305.431	105.5
305.661	102.5
305.891	104.5
306.121	120.5
306.352	105.5
306.582	98.5
306.812	107.5
307.042	101.5
307.272	101.5
307.502	105.5
307.731	99.5
307.961	120.5
308.191	111.5
308.421	85.5
308.651	99.5
308.881	105.5
309.111	104.5
309.341	111.5
309.571	106.5
309.8	111.5
310.03	106.5
310.26	108.5
310.49	112.5
310.72	116.5
310.949	106.5
311.179	101.5
311.409	115.5
311.639	120.5
311.868	104.5
312.098	119.5
312.328	120.5
312.557	104.5
312.787	109.5
313.017	113.5
313.246	112.5
313.476	115.5
313.706	123.5
313.935	113.5
314.165	110.5
314.394	117.5
314.624	105.5
314.853	112.5
315.083	114.5
315.312	115.5
315.542	107.5
315.771	110.5
316.001	110.5
316.23	124.5
316.46	112.5
316.689	120.5
316.919	116.5
317.148	113.5
317.377	112.5
317.607	107.5
317.836	117.5
318.065	112.5
318.295	107.5
318.524	108.5
318.753	116.5
318.983	126.5
319.212	99.5
319.441	109.5
319.67	115.5
319.9	101.5
320.129	112.5
320.358	109.5
320.587	108.5
320.816	116.5
321.046	91.5
321.275	116.5
321.504	107.5
321.733	116.5
321.962	116.5
322.191	103.5
322.42	103.5
322.649	113.5
322.878	121.5
323.108	115.5
323.337	114.5
323.566	116.5
323.795	114.5
324.024	121.5
324.253	112.5
324.482	136.5
324.71	159.5
324.939	162.5
325.168	162.5
325.397	131.5
325.626	103.5
325.855	105.5
326.084	112.5
326.313	107.5
326.542	106.5
326.77	116.5
326.999	125.5
327.228	136.5
327.457	148.5
327.686	158.5
327.914	133.5
328.143	112.5
328.372	118.5
328.6	125.5
328.829	122.5
329.058	116.5
329.287	119.5
329.515	109.5
329.744	115.5
329.972	105.5
330.201	112.5
330.43	115.5
330.658	117.5
330.887	116.5
331.115	119.5
331.344	121.5
331.572	114.5
331.801	114.5
332.03	124.5
332.258	105.5
332.486	110.5
332.715	114.5
332.943	112.5
333.172	112.5
333.4	121.5
333.629	124.5
333.857	116.5
334.085	123.5
334.314	113.5
334.542	132.5
334.771	120.5
334.999	107.5
335.227	116.5
335.455	112.5
335.684	123.5
335.912	116.5
336.14	130.5
336.369	125.5
336.597	124.5
336.825	123.5
337.053	127.5
337.281	112.5
337.51	119.5
337.738	123.5
337.966	121.5
338.194	110.5
338.422	101.5
338.65	114.5
338.878	109.5
339.106	122.5
339.334	121.5
339.562	120.5
339.79	100.5
340.018	124.5
340.246	103.5
340.474	115.5
340.702	110.5
340.93	115.5
341.158	105.5
341.386	121.5
341.614	114.5
341.842	121.5
342.07	102.5
342.298	119.5
342.526	99.5
342.754	104.5
342.981	115.5
343.209	118.5
343.437	129.5
343.665	108.5
343.893	117.5
344.12	122.5
344.348	110.5
344.576	103.5
344.804	94.5
345.031	107.5
345.259	117.5
345.487	108.5
345.714	114.5
345.942	111.5
346.17	104.5
346.397	112.5
346.625	112.5
346.853	116.5
347.08	109.5
347.308	114.5
347.535	102.5
347.763	106.5
347.99	116.5
348.218	128.5
348.445	113.5
348.673	124.5
348.9	124.5
349.128	108.5
349.355	109.5
349.583	120.5
349.81	119.5
350.037	101.5
350.265	105.5
350.492	115.5
350.72	112.5
350.947	119.5
351.174	115.5
351.402	99.5
351.629	111.5
351.856	109.5
352.083	98.5
352.311	108.5
352.538	98.5
352.765	104.5
352.992	116.5
353.22	112.5
353.447	106.5
353.674	107.5
353.901	113.5
354.128	116.5
354.355	96.5
354.583	116.5
354.81	125.5
355.037	106.5
355.264	96.5
355.491	118.5
355.718	121.5
355.945	112.5
356.172	125.5
356.399	108.5
356.626	110.5
356.853	95.5
357.08	102.5
357.307	112.5
357.534	106.5
357.761	112.5
357.988	118.5
358.215	115.5
358.441	106.5
358.668	118.5
358.895	125.5
359.122	120.5
359.349	112.5
359.576	118.5
359.802	100.5
360.029	104.5
360.256	104.5
360.483	115.5
360.709	110.5
360.936	121.5
361.163	107.5
361.39	106.5
361.616	103.5
361.843	117.5
362.07	118.5
362.296	127.5
362.523	115.5
362.749	117.5
362.976	117.5
363.203	123.5
363.429	119.5
363.656	109.5
363.882	127.5
364.109	105.5
364.335	118.5
364.562	120.5
364.788	106.5
365.015	115.5
365.241	112.5
365.468	118.5
365.694	112.5
365.92	110.5
366.147	106.5
366.373	122.5
366.599	112.5
366.826	103.5
367.052	121.5
367.278	97.5
367.505	112.5
367.731	119.5
367.957	100.5
368.184	96.5
368.41	112.5
368.636	110.5
368.862	119.5
369.089	118.5
369.315	98.5
369.541	100.5
369.767	98.5
369.993	108.5
370.219	113.5
370.445	121.5
370.672	116.5
370.898	107.5
371.124	107.5
371.35	104.5
371.576	116.5
371.802	109.5
372.028	113.5
372.254	115.5
372.48	115.5
372.706	107.5
372.932	132.5
373.158	121.5
373.384	110.5
373.61	120.5
373.835	122.5
374.061	116.5
374.287	114.5
374.513	102.5
374.739	97.5
374.965	108.5
375.191	112.5
375.416	115.5
375.642	118.5
375.868	123.5
376.094	122.5
376.319	115.5
376.545	112.5
376.771	121.5
376.997	107.5
377.222	102.5
377.448	125.5
377.674	121.5
377.899	97.5
378.125	109.5
378.35	113.5
378.576	104.5
378.802	113.5
379.027	111.5
379.253	110.5
379.478	118.5
379.704	114.5
379.929	117.5
380.155	113.5
380.38	112.5
380.606	98.5
380.831	109.5
381.057	122.5
381.282	109.5
381.507	109.5
381.733	126.5
381.958	116.5
382.184	113.5
382.409	93.5
382.634	121.5
382.86	98.5
383.085	114.5
383.31	114.5
383.535	118.5
383.761	101.5
383.986	115.5
384.211	114.5
384.436	131.5
384.662	114.5
384.887	108.5
385.112	116.5
385.337	112.5
385.562	100.5
385.787	117.5
386.013	134.5
386.238	105.5
386.463	124.5
386.688	106.5
386.913	126.5
387.138	120.5
387.363	123.5
387.588	112.5
387.813	127.5
388.038	116.5
388.263	125.5
388.488	118.5
388.713	115.5
388.938	108.5
389.163	105.5
389.387	123.5
389.612	112.5
389.837	115.5
390.062	121.5
390.287	117.5
390.512	125.5
390.736	103.5
390.961	126.5
391.186	126.5
391.411	120.5
391.636	127.5
391.86	121.5
392.085	125.5
392.31	122.5
392.534	114.5
392.759	122.5
392.984	130.5
393.208	133.5
393.433	130.5
393.658	122.5
393.882	112.5
394.107	110.5
394.331	118.5
394.556	135.5
394.78	122.5
395.005	138.5
395.229	121.5
395.454	116.5
395.678	119.5
395.903	128.5
396.127	124.5
396.352	129.5
396.576	129.5
396.801	127.5
397.025	121.5
397.249	130.5
397.474	126.5
397.698	121.5
397.922	124.5
398.147	118.5
398.371	133.5
398.595	138.5
398.82	127.5
399.044	129.5
399.268	144.5
399.492	147.5
399.717	148.5
399.941	154.5
400.165	132.5
400.389	125.5
400.613	143.5
400.837	133.5
401.062	119.5
401.286	139.5
401.51	125.5
401.734	121.5
401.958	114.5
402.182	140.5
402.406	139.5
402.63	142.5
402.854	131.5
403.078	119.5
403.302	123.5
403.526	140.5
403.75	136.5
403.974	126.5
404.198	145.5
404.422	128.5
404.645	139.5
404.869	128.5
405.093	139.5
405.317	142.5
405.541	140.5
405.765	130.5
405.988	137.5
406.212	136.5
406.436	129.5
406.66	132.5
406.883	129.5
407.107	149.5
407.331	132.5
407.555	140.5
407.778	142.5
408.002	140.5
408.226	134.5
408.449	122.5
408.673	128.5
408.896	140.5
409.12	141.5
409.344	120.5
409.567	125.5
409.791	137.5
410.014	130.5
410.238	137.5
410.461	119.5
410.685	137.5
410.908	130.5
411.132	142.5
411.355	130.5
411.578	124.5
411.802	121.5
412.025	117.5
412.249	143.5
412.472	146.5
412.695	139.5
412.919	126.5
413.142	136.5
413.365	133.5
413.589	122.5
413.812	121.5
414.035	131.5
414.258	124.5
414.482	117.5
414.705	129.5
414.928	128.5
415.151	123.5
415.374	137.5
415.597	130.5
415.821	115.5
416.044	133.5
416.267	138.5
416.49	120.5
416.713	129.5
416.936	135.5
417.159	108.5
417.382	135.5
417.605	112.5
417.828	130.5
418.051	130.5
418.274	126.5
418.497	149.5
418.72	136.5
418.943	128.5
419.166	142.5
419.389	128.5
419.611	137.5
419.834	131.5
420.057	118.5
420.28	133.5
420.503	128.5
420.726	148.5
420.948	131.5
421.171	138.5
421.394	128.5
421.617	128.5
421.839	131.5
422.062	128.5
422.285	122.5
422.507	120.5
422.73	127.5
422.953	130.5
423.175	127.5
423.398	124.5
423.621	135.5
423.843	132.5
424.066	120.5
424.288	133.5
424.511	130.5
424.733	130.5
424.956	149.5
425.178	137.5
425.401	148.5
425.623	155.5
425.846	137.5
426.068	132.5
426.291	139.5
426.513	126.5
426.735	120.5
426.958	109.5
427.18	134.5
427.402	153.5
427.625	144.5
427.847	141.5
428.069	126.5
428.292	139.5
428.514	126.5
428.736	112.5
428.958	147.5
429.181	128.5
429.403	122.5
429.625	127.5
429.847	128.5
430.069	126.5
430.292	124.5
430.514	131.5
430.736	120.5
430.958	127.5
431.18	122.5
431.402	117.5
431.624	118.5
431.846	120.5
432.068	114.5
432.29	127.5
432.512	128.5
432.734	130.5
432.956	126.5
433.178	136.5
433.4	126.5
433.622	135.5
433.844	126.5
434.066	128.5
434.287	127.5
434.509	116.5
434.731	124.5
434.953	124.5
435.175	131.5
435.397	120.5
435.618	113.5
435.84	138.5
436.062	148.5
436.284	136.5
436.505	128.5
436.727	144.5
436.949	124.5
437.17	118.5
437.392	115.5
437.614	114.5
437.835	117.5
438.057	124.5
438.278	142.5
438.5	132.5
438.721	131.5
438.943	140.5
439.165	125.5
439.386	134.5
439.608	121.5
439.829	125.5
440.05	130.5
440.272	138.5
440.493	127.5
440.715	133.5
440.936	126.5
441.158	126.5
441.379	122.5
441.6	137.5
441.822	126.5
442.043	141.5
442.264	142.5
442.486	124.5
442.707	151.5
442.928	134.5
443.149	133.5
443.371	122.5
443.592	148.5
443.813	142.5
444.034	137.5
444.255	134.5
444.476	124.5
444.698	132.5
444.919	142.5
445.14	214.5
445.361	166.5
445.582	126.5
445.803	136.5
446.024	145.5
446.245	151.5
446.466	136.5
446.687	132.5
446.908	123.5
447.129	120.5
447.35	121.5
447.571	132.5
447.792	112.5
448.013	125.5
448.234	124.5
448.455	135.5
448.675	134.5
448.896	132.5
449.117	114.5
449.338	122.5
449.559	131.5
449.779	137.5
450	130.5
450.221	125.5
450.442	128.5
450.662	116.5
450.883	97.5
451.104	121.5
451.324	116.5
451.545	117.5
451.766	132.5
451.986	124.5
452.207	120.5
452.428	132.5
452.648	118.5
452.869	119.5
453.089	134.5
453.31	123.5
453.53	124.5
453.751	114.5
453.971	123.5
454.192	128.5
454.412	106.5
454.633	115.5
454.853	109.5
455.073	128.5
455.294	118.5
455.514	127.5
455.734	129.5
455.955	107.5
456.175	123.5
456.395	130.5
456.616	107.5
456.836	117.5
457.056	99.5
457.276	115.5
457.497	118.5
457.717	105.5
457.937	108.5
458.157	107.5
458.377	126.5
458.598	119.5
458.818	121.5
459.038	117.5
459.258	113.5
459.478	119.5
459.698	116.5
459.918	136.5
460.138	120.5
460.358	130.5
460.578	127.5
460.798	131.5
461.018	139.5
461.238	133.5
461.458	129.5
461.678	135.5
461.898	128.5
462.118	121.5
462.338	137.5
462.558	133.5
462.777	126.5
462.997	128.5
463.217	146.5
463.437	137.5
463.657	145.5
463.876	123.5
464.096	131.5
464.316	131.5
464.536	121.5
464.755	126.5
464.975	124.5
465.195	137.5
465.414	132.5
465.634	134.5
465.854	126.5
466.073	123.5
466.293	123.5
466.512	107.5
466.732	120.5
466.951	107.5
467.171	120.5
467.391	117.5
467.61	120.5
467.829	124.5
468.049	134.5
468.268	129.5
468.488	113.5
468.707	133.5
468.927	126.5
469.146	125.5
469.365	119.5
469.585	133.5
469.804	126.5
470.023	130.5
470.243	125.5
470.462	117.5
470.681	125.5
470.901	124.5
471.12	129.5
471.339	127.5
471.558	122.5
471.777	120.5
471.997	106.5
472.216	132.5
472.435	138.5
472.654	125.5
472.873	112.5
473.092	130.5
473.311	112.5
473.53	116.5
473.749	123.5
473.968	121.5
474.187	126.5
474.406	128.5
474.625	113.5
474.844	102.5
475.063	119.5
475.282	120.5
475.501	120.5
475.72	127.5
475.939	125.5
476.158	122.5
476.377	123.5
476.596	124.5
476.814	129.5
477.033	125.5
477.252	126.5
477.471	114.5
477.69	117.5
477.908	128.5
478.127	132.5
478.346	146.5
478.564	132.5
478.783	123.5
479.002	117.5
479.22	140.5
479.439	124.5
479.658	138.5
479.876	122.5
480.095	126.5
480.313	136.5
480.532	126.5
480.751	139.5
480.969	130.5
481.188	128.5
481.406	129.5
481.624	133.5
481.843	129.5
482.061	115.5
482.28	116.5
482.498	142.5
482.717	139.5
482.935	132.5
483.153	135.5
483.372	124.5
483.59	130.5
483.808	123.5
484.027	126.5
484.245	125.5
484.463	130.5
484.681	139.5
484.9	138.5
485.118	153.5
485.336	134.5
485.554	122.5
485.772	126.5
485.99	130.5
486.209	116.5
486.427	133.5
486.645	138.5
486.863	140.5
487.081	149.5
487.299	129.5
487.517	148.5
487.735	143.5
487.953	125.5
488.171	132.5
488.389	130.5
488.607	142.5
488.825	145.5
489.043	142.5
489.261	112.5
489.479	126.5
489.696	130.5
489.914	142.5
490.132	141.5
490.35	133.5
490.568	137.5
490.786	142.5
491.003	134.5
491.221	138.5
491.439	156.5
491.657	128.5
491.874	137.5
492.092	140.5
492.31	124.5
492.527	146.5
492.745	136.5
492.963	147.5
493.18	133.5
493.398	145.5
493.615	136.5
493.833	144.5
494.05	142.5
494.268	154.5
494.485	139.5
494.703	151.5
494.92	154.5
495.138	144.5
495.355	137.5
495.573	141.5
495.79	130.5
496.008	137.5
496.225	129.5
496.442	137.5
496.66	149.5
496.877	142.5
497.094	140.5
497.312	141.5
497.529	152.5
497.746	157.5
497.963	145.5
498.181	153.5
498.398	149.5
498.615	147.5
498.832	157.5
499.049	150.5
499.267	156.5
499.484	164.5
499.701	174.5
499.918	202.5
500.135	200.5
500.352	197.5
500.569	194.5
500.786	206.5
501.003	209.5
501.22	196.5
501.437	174.5
501.654	171.5
501.871	177.5
502.088	161.5
502.305	163.5
502.522	160.5
502.739	136.5
502.956	170.5
503.172	158.5
503.389	161.5
503.606	139.5
503.823	143.5
504.04	132.5
504.256	133.5
504.473	141.5
504.69	166.5
504.907	160.5
505.123	140.5
505.34	130.5
505.557	136.5
505.773	131.5
505.99	149.5
506.207	133.5
506.423	149.5
506.64	135.5
506.856	137.5
507.073	130.5
507.289	120.5
507.506	132.5
507.722	126.5
507.939	136.5
508.155	129.5
508.372	135.5
508.588	128.5
508.805	138.5
509.021	124.5
509.238	124.5
509.454	124.5
509.67	139.5
509.887	131.5
510.103	136.5
510.319	122.5
510.536	132.5
510.752	152.5
510.968	138.5
511.184	132.5
511.401	140.5
511.617	120.5
511.833	127.5
512.049	121.5
512.265	122.5
512.481	122.5
512.698	129.5
512.914	131.5
513.13	133.5
513.346	134.5
513.562	109.5
513.778	131.5
513.994	128.5
514.21	128.5
514.426	130.5
514.642	114.5
514.858	126.5
515.074	131.5
515.29	151.5
515.506	152.5
515.721	130.5
515.937	133.5
516.153	128.5
516.369	128.5
516.585	134.5
516.801	145.5
517.016	147.5
517.232	144.5
517.448	134.5
517.664	130.5
517.879	141.5
518.095	132.5
518.311	144.5
518.527	132.5
518.742	124.5
518.958	115.5
519.173	122.5
519.389	134.5
519.605	133.5
519.82	121.5
520.036	142.5
520.251	136.5
520.467	132.5
520.682	124.5
520.898	117.5
521.113	140.5
521.329	130.5
521.544	129.5
521.76	137.5
521.975	171.5
522.19	185.5
522.406	124.5
522.621	124.5
522.836	132.5
523.052	126.5
523.267	124.5
523.482	125.5
523.698	125.5
