Data from 1968.PennyLincolnUp.Lamp.En5.5.200Scan.071719.P1._HRD10591_14-52-08-969.txt Node
Date: Thu Jul 18 14:52:08 EDT 2019
User: cochatt
Spectrometer: HR+D1059
Trigger mode: 1
Integration Time (sec): 1.000000E-1
Scans to average: 1
Electric dark correction enabled: true
Nonlinearity correction enabled: false
Boxcar width: 0
XAxis mode: Wavelengths
Number of Pixels in Spectrum: 2048
>>>>>Begin Spectral Data<<<<<
223.165	-22.19
223.4	-22.19
223.635	-22.19
223.869	-24.19
224.104	-23.19
224.338	-13.19
224.573	-7.19
224.808	-10.19
225.042	5.81
225.277	-5.19
225.511	-11.19
225.746	6.81
225.98	11.81
226.215	13.81
226.449	14.81
226.683	15.81
226.918	13.81
227.152	33.81
227.387	27.81
227.621	37.81
227.856	47.81
228.09	45.81
228.324	61.81
228.559	57.81
228.793	62.81
229.027	54.81
229.262	65.81
229.496	70.81
229.73	72.81
229.964	73.81
230.199	72.81
230.433	75.81
230.667	82.81
230.901	72.81
231.136	79.81
231.37	78.81
231.604	84.81
231.838	90.81
232.072	73.81
232.306	80.81
232.541	80.81
232.775	97.81
233.009	86.81
233.243	87.81
233.477	85.81
233.711	84.81
233.945	85.81
234.179	86.81
234.413	78.81
234.647	89.81
234.881	78.81
235.115	71.81
235.349	82.81
235.583	73.81
235.817	69.81
236.051	81.81
236.285	84.81
236.519	84.81
236.753	96.81
236.987	88.81
237.221	87.81
237.455	85.81
237.689	84.81
237.922	77.81
238.156	79.81
238.39	91.81
238.624	82.81
238.858	82.81
239.091	77.81
239.325	69.81
239.559	78.81
239.793	88.81
240.027	72.81
240.26	73.81
240.494	59.81
240.728	90.81
240.961	96.81
241.195	72.81
241.429	76.81
241.662	72.81
241.896	77.81
242.13	79.81
242.363	84.81
242.597	88.81
242.83	78.81
243.064	66.81
243.298	88.81
243.531	90.81
243.765	86.81
243.998	74.81
244.232	83.81
244.465	81.81
244.699	80.81
244.932	74.81
245.166	81.81
245.399	85.81
245.633	90.81
245.866	85.81
246.099	88.81
246.333	95.81
246.566	88.81
246.8	72.81
247.033	87.81
247.266	79.81
247.5	90.81
247.733	93.81
247.966	85.81
248.2	91.81
248.433	83.81
248.666	86.81
248.899	85.81
249.133	92.81
249.366	86.81
249.599	90.81
249.832	77.81
250.066	99.81
250.299	91.81
250.532	97.81
250.765	88.81
250.998	72.81
251.231	93.81
251.465	93.81
251.698	91.81
251.931	97.81
252.164	85.81
252.397	86.81
252.63	88.81
252.863	78.81
253.096	91.81
253.329	90.81
253.562	89.81
253.795	89.81
254.028	88.81
254.261	87.81
254.494	85.81
254.727	99.81
254.96	108.81
255.193	76.81
255.426	89.81
255.659	78.81
255.892	96.81
256.124	82.81
256.357	89.81
256.59	87.81
256.823	93.81
257.056	95.81
257.289	93.81
257.521	86.81
257.754	81.81
257.987	85.81
258.22	84.81
258.452	88.81
258.685	93.81
258.918	81.81
259.151	66.81
259.383	89.81
259.616	85.81
259.849	88.81
260.081	97.81
260.314	86.81
260.547	92.81
260.779	88.81
261.012	83.81
261.244	83.81
261.477	96.81
261.71	69.81
261.942	99.81
262.175	85.81
262.407	95.81
262.64	90.81
262.872	101.81
263.105	71.81
263.337	85.81
263.57	85.81
263.802	91.81
264.035	88.81
264.267	95.81
264.499	96.81
264.732	77.81
264.964	80.81
265.197	91.81
265.429	86.81
265.661	100.81
265.894	98.81
266.126	88.81
266.358	87.81
266.591	92.81
266.823	81.81
267.055	94.81
267.287	84.81
267.52	85.81
267.752	101.81
267.984	91.81
268.216	91.81
268.448	90.81
268.681	97.81
268.913	76.81
269.145	85.81
269.377	92.81
269.609	98.81
269.841	93.81
270.073	90.81
270.306	92.81
270.538	92.81
270.77	103.81
271.002	91.81
271.234	97.81
271.466	92.81
271.698	92.81
271.93	88.81
272.162	95.81
272.394	92.81
272.626	83.81
272.858	97.81
273.09	109.81
273.322	102.81
273.553	101.81
273.785	92.81
274.017	100.81
274.249	97.81
274.481	96.81
274.713	98.81
274.945	107.81
275.176	79.81
275.408	96.81
275.64	107.81
275.872	98.81
276.104	89.81
276.335	98.81
276.567	94.81
276.799	98.81
277.031	84.81
277.262	84.81
277.494	104.81
277.726	86.81
277.957	101.81
278.189	96.81
278.421	93.81
278.652	86.81
278.884	112.81
279.115	90.81
279.347	92.81
279.579	96.81
279.81	92.81
280.042	89.81
280.273	97.81
280.505	83.81
280.736	91.81
280.968	95.81
281.199	85.81
281.431	95.81
281.662	97.81
281.894	88.81
282.125	90.81
282.356	88.81
282.588	111.81
282.819	105.81
283.051	102.81
283.282	87.81
283.513	104.81
283.745	95.81
283.976	99.81
284.207	87.81
284.439	88.81
284.67	105.81
284.901	103.81
285.132	87.81
285.364	97.81
285.595	109.81
285.826	106.81
286.057	118.81
286.288	89.81
286.52	111.81
286.751	105.81
286.982	115.81
287.213	85.81
287.444	104.81
287.675	104.81
287.906	99.81
288.138	102.81
288.369	94.81
288.6	97.81
288.831	100.81
289.062	86.81
289.293	94.81
289.524	111.81
289.755	97.81
289.986	105.81
290.217	92.81
290.448	100.81
290.679	109.81
290.91	88.81
291.141	85.81
291.371	107.81
291.602	91.81
291.833	104.81
292.064	84.81
292.295	95.81
292.526	104.81
292.757	98.81
292.987	81.81
293.218	92.81
293.449	100.81
293.68	96.81
293.91	94.81
294.141	80.81
294.372	92.81
294.603	104.81
294.833	109.81
295.064	93.81
295.295	97.81
295.525	98.81
295.756	95.81
295.987	98.81
296.217	107.81
296.448	98.81
296.679	104.81
296.909	104.81
297.14	107.81
297.37	104.81
297.601	82.81
297.831	93.81
298.062	101.81
298.292	105.81
298.523	97.81
298.753	100.81
298.984	120.81
299.214	92.81
299.445	107.81
299.675	97.81
299.905	96.81
300.136	111.81
300.366	93.81
300.597	102.81
300.827	113.81
301.057	105.81
301.288	111.81
301.518	109.81
301.748	103.81
301.979	98.81
302.209	116.81
302.439	85.81
302.669	105.81
302.9	110.81
303.13	86.81
303.36	104.81
303.59	104.81
303.82	109.81
304.051	119.81
304.281	104.81
304.511	99.81
304.741	106.81
304.971	107.81
305.201	108.81
305.431	98.81
305.661	108.81
305.891	101.81
306.121	99.81
306.352	92.81
306.582	101.81
306.812	89.81
307.042	83.81
307.272	98.81
307.502	94.81
307.731	102.81
307.961	120.81
308.191	96.81
308.421	99.81
308.651	97.81
308.881	115.81
309.111	113.81
309.341	111.81
309.571	91.81
309.8	101.81
310.03	104.81
310.26	85.81
310.49	104.81
310.72	108.81
310.949	104.81
311.179	112.81
311.409	101.81
311.639	98.81
311.868	110.81
312.098	105.81
312.328	103.81
312.557	120.81
312.787	102.81
313.017	98.81
313.246	111.81
313.476	117.81
313.706	103.81
313.935	99.81
314.165	93.81
314.394	108.81
314.624	113.81
314.853	111.81
315.083	105.81
315.312	117.81
315.542	94.81
315.771	93.81
316.001	115.81
316.23	86.81
316.46	114.81
316.689	120.81
316.919	104.81
317.148	99.81
317.377	113.81
317.607	92.81
317.836	106.81
318.065	112.81
318.295	98.81
318.524	98.81
318.753	102.81
318.983	98.81
319.212	107.81
319.441	95.81
319.67	101.81
319.9	115.81
320.129	113.81
320.358	109.81
320.587	99.81
320.816	109.81
321.046	91.81
321.275	107.81
321.504	99.81
321.733	109.81
321.962	99.81
322.191	107.81
322.42	103.81
322.649	101.81
322.878	108.81
323.108	113.81
323.337	108.81
323.566	114.81
323.795	107.81
324.024	97.81
324.253	117.81
324.482	133.81
324.71	158.81
324.939	178.81
325.168	153.81
325.397	119.81
325.626	100.81
325.855	98.81
326.084	110.81
326.313	118.81
326.542	124.81
326.77	125.81
326.999	114.81
327.228	129.81
327.457	137.81
327.686	150.81
327.914	120.81
328.143	108.81
328.372	119.81
328.6	107.81
328.829	104.81
329.058	113.81
329.287	106.81
329.515	101.81
329.744	103.81
329.972	102.81
330.201	123.81
330.43	105.81
330.658	107.81
330.887	112.81
331.115	132.81
331.344	114.81
331.572	125.81
331.801	103.81
332.03	87.81
332.258	112.81
332.486	103.81
332.715	107.81
332.943	130.81
333.172	114.81
333.4	127.81
333.629	128.81
333.857	111.81
334.085	108.81
334.314	114.81
334.542	115.81
334.771	114.81
334.999	125.81
335.227	112.81
335.455	111.81
335.684	114.81
335.912	104.81
336.14	108.81
336.369	108.81
336.597	115.81
336.825	116.81
337.053	121.81
337.281	107.81
337.51	103.81
337.738	108.81
337.966	117.81
338.194	111.81
338.422	115.81
338.65	122.81
338.878	106.81
339.106	106.81
339.334	123.81
339.562	119.81
339.79	117.81
340.018	110.81
340.246	113.81
340.474	92.81
340.702	104.81
340.93	108.81
341.158	119.81
341.386	120.81
341.614	124.81
341.842	121.81
342.07	116.81
342.298	115.81
342.526	108.81
342.754	111.81
342.981	106.81
343.209	103.81
343.437	111.81
343.665	113.81
343.893	109.81
344.12	107.81
344.348	104.81
344.576	116.81
344.804	105.81
345.031	97.81
345.259	105.81
345.487	118.81
345.714	96.81
345.942	113.81
346.17	109.81
346.397	111.81
346.625	107.81
346.853	104.81
347.08	98.81
347.308	117.81
347.535	113.81
347.763	100.81
347.99	112.81
348.218	119.81
348.445	108.81
348.673	101.81
348.9	99.81
349.128	107.81
349.355	93.81
349.583	115.81
349.81	115.81
350.037	112.81
350.265	100.81
350.492	107.81
350.72	98.81
350.947	109.81
351.174	103.81
351.402	92.81
351.629	102.81
351.856	113.81
352.083	103.81
352.311	108.81
352.538	110.81
352.765	97.81
352.992	95.81
353.22	103.81
353.447	123.81
353.674	104.81
353.901	101.81
354.128	118.81
354.355	116.81
354.583	102.81
354.81	103.81
355.037	102.81
355.264	114.81
355.491	106.81
355.718	119.81
355.945	108.81
356.172	102.81
356.399	94.81
356.626	98.81
356.853	113.81
357.08	111.81
357.307	101.81
357.534	109.81
357.761	111.81
357.988	103.81
358.215	105.81
358.441	107.81
358.668	111.81
358.895	100.81
359.122	107.81
359.349	96.81
359.576	104.81
359.802	109.81
360.029	112.81
360.256	111.81
360.483	120.81
360.709	106.81
360.936	133.81
361.163	95.81
361.39	108.81
361.616	114.81
361.843	119.81
362.07	111.81
362.296	108.81
362.523	89.81
362.749	120.81
362.976	125.81
363.203	96.81
363.429	114.81
363.656	103.81
363.882	101.81
364.109	106.81
364.335	99.81
364.562	104.81
364.788	111.81
365.015	115.81
365.241	113.81
365.468	116.81
365.694	110.81
365.92	82.81
366.147	95.81
366.373	93.81
366.599	101.81
366.826	107.81
367.052	106.81
367.278	99.81
367.505	105.81
367.731	118.81
367.957	97.81
368.184	107.81
368.41	110.81
368.636	105.81
368.862	90.81
369.089	115.81
369.315	120.81
369.541	112.81
369.767	102.81
369.993	108.81
370.219	113.81
370.445	101.81
370.672	113.81
370.898	112.81
371.124	100.81
371.35	104.81
371.576	108.81
371.802	101.81
372.028	116.81
372.254	109.81
372.48	107.81
372.706	103.81
372.932	100.81
373.158	107.81
373.384	113.81
373.61	123.81
373.835	92.81
374.061	108.81
374.287	102.81
374.513	106.81
374.739	98.81
374.965	115.81
375.191	108.81
375.416	98.81
375.642	109.81
375.868	114.81
376.094	89.81
376.319	108.81
376.545	105.81
376.771	96.81
376.997	108.81
377.222	100.81
377.448	117.81
377.674	106.81
377.899	103.81
378.125	107.81
378.35	108.81
378.576	115.81
378.802	112.81
379.027	102.81
379.253	105.81
379.478	104.81
379.704	103.81
379.929	113.81
380.155	112.81
380.38	104.81
380.606	101.81
380.831	101.81
381.057	121.81
381.282	122.81
381.507	102.81
381.733	99.81
381.958	106.81
382.184	102.81
382.409	103.81
382.634	115.81
382.86	114.81
383.085	118.81
383.31	112.81
383.535	107.81
383.761	110.81
383.986	123.81
384.211	121.81
384.436	111.81
384.662	115.81
384.887	119.81
385.112	112.81
385.337	120.81
385.562	116.81
385.787	117.81
386.013	103.81
386.238	101.81
386.463	104.81
386.688	124.81
386.913	115.81
387.138	127.81
387.363	111.81
387.588	117.81
387.813	117.81
388.038	120.81
388.263	117.81
388.488	107.81
388.713	118.81
388.938	117.81
389.163	109.81
389.387	100.81
389.612	120.81
389.837	125.81
390.062	111.81
390.287	115.81
390.512	106.81
390.736	115.81
390.961	104.81
391.186	111.81
391.411	113.81
391.636	107.81
391.86	119.81
392.085	121.81
392.31	111.81
392.534	119.81
392.759	128.81
392.984	113.81
393.208	111.81
393.433	123.81
393.658	105.81
393.882	114.81
394.107	111.81
394.331	127.81
394.556	128.81
394.78	117.81
395.005	117.81
395.229	111.81
395.454	115.81
395.678	126.81
395.903	119.81
396.127	123.81
396.352	120.81
396.576	120.81
396.801	111.81
397.025	118.81
397.249	104.81
397.474	102.81
397.698	115.81
397.922	123.81
398.147	115.81
398.371	115.81
398.595	122.81
398.82	112.81
399.044	123.81
399.268	131.81
399.492	138.81
399.717	149.81
399.941	149.81
400.165	150.81
400.389	134.81
400.613	124.81
400.837	124.81
401.062	108.81
401.286	122.81
401.51	113.81
401.734	115.81
401.958	120.81
402.182	108.81
402.406	119.81
402.63	115.81
402.854	119.81
403.078	133.81
403.302	133.81
403.526	126.81
403.75	120.81
403.974	118.81
404.198	125.81
404.422	131.81
404.645	120.81
404.869	137.81
405.093	124.81
405.317	125.81
405.541	136.81
405.765	133.81
405.988	122.81
406.212	111.81
406.436	135.81
406.66	133.81
406.883	139.81
407.107	142.81
407.331	127.81
407.555	132.81
407.778	130.81
408.002	131.81
408.226	128.81
408.449	133.81
408.673	117.81
408.896	136.81
409.12	132.81
409.344	124.81
409.567	121.81
409.791	131.81
410.014	134.81
410.238	121.81
410.461	125.81
410.685	133.81
410.908	123.81
411.132	137.81
411.355	132.81
411.578	108.81
411.802	127.81
412.025	113.81
412.249	120.81
412.472	126.81
412.695	119.81
412.919	132.81
413.142	133.81
413.365	136.81
413.589	121.81
413.812	123.81
414.035	115.81
414.258	121.81
414.482	135.81
414.705	125.81
414.928	123.81
415.151	118.81
415.374	141.81
415.597	129.81
415.821	120.81
416.044	131.81
416.267	119.81
416.49	119.81
416.713	95.81
416.936	127.81
417.159	127.81
417.382	124.81
417.605	133.81
417.828	123.81
418.051	123.81
418.274	127.81
418.497	118.81
418.72	123.81
418.943	133.81
419.166	125.81
419.389	125.81
419.611	126.81
419.834	137.81
420.057	127.81
420.28	131.81
420.503	131.81
420.726	131.81
420.948	135.81
421.171	146.81
421.394	127.81
421.617	121.81
421.839	123.81
422.062	127.81
422.285	138.81
422.507	137.81
422.73	118.81
422.953	132.81
423.175	129.81
423.398	117.81
423.621	125.81
423.843	125.81
424.066	124.81
424.288	146.81
424.511	135.81
424.733	119.81
424.956	129.81
425.178	123.81
425.401	142.81
425.623	127.81
425.846	132.81
426.068	128.81
426.291	134.81
426.513	133.81
426.735	122.81
426.958	136.81
427.18	137.81
427.402	147.81
427.625	140.81
427.847	127.81
428.069	133.81
428.292	130.81
428.514	131.81
428.736	123.81
428.958	123.81
429.181	106.81
429.403	115.81
429.625	120.81
429.847	126.81
430.069	123.81
430.292	113.81
430.514	121.81
430.736	129.81
430.958	123.81
431.18	127.81
431.402	119.81
431.624	102.81
431.846	131.81
432.068	123.81
432.29	119.81
432.512	106.81
432.734	121.81
432.956	121.81
433.178	123.81
433.4	102.81
433.622	131.81
433.844	121.81
434.066	114.81
434.287	118.81
434.509	125.81
434.731	115.81
434.953	117.81
435.175	117.81
435.397	116.81
435.618	119.81
435.84	135.81
436.062	141.81
436.284	149.81
436.505	127.81
436.727	125.81
436.949	130.81
437.17	133.81
437.392	121.81
437.614	111.81
437.835	129.81
438.057	115.81
438.278	137.81
438.5	108.81
438.721	131.81
438.943	121.81
439.165	123.81
439.386	130.81
439.608	128.81
439.829	120.81
440.05	124.81
440.272	129.81
440.493	130.81
440.715	118.81
440.936	111.81
441.158	135.81
441.379	118.81
441.6	124.81
441.822	141.81
442.043	133.81
442.264	123.81
442.486	131.81
442.707	129.81
442.928	137.81
443.149	140.81
443.371	131.81
443.592	129.81
443.813	151.81
444.034	147.81
444.255	134.81
444.476	128.81
444.698	128.81
444.919	127.81
445.14	241.81
445.361	175.81
445.582	123.81
445.803	132.81
446.024	136.81
446.245	131.81
446.466	123.81
446.687	133.81
446.908	130.81
447.129	127.81
447.35	133.81
447.571	130.81
447.792	126.81
448.013	107.81
448.234	116.81
448.455	118.81
448.675	117.81
448.896	143.81
449.117	127.81
449.338	124.81
449.559	125.81
449.779	136.81
450	122.81
450.221	116.81
450.442	138.81
450.662	124.81
450.883	124.81
451.104	146.81
451.324	134.81
451.545	106.81
451.766	117.81
451.986	112.81
452.207	121.81
452.428	92.81
452.648	139.81
452.869	124.81
453.089	131.81
453.31	111.81
453.53	119.81
453.751	118.81
453.971	124.81
454.192	123.81
454.412	100.81
454.633	108.81
454.853	103.81
455.073	113.81
455.294	120.81
455.514	121.81
455.734	114.81
455.955	127.81
456.175	118.81
456.395	123.81
456.616	108.81
456.836	111.81
457.056	107.81
457.276	114.81
457.497	115.81
457.717	103.81
457.937	119.81
458.157	115.81
458.377	123.81
458.598	108.81
458.818	119.81
459.038	114.81
459.258	128.81
459.478	122.81
459.698	126.81
459.918	106.81
460.138	120.81
460.358	131.81
460.578	120.81
460.798	120.81
461.018	138.81
461.238	116.81
461.458	117.81
461.678	113.81
461.898	123.81
462.118	135.81
462.338	123.81
462.558	126.81
462.777	111.81
462.997	131.81
463.217	125.81
463.437	138.81
463.657	135.81
463.876	152.81
464.096	130.81
464.316	127.81
464.536	122.81
464.755	132.81
464.975	121.81
465.195	125.81
465.414	124.81
465.634	128.81
465.854	125.81
466.073	108.81
466.293	116.81
466.512	123.81
466.732	119.81
466.951	127.81
467.171	122.81
467.391	112.81
467.61	114.81
467.829	112.81
468.049	120.81
468.268	123.81
468.488	123.81
468.707	122.81
468.927	108.81
469.146	104.81
469.365	132.81
469.585	115.81
469.804	106.81
470.023	115.81
470.243	111.81
470.462	131.81
470.681	118.81
470.901	123.81
471.12	116.81
471.339	120.81
471.558	122.81
471.777	117.81
471.997	117.81
472.216	124.81
472.435	123.81
472.654	112.81
472.873	122.81
473.092	109.81
473.311	119.81
473.53	123.81
473.749	107.81
473.968	128.81
474.187	123.81
474.406	117.81
474.625	131.81
474.844	107.81
475.063	112.81
475.282	111.81
475.501	121.81
475.72	124.81
475.939	122.81
476.158	114.81
476.377	93.81
476.596	118.81
476.814	121.81
477.033	115.81
477.252	115.81
477.471	130.81
477.69	138.81
477.908	112.81
478.127	138.81
478.346	111.81
478.564	115.81
478.783	141.81
479.002	120.81
479.22	120.81
479.439	122.81
479.658	114.81
479.876	111.81
480.095	129.81
480.313	137.81
480.532	132.81
480.751	131.81
480.969	133.81
481.188	136.81
481.406	141.81
481.624	118.81
481.843	125.81
482.061	123.81
482.28	118.81
482.498	119.81
482.717	130.81
482.935	137.81
483.153	133.81
483.372	117.81
483.59	120.81
483.808	132.81
484.027	140.81
484.245	138.81
484.463	120.81
484.681	121.81
484.9	125.81
485.118	132.81
485.336	140.81
485.554	131.81
485.772	125.81
485.99	129.81
486.209	135.81
486.427	125.81
486.645	109.81
486.863	127.81
487.081	138.81
487.299	131.81
487.517	136.81
487.735	143.81
487.953	149.81
488.171	123.81
488.389	126.81
488.607	134.81
488.825	128.81
489.043	130.81
489.261	142.81
489.479	137.81
489.696	136.81
489.914	136.81
490.132	135.81
490.35	136.81
490.568	137.81
490.786	130.81
491.003	123.81
491.221	122.81
491.439	127.81
491.657	136.81
491.874	139.81
492.092	131.81
492.31	130.81
492.527	144.81
492.745	145.81
492.963	145.81
493.18	137.81
493.398	131.81
493.615	134.81
493.833	135.81
494.05	138.81
494.268	142.81
494.485	132.81
494.703	137.81
494.92	144.81
495.138	141.81
495.355	157.81
495.573	148.81
495.79	135.81
496.008	145.81
496.225	152.81
496.442	143.81
496.66	141.81
496.877	141.81
497.094	131.81
497.312	136.81
497.529	147.81
497.746	147.81
497.963	128.81
498.181	129.81
498.398	149.81
498.615	156.81
498.832	153.81
499.049	154.81
499.267	161.81
499.484	163.81
499.701	177.81
499.918	185.81
500.135	202.81
500.352	206.81
500.569	196.81
500.786	199.81
501.003	192.81
501.22	201.81
501.437	184.81
501.654	166.81
501.871	167.81
502.088	160.81
502.305	147.81
502.522	169.81
502.739	142.81
502.956	151.81
503.172	147.81
503.389	136.81
503.606	150.81
503.823	152.81
504.04	137.81
504.256	148.81
504.473	140.81
504.69	148.81
504.907	145.81
505.123	133.81
505.34	127.81
505.557	139.81
505.773	132.81
505.99	132.81
506.207	147.81
506.423	132.81
