Data from 1968.PennyLincolnUp.Lamp.En5.5.200Scan.071719.P1._HRD10591_14-50-39-969.txt Node
Date: Thu Jul 18 14:50:39 EDT 2019
User: cochatt
Spectrometer: HR+D1059
Trigger mode: 1
Integration Time (sec): 1.000000E-1
Scans to average: 1
Electric dark correction enabled: true
Nonlinearity correction enabled: false
Boxcar width: 0
XAxis mode: Wavelengths
Number of Pixels in Spectrum: 2048
>>>>>Begin Spectral Data<<<<<
223.165	-14.75
223.4	-14.75
223.635	-14.75
223.869	-20.75
224.104	-6.75
224.338	-13.75
224.573	-8.75
224.808	-20.75
225.042	-14.75
225.277	4.25
225.511	-7.75
225.746	6.25
225.98	5.25
226.215	2.25
226.449	24.25
226.683	18.25
226.918	23.25
227.152	24.25
227.387	27.25
227.621	52.25
227.856	42.25
228.09	45.25
228.324	55.25
228.559	51.25
228.793	56.25
229.027	51.25
229.262	73.25
229.496	57.25
229.73	69.25
229.964	75.25
230.199	75.25
230.433	81.25
230.667	71.25
230.901	69.25
231.136	75.25
231.37	69.25
231.604	99.25
231.838	76.25
232.072	83.25
232.306	92.25
232.541	76.25
232.775	71.25
233.009	82.25
233.243	87.25
233.477	89.25
233.711	86.25
233.945	95.25
234.179	86.25
234.413	100.25
234.647	85.25
234.881	80.25
235.115	82.25
235.349	77.25
235.583	95.25
235.817	92.25
236.051	75.25
236.285	80.25
236.519	82.25
236.753	84.25
236.987	80.25
237.221	80.25
237.455	78.25
237.689	92.25
237.922	87.25
238.156	77.25
238.39	74.25
238.624	86.25
238.858	78.25
239.091	75.25
239.325	73.25
239.559	69.25
239.793	83.25
240.027	95.25
240.26	78.25
240.494	79.25
240.728	75.25
240.961	90.25
241.195	87.25
241.429	79.25
241.662	82.25
241.896	75.25
242.13	72.25
242.363	71.25
242.597	88.25
242.83	91.25
243.064	83.25
243.298	72.25
243.531	70.25
243.765	98.25
243.998	81.25
244.232	77.25
244.465	91.25
244.699	71.25
244.932	89.25
245.166	82.25
245.399	71.25
245.633	88.25
245.866	86.25
246.099	78.25
246.333	80.25
246.566	82.25
246.8	67.25
247.033	76.25
247.266	97.25
247.5	67.25
247.733	83.25
247.966	97.25
248.2	86.25
248.433	102.25
248.666	77.25
248.899	98.25
249.133	83.25
249.366	81.25
249.599	85.25
249.832	96.25
250.066	87.25
250.299	90.25
250.532	100.25
250.765	87.25
250.998	85.25
251.231	99.25
251.465	93.25
251.698	85.25
251.931	87.25
252.164	91.25
252.397	84.25
252.63	76.25
252.863	79.25
253.096	87.25
253.329	84.25
253.562	79.25
253.795	86.25
254.028	96.25
254.261	82.25
254.494	87.25
254.727	98.25
254.96	97.25
255.193	98.25
255.426	87.25
255.659	84.25
255.892	87.25
256.124	96.25
256.357	101.25
256.59	102.25
256.823	96.25
257.056	101.25
257.289	83.25
257.521	84.25
257.754	97.25
257.987	86.25
258.22	93.25
258.452	80.25
258.685	79.25
258.918	109.25
259.151	79.25
259.383	78.25
259.616	86.25
259.849	85.25
260.081	78.25
260.314	94.25
260.547	83.25
260.779	81.25
261.012	73.25
261.244	87.25
261.477	106.25
261.71	82.25
261.942	101.25
262.175	84.25
262.407	73.25
262.64	98.25
262.872	97.25
263.105	94.25
263.337	81.25
263.57	90.25
263.802	94.25
264.035	100.25
264.267	82.25
264.499	84.25
264.732	92.25
264.964	93.25
265.197	94.25
265.429	90.25
265.661	93.25
265.894	90.25
266.126	99.25
266.358	102.25
266.591	92.25
266.823	91.25
267.055	85.25
267.287	94.25
267.52	78.25
267.752	95.25
267.984	84.25
268.216	87.25
268.448	94.25
268.681	89.25
268.913	83.25
269.145	91.25
269.377	102.25
269.609	88.25
269.841	106.25
270.073	97.25
270.306	94.25
270.538	87.25
270.77	100.25
271.002	92.25
271.234	106.25
271.466	107.25
271.698	98.25
271.93	107.25
272.162	105.25
272.394	86.25
272.626	94.25
272.858	95.25
273.09	93.25
273.322	82.25
273.553	95.25
273.785	105.25
274.017	85.25
274.249	93.25
274.481	94.25
274.713	100.25
274.945	105.25
275.176	102.25
275.408	94.25
275.64	101.25
275.872	99.25
276.104	107.25
276.335	106.25
276.567	93.25
276.799	99.25
277.031	108.25
277.262	90.25
277.494	90.25
277.726	100.25
277.957	105.25
278.189	100.25
278.421	91.25
278.652	110.25
278.884	89.25
279.115	100.25
279.347	93.25
279.579	90.25
279.81	93.25
280.042	90.25
280.273	93.25
280.505	94.25
280.736	109.25
280.968	91.25
281.199	97.25
281.431	98.25
281.662	85.25
281.894	109.25
282.125	96.25
282.356	97.25
282.588	98.25
282.819	110.25
283.051	99.25
283.282	100.25
283.513	94.25
283.745	94.25
283.976	108.25
284.207	97.25
284.439	89.25
284.67	108.25
284.901	93.25
285.132	110.25
285.364	113.25
285.595	90.25
285.826	102.25
286.057	97.25
286.288	93.25
286.52	93.25
286.751	103.25
286.982	103.25
287.213	120.25
287.444	97.25
287.675	104.25
287.906	108.25
288.138	97.25
288.369	104.25
288.6	106.25
288.831	101.25
289.062	96.25
289.293	103.25
289.524	91.25
289.755	111.25
289.986	97.25
290.217	106.25
290.448	87.25
290.679	97.25
290.91	103.25
291.141	109.25
291.371	105.25
291.602	104.25
291.833	100.25
292.064	94.25
292.295	110.25
292.526	108.25
292.757	95.25
292.987	95.25
293.218	116.25
293.449	110.25
293.68	87.25
293.91	98.25
294.141	106.25
294.372	95.25
294.603	107.25
294.833	87.25
295.064	97.25
295.295	101.25
295.525	100.25
295.756	108.25
295.987	105.25
296.217	110.25
296.448	107.25
296.679	92.25
296.909	103.25
297.14	99.25
297.37	110.25
297.601	103.25
297.831	99.25
298.062	98.25
298.292	116.25
298.523	89.25
298.753	98.25
298.984	119.25
299.214	116.25
299.445	107.25
299.675	115.25
299.905	100.25
300.136	92.25
300.366	113.25
300.597	98.25
300.827	104.25
301.057	104.25
301.288	101.25
301.518	104.25
301.748	100.25
301.979	89.25
302.209	100.25
302.439	97.25
302.669	84.25
302.9	91.25
303.13	111.25
303.36	106.25
303.59	116.25
303.82	110.25
304.051	111.25
304.281	115.25
304.511	101.25
304.741	115.25
304.971	108.25
305.201	109.25
305.431	104.25
305.661	114.25
305.891	100.25
306.121	99.25
306.352	120.25
306.582	110.25
306.812	103.25
307.042	113.25
307.272	109.25
307.502	106.25
307.731	94.25
307.961	110.25
308.191	108.25
308.421	110.25
308.651	113.25
308.881	112.25
309.111	114.25
309.341	94.25
309.571	99.25
309.8	107.25
310.03	105.25
310.26	114.25
310.49	113.25
310.72	107.25
310.949	113.25
311.179	103.25
311.409	107.25
311.639	115.25
311.868	101.25
312.098	111.25
312.328	107.25
312.557	103.25
312.787	101.25
313.017	102.25
313.246	115.25
313.476	106.25
313.706	120.25
313.935	108.25
314.165	115.25
314.394	120.25
314.624	122.25
314.853	106.25
315.083	109.25
315.312	122.25
315.542	108.25
315.771	113.25
316.001	101.25
316.23	93.25
316.46	105.25
316.689	109.25
316.919	113.25
317.148	103.25
317.377	106.25
317.607	110.25
317.836	109.25
318.065	109.25
318.295	106.25
318.524	93.25
318.753	115.25
318.983	103.25
319.212	108.25
319.441	118.25
319.67	116.25
319.9	115.25
320.129	118.25
320.358	118.25
320.587	114.25
320.816	97.25
321.046	119.25
321.275	115.25
321.504	101.25
321.733	115.25
321.962	111.25
322.191	110.25
322.42	101.25
322.649	126.25
322.878	113.25
323.108	124.25
323.337	135.25
323.566	111.25
323.795	121.25
324.024	120.25
324.253	129.25
324.482	139.25
324.71	167.25
324.939	186.25
325.168	171.25
325.397	119.25
325.626	113.25
325.855	101.25
326.084	116.25
326.313	115.25
326.542	119.25
326.77	127.25
326.999	125.25
327.228	134.25
327.457	154.25
327.686	165.25
327.914	123.25
328.143	127.25
328.372	115.25
328.6	113.25
328.829	121.25
329.058	103.25
329.287	123.25
329.515	128.25
329.744	106.25
329.972	122.25
330.201	113.25
330.43	120.25
330.658	121.25
330.887	135.25
331.115	120.25
331.344	137.25
331.572	127.25
331.801	114.25
332.03	124.25
332.258	118.25
332.486	114.25
332.715	114.25
332.943	128.25
333.172	136.25
333.4	107.25
333.629	119.25
333.857	119.25
334.085	121.25
334.314	122.25
334.542	121.25
334.771	116.25
334.999	114.25
335.227	115.25
335.455	129.25
335.684	123.25
335.912	120.25
336.14	107.25
336.369	115.25
336.597	116.25
336.825	110.25
337.053	135.25
337.281	109.25
337.51	123.25
337.738	103.25
337.966	117.25
338.194	117.25
338.422	121.25
338.65	129.25
338.878	122.25
339.106	127.25
339.334	123.25
339.562	118.25
339.79	109.25
340.018	103.25
340.246	107.25
340.474	106.25
340.702	101.25
340.93	114.25
341.158	119.25
341.386	120.25
341.614	105.25
341.842	110.25
342.07	108.25
342.298	100.25
342.526	101.25
342.754	110.25
342.981	126.25
343.209	111.25
343.437	126.25
343.665	122.25
343.893	120.25
344.12	98.25
344.348	122.25
344.576	118.25
344.804	115.25
345.031	115.25
345.259	122.25
345.487	127.25
345.714	116.25
345.942	105.25
346.17	106.25
346.397	103.25
346.625	112.25
346.853	122.25
347.08	115.25
347.308	116.25
347.535	109.25
347.763	129.25
347.99	117.25
348.218	112.25
348.445	108.25
348.673	107.25
348.9	111.25
349.128	120.25
349.355	116.25
349.583	102.25
349.81	104.25
350.037	103.25
350.265	97.25
350.492	114.25
350.72	111.25
350.947	103.25
351.174	102.25
351.402	108.25
351.629	117.25
351.856	104.25
352.083	111.25
352.311	117.25
352.538	102.25
352.765	115.25
352.992	93.25
353.22	105.25
353.447	103.25
353.674	124.25
353.901	119.25
354.128	123.25
354.355	115.25
354.583	99.25
354.81	120.25
355.037	123.25
355.264	108.25
355.491	104.25
355.718	103.25
355.945	111.25
356.172	127.25
356.399	106.25
356.626	103.25
356.853	116.25
357.08	116.25
357.307	113.25
357.534	108.25
357.761	113.25
357.988	121.25
358.215	108.25
358.441	104.25
358.668	94.25
358.895	113.25
359.122	115.25
359.349	105.25
359.576	122.25
359.802	123.25
360.029	121.25
360.256	109.25
360.483	108.25
360.709	115.25
360.936	117.25
361.163	111.25
361.39	110.25
361.616	114.25
361.843	100.25
362.07	115.25
362.296	119.25
362.523	113.25
362.749	132.25
362.976	122.25
363.203	116.25
363.429	104.25
363.656	120.25
363.882	99.25
364.109	107.25
364.335	112.25
364.562	115.25
364.788	109.25
365.015	99.25
365.241	120.25
365.468	107.25
365.694	105.25
365.92	113.25
366.147	133.25
366.373	113.25
366.599	103.25
366.826	124.25
367.052	128.25
367.278	108.25
367.505	121.25
367.731	115.25
367.957	113.25
368.184	106.25
368.41	101.25
368.636	119.25
368.862	107.25
369.089	119.25
369.315	120.25
369.541	118.25
369.767	113.25
369.993	88.25
370.219	110.25
370.445	118.25
370.672	119.25
370.898	111.25
371.124	116.25
371.35	117.25
371.576	122.25
371.802	114.25
372.028	110.25
372.254	109.25
372.48	107.25
372.706	122.25
372.932	104.25
373.158	118.25
373.384	123.25
373.61	108.25
373.835	110.25
374.061	106.25
374.287	119.25
374.513	135.25
374.739	117.25
374.965	125.25
375.191	110.25
375.416	114.25
375.642	117.25
375.868	107.25
376.094	126.25
376.319	117.25
376.545	119.25
376.771	105.25
376.997	117.25
377.222	113.25
377.448	117.25
377.674	107.25
377.899	113.25
378.125	110.25
378.35	125.25
378.576	116.25
378.802	127.25
379.027	115.25
379.253	110.25
379.478	111.25
379.704	121.25
379.929	122.25
380.155	108.25
380.38	114.25
380.606	117.25
380.831	120.25
381.057	133.25
381.282	118.25
381.507	109.25
381.733	106.25
381.958	109.25
382.184	109.25
382.409	113.25
382.634	128.25
382.86	121.25
383.085	101.25
383.31	113.25
383.535	111.25
383.761	115.25
383.986	126.25
384.211	134.25
384.436	110.25
384.662	105.25
384.887	111.25
385.112	118.25
385.337	111.25
385.562	105.25
385.787	121.25
386.013	128.25
386.238	118.25
386.463	125.25
386.688	147.25
386.913	109.25
387.138	111.25
387.363	126.25
387.588	117.25
387.813	104.25
388.038	111.25
388.263	104.25
388.488	110.25
388.713	112.25
388.938	119.25
389.163	125.25
389.387	131.25
389.612	122.25
389.837	131.25
390.062	122.25
390.287	120.25
390.512	110.25
390.736	119.25
390.961	117.25
391.186	121.25
391.411	116.25
391.636	118.25
391.86	116.25
392.085	135.25
392.31	119.25
392.534	130.25
392.759	126.25
392.984	129.25
393.208	129.25
393.433	107.25
393.658	107.25
393.882	117.25
394.107	121.25
394.331	127.25
394.556	106.25
394.78	131.25
395.005	117.25
395.229	121.25
395.454	117.25
395.678	123.25
395.903	138.25
396.127	122.25
396.352	114.25
396.576	122.25
396.801	125.25
397.025	129.25
397.249	127.25
397.474	134.25
397.698	122.25
397.922	131.25
398.147	122.25
398.371	137.25
398.595	118.25
398.82	141.25
399.044	141.25
399.268	138.25
399.492	159.25
399.717	136.25
399.941	147.25
400.165	136.25
400.389	111.25
400.613	144.25
400.837	126.25
401.062	114.25
401.286	135.25
401.51	136.25
401.734	141.25
401.958	127.25
402.182	134.25
402.406	142.25
402.63	126.25
402.854	133.25
403.078	133.25
403.302	137.25
403.526	123.25
403.75	141.25
403.974	130.25
404.198	129.25
404.422	117.25
404.645	130.25
404.869	141.25
405.093	138.25
405.317	159.25
405.541	144.25
405.765	130.25
405.988	137.25
406.212	128.25
406.436	137.25
406.66	144.25
406.883	127.25
407.107	136.25
407.331	139.25
407.555	160.25
407.778	137.25
408.002	156.25
408.226	158.25
408.449	133.25
408.673	147.25
408.896	126.25
409.12	156.25
409.344	131.25
409.567	151.25
409.791	118.25
410.014	135.25
410.238	125.25
410.461	123.25
410.685	137.25
410.908	127.25
411.132	146.25
411.355	109.25
411.578	143.25
411.802	135.25
412.025	132.25
412.249	126.25
412.472	133.25
412.695	136.25
412.919	125.25
413.142	129.25
413.365	120.25
413.589	128.25
413.812	117.25
414.035	129.25
414.258	131.25
414.482	140.25
414.705	128.25
414.928	143.25
415.151	134.25
415.374	131.25
415.597	128.25
415.821	131.25
416.044	132.25
416.267	135.25
416.49	132.25
416.713	138.25
416.936	125.25
417.159	113.25
417.382	124.25
417.605	128.25
417.828	127.25
418.051	130.25
418.274	129.25
418.497	121.25
418.72	139.25
418.943	126.25
419.166	132.25
419.389	153.25
419.611	142.25
419.834	127.25
420.057	133.25
420.28	129.25
420.503	133.25
420.726	140.25
420.948	135.25
421.171	129.25
421.394	138.25
421.617	142.25
421.839	146.25
422.062	134.25
422.285	117.25
422.507	138.25
422.73	138.25
422.953	136.25
423.175	126.25
423.398	141.25
423.621	142.25
423.843	134.25
424.066	136.25
424.288	144.25
424.511	138.25
424.733	139.25
424.956	147.25
425.178	143.25
425.401	131.25
425.623	144.25
425.846	137.25
426.068	139.25
426.291	142.25
426.513	130.25
426.735	135.25
426.958	130.25
427.18	135.25
427.402	134.25
427.625	149.25
427.847	127.25
428.069	140.25
428.292	135.25
428.514	131.25
428.736	129.25
428.958	121.25
429.181	125.25
429.403	128.25
429.625	137.25
429.847	125.25
430.069	122.25
430.292	133.25
430.514	119.25
430.736	130.25
430.958	126.25
431.18	122.25
431.402	126.25
431.624	149.25
431.846	125.25
432.068	100.25
432.29	122.25
432.512	120.25
432.734	127.25
432.956	129.25
433.178	115.25
433.4	129.25
433.622	130.25
433.844	132.25
434.066	125.25
434.287	123.25
434.509	132.25
434.731	139.25
434.953	151.25
435.175	143.25
435.397	143.25
435.618	126.25
435.84	135.25
436.062	144.25
436.284	155.25
436.505	144.25
436.727	120.25
436.949	118.25
437.17	138.25
437.392	117.25
437.614	132.25
437.835	119.25
438.057	143.25
438.278	129.25
438.5	149.25
438.721	138.25
438.943	135.25
439.165	134.25
439.386	123.25
439.608	129.25
439.829	126.25
440.05	128.25
440.272	125.25
440.493	133.25
440.715	139.25
440.936	133.25
441.158	128.25
441.379	129.25
441.6	126.25
441.822	142.25
442.043	136.25
442.264	152.25
442.486	147.25
442.707	133.25
442.928	152.25
443.149	148.25
443.371	140.25
443.592	143.25
443.813	156.25
444.034	162.25
444.255	139.25
444.476	139.25
444.698	139.25
444.919	162.25
445.14	214.25
445.361	178.25
445.582	134.25
445.803	143.25
446.024	153.25
446.245	136.25
446.466	143.25
446.687	126.25
446.908	123.25
447.129	127.25
447.35	140.25
447.571	129.25
447.792	127.25
448.013	129.25
448.234	133.25
448.455	135.25
448.675	133.25
448.896	144.25
449.117	131.25
449.338	125.25
449.559	124.25
449.779	148.25
450	130.25
450.221	141.25
450.442	119.25
450.662	131.25
450.883	133.25
451.104	100.25
451.324	126.25
451.545	134.25
451.766	116.25
451.986	121.25
452.207	121.25
452.428	110.25
452.648	119.25
452.869	114.25
453.089	120.25
453.31	133.25
453.53	102.25
453.751	122.25
453.971	120.25
454.192	118.25
454.412	117.25
454.633	113.25
454.853	128.25
455.073	120.25
455.294	127.25
455.514	140.25
455.734	126.25
455.955	118.25
456.175	111.25
456.395	133.25
456.616	135.25
456.836	120.25
457.056	125.25
457.276	103.25
457.497	117.25
457.717	126.25
457.937	130.25
458.157	123.25
458.377	111.25
458.598	124.25
458.818	115.25
459.038	118.25
459.258	131.25
459.478	136.25
459.698	129.25
459.918	124.25
460.138	126.25
460.358	129.25
460.578	135.25
460.798	133.25
461.018	124.25
461.238	136.25
461.458	131.25
461.678	137.25
461.898	133.25
462.118	129.25
462.338	118.25
462.558	133.25
462.777	127.25
462.997	137.25
463.217	138.25
463.437	146.25
463.657	120.25
463.876	120.25
464.096	133.25
464.316	124.25
464.536	140.25
464.755	138.25
464.975	138.25
465.195	126.25
465.414	141.25
465.634	129.25
465.854	121.25
466.073	114.25
466.293	130.25
466.512	126.25
466.732	114.25
466.951	114.25
467.171	130.25
467.391	133.25
467.61	120.25
467.829	121.25
468.049	118.25
468.268	125.25
468.488	123.25
468.707	111.25
468.927	127.25
469.146	120.25
469.365	131.25
469.585	126.25
469.804	115.25
470.023	122.25
470.243	134.25
470.462	131.25
470.681	119.25
470.901	126.25
471.12	143.25
471.339	137.25
471.558	145.25
471.777	117.25
471.997	119.25
472.216	127.25
472.435	116.25
472.654	135.25
472.873	115.25
473.092	130.25
473.311	127.25
473.53	118.25
473.749	124.25
473.968	131.25
474.187	122.25
474.406	126.25
474.625	129.25
474.844	124.25
475.063	117.25
475.282	128.25
475.501	116.25
475.72	127.25
475.939	126.25
476.158	114.25
476.377	116.25
476.596	123.25
476.814	125.25
477.033	141.25
477.252	141.25
477.471	124.25
477.69	133.25
477.908	119.25
478.127	139.25
478.346	141.25
478.564	124.25
478.783	112.25
479.002	111.25
479.22	136.25
479.439	148.25
479.658	142.25
479.876	130.25
480.095	141.25
480.313	147.25
480.532	133.25
480.751	139.25
480.969	148.25
481.188	121.25
481.406	114.25
481.624	133.25
481.843	127.25
482.061	135.25
482.28	126.25
482.498	129.25
482.717	122.25
482.935	130.25
483.153	131.25
483.372	118.25
483.59	133.25
483.808	138.25
484.027	141.25
484.245	129.25
484.463	127.25
484.681	137.25
484.9	123.25
485.118	131.25
485.336	133.25
485.554	131.25
485.772	149.25
485.99	137.25
486.209	127.25
486.427	133.25
486.645	126.25
486.863	131.25
487.081	129.25
487.299	122.25
487.517	129.25
487.735	129.25
487.953	147.25
488.171	141.25
488.389	149.25
488.607	148.25
488.825	134.25
489.043	142.25
489.261	135.25
489.479	124.25
489.696	142.25
489.914	131.25
490.132	138.25
490.35	133.25
490.568	130.25
490.786	146.25
491.003	136.25
491.221	124.25
491.439	148.25
491.657	152.25
491.874	147.25
492.092	157.25
492.31	153.25
492.527	153.25
492.745	146.25
492.963	153.25
493.18	149.25
493.398	150.25
493.615	135.25
493.833	148.25
494.05	154.25
494.268	147.25
494.485	135.25
494.703	149.25
494.92	142.25
495.138	151.25
495.355	139.25
495.573	157.25
495.79	156.25
496.008	155.25
496.225	129.25
496.442	150.25
496.66	148.25
496.877	154.25
497.094	146.25
497.312	154.25
497.529	153.25
497.746	155.25
497.963	173.25
498.181	154.25
498.398	146.25
498.615	158.25
498.832	182.25
499.049	182.25
499.267	163.25
499.484	187.25
499.701	185.25
499.918	182.25
500.135	195.25
500.352	198.25
500.569	211.25
500.786	220.25
501.003	215.25
501.22	204.25
501.437	196.25
501.654	172.25
501.871	179.25
502.088	174.25
502.305	170.25
502.522	135.25
502.739	175.25
502.956	150.25
503.172	149.25
503.389	161.25
503.606	148.25
503.823	132.25
504.04	155.25
504.256	161.25
504.473	142.25
504.69	149.25
504.907	150.25
505.123	143.25
505.34	137.25
505.557	149.25
