Data from 1968.PennyLincolnUp.Lamp.En5.5.200Scan.071719.P1._HRD10591_14-49-16-969.txt Node
Date: Thu Jul 18 14:49:16 EDT 2019
User: cochatt
Spectrometer: HR+D1059
Trigger mode: 1
Integration Time (sec): 1.000000E-1
Scans to average: 1
Electric dark correction enabled: true
Nonlinearity correction enabled: false
Boxcar width: 0
XAxis mode: Wavelengths
Number of Pixels in Spectrum: 2048
>>>>>Begin Spectral Data<<<<<
223.165	-12.69
223.4	-12.69
223.635	-12.69
223.869	-24.69
224.104	-24.69
224.338	-4.69
224.573	-25.69
224.808	-3.69
225.042	4.31
225.277	-5.69
225.511	-5.69
225.746	-4.69
225.98	6.31
226.215	3.31
226.449	11.31
226.683	32.31
226.918	32.31
227.152	22.31
227.387	39.31
227.621	32.31
227.856	37.31
228.09	52.31
228.324	58.31
228.559	60.31
228.793	59.31
229.027	67.31
229.262	72.31
229.496	74.31
229.73	56.31
229.964	86.31
230.199	66.31
230.433	67.31
230.667	72.31
230.901	80.31
231.136	74.31
231.37	75.31
231.604	79.31
231.838	87.31
232.072	78.31
232.306	97.31
232.541	82.31
232.775	89.31
233.009	82.31
233.243	87.31
233.477	89.31
233.711	108.31
233.945	89.31
234.179	71.31
234.413	83.31
234.647	87.31
234.881	74.31
235.115	79.31
235.349	71.31
235.583	83.31
235.817	90.31
236.051	74.31
236.285	91.31
236.519	80.31
236.753	74.31
236.987	78.31
237.221	87.31
237.455	90.31
237.689	71.31
237.922	70.31
238.156	82.31
238.39	85.31
238.624	77.31
238.858	78.31
239.091	70.31
239.325	79.31
239.559	64.31
239.793	86.31
240.027	71.31
240.26	73.31
240.494	90.31
240.728	83.31
240.961	77.31
241.195	80.31
241.429	78.31
241.662	82.31
241.896	94.31
242.13	89.31
242.363	77.31
242.597	75.31
242.83	82.31
243.064	79.31
243.298	84.31
243.531	82.31
243.765	83.31
243.998	77.31
244.232	91.31
244.465	79.31
244.699	86.31
244.932	84.31
245.166	79.31
245.399	86.31
245.633	78.31
245.866	93.31
246.099	63.31
246.333	76.31
246.566	85.31
246.8	85.31
247.033	94.31
247.266	81.31
247.5	88.31
247.733	86.31
247.966	91.31
248.2	87.31
248.433	82.31
248.666	88.31
248.899	77.31
249.133	70.31
249.366	72.31
249.599	90.31
249.832	72.31
250.066	86.31
250.299	89.31
250.532	84.31
250.765	100.31
250.998	103.31
251.231	86.31
251.465	87.31
251.698	78.31
251.931	75.31
252.164	98.31
252.397	95.31
252.63	89.31
252.863	89.31
253.096	87.31
253.329	98.31
253.562	84.31
253.795	101.31
254.028	98.31
254.261	85.31
254.494	93.31
254.727	102.31
254.96	93.31
255.193	80.31
255.426	103.31
255.659	89.31
255.892	96.31
256.124	105.31
256.357	89.31
256.59	84.31
256.823	91.31
257.056	69.31
257.289	96.31
257.521	87.31
257.754	81.31
257.987	84.31
258.22	90.31
258.452	100.31
258.685	87.31
258.918	91.31
259.151	104.31
259.383	102.31
259.616	94.31
259.849	98.31
260.081	87.31
260.314	95.31
260.547	108.31
260.779	97.31
261.012	88.31
261.244	97.31
261.477	93.31
261.71	81.31
261.942	103.31
262.175	81.31
262.407	89.31
262.64	100.31
262.872	92.31
263.105	96.31
263.337	96.31
263.57	107.31
263.802	78.31
264.035	87.31
264.267	98.31
264.499	84.31
264.732	99.31
264.964	86.31
265.197	90.31
265.429	99.31
265.661	95.31
265.894	94.31
266.126	114.31
266.358	92.31
266.591	103.31
266.823	98.31
267.055	99.31
267.287	101.31
267.52	115.31
267.752	102.31
267.984	102.31
268.216	90.31
268.448	111.31
268.681	98.31
268.913	99.31
269.145	100.31
269.377	91.31
269.609	106.31
269.841	95.31
270.073	85.31
270.306	107.31
270.538	90.31
270.77	80.31
271.002	104.31
271.234	100.31
271.466	101.31
271.698	109.31
271.93	100.31
272.162	107.31
272.394	100.31
272.626	101.31
272.858	84.31
273.09	95.31
273.322	83.31
273.553	91.31
273.785	98.31
274.017	93.31
274.249	106.31
274.481	89.31
274.713	103.31
274.945	94.31
275.176	104.31
275.408	100.31
275.64	103.31
275.872	94.31
276.104	94.31
276.335	86.31
276.567	96.31
276.799	89.31
277.031	94.31
277.262	90.31
277.494	104.31
277.726	97.31
277.957	89.31
278.189	101.31
278.421	99.31
278.652	107.31
278.884	98.31
279.115	86.31
279.347	93.31
279.579	90.31
279.81	96.31
280.042	102.31
280.273	95.31
280.505	84.31
280.736	96.31
280.968	90.31
281.199	91.31
281.431	104.31
281.662	118.31
281.894	108.31
282.125	101.31
282.356	102.31
282.588	92.31
282.819	102.31
283.051	96.31
283.282	116.31
283.513	127.31
283.745	101.31
283.976	93.31
284.207	96.31
284.439	90.31
284.67	118.31
284.901	94.31
285.132	118.31
285.364	105.31
285.595	101.31
285.826	109.31
286.057	98.31
286.288	106.31
286.52	91.31
286.751	98.31
286.982	116.31
287.213	109.31
287.444	98.31
287.675	96.31
287.906	108.31
288.138	96.31
288.369	104.31
288.6	102.31
288.831	105.31
289.062	95.31
289.293	109.31
289.524	104.31
289.755	111.31
289.986	98.31
290.217	99.31
290.448	108.31
290.679	103.31
290.91	107.31
291.141	111.31
291.371	102.31
291.602	85.31
291.833	96.31
292.064	97.31
292.295	97.31
292.526	107.31
292.757	109.31
292.987	81.31
293.218	95.31
293.449	101.31
293.68	100.31
293.91	95.31
294.141	109.31
294.372	111.31
294.603	110.31
294.833	102.31
295.064	97.31
295.295	108.31
295.525	113.31
295.756	112.31
295.987	108.31
296.217	104.31
296.448	103.31
296.679	105.31
296.909	95.31
297.14	93.31
297.37	93.31
297.601	85.31
297.831	91.31
298.062	96.31
298.292	101.31
298.523	119.31
298.753	114.31
298.984	92.31
299.214	115.31
299.445	112.31
299.675	100.31
299.905	111.31
300.136	104.31
300.366	105.31
300.597	127.31
300.827	104.31
301.057	96.31
301.288	103.31
301.518	89.31
301.748	104.31
301.979	90.31
302.209	104.31
302.439	103.31
302.669	106.31
302.9	108.31
303.13	103.31
303.36	110.31
303.59	107.31
303.82	109.31
304.051	104.31
304.281	121.31
304.511	107.31
304.741	103.31
304.971	108.31
305.201	101.31
305.431	119.31
305.661	94.31
305.891	107.31
306.121	99.31
306.352	115.31
306.582	107.31
306.812	106.31
307.042	100.31
307.272	91.31
307.502	119.31
307.731	109.31
307.961	101.31
308.191	125.31
308.421	105.31
308.651	115.31
308.881	107.31
309.111	121.31
309.341	106.31
309.571	112.31
309.8	104.31
310.03	111.31
310.26	97.31
310.49	108.31
310.72	91.31
310.949	95.31
311.179	96.31
311.409	110.31
311.639	112.31
311.868	107.31
312.098	95.31
312.328	120.31
312.557	118.31
312.787	95.31
313.017	114.31
313.246	108.31
313.476	104.31
313.706	125.31
313.935	109.31
314.165	92.31
314.394	118.31
314.624	112.31
314.853	100.31
315.083	104.31
315.312	97.31
315.542	109.31
315.771	102.31
316.001	103.31
316.23	120.31
316.46	119.31
316.689	112.31
316.919	97.31
317.148	92.31
317.377	109.31
317.607	97.31
317.836	104.31
318.065	102.31
318.295	115.31
318.524	99.31
318.753	100.31
318.983	112.31
319.212	120.31
319.441	104.31
319.67	106.31
319.9	105.31
320.129	105.31
320.358	106.31
320.587	107.31
320.816	103.31
321.046	109.31
321.275	115.31
321.504	110.31
321.733	116.31
321.962	109.31
322.191	100.31
322.42	114.31
322.649	95.31
322.878	106.31
323.108	100.31
323.337	110.31
323.566	123.31
323.795	111.31
324.024	118.31
324.253	125.31
324.482	122.31
324.71	142.31
324.939	166.31
325.168	141.31
325.397	121.31
325.626	119.31
325.855	115.31
326.084	123.31
326.313	110.31
326.542	117.31
326.77	114.31
326.999	114.31
327.228	112.31
327.457	121.31
327.686	142.31
327.914	131.31
328.143	134.31
328.372	125.31
328.6	102.31
328.829	125.31
329.058	99.31
329.287	132.31
329.515	122.31
329.744	118.31
329.972	103.31
330.201	114.31
330.43	111.31
330.658	105.31
330.887	125.31
331.115	116.31
331.344	103.31
331.572	125.31
331.801	107.31
332.03	124.31
332.258	118.31
332.486	118.31
332.715	134.31
332.943	123.31
333.172	128.31
333.4	129.31
333.629	129.31
333.857	131.31
334.085	137.31
334.314	118.31
334.542	125.31
334.771	120.31
334.999	112.31
335.227	104.31
335.455	123.31
335.684	107.31
335.912	110.31
336.14	110.31
336.369	136.31
336.597	116.31
336.825	123.31
337.053	103.31
337.281	118.31
337.51	122.31
337.738	109.31
337.966	120.31
338.194	108.31
338.422	121.31
338.65	107.31
338.878	119.31
339.106	105.31
339.334	122.31
339.562	113.31
339.79	112.31
340.018	107.31
340.246	103.31
340.474	115.31
340.702	104.31
340.93	119.31
341.158	110.31
341.386	115.31
341.614	114.31
341.842	108.31
342.07	121.31
342.298	105.31
342.526	112.31
342.754	122.31
342.981	123.31
343.209	117.31
343.437	107.31
343.665	107.31
343.893	123.31
344.12	116.31
344.348	122.31
344.576	103.31
344.804	120.31
345.031	115.31
345.259	128.31
345.487	105.31
345.714	104.31
345.942	102.31
346.17	103.31
346.397	104.31
346.625	124.31
346.853	93.31
347.08	98.31
347.308	101.31
347.535	116.31
347.763	106.31
347.99	103.31
348.218	107.31
348.445	108.31
348.673	103.31
348.9	98.31
349.128	106.31
349.355	102.31
349.583	99.31
349.81	95.31
350.037	99.31
350.265	102.31
350.492	108.31
350.72	98.31
350.947	105.31
351.174	109.31
351.402	114.31
351.629	104.31
351.856	122.31
352.083	107.31
352.311	101.31
352.538	113.31
352.765	114.31
352.992	92.31
353.22	109.31
353.447	107.31
353.674	112.31
353.901	110.31
354.128	104.31
354.355	109.31
354.583	116.31
354.81	122.31
355.037	110.31
355.264	122.31
355.491	107.31
355.718	121.31
355.945	104.31
356.172	101.31
356.399	91.31
356.626	102.31
356.853	98.31
357.08	104.31
357.307	105.31
357.534	106.31
357.761	96.31
357.988	105.31
358.215	113.31
358.441	106.31
358.668	103.31
358.895	122.31
359.122	102.31
359.349	111.31
359.576	117.31
359.802	105.31
360.029	119.31
360.256	99.31
360.483	94.31
360.709	106.31
360.936	121.31
361.163	119.31
361.39	107.31
361.616	99.31
361.843	103.31
362.07	103.31
362.296	108.31
362.523	95.31
362.749	109.31
362.976	98.31
363.203	112.31
363.429	117.31
363.656	109.31
363.882	115.31
364.109	106.31
364.335	111.31
364.562	94.31
364.788	106.31
365.015	94.31
365.241	106.31
365.468	125.31
365.694	114.31
365.92	114.31
366.147	113.31
366.373	96.31
366.599	122.31
366.826	111.31
367.052	107.31
367.278	114.31
367.505	111.31
367.731	109.31
367.957	103.31
368.184	102.31
368.41	102.31
368.636	115.31
368.862	112.31
369.089	104.31
369.315	116.31
369.541	130.31
369.767	111.31
369.993	118.31
370.219	91.31
370.445	102.31
370.672	108.31
370.898	116.31
371.124	103.31
371.35	108.31
371.576	93.31
371.802	111.31
372.028	102.31
372.254	108.31
372.48	128.31
372.706	118.31
372.932	101.31
373.158	128.31
373.384	130.31
373.61	110.31
373.835	112.31
374.061	117.31
374.287	106.31
374.513	107.31
374.739	119.31
374.965	114.31
375.191	100.31
375.416	102.31
375.642	106.31
375.868	107.31
376.094	127.31
376.319	101.31
376.545	105.31
376.771	95.31
376.997	116.31
377.222	100.31
377.448	123.31
377.674	112.31
377.899	107.31
378.125	119.31
378.35	121.31
378.576	94.31
378.802	114.31
379.027	99.31
379.253	105.31
379.478	92.31
379.704	117.31
379.929	122.31
380.155	103.31
380.38	101.31
380.606	128.31
380.831	121.31
381.057	116.31
381.282	117.31
381.507	111.31
381.733	106.31
381.958	114.31
382.184	104.31
382.409	107.31
382.634	122.31
382.86	111.31
383.085	112.31
383.31	105.31
383.535	126.31
383.761	120.31
383.986	126.31
384.211	110.31
384.436	123.31
384.662	116.31
384.887	121.31
385.112	119.31
385.337	118.31
385.562	121.31
385.787	136.31
386.013	126.31
386.238	111.31
386.463	109.31
386.688	125.31
386.913	122.31
387.138	111.31
387.363	111.31
387.588	123.31
387.813	121.31
388.038	127.31
388.263	125.31
388.488	114.31
388.713	116.31
388.938	105.31
389.163	111.31
389.387	120.31
389.612	115.31
389.837	109.31
390.062	105.31
390.287	124.31
390.512	124.31
390.736	134.31
390.961	124.31
391.186	116.31
391.411	110.31
391.636	113.31
391.86	118.31
392.085	136.31
392.31	120.31
392.534	122.31
392.759	116.31
392.984	119.31
393.208	117.31
393.433	104.31
393.658	120.31
393.882	123.31
394.107	120.31
394.331	117.31
394.556	112.31
394.78	110.31
395.005	118.31
395.229	118.31
395.454	119.31
395.678	119.31
395.903	132.31
396.127	105.31
396.352	118.31
396.576	117.31
396.801	116.31
397.025	130.31
397.249	116.31
397.474	125.31
397.698	119.31
397.922	127.31
398.147	144.31
398.371	136.31
398.595	128.31
398.82	140.31
399.044	122.31
399.268	135.31
399.492	148.31
399.717	140.31
399.941	139.31
400.165	140.31
400.389	140.31
400.613	132.31
400.837	125.31
401.062	144.31
401.286	132.31
401.51	120.31
401.734	134.31
401.958	125.31
402.182	131.31
402.406	126.31
402.63	124.31
402.854	142.31
403.078	125.31
403.302	129.31
403.526	133.31
403.75	143.31
403.974	133.31
404.198	145.31
404.422	143.31
404.645	138.31
404.869	139.31
405.093	138.31
405.317	127.31
405.541	128.31
405.765	143.31
405.988	130.31
406.212	132.31
406.436	128.31
406.66	135.31
406.883	141.31
407.107	142.31
407.331	155.31
407.555	156.31
407.778	143.31
408.002	130.31
408.226	141.31
408.449	141.31
408.673	141.31
408.896	127.31
409.12	123.31
409.344	136.31
409.567	125.31
409.791	118.31
410.014	127.31
410.238	122.31
410.461	138.31
410.685	125.31
410.908	134.31
411.132	141.31
411.355	132.31
411.578	141.31
411.802	134.31
412.025	134.31
412.249	127.31
412.472	123.31
412.695	140.31
412.919	126.31
413.142	132.31
413.365	136.31
413.589	127.31
413.812	122.31
414.035	126.31
414.258	125.31
414.482	116.31
414.705	130.31
414.928	133.31
415.151	134.31
415.374	133.31
415.597	124.31
415.821	114.31
416.044	124.31
416.267	134.31
416.49	134.31
416.713	134.31
416.936	126.31
417.159	124.31
417.382	121.31
417.605	135.31
417.828	118.31
418.051	143.31
418.274	134.31
418.497	120.31
418.72	119.31
418.943	130.31
419.166	146.31
419.389	120.31
419.611	137.31
419.834	145.31
420.057	133.31
420.28	138.31
420.503	123.31
420.726	130.31
420.948	138.31
421.171	136.31
421.394	139.31
421.617	135.31
421.839	126.31
422.062	126.31
422.285	137.31
422.507	124.31
422.73	130.31
422.953	122.31
423.175	132.31
423.398	136.31
423.621	137.31
423.843	131.31
424.066	133.31
424.288	121.31
424.511	136.31
424.733	142.31
424.956	132.31
425.178	124.31
425.401	132.31
425.623	128.31
425.846	118.31
426.068	125.31
426.291	151.31
426.513	128.31
426.735	128.31
426.958	129.31
427.18	131.31
427.402	142.31
427.625	134.31
427.847	129.31
428.069	133.31
428.292	123.31
428.514	142.31
428.736	125.31
428.958	133.31
429.181	134.31
429.403	118.31
429.625	108.31
429.847	116.31
430.069	128.31
430.292	139.31
430.514	126.31
430.736	124.31
430.958	122.31
431.18	132.31
431.402	124.31
431.624	125.31
431.846	122.31
432.068	119.31
432.29	127.31
432.512	116.31
432.734	115.31
432.956	142.31
433.178	142.31
433.4	124.31
433.622	128.31
433.844	139.31
434.066	138.31
434.287	124.31
434.509	123.31
434.731	119.31
434.953	118.31
435.175	132.31
435.397	145.31
435.618	126.31
435.84	134.31
436.062	130.31
436.284	135.31
436.505	127.31
436.727	127.31
436.949	131.31
437.17	125.31
437.392	116.31
437.614	117.31
437.835	132.31
438.057	144.31
438.278	134.31
438.5	129.31
438.721	137.31
438.943	134.31
439.165	119.31
439.386	114.31
439.608	138.31
439.829	130.31
440.05	127.31
440.272	138.31
440.493	118.31
440.715	130.31
440.936	130.31
441.158	146.31
441.379	130.31
441.6	134.31
441.822	135.31
442.043	124.31
442.264	134.31
442.486	145.31
442.707	122.31
442.928	134.31
443.149	136.31
443.371	134.31
443.592	136.31
443.813	140.31
444.034	137.31
444.255	128.31
444.476	146.31
444.698	133.31
444.919	128.31
445.14	265.31
445.361	179.31
445.582	151.31
445.803	127.31
446.024	126.31
446.245	130.31
446.466	133.31
446.687	129.31
446.908	140.31
447.129	130.31
447.35	126.31
447.571	122.31
447.792	114.31
448.013	126.31
448.234	138.31
448.455	131.31
448.675	128.31
448.896	138.31
449.117	127.31
449.338	114.31
449.559	140.31
449.779	140.31
450	136.31
450.221	111.31
450.442	114.31
450.662	110.31
450.883	111.31
451.104	111.31
451.324	125.31
451.545	137.31
451.766	135.31
451.986	126.31
452.207	116.31
452.428	117.31
452.648	124.31
452.869	117.31
453.089	126.31
453.31	119.31
453.53	102.31
453.751	126.31
453.971	116.31
454.192	110.31
454.412	102.31
454.633	118.31
454.853	124.31
455.073	128.31
455.294	124.31
455.514	123.31
455.734	122.31
455.955	118.31
456.175	106.31
456.395	119.31
456.616	106.31
456.836	113.31
457.056	127.31
457.276	105.31
457.497	112.31
457.717	118.31
457.937	118.31
458.157	118.31
458.377	107.31
458.598	118.31
458.818	121.31
459.038	121.31
459.258	125.31
459.478	112.31
459.698	124.31
459.918	111.31
460.138	125.31
460.358	129.31
460.578	130.31
460.798	125.31
461.018	131.31
461.238	121.31
461.458	137.31
461.678	119.31
461.898	111.31
462.118	126.31
462.338	128.31
462.558	134.31
462.777	127.31
462.997	134.31
463.217	151.31
463.437	141.31
463.657	138.31
463.876	142.31
464.096	132.31
464.316	135.31
464.536	142.31
464.755	147.31
464.975	139.31
465.195	145.31
465.414	126.31
465.634	122.31
465.854	124.31
466.073	114.31
466.293	124.31
466.512	115.31
466.732	126.31
466.951	122.31
467.171	128.31
467.391	117.31
467.61	114.31
467.829	108.31
468.049	122.31
468.268	121.31
468.488	117.31
468.707	114.31
468.927	123.31
469.146	107.31
469.365	134.31
469.585	126.31
469.804	131.31
470.023	116.31
470.243	122.31
470.462	135.31
470.681	120.31
470.901	127.31
471.12	130.31
471.339	141.31
471.558	114.31
471.777	128.31
471.997	126.31
472.216	118.31
472.435	126.31
472.654	110.31
472.873	127.31
473.092	115.31
473.311	133.31
473.53	124.31
473.749	117.31
473.968	120.31
474.187	117.31
474.406	129.31
474.625	134.31
474.844	125.31
475.063	119.31
475.282	110.31
475.501	132.31
475.72	130.31
475.939	131.31
476.158	121.31
476.377	117.31
476.596	126.31
476.814	122.31
477.033	134.31
477.252	133.31
477.471	132.31
477.69	129.31
477.908	126.31
478.127	134.31
478.346	131.31
478.564	121.31
478.783	128.31
479.002	127.31
479.22	130.31
479.439	140.31
479.658	138.31
479.876	124.31
480.095	136.31
480.313	136.31
480.532	144.31
480.751	152.31
480.969	130.31
481.188	133.31
481.406	150.31
481.624	136.31
481.843	113.31
482.061	126.31
482.28	138.31
482.498	119.31
482.717	116.31
482.935	128.31
483.153	130.31
483.372	116.31
483.59	136.31
483.808	136.31
484.027	123.31
484.245	138.31
484.463	137.31
484.681	149.31
484.9	136.31
485.118	122.31
485.336	130.31
485.554	141.31
485.772	140.31
485.99	130.31
486.209	136.31
486.427	140.31
486.645	132.31
486.863	136.31
487.081	133.31
487.299	123.31
487.517	134.31
487.735	150.31
487.953	133.31
488.171	134.31
488.389	127.31
488.607	134.31
488.825	130.31
489.043	143.31
489.261	134.31
489.479	136.31
489.696	137.31
489.914	147.31
490.132	136.31
490.35	138.31
490.568	151.31
490.786	136.31
491.003	149.31
491.221	131.31
491.439	148.31
491.657	140.31
491.874	151.31
492.092	141.31
492.31	142.31
492.527	137.31
492.745	142.31
492.963	137.31
493.18	144.31
493.398	158.31
493.615	130.31
493.833	121.31
494.05	139.31
494.268	158.31
494.485	141.31
494.703	152.31
494.92	138.31
495.138	149.31
495.355	164.31
495.573	148.31
495.79	144.31
496.008	155.31
496.225	148.31
496.442	138.31
496.66	138.31
496.877	147.31
497.094	148.31
497.312	134.31
497.529	141.31
497.746	158.31
497.963	150.31
498.181	153.31
498.398	155.31
498.615	159.31
498.832	145.31
499.049	159.31
499.267	162.31
499.484	191.31
499.701	191.31
499.918	186.31
500.135	196.31
500.352	217.31
500.569	227.31
500.786	198.31
501.003	217.31
501.22	179.31
501.437	187.31
501.654	161.31
501.871	168.31
502.088	157.31
502.305	148.31
502.522	145.31
502.739	136.31
502.956	159.31
503.172	153.31
503.389	154.31
503.606	148.31
503.823	151.31
504.04	138.31
504.256	141.31
504.473	162.31
504.69	138.31
504.907	156.31
505.123	143.31
505.34	150.31
505.557	126.31
