Data from 1968.PennyLincolnUp.Lamp.En5.5.200Scan.071719.P1._HRD10591_14-52-17-970.txt Node
Date: Thu Jul 18 14:52:17 EDT 2019
User: cochatt
Spectrometer: HR+D1059
Trigger mode: 1
Integration Time (sec): 1.000000E-1
Scans to average: 1
Electric dark correction enabled: true
Nonlinearity correction enabled: false
Boxcar width: 0
XAxis mode: Wavelengths
Number of Pixels in Spectrum: 2048
>>>>>Begin Spectral Data<<<<<
223.165	-8.44
223.4	-8.44
223.635	-8.44
223.869	-17.44
224.104	-13.44
224.338	-22.44
224.573	-16.44
224.808	-8.44
225.042	-4.44
225.277	6.56
225.511	-16.44
225.746	2.56
225.98	-0.44
226.215	9.56
226.449	18.56
226.683	15.56
226.918	24.56
227.152	30.56
227.387	34.56
227.621	40.56
227.856	46.56
228.09	35.56
228.324	51.56
228.559	45.56
228.793	41.56
229.027	55.56
229.262	62.56
229.496	75.56
229.73	85.56
229.964	66.56
230.199	64.56
230.433	67.56
230.667	91.56
230.901	77.56
231.136	87.56
231.37	80.56
231.604	99.56
231.838	71.56
232.072	78.56
232.306	78.56
232.541	80.56
232.775	80.56
233.009	102.56
233.243	90.56
233.477	94.56
233.711	75.56
233.945	89.56
234.179	90.56
234.413	79.56
234.647	91.56
234.881	90.56
235.115	91.56
235.349	66.56
235.583	80.56
235.817	89.56
236.051	86.56
236.285	77.56
236.519	85.56
236.753	79.56
236.987	85.56
237.221	90.56
237.455	99.56
237.689	86.56
237.922	85.56
238.156	80.56
238.39	81.56
238.624	71.56
238.858	84.56
239.091	91.56
239.325	85.56
239.559	76.56
239.793	93.56
240.027	80.56
240.26	79.56
240.494	86.56
240.728	86.56
240.961	93.56
241.195	92.56
241.429	91.56
241.662	90.56
241.896	74.56
242.13	76.56
242.363	86.56
242.597	79.56
242.83	94.56
243.064	94.56
243.298	87.56
243.531	80.56
243.765	83.56
243.998	74.56
244.232	84.56
244.465	78.56
244.699	85.56
244.932	94.56
245.166	95.56
245.399	85.56
245.633	77.56
245.866	98.56
246.099	88.56
246.333	78.56
246.566	85.56
246.8	84.56
247.033	90.56
247.266	71.56
247.5	88.56
247.733	90.56
247.966	88.56
248.2	82.56
248.433	79.56
248.666	95.56
248.899	101.56
249.133	114.56
249.366	94.56
249.599	88.56
249.832	94.56
250.066	95.56
250.299	95.56
250.532	106.56
250.765	93.56
250.998	88.56
251.231	95.56
251.465	80.56
251.698	88.56
251.931	91.56
252.164	79.56
252.397	90.56
252.63	83.56
252.863	106.56
253.096	96.56
253.329	86.56
253.562	97.56
253.795	94.56
254.028	90.56
254.261	86.56
254.494	88.56
254.727	91.56
254.96	94.56
255.193	99.56
255.426	91.56
255.659	91.56
255.892	87.56
256.124	93.56
256.357	83.56
256.59	110.56
256.823	83.56
257.056	94.56
257.289	92.56
257.521	88.56
257.754	93.56
257.987	93.56
258.22	96.56
258.452	88.56
258.685	94.56
258.918	82.56
259.151	92.56
259.383	85.56
259.616	105.56
259.849	86.56
260.081	90.56
260.314	89.56
260.547	99.56
260.779	93.56
261.012	81.56
261.244	92.56
261.477	114.56
261.71	101.56
261.942	94.56
262.175	94.56
262.407	101.56
262.64	96.56
262.872	91.56
263.105	95.56
263.337	85.56
263.57	99.56
263.802	88.56
264.035	95.56
264.267	91.56
264.499	73.56
264.732	92.56
264.964	91.56
265.197	104.56
265.429	94.56
265.661	93.56
265.894	82.56
266.126	97.56
266.358	95.56
266.591	96.56
266.823	79.56
267.055	78.56
267.287	86.56
267.52	82.56
267.752	97.56
267.984	86.56
268.216	90.56
268.448	102.56
268.681	89.56
268.913	101.56
269.145	113.56
269.377	80.56
269.609	91.56
269.841	111.56
270.073	95.56
270.306	95.56
270.538	102.56
270.77	94.56
271.002	91.56
271.234	109.56
271.466	93.56
271.698	103.56
271.93	104.56
272.162	106.56
272.394	93.56
272.626	106.56
272.858	99.56
273.09	105.56
273.322	104.56
273.553	103.56
273.785	92.56
274.017	101.56
274.249	107.56
274.481	84.56
274.713	99.56
274.945	103.56
275.176	89.56
275.408	105.56
275.64	116.56
275.872	99.56
276.104	104.56
276.335	103.56
276.567	85.56
276.799	96.56
277.031	88.56
277.262	106.56
277.494	95.56
277.726	103.56
277.957	94.56
278.189	98.56
278.421	100.56
278.652	97.56
278.884	100.56
279.115	108.56
279.347	98.56
279.579	108.56
279.81	110.56
280.042	95.56
280.273	84.56
280.505	104.56
280.736	105.56
280.968	98.56
281.199	98.56
281.431	99.56
281.662	83.56
281.894	96.56
282.125	90.56
282.356	102.56
282.588	96.56
282.819	94.56
283.051	97.56
283.282	88.56
283.513	92.56
283.745	105.56
283.976	97.56
284.207	106.56
284.439	120.56
284.67	107.56
284.901	116.56
285.132	104.56
285.364	104.56
285.595	99.56
285.826	103.56
286.057	111.56
286.288	118.56
286.52	114.56
286.751	114.56
286.982	88.56
287.213	100.56
287.444	109.56
287.675	104.56
287.906	108.56
288.138	88.56
288.369	116.56
288.6	90.56
288.831	110.56
289.062	108.56
289.293	92.56
289.524	114.56
289.755	109.56
289.986	110.56
290.217	122.56
290.448	100.56
290.679	105.56
290.91	102.56
291.141	102.56
291.371	105.56
291.602	118.56
291.833	105.56
292.064	87.56
292.295	106.56
292.526	110.56
292.757	109.56
292.987	105.56
293.218	103.56
293.449	101.56
293.68	97.56
293.91	109.56
294.141	108.56
294.372	115.56
294.603	91.56
294.833	94.56
295.064	105.56
295.295	85.56
295.525	100.56
295.756	104.56
295.987	109.56
296.217	94.56
296.448	103.56
296.679	99.56
296.909	90.56
297.14	107.56
297.37	104.56
297.601	98.56
297.831	94.56
298.062	108.56
298.292	108.56
298.523	107.56
298.753	106.56
298.984	94.56
299.214	102.56
299.445	84.56
299.675	107.56
299.905	99.56
300.136	110.56
300.366	119.56
300.597	98.56
300.827	118.56
301.057	106.56
301.288	102.56
301.518	97.56
301.748	102.56
301.979	107.56
302.209	98.56
302.439	116.56
302.669	98.56
302.9	101.56
303.13	107.56
303.36	120.56
303.59	102.56
303.82	114.56
304.051	110.56
304.281	107.56
304.511	109.56
304.741	104.56
304.971	109.56
305.201	118.56
305.431	103.56
305.661	111.56
305.891	114.56
306.121	111.56
306.352	107.56
306.582	113.56
306.812	109.56
307.042	110.56
307.272	98.56
307.502	92.56
307.731	107.56
307.961	100.56
308.191	100.56
308.421	107.56
308.651	102.56
308.881	106.56
309.111	110.56
309.341	109.56
309.571	108.56
309.8	108.56
310.03	107.56
310.26	98.56
310.49	108.56
310.72	113.56
310.949	110.56
311.179	124.56
311.409	107.56
311.639	104.56
311.868	118.56
312.098	84.56
312.328	123.56
312.557	108.56
312.787	126.56
313.017	116.56
313.246	116.56
313.476	102.56
313.706	106.56
313.935	105.56
314.165	115.56
314.394	108.56
314.624	103.56
314.853	98.56
315.083	113.56
315.312	109.56
315.542	99.56
315.771	116.56
316.001	114.56
316.23	123.56
316.46	128.56
316.689	110.56
316.919	106.56
317.148	119.56
317.377	110.56
317.607	116.56
317.836	118.56
318.065	110.56
318.295	99.56
318.524	114.56
318.753	108.56
318.983	107.56
319.212	115.56
319.441	108.56
319.67	114.56
319.9	108.56
320.129	115.56
320.358	121.56
320.587	108.56
320.816	124.56
321.046	115.56
321.275	107.56
321.504	110.56
321.733	115.56
321.962	106.56
322.191	111.56
322.42	109.56
322.649	98.56
322.878	134.56
323.108	103.56
323.337	108.56
323.566	122.56
323.795	117.56
324.024	118.56
324.253	104.56
324.482	135.56
324.71	177.56
324.939	187.56
325.168	159.56
325.397	126.56
325.626	117.56
325.855	115.56
326.084	102.56
326.313	130.56
326.542	97.56
326.77	105.56
326.999	110.56
327.228	146.56
327.457	149.56
327.686	158.56
327.914	129.56
328.143	127.56
328.372	128.56
328.6	103.56
328.829	130.56
329.058	114.56
329.287	111.56
329.515	125.56
329.744	115.56
329.972	112.56
330.201	126.56
330.43	116.56
330.658	111.56
330.887	111.56
331.115	132.56
331.344	105.56
331.572	103.56
331.801	111.56
332.03	131.56
332.258	125.56
332.486	111.56
332.715	131.56
332.943	123.56
333.172	112.56
333.4	110.56
333.629	113.56
333.857	126.56
334.085	109.56
334.314	130.56
334.542	120.56
334.771	121.56
334.999	114.56
335.227	119.56
335.455	116.56
335.684	124.56
335.912	116.56
336.14	104.56
336.369	118.56
336.597	126.56
336.825	121.56
337.053	119.56
337.281	120.56
337.51	117.56
337.738	130.56
337.966	125.56
338.194	112.56
338.422	119.56
338.65	117.56
338.878	122.56
339.106	103.56
339.334	116.56
339.562	116.56
339.79	105.56
340.018	111.56
340.246	108.56
340.474	114.56
340.702	115.56
340.93	117.56
341.158	109.56
341.386	113.56
341.614	112.56
341.842	116.56
342.07	114.56
342.298	102.56
342.526	109.56
342.754	103.56
342.981	109.56
343.209	118.56
343.437	109.56
343.665	117.56
343.893	128.56
344.12	138.56
344.348	120.56
344.576	106.56
344.804	118.56
345.031	115.56
345.259	108.56
345.487	115.56
345.714	123.56
345.942	121.56
346.17	104.56
346.397	107.56
346.625	123.56
346.853	99.56
347.08	112.56
347.308	115.56
347.535	118.56
347.763	113.56
347.99	114.56
348.218	117.56
348.445	119.56
348.673	121.56
348.9	112.56
349.128	88.56
349.355	107.56
349.583	102.56
349.81	106.56
350.037	101.56
350.265	111.56
350.492	100.56
350.72	108.56
350.947	107.56
351.174	123.56
351.402	118.56
351.629	106.56
351.856	115.56
352.083	107.56
352.311	116.56
352.538	98.56
352.765	118.56
352.992	118.56
353.22	100.56
353.447	118.56
353.674	108.56
353.901	114.56
354.128	117.56
354.355	109.56
354.583	113.56
354.81	120.56
355.037	95.56
355.264	115.56
355.491	107.56
355.718	107.56
355.945	111.56
356.172	107.56
356.399	95.56
356.626	100.56
356.853	111.56
357.08	108.56
357.307	115.56
357.534	93.56
357.761	100.56
357.988	106.56
358.215	134.56
358.441	118.56
358.668	98.56
358.895	110.56
359.122	116.56
359.349	115.56
359.576	110.56
359.802	121.56
360.029	115.56
360.256	122.56
360.483	111.56
360.709	100.56
360.936	115.56
361.163	116.56
361.39	112.56
361.616	104.56
361.843	102.56
362.07	116.56
362.296	111.56
362.523	107.56
362.749	96.56
362.976	109.56
363.203	101.56
363.429	90.56
363.656	109.56
363.882	120.56
364.109	111.56
364.335	114.56
364.562	107.56
364.788	117.56
365.015	118.56
365.241	123.56
365.468	121.56
365.694	120.56
365.92	115.56
366.147	114.56
366.373	118.56
366.599	118.56
366.826	107.56
367.052	108.56
367.278	123.56
367.505	111.56
367.731	103.56
367.957	111.56
368.184	110.56
368.41	113.56
368.636	118.56
368.862	120.56
369.089	119.56
369.315	117.56
369.541	126.56
369.767	117.56
369.993	121.56
370.219	124.56
370.445	120.56
370.672	105.56
370.898	116.56
371.124	107.56
371.35	105.56
371.576	117.56
371.802	112.56
372.028	125.56
372.254	114.56
372.48	112.56
372.706	120.56
372.932	130.56
373.158	114.56
373.384	103.56
373.61	117.56
373.835	121.56
374.061	119.56
374.287	112.56
374.513	127.56
374.739	127.56
374.965	117.56
375.191	122.56
375.416	120.56
375.642	112.56
375.868	92.56
376.094	112.56
376.319	111.56
376.545	118.56
376.771	107.56
376.997	103.56
377.222	117.56
377.448	122.56
377.674	105.56
377.899	116.56
378.125	116.56
378.35	119.56
378.576	111.56
378.802	120.56
379.027	115.56
379.253	119.56
379.478	116.56
379.704	100.56
379.929	101.56
380.155	112.56
380.38	115.56
380.606	105.56
380.831	111.56
381.057	117.56
381.282	107.56
381.507	128.56
381.733	140.56
381.958	120.56
382.184	122.56
382.409	111.56
382.634	109.56
382.86	119.56
383.085	117.56
383.31	111.56
383.535	108.56
383.761	116.56
383.986	130.56
384.211	115.56
384.436	122.56
384.662	103.56
384.887	118.56
385.112	114.56
385.337	130.56
385.562	108.56
385.787	127.56
386.013	136.56
386.238	120.56
386.463	108.56
386.688	127.56
386.913	116.56
387.138	121.56
387.363	127.56
387.588	118.56
387.813	120.56
388.038	117.56
388.263	123.56
388.488	124.56
388.713	122.56
388.938	116.56
389.163	127.56
389.387	128.56
389.612	125.56
389.837	120.56
390.062	122.56
390.287	113.56
390.512	110.56
390.736	123.56
390.961	98.56
391.186	136.56
391.411	111.56
391.636	122.56
391.86	120.56
392.085	129.56
392.31	103.56
392.534	120.56
392.759	113.56
392.984	118.56
393.208	118.56
393.433	130.56
393.658	130.56
393.882	118.56
394.107	117.56
394.331	104.56
394.556	130.56
394.78	122.56
395.005	119.56
395.229	133.56
395.454	114.56
395.678	119.56
395.903	123.56
396.127	130.56
396.352	120.56
396.576	123.56
396.801	128.56
397.025	120.56
397.249	129.56
397.474	139.56
397.698	141.56
397.922	132.56
398.147	116.56
398.371	123.56
398.595	103.56
398.82	127.56
399.044	146.56
399.268	134.56
399.492	138.56
399.717	150.56
399.941	144.56
400.165	134.56
400.389	162.56
400.613	124.56
400.837	128.56
401.062	127.56
401.286	126.56
401.51	132.56
401.734	120.56
401.958	116.56
402.182	135.56
402.406	108.56
402.63	123.56
402.854	126.56
403.078	111.56
403.302	134.56
403.526	132.56
403.75	143.56
403.974	130.56
404.198	146.56
404.422	128.56
404.645	126.56
404.869	138.56
405.093	152.56
405.317	130.56
405.541	124.56
405.765	134.56
405.988	138.56
406.212	143.56
406.436	127.56
406.66	129.56
406.883	124.56
407.107	131.56
407.331	149.56
407.555	142.56
407.778	137.56
408.002	131.56
408.226	140.56
408.449	134.56
408.673	139.56
408.896	140.56
409.12	139.56
409.344	148.56
409.567	125.56
409.791	115.56
410.014	139.56
410.238	137.56
410.461	139.56
410.685	135.56
410.908	135.56
411.132	144.56
411.355	143.56
411.578	147.56
411.802	131.56
412.025	127.56
412.249	124.56
412.472	140.56
412.695	131.56
412.919	115.56
413.142	130.56
413.365	126.56
413.589	133.56
413.812	136.56
414.035	139.56
414.258	125.56
414.482	130.56
414.705	130.56
414.928	135.56
415.151	122.56
415.374	129.56
415.597	131.56
415.821	128.56
416.044	122.56
416.267	121.56
416.49	128.56
416.713	127.56
416.936	111.56
417.159	132.56
417.382	115.56
417.605	131.56
417.828	138.56
418.051	128.56
418.274	139.56
418.497	125.56
418.72	140.56
418.943	141.56
419.166	130.56
419.389	140.56
419.611	132.56
419.834	134.56
420.057	147.56
420.28	134.56
420.503	127.56
420.726	126.56
420.948	128.56
421.171	138.56
421.394	136.56
421.617	138.56
421.839	132.56
422.062	132.56
422.285	110.56
422.507	128.56
422.73	136.56
422.953	142.56
423.175	143.56
423.398	138.56
423.621	149.56
423.843	127.56
424.066	130.56
424.288	148.56
424.511	126.56
424.733	143.56
424.956	141.56
425.178	145.56
425.401	136.56
425.623	142.56
425.846	139.56
426.068	135.56
426.291	118.56
426.513	117.56
426.735	136.56
426.958	124.56
427.18	155.56
427.402	150.56
427.625	151.56
427.847	134.56
428.069	140.56
428.292	124.56
428.514	140.56
428.736	130.56
428.958	123.56
429.181	117.56
429.403	128.56
429.625	123.56
429.847	122.56
430.069	132.56
430.292	135.56
430.514	134.56
430.736	136.56
430.958	136.56
431.18	131.56
431.402	120.56
431.624	140.56
431.846	118.56
432.068	122.56
432.29	123.56
432.512	124.56
432.734	130.56
432.956	148.56
433.178	127.56
433.4	148.56
433.622	138.56
433.844	137.56
434.066	125.56
434.287	130.56
434.509	128.56
434.731	133.56
434.953	130.56
435.175	123.56
435.397	140.56
435.618	126.56
435.84	139.56
436.062	144.56
436.284	144.56
436.505	131.56
436.727	118.56
436.949	119.56
437.17	122.56
437.392	116.56
437.614	138.56
437.835	126.56
438.057	130.56
438.278	142.56
438.5	142.56
438.721	143.56
438.943	148.56
439.165	118.56
439.386	133.56
439.608	147.56
439.829	124.56
440.05	144.56
440.272	135.56
440.493	125.56
440.715	141.56
440.936	127.56
441.158	126.56
441.379	132.56
441.6	144.56
441.822	136.56
442.043	140.56
442.264	144.56
442.486	146.56
442.707	118.56
442.928	130.56
443.149	134.56
443.371	156.56
443.592	132.56
443.813	167.56
444.034	163.56
444.255	149.56
444.476	134.56
444.698	145.56
444.919	148.56
445.14	226.56
445.361	175.56
445.582	150.56
445.803	127.56
446.024	136.56
446.245	142.56
446.466	134.56
446.687	133.56
446.908	120.56
447.129	140.56
447.35	130.56
447.571	136.56
447.792	125.56
448.013	130.56
448.234	125.56
448.455	130.56
448.675	135.56
448.896	144.56
449.117	127.56
449.338	132.56
449.559	148.56
449.779	136.56
450	142.56
450.221	119.56
450.442	120.56
450.662	116.56
450.883	118.56
451.104	126.56
451.324	129.56
451.545	115.56
451.766	120.56
451.986	119.56
452.207	131.56
452.428	121.56
452.648	133.56
452.869	123.56
453.089	128.56
453.31	122.56
453.53	98.56
453.751	118.56
453.971	123.56
454.192	123.56
454.412	126.56
454.633	120.56
454.853	133.56
455.073	128.56
455.294	121.56
455.514	142.56
455.734	126.56
455.955	114.56
456.175	115.56
456.395	99.56
456.616	111.56
456.836	116.56
457.056	130.56
457.276	116.56
457.497	109.56
457.717	111.56
457.937	117.56
458.157	116.56
458.377	133.56
458.598	114.56
458.818	128.56
459.038	120.56
459.258	118.56
459.478	132.56
459.698	124.56
459.918	120.56
460.138	129.56
460.358	134.56
460.578	132.56
460.798	135.56
461.018	135.56
461.238	134.56
461.458	145.56
461.678	124.56
461.898	127.56
462.118	151.56
462.338	117.56
462.558	130.56
462.777	146.56
462.997	134.56
463.217	138.56
463.437	154.56
463.657	144.56
463.876	125.56
464.096	149.56
464.316	156.56
464.536	125.56
464.755	152.56
464.975	127.56
465.195	140.56
465.414	136.56
465.634	125.56
465.854	123.56
466.073	111.56
466.293	121.56
466.512	120.56
466.732	138.56
466.951	123.56
467.171	122.56
467.391	125.56
467.61	139.56
467.829	133.56
468.049	129.56
468.268	133.56
468.488	126.56
468.707	113.56
468.927	116.56
469.146	127.56
469.365	127.56
469.585	119.56
469.804	106.56
470.023	128.56
470.243	124.56
470.462	143.56
470.681	130.56
470.901	143.56
471.12	122.56
471.339	132.56
471.558	135.56
471.777	120.56
471.997	123.56
472.216	139.56
472.435	121.56
472.654	116.56
472.873	116.56
473.092	132.56
473.311	122.56
473.53	123.56
473.749	130.56
473.968	119.56
474.187	128.56
474.406	138.56
474.625	121.56
474.844	135.56
475.063	127.56
475.282	111.56
475.501	120.56
475.72	123.56
475.939	128.56
476.158	109.56
476.377	135.56
476.596	128.56
476.814	128.56
477.033	105.56
477.252	129.56
477.471	114.56
477.69	112.56
477.908	122.56
478.127	136.56
478.346	115.56
478.564	128.56
478.783	133.56
479.002	125.56
479.22	138.56
479.439	137.56
479.658	134.56
479.876	131.56
480.095	141.56
480.313	137.56
480.532	142.56
480.751	142.56
480.969	132.56
481.188	142.56
481.406	144.56
481.624	151.56
481.843	116.56
482.061	126.56
482.28	132.56
482.498	142.56
482.717	130.56
482.935	133.56
483.153	123.56
483.372	123.56
483.59	130.56
483.808	122.56
484.027	130.56
484.245	138.56
484.463	121.56
484.681	149.56
484.9	147.56
485.118	138.56
485.336	144.56
485.554	128.56
485.772	142.56
485.99	140.56
486.209	130.56
486.427	127.56
486.645	131.56
486.863	129.56
487.081	144.56
487.299	142.56
487.517	137.56
487.735	134.56
487.953	142.56
488.171	136.56
488.389	149.56
488.607	138.56
488.825	132.56
489.043	147.56
489.261	129.56
489.479	126.56
489.696	131.56
489.914	125.56
490.132	141.56
490.35	147.56
490.568	132.56
490.786	137.56
491.003	144.56
491.221	146.56
491.439	154.56
491.657	146.56
491.874	163.56
492.092	142.56
492.31	139.56
492.527	156.56
492.745	146.56
492.963	156.56
493.18	128.56
493.398	151.56
493.615	156.56
493.833	157.56
494.05	156.56
494.268	143.56
494.485	148.56
494.703	166.56
494.92	146.56
495.138	162.56
495.355	151.56
495.573	147.56
495.79	143.56
496.008	163.56
496.225	154.56
496.442	127.56
496.66	151.56
496.877	139.56
497.094	131.56
497.312	148.56
497.529	142.56
497.746	161.56
497.963	129.56
498.181	151.56
498.398	163.56
498.615	169.56
498.832	152.56
499.049	176.56
499.267	168.56
499.484	175.56
499.701	193.56
499.918	207.56
500.135	202.56
500.352	218.56
500.569	219.56
500.786	214.56
501.003	200.56
501.22	205.56
501.437	198.56
501.654	195.56
501.871	166.56
502.088	171.56
502.305	166.56
502.522	164.56
502.739	169.56
502.956	163.56
503.172	146.56
503.389	148.56
503.606	141.56
503.823	157.56
504.04	133.56
504.256	152.56
504.473	168.56
504.69	149.56
504.907	145.56
505.123	148.56
505.34	147.56
