Data from 1968.PennyLincolnUp.Lamp.En5.5.200Scan.071719.P1._HRD10591_14-51-55-970.txt Node
Date: Thu Jul 18 14:51:55 EDT 2019
User: cochatt
Spectrometer: HR+D1059
Trigger mode: 1
Integration Time (sec): 1.000000E-1
Scans to average: 1
Electric dark correction enabled: true
Nonlinearity correction enabled: false
Boxcar width: 0
XAxis mode: Wavelengths
Number of Pixels in Spectrum: 2048
>>>>>Begin Spectral Data<<<<<
223.165	-7.06
223.4	-7.06
223.635	-7.06
223.869	-15.06
224.104	-19.06
224.338	-22.06
224.573	-21.06
224.808	-15.06
225.042	-1.06
225.277	-13.06
225.511	3.94
225.746	7.94
225.98	12.94
226.215	4.94
226.449	8.94
226.683	18.94
226.918	12.94
227.152	42.94
227.387	36.94
227.621	31.94
227.856	49.94
228.09	40.94
228.324	45.94
228.559	44.94
228.793	59.94
229.027	65.94
229.262	60.94
229.496	82.94
229.73	79.94
229.964	91.94
230.199	69.94
230.433	75.94
230.667	81.94
230.901	90.94
231.136	75.94
231.37	88.94
231.604	82.94
231.838	81.94
232.072	87.94
232.306	90.94
232.541	77.94
232.775	92.94
233.009	99.94
233.243	89.94
233.477	91.94
233.711	81.94
233.945	89.94
234.179	94.94
234.413	88.94
234.647	85.94
234.881	92.94
235.115	90.94
235.349	70.94
235.583	75.94
235.817	91.94
236.051	73.94
236.285	89.94
236.519	83.94
236.753	94.94
236.987	79.94
237.221	94.94
237.455	93.94
237.689	92.94
237.922	96.94
238.156	69.94
238.39	82.94
238.624	88.94
238.858	87.94
239.091	79.94
239.325	85.94
239.559	76.94
239.793	82.94
240.027	85.94
240.26	88.94
240.494	81.94
240.728	79.94
240.961	64.94
241.195	78.94
241.429	76.94
241.662	80.94
241.896	75.94
242.13	77.94
242.363	85.94
242.597	93.94
242.83	84.94
243.064	84.94
243.298	69.94
243.531	79.94
243.765	100.94
243.998	83.94
244.232	84.94
244.465	87.94
244.699	86.94
244.932	91.94
245.166	76.94
245.399	69.94
245.633	85.94
245.866	80.94
246.099	94.94
246.333	96.94
246.566	104.94
246.8	73.94
247.033	76.94
247.266	92.94
247.5	94.94
247.733	75.94
247.966	75.94
248.2	97.94
248.433	80.94
248.666	88.94
248.899	85.94
249.133	96.94
249.366	99.94
249.599	91.94
249.832	77.94
250.066	77.94
250.299	80.94
250.532	75.94
250.765	82.94
250.998	80.94
251.231	85.94
251.465	78.94
251.698	80.94
251.931	83.94
252.164	94.94
252.397	85.94
252.63	91.94
252.863	94.94
253.096	87.94
253.329	88.94
253.562	79.94
253.795	84.94
254.028	86.94
254.261	84.94
254.494	93.94
254.727	91.94
254.96	79.94
255.193	81.94
255.426	94.94
255.659	100.94
255.892	76.94
256.124	106.94
256.357	91.94
256.59	84.94
256.823	88.94
257.056	87.94
257.289	74.94
257.521	101.94
257.754	98.94
257.987	90.94
258.22	94.94
258.452	93.94
258.685	78.94
258.918	84.94
259.151	93.94
259.383	86.94
259.616	88.94
259.849	78.94
260.081	86.94
260.314	89.94
260.547	84.94
260.779	94.94
261.012	89.94
261.244	96.94
261.477	77.94
261.71	79.94
261.942	87.94
262.175	89.94
262.407	88.94
262.64	77.94
262.872	102.94
263.105	91.94
263.337	101.94
263.57	89.94
263.802	93.94
264.035	92.94
264.267	82.94
264.499	85.94
264.732	99.94
264.964	98.94
265.197	98.94
265.429	89.94
265.661	107.94
265.894	101.94
266.126	89.94
266.358	93.94
266.591	72.94
266.823	77.94
267.055	94.94
267.287	80.94
267.52	96.94
267.752	89.94
267.984	94.94
268.216	95.94
268.448	101.94
268.681	100.94
268.913	98.94
269.145	84.94
269.377	90.94
269.609	90.94
269.841	104.94
270.073	102.94
270.306	98.94
270.538	94.94
270.77	105.94
271.002	98.94
271.234	94.94
271.466	88.94
271.698	96.94
271.93	99.94
272.162	97.94
272.394	94.94
272.626	116.94
272.858	100.94
273.09	96.94
273.322	103.94
273.553	92.94
273.785	90.94
274.017	88.94
274.249	104.94
274.481	104.94
274.713	91.94
274.945	96.94
275.176	92.94
275.408	93.94
275.64	97.94
275.872	78.94
276.104	92.94
276.335	95.94
276.567	97.94
276.799	92.94
277.031	113.94
277.262	82.94
277.494	91.94
277.726	91.94
277.957	96.94
278.189	94.94
278.421	98.94
278.652	104.94
278.884	93.94
279.115	91.94
279.347	93.94
279.579	105.94
279.81	101.94
280.042	108.94
280.273	101.94
280.505	97.94
280.736	93.94
280.968	102.94
281.199	100.94
281.431	107.94
281.662	112.94
281.894	103.94
282.125	92.94
282.356	99.94
282.588	98.94
282.819	88.94
283.051	95.94
283.282	106.94
283.513	107.94
283.745	109.94
283.976	77.94
284.207	109.94
284.439	103.94
284.67	89.94
284.901	107.94
285.132	107.94
285.364	96.94
285.595	94.94
285.826	107.94
286.057	101.94
286.288	101.94
286.52	98.94
286.751	102.94
286.982	107.94
287.213	104.94
287.444	106.94
287.675	97.94
287.906	101.94
288.138	109.94
288.369	98.94
288.6	104.94
288.831	96.94
289.062	108.94
289.293	96.94
289.524	91.94
289.755	93.94
289.986	102.94
290.217	119.94
290.448	99.94
290.679	92.94
290.91	106.94
291.141	100.94
291.371	109.94
291.602	86.94
291.833	102.94
292.064	122.94
292.295	98.94
292.526	82.94
292.757	87.94
292.987	100.94
293.218	103.94
293.449	106.94
293.68	94.94
293.91	93.94
294.141	91.94
294.372	86.94
294.603	90.94
294.833	101.94
295.064	93.94
295.295	106.94
295.525	112.94
295.756	79.94
295.987	98.94
296.217	100.94
296.448	106.94
296.679	107.94
296.909	109.94
297.14	106.94
297.37	110.94
297.601	104.94
297.831	97.94
298.062	100.94
298.292	96.94
298.523	112.94
298.753	94.94
298.984	98.94
299.214	114.94
299.445	96.94
299.675	112.94
299.905	88.94
300.136	108.94
300.366	105.94
300.597	99.94
300.827	107.94
301.057	108.94
301.288	103.94
301.518	101.94
301.748	105.94
301.979	110.94
302.209	98.94
302.439	100.94
302.669	113.94
302.9	96.94
303.13	109.94
303.36	93.94
303.59	96.94
303.82	93.94
304.051	99.94
304.281	96.94
304.511	124.94
304.741	95.94
304.971	96.94
305.201	114.94
305.431	110.94
305.661	99.94
305.891	96.94
306.121	115.94
306.352	91.94
306.582	107.94
306.812	100.94
307.042	106.94
307.272	105.94
307.502	102.94
307.731	92.94
307.961	93.94
308.191	98.94
308.421	107.94
308.651	104.94
308.881	94.94
309.111	108.94
309.341	104.94
309.571	105.94
309.8	104.94
310.03	105.94
310.26	120.94
310.49	112.94
310.72	114.94
310.949	101.94
311.179	101.94
311.409	112.94
311.639	94.94
311.868	120.94
312.098	107.94
312.328	98.94
312.557	108.94
312.787	101.94
313.017	110.94
313.246	108.94
313.476	124.94
313.706	94.94
313.935	103.94
314.165	113.94
314.394	105.94
314.624	96.94
314.853	105.94
315.083	93.94
315.312	110.94
315.542	111.94
315.771	109.94
316.001	101.94
316.23	120.94
316.46	119.94
316.689	100.94
316.919	94.94
317.148	91.94
317.377	105.94
317.607	114.94
317.836	98.94
318.065	110.94
318.295	103.94
318.524	106.94
318.753	100.94
318.983	112.94
319.212	112.94
319.441	114.94
319.67	94.94
319.9	112.94
320.129	120.94
320.358	121.94
320.587	109.94
320.816	112.94
321.046	100.94
321.275	116.94
321.504	112.94
321.733	115.94
321.962	97.94
322.191	112.94
322.42	92.94
322.649	107.94
322.878	108.94
323.108	127.94
323.337	107.94
323.566	113.94
323.795	104.94
324.024	126.94
324.253	128.94
324.482	141.94
324.71	148.94
324.939	185.94
325.168	154.94
325.397	119.94
325.626	121.94
325.855	121.94
326.084	103.94
326.313	100.94
326.542	115.94
326.77	118.94
326.999	107.94
327.228	140.94
327.457	138.94
327.686	171.94
327.914	136.94
328.143	128.94
328.372	116.94
328.6	116.94
328.829	102.94
329.058	122.94
329.287	122.94
329.515	99.94
329.744	116.94
329.972	118.94
330.201	106.94
330.43	112.94
330.658	115.94
330.887	114.94
331.115	129.94
331.344	120.94
331.572	103.94
331.801	112.94
332.03	115.94
332.258	121.94
332.486	116.94
332.715	114.94
332.943	112.94
333.172	116.94
333.4	132.94
333.629	121.94
333.857	121.94
334.085	121.94
334.314	112.94
334.542	116.94
334.771	117.94
334.999	121.94
335.227	105.94
335.455	120.94
335.684	121.94
335.912	122.94
336.14	121.94
336.369	116.94
336.597	122.94
336.825	109.94
337.053	119.94
337.281	120.94
337.51	119.94
337.738	125.94
337.966	117.94
338.194	114.94
338.422	117.94
338.65	112.94
338.878	130.94
339.106	107.94
339.334	105.94
339.562	128.94
339.79	108.94
340.018	105.94
340.246	118.94
340.474	91.94
340.702	116.94
340.93	125.94
341.158	116.94
341.386	114.94
341.614	118.94
341.842	106.94
342.07	115.94
342.298	114.94
342.526	120.94
342.754	106.94
342.981	107.94
343.209	104.94
343.437	118.94
343.665	118.94
343.893	121.94
344.12	126.94
344.348	120.94
344.576	102.94
344.804	123.94
345.031	105.94
345.259	116.94
345.487	112.94
345.714	104.94
345.942	114.94
346.17	105.94
346.397	113.94
346.625	101.94
346.853	105.94
347.08	110.94
347.308	107.94
347.535	116.94
347.763	120.94
347.99	108.94
348.218	119.94
348.445	118.94
348.673	105.94
348.9	109.94
349.128	93.94
349.355	104.94
349.583	99.94
349.81	104.94
350.037	111.94
350.265	104.94
350.492	112.94
350.72	121.94
350.947	117.94
351.174	97.94
351.402	112.94
351.629	111.94
351.856	110.94
352.083	112.94
352.311	95.94
352.538	102.94
352.765	117.94
352.992	104.94
353.22	106.94
353.447	105.94
353.674	107.94
353.901	116.94
354.128	115.94
354.355	102.94
354.583	121.94
354.81	122.94
355.037	112.94
355.264	100.94
355.491	98.94
355.718	106.94
355.945	105.94
356.172	104.94
356.399	104.94
356.626	100.94
356.853	111.94
357.08	108.94
357.307	112.94
357.534	93.94
357.761	96.94
357.988	92.94
358.215	116.94
358.441	119.94
358.668	113.94
358.895	105.94
359.122	117.94
359.349	107.94
359.576	99.94
359.802	92.94
360.029	95.94
360.256	107.94
360.483	106.94
360.709	115.94
360.936	108.94
361.163	110.94
361.39	107.94
361.616	122.94
361.843	100.94
362.07	102.94
362.296	104.94
362.523	103.94
362.749	116.94
362.976	111.94
363.203	110.94
363.429	102.94
363.656	121.94
363.882	108.94
364.109	104.94
364.335	93.94
364.562	106.94
364.788	98.94
365.015	105.94
365.241	107.94
365.468	106.94
365.694	107.94
365.92	99.94
366.147	118.94
366.373	105.94
366.599	110.94
366.826	104.94
367.052	119.94
367.278	127.94
367.505	117.94
367.731	116.94
367.957	110.94
368.184	101.94
368.41	107.94
368.636	116.94
368.862	116.94
369.089	122.94
369.315	117.94
369.541	121.94
369.767	113.94
369.993	119.94
370.219	105.94
370.445	88.94
370.672	102.94
370.898	115.94
371.124	112.94
371.35	102.94
371.576	124.94
371.802	122.94
372.028	106.94
372.254	117.94
372.48	117.94
372.706	124.94
372.932	112.94
373.158	103.94
373.384	108.94
373.61	114.94
373.835	100.94
374.061	112.94
374.287	104.94
374.513	105.94
374.739	114.94
374.965	105.94
375.191	116.94
375.416	118.94
375.642	123.94
375.868	108.94
376.094	110.94
376.319	101.94
376.545	120.94
376.771	112.94
376.997	107.94
377.222	108.94
377.448	113.94
377.674	108.94
377.899	124.94
378.125	121.94
378.35	125.94
378.576	118.94
378.802	116.94
379.027	109.94
379.253	130.94
379.478	120.94
379.704	101.94
379.929	100.94
380.155	122.94
380.38	96.94
380.606	112.94
380.831	104.94
381.057	119.94
381.282	100.94
381.507	105.94
381.733	114.94
381.958	99.94
382.184	106.94
382.409	109.94
382.634	99.94
382.86	106.94
383.085	125.94
383.31	116.94
383.535	117.94
383.761	117.94
383.986	106.94
384.211	121.94
384.436	97.94
384.662	124.94
384.887	122.94
385.112	125.94
385.337	102.94
385.562	109.94
385.787	123.94
386.013	117.94
386.238	121.94
386.463	102.94
386.688	105.94
386.913	122.94
387.138	105.94
387.363	116.94
387.588	114.94
387.813	117.94
388.038	119.94
388.263	106.94
388.488	126.94
388.713	116.94
388.938	103.94
389.163	120.94
389.387	105.94
389.612	113.94
389.837	104.94
390.062	110.94
390.287	120.94
390.512	108.94
390.736	120.94
390.961	124.94
391.186	114.94
391.411	117.94
391.636	106.94
391.86	128.94
392.085	123.94
392.31	118.94
392.534	105.94
392.759	107.94
392.984	117.94
393.208	122.94
393.433	106.94
393.658	111.94
393.882	125.94
394.107	118.94
394.331	125.94
394.556	117.94
394.78	126.94
395.005	105.94
395.229	114.94
395.454	120.94
395.678	116.94
395.903	118.94
396.127	127.94
396.352	125.94
396.576	130.94
396.801	122.94
397.025	126.94
397.249	128.94
397.474	128.94
397.698	113.94
397.922	137.94
398.147	118.94
398.371	115.94
398.595	111.94
398.82	130.94
399.044	118.94
399.268	144.94
399.492	143.94
399.717	149.94
399.941	150.94
400.165	140.94
400.389	144.94
400.613	133.94
400.837	130.94
401.062	136.94
401.286	132.94
401.51	126.94
401.734	119.94
401.958	149.94
402.182	117.94
402.406	150.94
402.63	120.94
402.854	126.94
403.078	133.94
403.302	128.94
403.526	136.94
403.75	129.94
403.974	140.94
404.198	127.94
404.422	157.94
404.645	128.94
404.869	130.94
405.093	133.94
405.317	126.94
405.541	142.94
405.765	120.94
405.988	131.94
406.212	144.94
406.436	141.94
406.66	132.94
406.883	130.94
407.107	131.94
407.331	147.94
407.555	145.94
407.778	145.94
408.002	135.94
408.226	127.94
408.449	132.94
408.673	117.94
408.896	127.94
409.12	145.94
409.344	136.94
409.567	140.94
409.791	134.94
410.014	133.94
410.238	135.94
410.461	139.94
410.685	133.94
410.908	124.94
411.132	140.94
411.355	141.94
411.578	134.94
411.802	139.94
412.025	115.94
412.249	136.94
412.472	125.94
412.695	127.94
412.919	130.94
413.142	140.94
413.365	137.94
413.589	124.94
413.812	124.94
414.035	129.94
414.258	124.94
414.482	118.94
414.705	107.94
414.928	130.94
415.151	133.94
415.374	124.94
415.597	122.94
415.821	116.94
416.044	140.94
416.267	124.94
416.49	119.94
416.713	136.94
416.936	134.94
417.159	129.94
417.382	131.94
417.605	123.94
417.828	125.94
418.051	131.94
418.274	124.94
418.497	133.94
418.72	122.94
418.943	125.94
419.166	134.94
419.389	137.94
419.611	124.94
419.834	130.94
420.057	132.94
420.28	121.94
420.503	141.94
420.726	115.94
420.948	127.94
421.171	136.94
421.394	130.94
421.617	131.94
421.839	135.94
422.062	139.94
422.285	127.94
422.507	130.94
422.73	136.94
422.953	136.94
423.175	124.94
423.398	130.94
423.621	135.94
423.843	133.94
424.066	148.94
424.288	128.94
424.511	136.94
424.733	136.94
424.956	139.94
425.178	136.94
425.401	141.94
425.623	131.94
425.846	130.94
426.068	125.94
426.291	132.94
426.513	129.94
426.735	134.94
426.958	132.94
427.18	128.94
427.402	140.94
427.625	160.94
427.847	129.94
428.069	133.94
428.292	142.94
428.514	119.94
428.736	126.94
428.958	131.94
429.181	123.94
429.403	128.94
429.625	120.94
429.847	124.94
430.069	130.94
430.292	124.94
430.514	118.94
430.736	136.94
430.958	117.94
431.18	118.94
431.402	140.94
431.624	118.94
431.846	114.94
432.068	121.94
432.29	122.94
432.512	125.94
432.734	119.94
432.956	112.94
433.178	122.94
433.4	123.94
433.622	130.94
433.844	124.94
434.066	102.94
434.287	125.94
434.509	141.94
434.731	114.94
434.953	130.94
435.175	119.94
435.397	138.94
435.618	126.94
435.84	134.94
436.062	131.94
436.284	156.94
436.505	132.94
436.727	129.94
436.949	135.94
437.17	135.94
437.392	118.94
437.614	111.94
437.835	110.94
438.057	122.94
438.278	142.94
438.5	146.94
438.721	141.94
438.943	135.94
439.165	126.94
439.386	124.94
439.608	124.94
439.829	126.94
440.05	126.94
440.272	123.94
440.493	116.94
440.715	133.94
440.936	124.94
441.158	130.94
441.379	130.94
441.6	139.94
441.822	136.94
442.043	135.94
442.264	133.94
442.486	143.94
442.707	134.94
442.928	140.94
443.149	148.94
443.371	133.94
443.592	148.94
443.813	125.94
444.034	144.94
444.255	144.94
444.476	126.94
444.698	136.94
444.919	124.94
445.14	257.94
445.361	181.94
445.582	148.94
445.803	124.94
446.024	123.94
446.245	136.94
446.466	142.94
446.687	134.94
446.908	121.94
447.129	116.94
447.35	123.94
447.571	110.94
447.792	112.94
448.013	120.94
448.234	121.94
448.455	131.94
448.675	132.94
448.896	138.94
449.117	130.94
449.338	133.94
449.559	138.94
449.779	134.94
450	128.94
450.221	112.94
450.442	103.94
450.662	116.94
450.883	134.94
451.104	121.94
451.324	105.94
451.545	130.94
451.766	126.94
451.986	136.94
452.207	134.94
452.428	118.94
452.648	133.94
452.869	118.94
453.089	109.94
453.31	134.94
453.53	128.94
453.751	120.94
453.971	112.94
454.192	124.94
454.412	122.94
454.633	110.94
454.853	104.94
455.073	112.94
455.294	107.94
455.514	111.94
455.734	122.94
455.955	96.94
456.175	118.94
456.395	117.94
456.616	114.94
456.836	109.94
457.056	111.94
457.276	120.94
457.497	118.94
457.717	112.94
457.937	105.94
458.157	120.94
458.377	123.94
458.598	111.94
458.818	121.94
459.038	114.94
459.258	117.94
459.478	112.94
459.698	129.94
459.918	122.94
460.138	125.94
460.358	124.94
460.578	125.94
460.798	120.94
461.018	137.94
461.238	129.94
461.458	101.94
461.678	137.94
461.898	119.94
462.118	132.94
462.338	108.94
462.558	123.94
462.777	130.94
462.997	138.94
463.217	146.94
463.437	138.94
463.657	127.94
463.876	117.94
464.096	123.94
464.316	120.94
464.536	141.94
464.755	148.94
464.975	143.94
465.195	134.94
465.414	125.94
465.634	128.94
465.854	126.94
466.073	120.94
466.293	138.94
466.512	127.94
466.732	130.94
466.951	120.94
467.171	127.94
467.391	130.94
467.61	117.94
467.829	122.94
468.049	118.94
468.268	113.94
468.488	115.94
468.707	116.94
468.927	112.94
469.146	118.94
469.365	133.94
469.585	110.94
469.804	122.94
470.023	116.94
470.243	123.94
470.462	128.94
470.681	118.94
470.901	126.94
471.12	117.94
471.339	128.94
471.558	138.94
471.777	129.94
471.997	129.94
472.216	119.94
472.435	140.94
472.654	121.94
472.873	121.94
473.092	109.94
473.311	116.94
473.53	125.94
473.749	114.94
473.968	118.94
474.187	125.94
474.406	126.94
474.625	109.94
474.844	113.94
475.063	122.94
475.282	114.94
475.501	105.94
475.72	128.94
475.939	115.94
476.158	122.94
476.377	107.94
476.596	110.94
476.814	132.94
477.033	115.94
477.252	131.94
477.471	124.94
477.69	139.94
477.908	136.94
478.127	128.94
478.346	121.94
478.564	117.94
478.783	124.94
479.002	126.94
479.22	124.94
479.439	136.94
479.658	134.94
479.876	131.94
480.095	126.94
480.313	126.94
480.532	142.94
480.751	136.94
480.969	126.94
481.188	138.94
481.406	147.94
481.624	119.94
481.843	125.94
482.061	120.94
482.28	136.94
482.498	135.94
482.717	123.94
482.935	131.94
483.153	132.94
483.372	149.94
483.59	142.94
483.808	130.94
484.027	137.94
484.245	123.94
484.463	132.94
484.681	140.94
484.9	126.94
485.118	132.94
485.336	122.94
485.554	132.94
485.772	140.94
485.99	132.94
486.209	159.94
486.427	119.94
486.645	129.94
486.863	125.94
487.081	125.94
487.299	121.94
487.517	139.94
487.735	124.94
487.953	134.94
488.171	138.94
488.389	155.94
488.607	153.94
488.825	144.94
489.043	129.94
489.261	129.94
489.479	116.94
489.696	130.94
489.914	129.94
490.132	156.94
490.35	137.94
490.568	126.94
490.786	146.94
491.003	145.94
491.221	159.94
491.439	133.94
491.657	141.94
491.874	134.94
492.092	129.94
492.31	144.94
492.527	140.94
492.745	147.94
492.963	152.94
493.18	149.94
493.398	155.94
493.615	141.94
493.833	149.94
494.05	154.94
494.268	154.94
494.485	143.94
494.703	150.94
494.92	148.94
495.138	149.94
495.355	154.94
495.573	152.94
495.79	133.94
496.008	137.94
496.225	136.94
496.442	145.94
496.66	140.94
496.877	152.94
497.094	150.94
497.312	145.94
497.529	154.94
497.746	164.94
497.963	137.94
498.181	145.94
498.398	159.94
498.615	157.94
498.832	152.94
499.049	161.94
499.267	178.94
499.484	171.94
499.701	182.94
499.918	193.94
500.135	188.94
500.352	192.94
500.569	201.94
500.786	214.94
501.003	204.94
501.22	200.94
501.437	188.94
501.654	162.94
501.871	165.94
502.088	166.94
502.305	157.94
502.522	158.94
502.739	139.94
502.956	154.94
503.172	155.94
503.389	140.94
503.606	136.94
503.823	150.94
504.04	135.94
504.256	161.94
504.473	145.94
504.69	150.94
504.907	138.94
505.123	128.94
505.34	122.94
505.557	158.94
505.773	138.94
505.99	141.94
