Data from 1968.PennyLincolnUp.Lamp.En5.5.200Scan.071719.P1._HRD10591_14-51-30-970.txt Node
Date: Thu Jul 18 14:51:30 EDT 2019
User: cochatt
Spectrometer: HR+D1059
Trigger mode: 1
Integration Time (sec): 1.000000E-1
Scans to average: 1
Electric dark correction enabled: true
Nonlinearity correction enabled: false
Boxcar width: 0
XAxis mode: Wavelengths
Number of Pixels in Spectrum: 2048
>>>>>Begin Spectral Data<<<<<
223.165	-10.88
223.4	-10.88
223.635	-10.88
223.869	-23.88
224.104	-16.88
224.338	-10.88
224.573	-14.88
224.808	-21.88
225.042	10.12
225.277	-2.88
225.511	1.12
225.746	11.12
225.98	-2.88
226.215	7.12
226.449	24.12
226.683	13.12
226.918	12.12
227.152	26.12
227.387	34.12
227.621	28.12
227.856	53.12
228.09	39.12
228.324	44.12
228.559	65.12
228.793	59.12
229.027	63.12
229.262	73.12
229.496	71.12
229.73	83.12
229.964	82.12
230.199	67.12
230.433	82.12
230.667	79.12
230.901	87.12
231.136	84.12
231.37	84.12
231.604	89.12
231.838	94.12
232.072	91.12
232.306	91.12
232.541	92.12
232.775	85.12
233.009	85.12
233.243	88.12
233.477	93.12
233.711	68.12
233.945	83.12
234.179	74.12
234.413	86.12
234.647	80.12
234.881	97.12
235.115	83.12
235.349	95.12
235.583	79.12
235.817	83.12
236.051	83.12
236.285	89.12
236.519	86.12
236.753	81.12
236.987	93.12
237.221	88.12
237.455	86.12
237.689	93.12
237.922	103.12
238.156	90.12
238.39	83.12
238.624	80.12
238.858	74.12
239.091	88.12
239.325	93.12
239.559	70.12
239.793	85.12
240.027	78.12
240.26	84.12
240.494	97.12
240.728	83.12
240.961	91.12
241.195	92.12
241.429	72.12
241.662	87.12
241.896	72.12
242.13	81.12
242.363	75.12
242.597	85.12
242.83	94.12
243.064	91.12
243.298	85.12
243.531	94.12
243.765	75.12
243.998	80.12
244.232	98.12
244.465	87.12
244.699	89.12
244.932	78.12
245.166	78.12
245.399	88.12
245.633	91.12
245.866	87.12
246.099	89.12
246.333	83.12
246.566	80.12
246.8	94.12
247.033	87.12
247.266	84.12
247.5	92.12
247.733	76.12
247.966	71.12
248.2	89.12
248.433	101.12
248.666	80.12
248.899	92.12
249.133	98.12
249.366	80.12
249.599	90.12
249.832	86.12
250.066	97.12
250.299	89.12
250.532	81.12
250.765	87.12
250.998	90.12
251.231	93.12
251.465	94.12
251.698	96.12
251.931	120.12
252.164	91.12
252.397	79.12
252.63	94.12
252.863	95.12
253.096	85.12
253.329	88.12
253.562	106.12
253.795	104.12
254.028	102.12
254.261	86.12
254.494	93.12
254.727	106.12
254.96	114.12
255.193	90.12
255.426	96.12
255.659	80.12
255.892	103.12
256.124	90.12
256.357	90.12
256.59	110.12
256.823	93.12
257.056	85.12
257.289	102.12
257.521	86.12
257.754	92.12
257.987	98.12
258.22	95.12
258.452	91.12
258.685	87.12
258.918	98.12
259.151	99.12
259.383	103.12
259.616	87.12
259.849	90.12
260.081	105.12
260.314	93.12
260.547	93.12
260.779	86.12
261.012	100.12
261.244	93.12
261.477	100.12
261.71	89.12
261.942	89.12
262.175	80.12
262.407	89.12
262.64	91.12
262.872	101.12
263.105	67.12
263.337	94.12
263.57	101.12
263.802	91.12
264.035	86.12
264.267	102.12
264.499	95.12
264.732	114.12
264.964	87.12
265.197	90.12
265.429	89.12
265.661	104.12
265.894	119.12
266.126	108.12
266.358	114.12
266.591	92.12
266.823	87.12
267.055	97.12
267.287	89.12
267.52	85.12
267.752	106.12
267.984	114.12
268.216	101.12
268.448	89.12
268.681	92.12
268.913	88.12
269.145	109.12
269.377	108.12
269.609	108.12
269.841	104.12
270.073	106.12
270.306	109.12
270.538	98.12
270.77	106.12
271.002	98.12
271.234	115.12
271.466	102.12
271.698	106.12
271.93	104.12
272.162	114.12
272.394	102.12
272.626	99.12
272.858	95.12
273.09	117.12
273.322	107.12
273.553	115.12
273.785	96.12
274.017	92.12
274.249	105.12
274.481	110.12
274.713	79.12
274.945	100.12
275.176	94.12
275.408	99.12
275.64	92.12
275.872	105.12
276.104	99.12
276.335	113.12
276.567	93.12
276.799	104.12
277.031	103.12
277.262	97.12
277.494	103.12
277.726	99.12
277.957	113.12
278.189	97.12
278.421	98.12
278.652	105.12
278.884	113.12
279.115	103.12
279.347	102.12
279.579	114.12
279.81	116.12
280.042	108.12
280.273	125.12
280.505	94.12
280.736	109.12
280.968	101.12
281.199	96.12
281.431	106.12
281.662	104.12
281.894	92.12
282.125	104.12
282.356	94.12
282.588	118.12
282.819	112.12
283.051	89.12
283.282	97.12
283.513	102.12
283.745	111.12
283.976	108.12
284.207	112.12
284.439	96.12
284.67	101.12
284.901	109.12
285.132	104.12
285.364	115.12
285.595	104.12
285.826	99.12
286.057	108.12
286.288	97.12
286.52	117.12
286.751	109.12
286.982	99.12
287.213	107.12
287.444	99.12
287.675	106.12
287.906	95.12
288.138	101.12
288.369	94.12
288.6	119.12
288.831	114.12
289.062	99.12
289.293	118.12
289.524	117.12
289.755	102.12
289.986	96.12
290.217	104.12
290.448	104.12
290.679	122.12
290.91	94.12
291.141	103.12
291.371	92.12
291.602	97.12
291.833	112.12
292.064	107.12
292.295	104.12
292.526	104.12
292.757	116.12
292.987	108.12
293.218	117.12
293.449	106.12
293.68	103.12
293.91	101.12
294.141	104.12
294.372	96.12
294.603	100.12
294.833	98.12
295.064	97.12
295.295	108.12
295.525	98.12
295.756	112.12
295.987	110.12
296.217	128.12
296.448	117.12
296.679	99.12
296.909	102.12
297.14	102.12
297.37	112.12
297.601	108.12
297.831	100.12
298.062	104.12
298.292	107.12
298.523	110.12
298.753	111.12
298.984	105.12
299.214	109.12
299.445	108.12
299.675	113.12
299.905	124.12
300.136	115.12
300.366	130.12
300.597	107.12
300.827	109.12
301.057	117.12
301.288	107.12
301.518	113.12
301.748	107.12
301.979	106.12
302.209	106.12
302.439	103.12
302.669	112.12
302.9	95.12
303.13	111.12
303.36	104.12
303.59	119.12
303.82	104.12
304.051	102.12
304.281	125.12
304.511	113.12
304.741	110.12
304.971	105.12
305.201	97.12
305.431	114.12
305.661	135.12
305.891	118.12
306.121	121.12
306.352	108.12
306.582	111.12
306.812	111.12
307.042	108.12
307.272	105.12
307.502	113.12
307.731	115.12
307.961	108.12
308.191	103.12
308.421	107.12
308.651	123.12
308.881	115.12
309.111	107.12
309.341	98.12
309.571	113.12
309.8	127.12
310.03	102.12
310.26	110.12
310.49	109.12
310.72	107.12
310.949	106.12
311.179	111.12
311.409	107.12
311.639	113.12
311.868	108.12
312.098	114.12
312.328	112.12
312.557	135.12
312.787	113.12
313.017	119.12
313.246	106.12
313.476	115.12
313.706	112.12
313.935	100.12
314.165	109.12
314.394	119.12
314.624	121.12
314.853	105.12
315.083	110.12
315.312	101.12
315.542	99.12
315.771	110.12
316.001	108.12
316.23	105.12
316.46	112.12
316.689	117.12
316.919	105.12
317.148	123.12
317.377	109.12
317.607	115.12
317.836	131.12
318.065	111.12
318.295	126.12
318.524	119.12
318.753	108.12
318.983	111.12
319.212	124.12
319.441	106.12
319.67	123.12
319.9	109.12
320.129	111.12
320.358	107.12
320.587	114.12
320.816	109.12
321.046	100.12
321.275	117.12
321.504	127.12
321.733	115.12
321.962	117.12
322.191	111.12
322.42	111.12
322.649	99.12
322.878	109.12
323.108	113.12
323.337	111.12
323.566	139.12
323.795	109.12
324.024	133.12
324.253	110.12
324.482	132.12
324.71	165.12
324.939	177.12
325.168	166.12
325.397	142.12
325.626	129.12
325.855	116.12
326.084	129.12
326.313	121.12
326.542	104.12
326.77	122.12
326.999	121.12
327.228	133.12
327.457	149.12
327.686	160.12
327.914	142.12
328.143	130.12
328.372	129.12
328.6	126.12
328.829	128.12
329.058	114.12
329.287	141.12
329.515	135.12
329.744	128.12
329.972	127.12
330.201	122.12
330.43	122.12
330.658	121.12
330.887	117.12
331.115	126.12
331.344	106.12
331.572	125.12
331.801	123.12
332.03	131.12
332.258	128.12
332.486	122.12
332.715	121.12
332.943	122.12
333.172	121.12
333.4	130.12
333.629	124.12
333.857	133.12
334.085	129.12
334.314	137.12
334.542	117.12
334.771	133.12
334.999	130.12
335.227	119.12
335.455	117.12
335.684	127.12
335.912	122.12
336.14	113.12
336.369	135.12
336.597	136.12
336.825	112.12
337.053	129.12
337.281	113.12
337.51	120.12
337.738	125.12
337.966	114.12
338.194	133.12
338.422	127.12
338.65	123.12
338.878	133.12
339.106	118.12
339.334	123.12
339.562	104.12
339.79	115.12
340.018	119.12
340.246	121.12
340.474	106.12
340.702	113.12
340.93	109.12
341.158	108.12
341.386	122.12
341.614	108.12
341.842	115.12
342.07	109.12
342.298	109.12
342.526	96.12
342.754	111.12
342.981	118.12
343.209	133.12
343.437	128.12
343.665	117.12
343.893	121.12
344.12	135.12
344.348	130.12
344.576	109.12
344.804	119.12
345.031	110.12
345.259	121.12
345.487	115.12
345.714	107.12
345.942	115.12
346.17	111.12
346.397	129.12
346.625	129.12
346.853	105.12
347.08	111.12
347.308	112.12
347.535	118.12
347.763	117.12
347.99	89.12
348.218	101.12
348.445	117.12
348.673	114.12
348.9	125.12
349.128	116.12
349.355	105.12
349.583	131.12
349.81	129.12
350.037	111.12
350.265	128.12
350.492	121.12
350.72	126.12
350.947	122.12
351.174	120.12
351.402	117.12
351.629	128.12
351.856	115.12
352.083	98.12
352.311	121.12
352.538	123.12
352.765	127.12
352.992	114.12
353.22	123.12
353.447	107.12
353.674	107.12
353.901	126.12
354.128	114.12
354.355	117.12
354.583	108.12
354.81	102.12
355.037	124.12
355.264	106.12
355.491	115.12
355.718	125.12
355.945	100.12
356.172	110.12
356.399	113.12
356.626	117.12
356.853	112.12
357.08	115.12
357.307	112.12
357.534	114.12
357.761	111.12
357.988	121.12
358.215	122.12
358.441	116.12
358.668	119.12
358.895	129.12
359.122	118.12
359.349	120.12
359.576	125.12
359.802	111.12
360.029	104.12
360.256	117.12
360.483	119.12
360.709	121.12
360.936	120.12
361.163	126.12
361.39	108.12
361.616	128.12
361.843	111.12
362.07	111.12
362.296	118.12
362.523	113.12
362.749	128.12
362.976	104.12
363.203	127.12
363.429	115.12
363.656	109.12
363.882	113.12
364.109	120.12
364.335	112.12
364.562	125.12
364.788	109.12
365.015	111.12
365.241	102.12
365.468	120.12
365.694	114.12
365.92	126.12
366.147	121.12
366.373	108.12
366.599	118.12
366.826	118.12
367.052	107.12
367.278	109.12
367.505	115.12
367.731	110.12
367.957	103.12
368.184	114.12
368.41	117.12
368.636	114.12
368.862	120.12
369.089	115.12
369.315	122.12
369.541	111.12
369.767	114.12
369.993	121.12
370.219	112.12
370.445	108.12
370.672	107.12
370.898	131.12
371.124	112.12
371.35	123.12
371.576	106.12
371.802	116.12
372.028	121.12
372.254	118.12
372.48	122.12
372.706	122.12
372.932	123.12
373.158	109.12
373.384	122.12
373.61	117.12
373.835	106.12
374.061	119.12
374.287	132.12
374.513	124.12
374.739	125.12
374.965	111.12
375.191	113.12
375.416	104.12
375.642	117.12
375.868	129.12
376.094	118.12
376.319	134.12
376.545	115.12
376.771	103.12
376.997	126.12
377.222	117.12
377.448	114.12
377.674	119.12
377.899	111.12
378.125	98.12
378.35	123.12
378.576	126.12
378.802	110.12
379.027	122.12
379.253	120.12
379.478	118.12
379.704	127.12
379.929	129.12
380.155	107.12
380.38	117.12
380.606	113.12
380.831	110.12
381.057	117.12
381.282	125.12
381.507	122.12
381.733	116.12
381.958	122.12
382.184	134.12
382.409	120.12
382.634	117.12
382.86	121.12
383.085	128.12
383.31	111.12
383.535	122.12
383.761	126.12
383.986	122.12
384.211	124.12
384.436	130.12
384.662	111.12
384.887	115.12
385.112	122.12
385.337	118.12
385.562	124.12
385.787	108.12
386.013	113.12
386.238	128.12
386.463	121.12
386.688	118.12
386.913	126.12
387.138	111.12
387.363	109.12
387.588	117.12
387.813	125.12
388.038	121.12
388.263	134.12
388.488	103.12
388.713	125.12
388.938	105.12
389.163	125.12
389.387	121.12
389.612	128.12
389.837	119.12
390.062	137.12
390.287	133.12
390.512	103.12
390.736	124.12
390.961	123.12
391.186	130.12
391.411	130.12
391.636	131.12
391.86	123.12
392.085	138.12
392.31	132.12
392.534	124.12
392.759	119.12
392.984	125.12
393.208	118.12
393.433	135.12
393.658	105.12
393.882	116.12
394.107	126.12
394.331	120.12
394.556	117.12
394.78	135.12
395.005	134.12
395.229	139.12
395.454	133.12
395.678	137.12
395.903	136.12
396.127	121.12
396.352	126.12
396.576	129.12
396.801	135.12
397.025	125.12
397.249	129.12
397.474	112.12
397.698	128.12
397.922	113.12
398.147	119.12
398.371	123.12
398.595	139.12
398.82	129.12
399.044	126.12
399.268	122.12
399.492	146.12
399.717	154.12
399.941	146.12
400.165	142.12
400.389	145.12
400.613	143.12
400.837	150.12
401.062	140.12
401.286	129.12
401.51	139.12
401.734	124.12
401.958	125.12
402.182	132.12
402.406	153.12
402.63	124.12
402.854	139.12
403.078	132.12
403.302	147.12
403.526	142.12
403.75	141.12
403.974	133.12
404.198	146.12
404.422	145.12
404.645	153.12
404.869	133.12
405.093	133.12
405.317	132.12
405.541	134.12
405.765	140.12
405.988	140.12
406.212	135.12
406.436	145.12
406.66	153.12
406.883	145.12
407.107	157.12
407.331	130.12
407.555	147.12
407.778	141.12
408.002	148.12
408.226	145.12
408.449	143.12
408.673	151.12
408.896	131.12
409.12	136.12
409.344	134.12
409.567	128.12
409.791	141.12
410.014	130.12
410.238	149.12
410.461	142.12
410.685	133.12
410.908	142.12
411.132	141.12
411.355	133.12
411.578	125.12
411.802	137.12
412.025	133.12
412.249	136.12
412.472	127.12
412.695	135.12
412.919	138.12
413.142	138.12
413.365	135.12
413.589	114.12
413.812	135.12
414.035	147.12
414.258	148.12
414.482	133.12
414.705	137.12
414.928	138.12
415.151	130.12
415.374	129.12
415.597	130.12
415.821	136.12
416.044	114.12
416.267	143.12
416.49	131.12
416.713	125.12
416.936	123.12
417.159	131.12
417.382	140.12
417.605	136.12
417.828	130.12
418.051	140.12
418.274	129.12
418.497	127.12
418.72	115.12
418.943	132.12
419.166	132.12
419.389	143.12
419.611	145.12
419.834	133.12
420.057	131.12
420.28	126.12
420.503	146.12
420.726	132.12
420.948	135.12
421.171	149.12
421.394	128.12
421.617	137.12
421.839	134.12
422.062	143.12
422.285	137.12
422.507	146.12
422.73	135.12
422.953	145.12
423.175	146.12
423.398	135.12
423.621	144.12
423.843	148.12
424.066	138.12
424.288	141.12
424.511	145.12
424.733	125.12
424.956	151.12
425.178	141.12
425.401	162.12
425.623	143.12
425.846	119.12
426.068	129.12
426.291	141.12
426.513	137.12
426.735	126.12
426.958	136.12
427.18	139.12
427.402	151.12
427.625	147.12
427.847	140.12
428.069	141.12
428.292	136.12
428.514	127.12
428.736	129.12
428.958	125.12
429.181	129.12
429.403	129.12
429.625	137.12
429.847	136.12
430.069	135.12
430.292	134.12
430.514	143.12
430.736	110.12
430.958	145.12
431.18	135.12
431.402	132.12
431.624	135.12
431.846	126.12
432.068	119.12
432.29	142.12
432.512	146.12
432.734	140.12
432.956	135.12
433.178	127.12
433.4	113.12
433.622	141.12
433.844	129.12
434.066	131.12
434.287	130.12
434.509	129.12
434.731	126.12
434.953	127.12
435.175	123.12
435.397	133.12
435.618	131.12
435.84	143.12
436.062	161.12
436.284	138.12
436.505	125.12
436.727	141.12
436.949	130.12
437.17	143.12
437.392	129.12
437.614	129.12
437.835	131.12
438.057	126.12
438.278	128.12
438.5	150.12
438.721	153.12
438.943	149.12
439.165	141.12
439.386	126.12
439.608	135.12
439.829	148.12
440.05	137.12
440.272	135.12
440.493	129.12
440.715	140.12
440.936	124.12
441.158	137.12
441.379	131.12
441.6	139.12
441.822	129.12
442.043	133.12
442.264	151.12
442.486	142.12
442.707	135.12
442.928	135.12
443.149	137.12
443.371	132.12
443.592	138.12
443.813	165.12
444.034	146.12
444.255	146.12
444.476	152.12
444.698	144.12
444.919	141.12
445.14	251.12
445.361	195.12
445.582	144.12
445.803	129.12
446.024	126.12
446.245	143.12
446.466	138.12
446.687	141.12
446.908	129.12
447.129	144.12
447.35	135.12
447.571	142.12
447.792	142.12
448.013	121.12
448.234	121.12
448.455	130.12
448.675	138.12
448.896	145.12
449.117	126.12
449.338	145.12
449.559	129.12
449.779	142.12
450	138.12
450.221	139.12
450.442	117.12
450.662	122.12
450.883	130.12
451.104	122.12
451.324	126.12
451.545	121.12
451.766	129.12
451.986	121.12
452.207	126.12
452.428	125.12
452.648	131.12
452.869	112.12
453.089	111.12
453.31	124.12
453.53	125.12
453.751	126.12
453.971	134.12
454.192	139.12
454.412	136.12
454.633	125.12
454.853	131.12
455.073	120.12
455.294	110.12
455.514	133.12
455.734	114.12
455.955	124.12
456.175	135.12
456.395	128.12
456.616	126.12
456.836	112.12
457.056	115.12
457.276	107.12
457.497	119.12
457.717	121.12
457.937	108.12
458.157	120.12
458.377	117.12
458.598	119.12
458.818	141.12
459.038	145.12
459.258	130.12
459.478	130.12
459.698	122.12
459.918	134.12
460.138	140.12
460.358	130.12
460.578	133.12
460.798	152.12
461.018	138.12
461.238	137.12
461.458	146.12
461.678	129.12
461.898	138.12
462.118	148.12
462.338	152.12
462.558	128.12
462.777	128.12
462.997	136.12
463.217	138.12
463.437	152.12
463.657	141.12
463.876	137.12
464.096	137.12
464.316	139.12
464.536	135.12
464.755	139.12
464.975	141.12
465.195	135.12
465.414	139.12
465.634	127.12
465.854	123.12
466.073	128.12
466.293	131.12
466.512	122.12
466.732	131.12
466.951	132.12
467.171	139.12
467.391	121.12
467.61	131.12
467.829	134.12
468.049	125.12
468.268	132.12
468.488	125.12
468.707	128.12
468.927	115.12
469.146	126.12
469.365	121.12
469.585	127.12
469.804	124.12
470.023	127.12
470.243	144.12
470.462	121.12
470.681	134.12
470.901	142.12
471.12	130.12
471.339	143.12
471.558	134.12
471.777	122.12
471.997	130.12
472.216	152.12
472.435	135.12
472.654	131.12
472.873	134.12
473.092	117.12
473.311	123.12
473.53	133.12
473.749	128.12
473.968	117.12
474.187	136.12
474.406	138.12
474.625	133.12
474.844	125.12
475.063	112.12
475.282	120.12
475.501	129.12
475.72	128.12
475.939	131.12
476.158	133.12
476.377	132.12
476.596	124.12
476.814	133.12
477.033	132.12
477.252	145.12
477.471	119.12
477.69	123.12
477.908	128.12
478.127	128.12
478.346	130.12
478.564	131.12
478.783	136.12
479.002	136.12
479.22	147.12
479.439	138.12
479.658	112.12
479.876	139.12
480.095	129.12
480.313	135.12
480.532	137.12
480.751	155.12
480.969	136.12
481.188	146.12
481.406	124.12
481.624	120.12
481.843	132.12
482.061	151.12
482.28	129.12
482.498	135.12
482.717	120.12
482.935	123.12
483.153	130.12
483.372	136.12
483.59	136.12
483.808	138.12
484.027	131.12
484.245	132.12
484.463	123.12
484.681	145.12
484.9	129.12
485.118	135.12
485.336	130.12
485.554	127.12
485.772	153.12
485.99	143.12
486.209	122.12
486.427	139.12
486.645	144.12
486.863	149.12
487.081	149.12
487.299	152.12
487.517	128.12
487.735	125.12
487.953	137.12
488.171	149.12
488.389	147.12
488.607	142.12
488.825	138.12
489.043	118.12
489.261	134.12
489.479	138.12
489.696	123.12
489.914	156.12
490.132	136.12
490.35	135.12
490.568	135.12
490.786	142.12
491.003	145.12
491.221	143.12
491.439	145.12
491.657	133.12
491.874	142.12
492.092	139.12
492.31	152.12
492.527	158.12
492.745	161.12
492.963	159.12
493.18	160.12
493.398	155.12
493.615	155.12
493.833	149.12
494.05	141.12
494.268	133.12
494.485	154.12
494.703	145.12
494.92	143.12
495.138	141.12
495.355	139.12
495.573	133.12
495.79	154.12
496.008	143.12
496.225	159.12
496.442	142.12
496.66	157.12
496.877	154.12
497.094	142.12
497.312	144.12
497.529	170.12
497.746	143.12
497.963	159.12
498.181	160.12
498.398	155.12
498.615	167.12
498.832	168.12
499.049	175.12
499.267	150.12
499.484	183.12
499.701	189.12
499.918	217.12
500.135	214.12
500.352	197.12
500.569	207.12
500.786	208.12
501.003	208.12
501.22	192.12
501.437	181.12
501.654	179.12
501.871	173.12
502.088	169.12
502.305	161.12
502.522	167.12
502.739	152.12
502.956	148.12
503.172	155.12
503.389	160.12
503.606	159.12
503.823	159.12
504.04	148.12
504.256	157.12
504.473	165.12
504.69	147.12
