Data from 1968.PennyLincolnUp.Lamp.En5.5.200Scan.071719.P1._HRD10591_14-50-46-969.txt Node
Date: Thu Jul 18 14:50:46 EDT 2019
User: cochatt
Spectrometer: HR+D1059
Trigger mode: 1
Integration Time (sec): 1.000000E-1
Scans to average: 1
Electric dark correction enabled: true
Nonlinearity correction enabled: false
Boxcar width: 0
XAxis mode: Wavelengths
Number of Pixels in Spectrum: 2048
>>>>>Begin Spectral Data<<<<<
223.165	-16.31
223.4	-16.31
223.635	-16.31
223.869	-28.31
224.104	-25.31
224.338	-13.31
224.573	-7.31
224.808	-31.31
225.042	0.69
225.277	-6.31
225.511	-5.31
225.746	1.69
225.98	6.69
226.215	3.69
226.449	26.69
226.683	12.69
226.918	36.69
227.152	44.69
227.387	37.69
227.621	29.69
227.856	38.69
228.09	53.69
228.324	51.69
228.559	67.69
228.793	68.69
229.027	67.69
229.262	65.69
229.496	60.69
229.73	81.69
229.964	70.69
230.199	79.69
230.433	87.69
230.667	82.69
230.901	84.69
231.136	81.69
231.37	79.69
231.604	86.69
231.838	80.69
232.072	91.69
232.306	76.69
232.541	99.69
232.775	92.69
233.009	80.69
233.243	83.69
233.477	82.69
233.711	75.69
233.945	90.69
234.179	98.69
234.413	87.69
234.647	88.69
234.881	103.69
235.115	91.69
235.349	91.69
235.583	86.69
235.817	77.69
236.051	87.69
236.285	88.69
236.519	91.69
236.753	83.69
236.987	83.69
237.221	92.69
237.455	85.69
237.689	87.69
237.922	76.69
238.156	83.69
238.39	70.69
238.624	91.69
238.858	96.69
239.091	93.69
239.325	90.69
239.559	90.69
239.793	90.69
240.027	85.69
240.26	69.69
240.494	80.69
240.728	89.69
240.961	70.69
241.195	86.69
241.429	76.69
241.662	91.69
241.896	90.69
242.13	91.69
242.363	84.69
242.597	73.69
242.83	88.69
243.064	92.69
243.298	85.69
243.531	90.69
243.765	88.69
243.998	83.69
244.232	78.69
244.465	83.69
244.699	84.69
244.932	86.69
245.166	87.69
245.399	92.69
245.633	96.69
245.866	82.69
246.099	86.69
246.333	94.69
246.566	84.69
246.8	81.69
247.033	97.69
247.266	74.69
247.5	84.69
247.733	78.69
247.966	86.69
248.2	92.69
248.433	99.69
248.666	94.69
248.899	100.69
249.133	82.69
249.366	81.69
249.599	102.69
249.832	82.69
250.066	102.69
250.299	81.69
250.532	79.69
250.765	83.69
250.998	90.69
251.231	78.69
251.465	78.69
251.698	98.69
251.931	82.69
252.164	86.69
252.397	105.69
252.63	86.69
252.863	97.69
253.096	76.69
253.329	91.69
253.562	100.69
253.795	92.69
254.028	109.69
254.261	96.69
254.494	98.69
254.727	98.69
254.96	102.69
255.193	77.69
255.426	91.69
255.659	89.69
255.892	91.69
256.124	95.69
256.357	96.69
256.59	106.69
256.823	87.69
257.056	72.69
257.289	80.69
257.521	90.69
257.754	87.69
257.987	74.69
258.22	102.69
258.452	86.69
258.685	94.69
258.918	107.69
259.151	88.69
259.383	83.69
259.616	84.69
259.849	96.69
260.081	85.69
260.314	90.69
260.547	93.69
260.779	99.69
261.012	93.69
261.244	87.69
261.477	113.69
261.71	102.69
261.942	90.69
262.175	102.69
262.407	93.69
262.64	96.69
262.872	84.69
263.105	94.69
263.337	90.69
263.57	96.69
263.802	97.69
264.035	102.69
264.267	102.69
264.499	100.69
264.732	99.69
264.964	87.69
265.197	92.69
265.429	91.69
265.661	101.69
265.894	95.69
266.126	80.69
266.358	85.69
266.591	93.69
266.823	86.69
267.055	99.69
267.287	100.69
267.52	95.69
267.752	104.69
267.984	96.69
268.216	98.69
268.448	91.69
268.681	89.69
268.913	90.69
269.145	84.69
269.377	91.69
269.609	111.69
269.841	98.69
270.073	101.69
270.306	101.69
270.538	93.69
270.77	101.69
271.002	118.69
271.234	91.69
271.466	114.69
271.698	95.69
271.93	114.69
272.162	102.69
272.394	105.69
272.626	103.69
272.858	103.69
273.09	100.69
273.322	100.69
273.553	95.69
273.785	94.69
274.017	103.69
274.249	90.69
274.481	103.69
274.713	99.69
274.945	91.69
275.176	88.69
275.408	91.69
275.64	88.69
275.872	88.69
276.104	108.69
276.335	118.69
276.567	96.69
276.799	88.69
277.031	99.69
277.262	115.69
277.494	101.69
277.726	102.69
277.957	93.69
278.189	107.69
278.421	103.69
278.652	103.69
278.884	101.69
279.115	92.69
279.347	102.69
279.579	105.69
279.81	102.69
280.042	102.69
280.273	101.69
280.505	100.69
280.736	93.69
280.968	85.69
281.199	96.69
281.431	102.69
281.662	112.69
281.894	95.69
282.125	101.69
282.356	94.69
282.588	81.69
282.819	94.69
283.051	99.69
283.282	78.69
283.513	116.69
283.745	103.69
283.976	100.69
284.207	94.69
284.439	102.69
284.67	104.69
284.901	91.69
285.132	106.69
285.364	102.69
285.595	94.69
285.826	95.69
286.057	108.69
286.288	92.69
286.52	100.69
286.751	105.69
286.982	106.69
287.213	103.69
287.444	97.69
287.675	110.69
287.906	110.69
288.138	109.69
288.369	86.69
288.6	103.69
288.831	111.69
289.062	94.69
289.293	99.69
289.524	99.69
289.755	98.69
289.986	95.69
290.217	99.69
290.448	90.69
290.679	111.69
290.91	115.69
291.141	100.69
291.371	117.69
291.602	99.69
291.833	106.69
292.064	95.69
292.295	99.69
292.526	94.69
292.757	116.69
292.987	94.69
293.218	100.69
293.449	90.69
293.68	105.69
293.91	105.69
294.141	111.69
294.372	110.69
294.603	114.69
294.833	105.69
295.064	87.69
295.295	102.69
295.525	105.69
295.756	113.69
295.987	111.69
296.217	98.69
296.448	100.69
296.679	96.69
296.909	117.69
297.14	100.69
297.37	116.69
297.601	108.69
297.831	117.69
298.062	118.69
298.292	88.69
298.523	99.69
298.753	91.69
298.984	105.69
299.214	104.69
299.445	106.69
299.675	112.69
299.905	109.69
300.136	116.69
300.366	107.69
300.597	118.69
300.827	101.69
301.057	104.69
301.288	110.69
301.518	98.69
301.748	105.69
301.979	109.69
302.209	107.69
302.439	115.69
302.669	115.69
302.9	87.69
303.13	108.69
303.36	81.69
303.59	92.69
303.82	107.69
304.051	111.69
304.281	111.69
304.511	102.69
304.741	111.69
304.971	112.69
305.201	110.69
305.431	103.69
305.661	130.69
305.891	116.69
306.121	116.69
306.352	88.69
306.582	103.69
306.812	99.69
307.042	106.69
307.272	109.69
307.502	97.69
307.731	116.69
307.961	94.69
308.191	102.69
308.421	122.69
308.651	96.69
308.881	122.69
309.111	120.69
309.341	96.69
309.571	124.69
309.8	120.69
310.03	101.69
310.26	107.69
310.49	122.69
310.72	114.69
310.949	124.69
311.179	115.69
311.409	103.69
311.639	117.69
311.868	114.69
312.098	112.69
312.328	110.69
312.557	119.69
312.787	114.69
313.017	125.69
313.246	117.69
313.476	106.69
313.706	116.69
313.935	111.69
314.165	102.69
314.394	104.69
314.624	105.69
314.853	114.69
315.083	110.69
315.312	119.69
315.542	100.69
315.771	114.69
316.001	112.69
316.23	116.69
316.46	118.69
316.689	103.69
316.919	111.69
317.148	107.69
317.377	102.69
317.607	100.69
317.836	110.69
318.065	117.69
318.295	110.69
318.524	110.69
318.753	123.69
318.983	103.69
319.212	116.69
319.441	99.69
319.67	121.69
319.9	111.69
320.129	112.69
320.358	101.69
320.587	119.69
320.816	96.69
321.046	117.69
321.275	99.69
321.504	123.69
321.733	102.69
321.962	112.69
322.191	106.69
322.42	99.69
322.649	109.69
322.878	103.69
323.108	104.69
323.337	98.69
323.566	104.69
323.795	110.69
324.024	123.69
324.253	120.69
324.482	152.69
324.71	144.69
324.939	179.69
325.168	166.69
325.397	136.69
325.626	123.69
325.855	126.69
326.084	110.69
326.313	99.69
326.542	111.69
326.77	127.69
326.999	140.69
327.228	141.69
327.457	154.69
327.686	154.69
327.914	142.69
328.143	125.69
328.372	123.69
328.6	104.69
328.829	104.69
329.058	104.69
329.287	121.69
329.515	120.69
329.744	102.69
329.972	101.69
330.201	116.69
330.43	106.69
330.658	126.69
330.887	115.69
331.115	108.69
331.344	110.69
331.572	110.69
331.801	127.69
332.03	122.69
332.258	120.69
332.486	107.69
332.715	112.69
332.943	116.69
333.172	123.69
333.4	119.69
333.629	119.69
333.857	127.69
334.085	118.69
334.314	130.69
334.542	114.69
334.771	123.69
334.999	126.69
335.227	108.69
335.455	119.69
335.684	128.69
335.912	130.69
336.14	106.69
336.369	102.69
336.597	111.69
336.825	111.69
337.053	123.69
337.281	103.69
337.51	130.69
337.738	130.69
337.966	109.69
338.194	109.69
338.422	100.69
338.65	124.69
338.878	123.69
339.106	125.69
339.334	127.69
339.562	116.69
339.79	100.69
340.018	112.69
340.246	130.69
340.474	116.69
340.702	116.69
340.93	115.69
341.158	109.69
341.386	106.69
341.614	111.69
341.842	114.69
342.07	111.69
342.298	110.69
342.526	112.69
342.754	105.69
342.981	107.69
343.209	112.69
343.437	129.69
343.665	126.69
343.893	107.69
344.12	140.69
344.348	123.69
344.576	125.69
344.804	118.69
345.031	105.69
345.259	108.69
345.487	133.69
345.714	102.69
345.942	96.69
346.17	92.69
346.397	111.69
346.625	112.69
346.853	114.69
347.08	101.69
347.308	100.69
347.535	117.69
347.763	120.69
347.99	116.69
348.218	94.69
348.445	102.69
348.673	109.69
348.9	112.69
349.128	115.69
349.355	116.69
349.583	116.69
349.81	118.69
350.037	104.69
350.265	112.69
350.492	127.69
350.72	119.69
350.947	115.69
351.174	102.69
351.402	116.69
351.629	115.69
351.856	115.69
352.083	111.69
352.311	120.69
352.538	113.69
352.765	114.69
352.992	113.69
353.22	119.69
353.447	114.69
353.674	106.69
353.901	116.69
354.128	114.69
354.355	105.69
354.583	109.69
354.81	121.69
355.037	105.69
355.264	121.69
355.491	111.69
355.718	112.69
355.945	104.69
356.172	127.69
356.399	122.69
356.626	100.69
356.853	108.69
357.08	112.69
357.307	122.69
357.534	122.69
357.761	99.69
357.988	112.69
358.215	108.69
358.441	114.69
358.668	116.69
358.895	111.69
359.122	107.69
359.349	106.69
359.576	103.69
359.802	123.69
360.029	116.69
360.256	98.69
360.483	102.69
360.709	115.69
360.936	119.69
361.163	118.69
361.39	114.69
361.616	101.69
361.843	111.69
362.07	119.69
362.296	108.69
362.523	112.69
362.749	116.69
362.976	120.69
363.203	122.69
363.429	122.69
363.656	102.69
363.882	99.69
364.109	135.69
364.335	112.69
364.562	105.69
364.788	100.69
365.015	118.69
365.241	119.69
365.468	110.69
365.694	110.69
365.92	109.69
366.147	106.69
366.373	98.69
366.599	109.69
366.826	114.69
367.052	117.69
367.278	121.69
367.505	129.69
367.731	124.69
367.957	114.69
368.184	118.69
368.41	97.69
368.636	116.69
368.862	106.69
369.089	106.69
369.315	111.69
369.541	118.69
369.767	120.69
369.993	125.69
370.219	104.69
370.445	110.69
370.672	116.69
370.898	114.69
371.124	124.69
371.35	108.69
371.576	108.69
371.802	106.69
372.028	118.69
372.254	109.69
372.48	119.69
372.706	101.69
372.932	116.69
373.158	121.69
373.384	129.69
373.61	125.69
373.835	116.69
374.061	107.69
374.287	126.69
374.513	124.69
374.739	118.69
374.965	115.69
375.191	118.69
375.416	123.69
375.642	125.69
375.868	109.69
376.094	119.69
376.319	96.69
376.545	107.69
376.771	112.69
376.997	119.69
377.222	114.69
377.448	119.69
377.674	98.69
377.899	118.69
378.125	118.69
378.35	113.69
378.576	98.69
378.802	128.69
379.027	120.69
379.253	116.69
379.478	124.69
379.704	110.69
379.929	114.69
380.155	98.69
380.38	114.69
380.606	120.69
380.831	118.69
381.057	118.69
381.282	108.69
381.507	113.69
381.733	111.69
381.958	120.69
382.184	123.69
382.409	115.69
382.634	119.69
382.86	118.69
383.085	118.69
383.31	108.69
383.535	139.69
383.761	119.69
383.986	110.69
384.211	123.69
384.436	130.69
384.662	124.69
384.887	100.69
385.112	128.69
385.337	112.69
385.562	118.69
385.787	115.69
386.013	118.69
386.238	106.69
386.463	125.69
386.688	126.69
386.913	123.69
387.138	136.69
387.363	123.69
387.588	122.69
387.813	119.69
388.038	109.69
388.263	110.69
388.488	128.69
388.713	120.69
388.938	126.69
389.163	135.69
389.387	119.69
389.612	116.69
389.837	120.69
390.062	133.69
390.287	134.69
390.512	124.69
390.736	114.69
390.961	112.69
391.186	125.69
391.411	124.69
391.636	130.69
391.86	105.69
392.085	128.69
392.31	126.69
392.534	127.69
392.759	122.69
392.984	121.69
393.208	125.69
393.433	113.69
393.658	125.69
393.882	110.69
394.107	128.69
394.331	117.69
394.556	118.69
394.78	111.69
395.005	103.69
395.229	114.69
395.454	123.69
395.678	118.69
395.903	132.69
396.127	130.69
396.352	124.69
396.576	126.69
396.801	125.69
397.025	125.69
397.249	133.69
397.474	134.69
397.698	130.69
397.922	123.69
398.147	121.69
398.371	140.69
398.595	131.69
398.82	125.69
399.044	132.69
399.268	128.69
399.492	154.69
399.717	134.69
399.941	155.69
400.165	150.69
400.389	139.69
400.613	129.69
400.837	133.69
401.062	126.69
401.286	118.69
401.51	117.69
401.734	128.69
401.958	121.69
402.182	128.69
402.406	128.69
402.63	139.69
402.854	144.69
403.078	140.69
403.302	142.69
403.526	119.69
403.75	135.69
403.974	129.69
404.198	132.69
404.422	140.69
404.645	136.69
404.869	124.69
405.093	142.69
405.317	127.69
405.541	139.69
405.765	146.69
405.988	139.69
406.212	121.69
406.436	108.69
406.66	140.69
406.883	155.69
407.107	145.69
407.331	145.69
407.555	135.69
407.778	148.69
408.002	149.69
408.226	145.69
408.449	135.69
408.673	132.69
408.896	127.69
409.12	133.69
409.344	134.69
409.567	138.69
409.791	133.69
410.014	135.69
410.238	134.69
410.461	135.69
410.685	122.69
410.908	126.69
411.132	142.69
411.355	144.69
411.578	138.69
411.802	138.69
412.025	134.69
412.249	144.69
412.472	120.69
412.695	125.69
412.919	131.69
413.142	133.69
413.365	130.69
413.589	134.69
413.812	124.69
414.035	139.69
414.258	140.69
414.482	136.69
414.705	134.69
414.928	124.69
415.151	125.69
415.374	116.69
415.597	124.69
415.821	125.69
416.044	124.69
416.267	102.69
416.49	124.69
416.713	116.69
416.936	127.69
417.159	133.69
417.382	120.69
417.605	125.69
417.828	136.69
418.051	127.69
418.274	131.69
418.497	141.69
418.72	132.69
418.943	140.69
419.166	134.69
419.389	131.69
419.611	128.69
419.834	146.69
420.057	140.69
420.28	140.69
420.503	145.69
420.726	137.69
420.948	128.69
421.171	126.69
421.394	132.69
421.617	120.69
421.839	134.69
422.062	134.69
422.285	137.69
422.507	138.69
422.73	146.69
422.953	143.69
423.175	140.69
423.398	127.69
423.621	136.69
423.843	133.69
424.066	145.69
424.288	142.69
424.511	142.69
424.733	131.69
424.956	135.69
425.178	135.69
425.401	122.69
425.623	135.69
425.846	140.69
426.068	128.69
426.291	113.69
426.513	105.69
426.735	121.69
426.958	126.69
427.18	151.69
427.402	144.69
427.625	138.69
427.847	137.69
428.069	129.69
428.292	135.69
428.514	127.69
428.736	120.69
428.958	118.69
429.181	132.69
429.403	123.69
429.625	118.69
429.847	121.69
430.069	116.69
430.292	128.69
430.514	130.69
430.736	121.69
430.958	123.69
431.18	130.69
431.402	122.69
431.624	129.69
431.846	126.69
432.068	124.69
432.29	131.69
432.512	110.69
432.734	124.69
432.956	132.69
433.178	132.69
433.4	123.69
433.622	122.69
433.844	131.69
434.066	128.69
434.287	132.69
434.509	118.69
434.731	129.69
434.953	132.69
435.175	134.69
435.397	123.69
435.618	126.69
435.84	120.69
436.062	156.69
436.284	123.69
436.505	138.69
436.727	129.69
436.949	113.69
437.17	118.69
437.392	110.69
437.614	124.69
437.835	140.69
438.057	143.69
438.278	150.69
438.5	124.69
438.721	139.69
438.943	125.69
439.165	128.69
439.386	110.69
439.608	128.69
439.829	132.69
440.05	140.69
440.272	140.69
440.493	130.69
440.715	126.69
440.936	134.69
441.158	129.69
441.379	124.69
441.6	135.69
441.822	128.69
442.043	133.69
442.264	144.69
442.486	136.69
442.707	143.69
442.928	143.69
443.149	140.69
443.371	130.69
443.592	144.69
443.813	147.69
444.034	134.69
444.255	145.69
444.476	144.69
444.698	152.69
444.919	140.69
445.14	228.69
445.361	196.69
445.582	132.69
445.803	131.69
446.024	135.69
446.245	144.69
446.466	136.69
446.687	123.69
446.908	137.69
447.129	141.69
447.35	131.69
447.571	128.69
447.792	134.69
448.013	117.69
448.234	125.69
448.455	118.69
448.675	118.69
448.896	140.69
449.117	139.69
449.338	132.69
449.559	143.69
449.779	150.69
450	134.69
450.221	123.69
450.442	120.69
450.662	126.69
450.883	127.69
451.104	123.69
451.324	130.69
451.545	133.69
451.766	123.69
451.986	126.69
452.207	128.69
452.428	127.69
452.648	111.69
452.869	108.69
453.089	122.69
453.31	125.69
453.53	114.69
453.751	112.69
453.971	121.69
454.192	125.69
454.412	122.69
454.633	123.69
454.853	117.69
455.073	118.69
455.294	119.69
455.514	132.69
455.734	117.69
455.955	115.69
456.175	116.69
456.395	113.69
456.616	109.69
456.836	123.69
457.056	124.69
457.276	112.69
457.497	130.69
457.717	114.69
457.937	116.69
458.157	124.69
458.377	107.69
458.598	99.69
458.818	124.69
459.038	126.69
459.258	124.69
459.478	133.69
459.698	124.69
459.918	132.69
460.138	117.69
460.358	124.69
460.578	120.69
460.798	108.69
461.018	128.69
461.238	141.69
461.458	117.69
461.678	118.69
461.898	126.69
462.118	137.69
462.338	135.69
462.558	124.69
462.777	132.69
462.997	153.69
463.217	144.69
463.437	127.69
463.657	141.69
463.876	128.69
464.096	128.69
464.316	142.69
464.536	115.69
464.755	139.69
464.975	138.69
465.195	138.69
465.414	131.69
465.634	131.69
465.854	123.69
466.073	122.69
466.293	121.69
466.512	125.69
466.732	125.69
466.951	128.69
467.171	125.69
467.391	111.69
467.61	129.69
467.829	119.69
468.049	111.69
468.268	114.69
468.488	128.69
468.707	127.69
468.927	127.69
469.146	130.69
469.365	111.69
469.585	125.69
469.804	141.69
470.023	127.69
470.243	140.69
470.462	132.69
470.681	118.69
470.901	115.69
471.12	124.69
471.339	131.69
471.558	134.69
471.777	135.69
471.997	132.69
472.216	136.69
472.435	126.69
472.654	122.69
472.873	136.69
473.092	113.69
473.311	131.69
473.53	128.69
473.749	118.69
473.968	127.69
474.187	135.69
474.406	108.69
474.625	127.69
474.844	119.69
475.063	123.69
475.282	128.69
475.501	124.69
475.72	125.69
475.939	133.69
476.158	125.69
476.377	110.69
476.596	104.69
476.814	116.69
477.033	123.69
477.252	134.69
477.471	132.69
477.69	145.69
477.908	139.69
478.127	144.69
478.346	131.69
478.564	138.69
478.783	125.69
479.002	136.69
479.22	149.69
479.439	142.69
479.658	136.69
479.876	142.69
480.095	127.69
480.313	125.69
480.532	132.69
480.751	141.69
480.969	136.69
481.188	134.69
481.406	132.69
481.624	131.69
481.843	132.69
482.061	143.69
482.28	139.69
482.498	124.69
482.717	124.69
482.935	135.69
483.153	132.69
483.372	130.69
483.59	128.69
483.808	145.69
484.027	128.69
484.245	130.69
484.463	131.69
484.681	144.69
484.9	140.69
485.118	133.69
485.336	127.69
485.554	120.69
485.772	131.69
485.99	128.69
486.209	114.69
486.427	120.69
486.645	119.69
486.863	137.69
487.081	136.69
487.299	133.69
487.517	116.69
487.735	138.69
487.953	130.69
488.171	150.69
488.389	147.69
488.607	130.69
488.825	128.69
489.043	122.69
489.261	133.69
489.479	147.69
489.696	128.69
489.914	125.69
490.132	143.69
490.35	136.69
490.568	138.69
490.786	136.69
491.003	139.69
491.221	128.69
491.439	133.69
491.657	147.69
491.874	148.69
492.092	147.69
492.31	146.69
492.527	144.69
492.745	133.69
492.963	138.69
493.18	142.69
493.398	140.69
493.615	144.69
493.833	136.69
494.05	139.69
494.268	150.69
494.485	144.69
494.703	145.69
494.92	154.69
495.138	148.69
495.355	149.69
495.573	144.69
495.79	157.69
496.008	138.69
496.225	133.69
496.442	150.69
496.66	161.69
496.877	148.69
497.094	159.69
497.312	151.69
497.529	154.69
497.746	135.69
497.963	140.69
498.181	149.69
498.398	152.69
498.615	149.69
498.832	172.69
499.049	168.69
499.267	186.69
499.484	170.69
499.701	201.69
499.918	198.69
500.135	200.69
500.352	202.69
500.569	216.69
500.786	198.69
501.003	223.69
501.22	210.69
501.437	188.69
501.654	194.69
501.871	169.69
502.088	164.69
502.305	155.69
502.522	155.69
502.739	164.69
502.956	151.69
503.172	147.69
503.389	146.69
503.606	123.69
503.823	143.69
504.04	147.69
504.256	148.69
504.473	148.69
504.69	143.69
504.907	158.69
505.123	144.69
505.34	122.69
