Data from 1968.PennyLincolnUp.Lamp.En5.5.200Scan.071719.P1._HRD10591_14-51-27-969.txt Node
Date: Thu Jul 18 14:51:27 EDT 2019
User: cochatt
Spectrometer: HR+D1059
Trigger mode: 1
Integration Time (sec): 1.000000E-1
Scans to average: 1
Electric dark correction enabled: true
Nonlinearity correction enabled: false
Boxcar width: 0
XAxis mode: Wavelengths
Number of Pixels in Spectrum: 2048
>>>>>Begin Spectral Data<<<<<
223.165	-19.88
223.4	-19.88
223.635	-19.88
223.869	-17.88
224.104	-24.88
224.338	-11.88
224.573	-13.88
224.808	-9.88
225.042	-13.88
225.277	-16.88
225.511	-7.88
225.746	12.12
225.98	11.12
226.215	12.12
226.449	19.12
226.683	26.12
226.918	21.12
227.152	35.12
227.387	27.12
227.621	28.12
227.856	35.12
228.09	44.12
228.324	51.12
228.559	44.12
228.793	60.12
229.027	45.12
229.262	78.12
229.496	71.12
229.73	75.12
229.964	79.12
230.199	75.12
230.433	82.12
230.667	82.12
230.901	84.12
231.136	78.12
231.37	87.12
231.604	83.12
231.838	86.12
232.072	70.12
232.306	94.12
232.541	75.12
232.775	75.12
233.009	81.12
233.243	76.12
233.477	86.12
233.711	92.12
233.945	98.12
234.179	102.12
234.413	86.12
234.647	81.12
234.881	76.12
235.115	86.12
235.349	89.12
235.583	99.12
235.817	76.12
236.051	83.12
236.285	89.12
236.519	79.12
236.753	76.12
236.987	73.12
237.221	78.12
237.455	86.12
237.689	72.12
237.922	69.12
238.156	77.12
238.39	82.12
238.624	70.12
238.858	89.12
239.091	85.12
239.325	73.12
239.559	76.12
239.793	93.12
240.027	97.12
240.26	94.12
240.494	85.12
240.728	76.12
240.961	73.12
241.195	89.12
241.429	89.12
241.662	90.12
241.896	81.12
242.13	72.12
242.363	73.12
242.597	72.12
242.83	73.12
243.064	80.12
243.298	77.12
243.531	83.12
243.765	78.12
243.998	85.12
244.232	81.12
244.465	74.12
244.699	72.12
244.932	101.12
245.166	86.12
245.399	81.12
245.633	81.12
245.866	75.12
246.099	73.12
246.333	77.12
246.566	75.12
246.8	77.12
247.033	100.12
247.266	86.12
247.5	77.12
247.733	82.12
247.966	90.12
248.2	78.12
248.433	84.12
248.666	90.12
248.899	103.12
249.133	76.12
249.366	93.12
249.599	100.12
249.832	89.12
250.066	91.12
250.299	90.12
250.532	85.12
250.765	85.12
250.998	93.12
251.231	83.12
251.465	68.12
251.698	95.12
251.931	94.12
252.164	83.12
252.397	90.12
252.63	90.12
252.863	84.12
253.096	104.12
253.329	87.12
253.562	95.12
253.795	92.12
254.028	69.12
254.261	84.12
254.494	85.12
254.727	99.12
254.96	92.12
255.193	93.12
255.426	96.12
255.659	91.12
255.892	87.12
256.124	79.12
256.357	84.12
256.59	96.12
256.823	74.12
257.056	76.12
257.289	76.12
257.521	80.12
257.754	94.12
257.987	83.12
258.22	89.12
258.452	96.12
258.685	82.12
258.918	95.12
259.151	99.12
259.383	97.12
259.616	94.12
259.849	88.12
260.081	95.12
260.314	90.12
260.547	79.12
260.779	88.12
261.012	94.12
261.244	97.12
261.477	97.12
261.71	84.12
261.942	87.12
262.175	85.12
262.407	93.12
262.64	93.12
262.872	86.12
263.105	78.12
263.337	89.12
263.57	81.12
263.802	96.12
264.035	95.12
264.267	96.12
264.499	87.12
264.732	104.12
264.964	99.12
265.197	91.12
265.429	102.12
265.661	100.12
265.894	92.12
266.126	85.12
266.358	107.12
266.591	98.12
266.823	83.12
267.055	102.12
267.287	95.12
267.52	97.12
267.752	93.12
267.984	85.12
268.216	86.12
268.448	90.12
268.681	92.12
268.913	95.12
269.145	91.12
269.377	93.12
269.609	106.12
269.841	97.12
270.073	77.12
270.306	104.12
270.538	86.12
270.77	99.12
271.002	99.12
271.234	105.12
271.466	93.12
271.698	95.12
271.93	75.12
272.162	92.12
272.394	95.12
272.626	88.12
272.858	87.12
273.09	107.12
273.322	101.12
273.553	110.12
273.785	98.12
274.017	101.12
274.249	91.12
274.481	92.12
274.713	75.12
274.945	94.12
275.176	96.12
275.408	102.12
275.64	106.12
275.872	98.12
276.104	103.12
276.335	104.12
276.567	96.12
276.799	85.12
277.031	93.12
277.262	99.12
277.494	98.12
277.726	94.12
277.957	86.12
278.189	87.12
278.421	104.12
278.652	106.12
278.884	103.12
279.115	85.12
279.347	89.12
279.579	91.12
279.81	115.12
280.042	108.12
280.273	111.12
280.505	90.12
280.736	100.12
280.968	100.12
281.199	103.12
281.431	94.12
281.662	91.12
281.894	106.12
282.125	108.12
282.356	89.12
282.588	87.12
282.819	94.12
283.051	94.12
283.282	104.12
283.513	104.12
283.745	113.12
283.976	91.12
284.207	95.12
284.439	102.12
284.67	117.12
284.901	102.12
285.132	94.12
285.364	93.12
285.595	96.12
285.826	105.12
286.057	86.12
286.288	94.12
286.52	102.12
286.751	110.12
286.982	124.12
287.213	104.12
287.444	95.12
287.675	113.12
287.906	107.12
288.138	91.12
288.369	95.12
288.6	98.12
288.831	93.12
289.062	107.12
289.293	101.12
289.524	103.12
289.755	103.12
289.986	105.12
290.217	104.12
290.448	95.12
290.679	99.12
290.91	104.12
291.141	105.12
291.371	99.12
291.602	115.12
291.833	101.12
292.064	109.12
292.295	103.12
292.526	104.12
292.757	106.12
292.987	113.12
293.218	95.12
293.449	107.12
293.68	116.12
293.91	98.12
294.141	94.12
294.372	103.12
294.603	108.12
294.833	111.12
295.064	111.12
295.295	99.12
295.525	90.12
295.756	88.12
295.987	115.12
296.217	117.12
296.448	106.12
296.679	114.12
296.909	107.12
297.14	110.12
297.37	93.12
297.601	115.12
297.831	105.12
298.062	103.12
298.292	95.12
298.523	100.12
298.753	123.12
298.984	104.12
299.214	93.12
299.445	104.12
299.675	113.12
299.905	107.12
300.136	105.12
300.366	100.12
300.597	97.12
300.827	102.12
301.057	122.12
301.288	116.12
301.518	110.12
301.748	85.12
301.979	121.12
302.209	106.12
302.439	101.12
302.669	98.12
302.9	112.12
303.13	105.12
303.36	89.12
303.59	103.12
303.82	102.12
304.051	98.12
304.281	100.12
304.511	97.12
304.741	90.12
304.971	102.12
305.201	111.12
305.431	98.12
305.661	100.12
305.891	102.12
306.121	102.12
306.352	102.12
306.582	115.12
306.812	103.12
307.042	98.12
307.272	114.12
307.502	116.12
307.731	107.12
307.961	102.12
308.191	116.12
308.421	106.12
308.651	106.12
308.881	121.12
309.111	110.12
309.341	113.12
309.571	113.12
309.8	105.12
310.03	99.12
310.26	106.12
310.49	101.12
310.72	115.12
310.949	108.12
311.179	94.12
311.409	109.12
311.639	102.12
311.868	105.12
312.098	121.12
312.328	109.12
312.557	102.12
312.787	115.12
313.017	118.12
313.246	115.12
313.476	107.12
313.706	102.12
313.935	109.12
314.165	106.12
314.394	97.12
314.624	99.12
314.853	99.12
315.083	113.12
315.312	103.12
315.542	109.12
315.771	116.12
316.001	106.12
316.23	116.12
316.46	99.12
316.689	106.12
316.919	113.12
317.148	106.12
317.377	120.12
317.607	106.12
317.836	107.12
318.065	105.12
318.295	112.12
318.524	123.12
318.753	114.12
318.983	105.12
319.212	116.12
319.441	107.12
319.67	98.12
319.9	93.12
320.129	108.12
320.358	90.12
320.587	99.12
320.816	107.12
321.046	100.12
321.275	125.12
321.504	100.12
321.733	112.12
321.962	89.12
322.191	100.12
322.42	117.12
322.649	114.12
322.878	110.12
323.108	111.12
323.337	129.12
323.566	129.12
323.795	114.12
324.024	124.12
324.253	107.12
324.482	139.12
324.71	165.12
324.939	179.12
325.168	166.12
325.397	138.12
325.626	126.12
325.855	116.12
326.084	119.12
326.313	129.12
326.542	118.12
326.77	126.12
326.999	123.12
327.228	135.12
327.457	155.12
327.686	170.12
327.914	132.12
328.143	115.12
328.372	123.12
328.6	110.12
328.829	111.12
329.058	119.12
329.287	103.12
329.515	112.12
329.744	125.12
329.972	115.12
330.201	128.12
330.43	118.12
330.658	116.12
330.887	107.12
331.115	106.12
331.344	119.12
331.572	115.12
331.801	137.12
332.03	116.12
332.258	104.12
332.486	122.12
332.715	110.12
332.943	113.12
333.172	133.12
333.4	116.12
333.629	114.12
333.857	129.12
334.085	117.12
334.314	130.12
334.542	126.12
334.771	143.12
334.999	122.12
335.227	115.12
335.455	121.12
335.684	119.12
335.912	121.12
336.14	106.12
336.369	121.12
336.597	123.12
336.825	129.12
337.053	119.12
337.281	134.12
337.51	113.12
337.738	121.12
337.966	108.12
338.194	123.12
338.422	127.12
338.65	104.12
338.878	123.12
339.106	113.12
339.334	113.12
339.562	129.12
339.79	109.12
340.018	103.12
340.246	112.12
340.474	113.12
340.702	107.12
340.93	117.12
341.158	92.12
341.386	107.12
341.614	120.12
341.842	105.12
342.07	117.12
342.298	97.12
342.526	105.12
342.754	116.12
342.981	117.12
343.209	114.12
343.437	118.12
343.665	99.12
343.893	116.12
344.12	123.12
344.348	120.12
344.576	109.12
344.804	120.12
345.031	100.12
345.259	111.12
345.487	105.12
345.714	100.12
345.942	98.12
346.17	115.12
346.397	122.12
346.625	119.12
346.853	104.12
347.08	104.12
347.308	111.12
347.535	108.12
347.763	96.12
347.99	109.12
348.218	123.12
348.445	113.12
348.673	110.12
348.9	110.12
349.128	115.12
349.355	119.12
349.583	109.12
349.81	114.12
350.037	103.12
350.265	109.12
350.492	110.12
350.72	112.12
350.947	112.12
351.174	115.12
351.402	118.12
351.629	103.12
351.856	101.12
352.083	101.12
352.311	119.12
352.538	108.12
352.765	117.12
352.992	117.12
353.22	101.12
353.447	109.12
353.674	109.12
353.901	113.12
354.128	109.12
354.355	85.12
354.583	126.12
354.81	107.12
355.037	113.12
355.264	114.12
355.491	111.12
355.718	93.12
355.945	112.12
356.172	101.12
356.399	110.12
356.626	114.12
356.853	114.12
357.08	119.12
357.307	109.12
357.534	110.12
357.761	122.12
357.988	110.12
358.215	119.12
358.441	111.12
358.668	113.12
358.895	110.12
359.122	124.12
359.349	118.12
359.576	100.12
359.802	115.12
360.029	126.12
360.256	119.12
360.483	110.12
360.709	102.12
360.936	116.12
361.163	118.12
361.39	101.12
361.616	117.12
361.843	119.12
362.07	103.12
362.296	109.12
362.523	114.12
362.749	107.12
362.976	111.12
363.203	114.12
363.429	120.12
363.656	105.12
363.882	110.12
364.109	110.12
364.335	123.12
364.562	111.12
364.788	93.12
365.015	110.12
365.241	101.12
365.468	109.12
365.694	119.12
365.92	99.12
366.147	114.12
366.373	101.12
366.599	109.12
366.826	122.12
367.052	105.12
367.278	125.12
367.505	106.12
367.731	115.12
367.957	109.12
368.184	94.12
368.41	113.12
368.636	107.12
368.862	106.12
369.089	102.12
369.315	107.12
369.541	112.12
369.767	108.12
369.993	106.12
370.219	112.12
370.445	115.12
370.672	111.12
370.898	115.12
371.124	116.12
371.35	105.12
371.576	129.12
371.802	105.12
372.028	108.12
372.254	114.12
372.48	113.12
372.706	129.12
372.932	125.12
373.158	106.12
373.384	115.12
373.61	120.12
373.835	127.12
374.061	114.12
374.287	117.12
374.513	121.12
374.739	108.12
374.965	107.12
375.191	124.12
375.416	108.12
375.642	107.12
375.868	115.12
376.094	116.12
376.319	117.12
376.545	121.12
376.771	102.12
376.997	97.12
377.222	108.12
377.448	115.12
377.674	113.12
377.899	99.12
378.125	114.12
378.35	101.12
378.576	111.12
378.802	110.12
379.027	114.12
379.253	129.12
379.478	117.12
379.704	129.12
379.929	106.12
380.155	106.12
380.38	105.12
380.606	120.12
380.831	125.12
381.057	123.12
381.282	120.12
381.507	105.12
381.733	98.12
381.958	111.12
382.184	117.12
382.409	99.12
382.634	120.12
382.86	115.12
383.085	104.12
383.31	121.12
383.535	116.12
383.761	119.12
383.986	95.12
384.211	109.12
384.436	109.12
384.662	115.12
384.887	132.12
385.112	116.12
385.337	121.12
385.562	121.12
385.787	131.12
386.013	121.12
386.238	113.12
386.463	108.12
386.688	105.12
386.913	106.12
387.138	109.12
387.363	122.12
387.588	102.12
387.813	125.12
388.038	119.12
388.263	113.12
388.488	123.12
388.713	123.12
388.938	120.12
389.163	122.12
389.387	136.12
389.612	120.12
389.837	120.12
390.062	116.12
390.287	118.12
390.512	122.12
390.736	120.12
390.961	109.12
391.186	124.12
391.411	123.12
391.636	127.12
391.86	127.12
392.085	129.12
392.31	113.12
392.534	118.12
392.759	129.12
392.984	123.12
393.208	117.12
393.433	128.12
393.658	121.12
393.882	123.12
394.107	121.12
394.331	131.12
394.556	113.12
394.78	120.12
395.005	126.12
395.229	135.12
395.454	129.12
395.678	122.12
395.903	120.12
396.127	136.12
396.352	133.12
396.576	114.12
396.801	123.12
397.025	138.12
397.249	129.12
397.474	131.12
397.698	124.12
397.922	127.12
398.147	121.12
398.371	118.12
398.595	113.12
398.82	129.12
399.044	138.12
399.268	144.12
399.492	142.12
399.717	148.12
399.941	153.12
400.165	147.12
400.389	140.12
400.613	133.12
400.837	141.12
401.062	104.12
401.286	131.12
401.51	132.12
401.734	141.12
401.958	135.12
402.182	127.12
402.406	130.12
402.63	125.12
402.854	123.12
403.078	136.12
403.302	134.12
403.526	118.12
403.75	143.12
403.974	127.12
404.198	121.12
404.422	137.12
404.645	138.12
404.869	140.12
405.093	142.12
405.317	135.12
405.541	129.12
405.765	153.12
405.988	150.12
406.212	127.12
406.436	143.12
406.66	151.12
406.883	135.12
407.107	146.12
407.331	133.12
407.555	143.12
407.778	138.12
408.002	137.12
408.226	116.12
408.449	142.12
408.673	122.12
408.896	149.12
409.12	137.12
409.344	143.12
409.567	130.12
409.791	137.12
410.014	134.12
410.238	136.12
410.461	138.12
410.685	142.12
410.908	139.12
411.132	146.12
411.355	146.12
411.578	127.12
411.802	129.12
412.025	125.12
412.249	137.12
412.472	129.12
412.695	132.12
412.919	132.12
413.142	138.12
413.365	138.12
413.589	122.12
413.812	132.12
414.035	137.12
414.258	126.12
414.482	123.12
414.705	126.12
414.928	137.12
415.151	119.12
415.374	137.12
415.597	133.12
415.821	133.12
416.044	135.12
416.267	122.12
416.49	118.12
416.713	123.12
416.936	119.12
417.159	139.12
417.382	127.12
417.605	123.12
417.828	134.12
418.051	136.12
418.274	132.12
418.497	101.12
418.72	131.12
418.943	122.12
419.166	137.12
419.389	137.12
419.611	143.12
419.834	141.12
420.057	128.12
420.28	127.12
420.503	137.12
420.726	137.12
420.948	117.12
421.171	128.12
421.394	120.12
421.617	129.12
421.839	135.12
422.062	123.12
422.285	127.12
422.507	139.12
422.73	136.12
422.953	119.12
423.175	126.12
423.398	135.12
423.621	146.12
423.843	143.12
424.066	149.12
424.288	137.12
424.511	145.12
424.733	139.12
424.956	148.12
425.178	141.12
425.401	131.12
425.623	142.12
425.846	134.12
426.068	118.12
426.291	117.12
426.513	139.12
426.735	148.12
426.958	135.12
427.18	149.12
427.402	154.12
427.625	145.12
427.847	142.12
428.069	128.12
428.292	133.12
428.514	123.12
428.736	143.12
428.958	129.12
429.181	140.12
429.403	151.12
429.625	125.12
429.847	123.12
430.069	127.12
430.292	129.12
430.514	120.12
430.736	127.12
430.958	122.12
431.18	119.12
431.402	118.12
431.624	123.12
431.846	123.12
432.068	123.12
432.29	123.12
432.512	130.12
432.734	131.12
432.956	133.12
433.178	119.12
433.4	138.12
433.622	114.12
433.844	129.12
434.066	129.12
434.287	125.12
434.509	122.12
434.731	115.12
434.953	136.12
435.175	127.12
435.397	129.12
435.618	126.12
435.84	140.12
436.062	143.12
436.284	140.12
436.505	141.12
436.727	125.12
436.949	125.12
437.17	132.12
437.392	135.12
437.614	122.12
437.835	123.12
438.057	119.12
438.278	148.12
438.5	134.12
438.721	128.12
438.943	154.12
439.165	134.12
439.386	132.12
439.608	133.12
439.829	130.12
440.05	122.12
440.272	147.12
440.493	142.12
440.715	131.12
440.936	136.12
441.158	137.12
441.379	152.12
441.6	132.12
441.822	142.12
442.043	133.12
442.264	147.12
442.486	125.12
442.707	143.12
442.928	137.12
443.149	149.12
443.371	140.12
443.592	123.12
443.813	147.12
444.034	154.12
444.255	150.12
444.476	122.12
444.698	137.12
444.919	142.12
445.14	255.12
445.361	190.12
445.582	134.12
445.803	139.12
446.024	150.12
446.245	142.12
446.466	143.12
446.687	130.12
446.908	125.12
447.129	125.12
447.35	130.12
447.571	129.12
447.792	128.12
448.013	118.12
448.234	141.12
448.455	134.12
448.675	126.12
448.896	126.12
449.117	120.12
449.338	128.12
449.559	114.12
449.779	149.12
450	144.12
450.221	135.12
450.442	140.12
450.662	123.12
450.883	130.12
451.104	121.12
451.324	133.12
451.545	120.12
451.766	126.12
451.986	126.12
452.207	128.12
452.428	133.12
452.648	124.12
452.869	119.12
453.089	113.12
453.31	121.12
453.53	139.12
453.751	119.12
453.971	120.12
454.192	131.12
454.412	123.12
454.633	121.12
454.853	122.12
455.073	129.12
455.294	122.12
455.514	134.12
455.734	130.12
455.955	119.12
456.175	116.12
456.395	108.12
456.616	115.12
456.836	130.12
457.056	116.12
457.276	109.12
457.497	107.12
457.717	118.12
457.937	123.12
458.157	101.12
458.377	124.12
458.598	125.12
458.818	125.12
459.038	124.12
459.258	129.12
459.478	125.12
459.698	131.12
459.918	121.12
460.138	125.12
460.358	110.12
460.578	131.12
460.798	143.12
461.018	125.12
461.238	136.12
461.458	119.12
461.678	127.12
461.898	135.12
462.118	132.12
462.338	132.12
462.558	147.12
462.777	125.12
462.997	140.12
463.217	132.12
463.437	155.12
463.657	139.12
463.876	138.12
464.096	134.12
464.316	131.12
464.536	133.12
464.755	131.12
464.975	125.12
465.195	130.12
465.414	140.12
465.634	115.12
465.854	119.12
466.073	132.12
466.293	118.12
466.512	124.12
466.732	121.12
466.951	141.12
467.171	114.12
467.391	124.12
467.61	138.12
467.829	108.12
468.049	137.12
468.268	115.12
468.488	126.12
468.707	109.12
468.927	130.12
469.146	137.12
469.365	125.12
469.585	130.12
469.804	135.12
470.023	125.12
470.243	145.12
470.462	116.12
470.681	135.12
470.901	123.12
471.12	114.12
471.339	120.12
471.558	133.12
471.777	141.12
471.997	114.12
472.216	117.12
472.435	119.12
472.654	129.12
472.873	133.12
473.092	128.12
473.311	128.12
473.53	118.12
473.749	120.12
473.968	147.12
474.187	143.12
474.406	137.12
474.625	127.12
474.844	126.12
475.063	128.12
475.282	129.12
475.501	115.12
475.72	122.12
475.939	121.12
476.158	125.12
476.377	115.12
476.596	129.12
476.814	126.12
477.033	127.12
477.252	124.12
477.471	125.12
477.69	129.12
477.908	134.12
478.127	127.12
478.346	131.12
478.564	121.12
478.783	132.12
479.002	124.12
479.22	129.12
479.439	127.12
479.658	139.12
479.876	131.12
480.095	125.12
480.313	131.12
480.532	139.12
480.751	128.12
480.969	127.12
481.188	138.12
481.406	140.12
481.624	131.12
481.843	130.12
482.061	128.12
482.28	120.12
482.498	144.12
482.717	138.12
482.935	131.12
483.153	126.12
483.372	135.12
483.59	135.12
483.808	128.12
484.027	127.12
484.245	125.12
484.463	130.12
484.681	139.12
484.9	138.12
485.118	130.12
485.336	140.12
485.554	136.12
485.772	133.12
485.99	132.12
486.209	136.12
486.427	128.12
486.645	128.12
486.863	127.12
487.081	133.12
487.299	144.12
487.517	152.12
487.735	143.12
487.953	140.12
488.171	138.12
488.389	148.12
488.607	122.12
488.825	134.12
489.043	131.12
489.261	138.12
489.479	147.12
489.696	142.12
489.914	125.12
490.132	128.12
490.35	135.12
490.568	147.12
490.786	149.12
491.003	126.12
491.221	142.12
491.439	148.12
491.657	144.12
491.874	136.12
492.092	153.12
492.31	154.12
492.527	154.12
492.745	142.12
492.963	141.12
493.18	149.12
493.398	156.12
493.615	155.12
493.833	146.12
494.05	149.12
494.268	137.12
494.485	131.12
494.703	152.12
494.92	166.12
495.138	147.12
495.355	139.12
495.573	148.12
495.79	139.12
496.008	157.12
496.225	143.12
496.442	141.12
496.66	157.12
496.877	141.12
497.094	143.12
497.312	149.12
497.529	136.12
497.746	145.12
497.963	146.12
498.181	157.12
498.398	173.12
498.615	158.12
498.832	163.12
499.049	170.12
499.267	159.12
499.484	171.12
499.701	181.12
499.918	193.12
500.135	203.12
500.352	213.12
500.569	203.12
500.786	203.12
501.003	195.12
501.22	200.12
501.437	184.12
501.654	179.12
501.871	167.12
502.088	145.12
502.305	168.12
502.522	152.12
502.739	156.12
502.956	147.12
503.172	141.12
503.389	149.12
503.606	153.12
503.823	151.12
504.04	155.12
504.256	147.12
504.473	153.12
504.69	150.12
504.907	151.12
505.123	143.12
505.34	148.12
505.557	146.12
