Data from 1968.PennyLincolnUp.Lamp.En5.5.200Scan.071719.P1._HRD10591_14-51-03-970.txt Node
Date: Thu Jul 18 14:51:03 EDT 2019
User: cochatt
Spectrometer: HR+D1059
Trigger mode: 1
Integration Time (sec): 1.000000E-1
Scans to average: 1
Electric dark correction enabled: true
Nonlinearity correction enabled: false
Boxcar width: 0
XAxis mode: Wavelengths
Number of Pixels in Spectrum: 2048
>>>>>Begin Spectral Data<<<<<
223.165	-19.06
223.4	-19.06
223.635	-19.06
223.869	-21.06
224.104	-12.06
224.338	-19.06
224.573	-12.06
224.808	-8.06
225.042	-24.06
225.277	-11.06
225.511	-2.06
225.746	3.94
225.98	7.94
226.215	12.94
226.449	30.94
226.683	21.94
226.918	21.94
227.152	28.94
227.387	38.94
227.621	32.94
227.856	43.94
228.09	39.94
228.324	44.94
228.559	56.94
228.793	54.94
229.027	50.94
229.262	68.94
229.496	62.94
229.73	63.94
229.964	82.94
230.199	87.94
230.433	68.94
230.667	67.94
230.901	81.94
231.136	77.94
231.37	67.94
231.604	76.94
231.838	79.94
232.072	71.94
232.306	74.94
232.541	69.94
232.775	84.94
233.009	83.94
233.243	81.94
233.477	85.94
233.711	87.94
233.945	77.94
234.179	79.94
234.413	78.94
234.647	80.94
234.881	81.94
235.115	85.94
235.349	79.94
235.583	77.94
235.817	99.94
236.051	102.94
236.285	84.94
236.519	99.94
236.753	72.94
236.987	89.94
237.221	67.94
237.455	71.94
237.689	78.94
237.922	94.94
238.156	67.94
238.39	84.94
238.624	85.94
238.858	85.94
239.091	82.94
239.325	90.94
239.559	79.94
239.793	91.94
240.027	81.94
240.26	88.94
240.494	74.94
240.728	86.94
240.961	89.94
241.195	67.94
241.429	79.94
241.662	85.94
241.896	81.94
242.13	84.94
242.363	75.94
242.597	84.94
242.83	77.94
243.064	69.94
243.298	84.94
243.531	91.94
243.765	92.94
243.998	92.94
244.232	65.94
244.465	75.94
244.699	70.94
244.932	76.94
245.166	81.94
245.399	76.94
245.633	85.94
245.866	90.94
246.099	87.94
246.333	82.94
246.566	75.94
246.8	85.94
247.033	79.94
247.266	85.94
247.5	75.94
247.733	85.94
247.966	80.94
248.2	77.94
248.433	91.94
248.666	101.94
248.899	83.94
249.133	79.94
249.366	78.94
249.599	82.94
249.832	91.94
250.066	73.94
250.299	72.94
250.532	79.94
250.765	80.94
250.998	73.94
251.231	92.94
251.465	92.94
251.698	88.94
251.931	73.94
252.164	81.94
252.397	74.94
252.63	76.94
252.863	95.94
253.096	96.94
253.329	88.94
253.562	76.94
253.795	104.94
254.028	91.94
254.261	82.94
254.494	81.94
254.727	85.94
254.96	100.94
255.193	82.94
255.426	90.94
255.659	86.94
255.892	101.94
256.124	79.94
256.357	75.94
256.59	87.94
256.823	104.94
257.056	88.94
257.289	92.94
257.521	106.94
257.754	90.94
257.987	94.94
258.22	83.94
258.452	89.94
258.685	86.94
258.918	92.94
259.151	79.94
259.383	93.94
259.616	90.94
259.849	83.94
260.081	86.94
260.314	85.94
260.547	98.94
260.779	89.94
261.012	88.94
261.244	75.94
261.477	97.94
261.71	90.94
261.942	101.94
262.175	91.94
262.407	105.94
262.64	99.94
262.872	97.94
263.105	100.94
263.337	99.94
263.57	81.94
263.802	68.94
264.035	79.94
264.267	91.94
264.499	86.94
264.732	83.94
264.964	86.94
265.197	78.94
265.429	99.94
265.661	101.94
265.894	87.94
266.126	103.94
266.358	108.94
266.591	87.94
266.823	83.94
267.055	87.94
267.287	87.94
267.52	74.94
267.752	82.94
267.984	98.94
268.216	88.94
268.448	97.94
268.681	89.94
268.913	91.94
269.145	95.94
269.377	89.94
269.609	97.94
269.841	94.94
270.073	97.94
270.306	101.94
270.538	91.94
270.77	102.94
271.002	103.94
271.234	97.94
271.466	102.94
271.698	101.94
271.93	92.94
272.162	80.94
272.394	100.94
272.626	101.94
272.858	108.94
273.09	99.94
273.322	87.94
273.553	86.94
273.785	90.94
274.017	98.94
274.249	85.94
274.481	83.94
274.713	98.94
274.945	87.94
275.176	86.94
275.408	111.94
275.64	87.94
275.872	94.94
276.104	93.94
276.335	97.94
276.567	100.94
276.799	108.94
277.031	93.94
277.262	99.94
277.494	102.94
277.726	84.94
277.957	98.94
278.189	99.94
278.421	90.94
278.652	94.94
278.884	85.94
279.115	100.94
279.347	100.94
279.579	91.94
279.81	87.94
280.042	93.94
280.273	86.94
280.505	94.94
280.736	86.94
280.968	92.94
281.199	117.94
281.431	100.94
281.662	93.94
281.894	102.94
282.125	99.94
282.356	107.94
282.588	115.94
282.819	111.94
283.051	106.94
283.282	94.94
283.513	105.94
283.745	100.94
283.976	98.94
284.207	108.94
284.439	93.94
284.67	95.94
284.901	83.94
285.132	101.94
285.364	89.94
285.595	103.94
285.826	98.94
286.057	89.94
286.288	88.94
286.52	80.94
286.751	112.94
286.982	94.94
287.213	103.94
287.444	81.94
287.675	101.94
287.906	103.94
288.138	107.94
288.369	105.94
288.6	95.94
288.831	107.94
289.062	91.94
289.293	108.94
289.524	87.94
289.755	88.94
289.986	102.94
290.217	113.94
290.448	103.94
290.679	90.94
290.91	85.94
291.141	110.94
291.371	98.94
291.602	104.94
291.833	86.94
292.064	107.94
292.295	113.94
292.526	97.94
292.757	108.94
292.987	105.94
293.218	96.94
293.449	100.94
293.68	113.94
293.91	101.94
294.141	106.94
294.372	89.94
294.603	102.94
294.833	109.94
295.064	98.94
295.295	120.94
295.525	102.94
295.756	90.94
295.987	103.94
296.217	99.94
296.448	100.94
296.679	103.94
296.909	82.94
297.14	110.94
297.37	92.94
297.601	95.94
297.831	114.94
298.062	103.94
298.292	99.94
298.523	118.94
298.753	99.94
298.984	90.94
299.214	91.94
299.445	104.94
299.675	97.94
299.905	94.94
300.136	87.94
300.366	110.94
300.597	95.94
300.827	101.94
301.057	105.94
301.288	106.94
301.518	107.94
301.748	97.94
301.979	94.94
302.209	104.94
302.439	100.94
302.669	92.94
302.9	119.94
303.13	108.94
303.36	97.94
303.59	107.94
303.82	108.94
304.051	93.94
304.281	110.94
304.511	103.94
304.741	90.94
304.971	83.94
305.201	102.94
305.431	103.94
305.661	110.94
305.891	93.94
306.121	106.94
306.352	119.94
306.582	94.94
306.812	106.94
307.042	108.94
307.272	95.94
307.502	114.94
307.731	107.94
307.961	87.94
308.191	88.94
308.421	98.94
308.651	110.94
308.881	101.94
309.111	97.94
309.341	99.94
309.571	102.94
309.8	96.94
310.03	108.94
310.26	110.94
310.49	101.94
310.72	113.94
310.949	108.94
311.179	106.94
311.409	98.94
311.639	97.94
311.868	107.94
312.098	103.94
312.328	115.94
312.557	105.94
312.787	113.94
313.017	116.94
313.246	106.94
313.476	109.94
313.706	93.94
313.935	104.94
314.165	112.94
314.394	95.94
314.624	103.94
314.853	115.94
315.083	101.94
315.312	96.94
315.542	93.94
315.771	113.94
316.001	106.94
316.23	92.94
316.46	105.94
316.689	107.94
316.919	102.94
317.148	106.94
317.377	103.94
317.607	125.94
317.836	113.94
318.065	113.94
318.295	104.94
318.524	106.94
318.753	102.94
318.983	115.94
319.212	107.94
319.441	108.94
319.67	108.94
319.9	103.94
320.129	107.94
320.358	111.94
320.587	117.94
320.816	106.94
321.046	113.94
321.275	109.94
321.504	123.94
321.733	105.94
321.962	117.94
322.191	121.94
322.42	109.94
322.649	130.94
322.878	103.94
323.108	119.94
323.337	113.94
323.566	121.94
323.795	104.94
324.024	125.94
324.253	108.94
324.482	146.94
324.71	157.94
324.939	177.94
325.168	157.94
325.397	114.94
325.626	117.94
325.855	113.94
326.084	108.94
326.313	123.94
326.542	124.94
326.77	129.94
326.999	116.94
327.228	129.94
327.457	143.94
327.686	160.94
327.914	120.94
328.143	127.94
328.372	107.94
328.6	124.94
328.829	125.94
329.058	118.94
329.287	109.94
329.515	106.94
329.744	134.94
329.972	112.94
330.201	107.94
330.43	126.94
330.658	115.94
330.887	123.94
331.115	111.94
331.344	113.94
331.572	101.94
331.801	123.94
332.03	117.94
332.258	113.94
332.486	116.94
332.715	106.94
332.943	108.94
333.172	122.94
333.4	109.94
333.629	125.94
333.857	114.94
334.085	113.94
334.314	133.94
334.542	138.94
334.771	130.94
334.999	116.94
335.227	125.94
335.455	119.94
335.684	131.94
335.912	117.94
336.14	127.94
336.369	110.94
336.597	95.94
336.825	120.94
337.053	118.94
337.281	125.94
337.51	121.94
337.738	122.94
337.966	117.94
338.194	123.94
338.422	105.94
338.65	122.94
338.878	119.94
339.106	100.94
339.334	117.94
339.562	123.94
339.79	121.94
340.018	110.94
340.246	109.94
340.474	107.94
340.702	114.94
340.93	122.94
341.158	107.94
341.386	120.94
341.614	109.94
341.842	101.94
342.07	98.94
342.298	113.94
342.526	112.94
342.754	116.94
342.981	124.94
343.209	110.94
343.437	107.94
343.665	113.94
343.893	122.94
344.12	117.94
344.348	94.94
344.576	105.94
344.804	119.94
345.031	113.94
345.259	106.94
345.487	102.94
345.714	102.94
345.942	117.94
346.17	117.94
346.397	121.94
346.625	105.94
346.853	119.94
347.08	117.94
347.308	110.94
347.535	104.94
347.763	102.94
347.99	108.94
348.218	129.94
348.445	115.94
348.673	126.94
348.9	108.94
349.128	109.94
349.355	117.94
349.583	114.94
349.81	106.94
350.037	89.94
350.265	109.94
350.492	107.94
350.72	107.94
350.947	102.94
351.174	89.94
351.402	109.94
351.629	112.94
351.856	125.94
352.083	106.94
352.311	97.94
352.538	107.94
352.765	109.94
352.992	108.94
353.22	111.94
353.447	126.94
353.674	104.94
353.901	90.94
354.128	111.94
354.355	111.94
354.583	110.94
354.81	109.94
355.037	113.94
355.264	116.94
355.491	99.94
355.718	106.94
355.945	116.94
356.172	105.94
356.399	115.94
356.626	110.94
356.853	111.94
357.08	99.94
357.307	120.94
357.534	99.94
357.761	118.94
357.988	90.94
358.215	115.94
358.441	105.94
358.668	110.94
358.895	110.94
359.122	110.94
359.349	110.94
359.576	107.94
359.802	119.94
360.029	107.94
360.256	100.94
360.483	100.94
360.709	116.94
360.936	106.94
361.163	88.94
361.39	108.94
361.616	95.94
361.843	98.94
362.07	114.94
362.296	118.94
362.523	100.94
362.749	110.94
362.976	129.94
363.203	130.94
363.429	105.94
363.656	107.94
363.882	111.94
364.109	120.94
364.335	110.94
364.562	115.94
364.788	100.94
365.015	116.94
365.241	114.94
365.468	109.94
365.694	94.94
365.92	108.94
366.147	102.94
366.373	106.94
366.599	106.94
366.826	117.94
367.052	115.94
367.278	99.94
367.505	100.94
367.731	107.94
367.957	102.94
368.184	106.94
368.41	104.94
368.636	111.94
368.862	113.94
369.089	107.94
369.315	111.94
369.541	114.94
369.767	116.94
369.993	111.94
370.219	122.94
370.445	108.94
370.672	97.94
370.898	114.94
371.124	115.94
371.35	98.94
371.576	107.94
371.802	111.94
372.028	110.94
372.254	105.94
372.48	114.94
372.706	108.94
372.932	117.94
373.158	111.94
373.384	115.94
373.61	109.94
373.835	117.94
374.061	120.94
374.287	106.94
374.513	117.94
374.739	105.94
374.965	129.94
375.191	111.94
375.416	103.94
375.642	122.94
375.868	109.94
376.094	126.94
376.319	108.94
376.545	120.94
376.771	115.94
376.997	101.94
377.222	110.94
377.448	116.94
377.674	121.94
377.899	131.94
378.125	116.94
378.35	110.94
378.576	108.94
378.802	95.94
379.027	102.94
379.253	123.94
379.478	107.94
379.704	119.94
379.929	96.94
380.155	113.94
380.38	104.94
380.606	106.94
380.831	124.94
381.057	122.94
381.282	116.94
381.507	116.94
381.733	104.94
381.958	104.94
382.184	112.94
382.409	103.94
382.634	122.94
382.86	109.94
383.085	118.94
383.31	103.94
383.535	115.94
383.761	113.94
383.986	113.94
384.211	108.94
384.436	125.94
384.662	123.94
384.887	122.94
385.112	121.94
385.337	125.94
385.562	128.94
385.787	127.94
386.013	119.94
386.238	113.94
386.463	117.94
386.688	106.94
386.913	119.94
387.138	115.94
387.363	127.94
387.588	138.94
387.813	120.94
388.038	118.94
388.263	114.94
388.488	120.94
388.713	112.94
388.938	120.94
389.163	125.94
389.387	113.94
389.612	106.94
389.837	119.94
390.062	106.94
390.287	106.94
390.512	124.94
390.736	123.94
390.961	123.94
391.186	120.94
391.411	124.94
391.636	115.94
391.86	121.94
392.085	121.94
392.31	140.94
392.534	131.94
392.759	129.94
392.984	122.94
393.208	117.94
393.433	104.94
393.658	118.94
393.882	115.94
394.107	116.94
394.331	116.94
394.556	122.94
394.78	118.94
395.005	113.94
395.229	117.94
395.454	115.94
395.678	124.94
395.903	131.94
396.127	135.94
396.352	126.94
396.576	122.94
396.801	120.94
397.025	121.94
397.249	132.94
397.474	138.94
397.698	137.94
397.922	148.94
398.147	141.94
398.371	135.94
398.595	127.94
398.82	120.94
399.044	143.94
399.268	147.94
399.492	140.94
399.717	143.94
399.941	142.94
400.165	142.94
400.389	137.94
400.613	127.94
400.837	128.94
401.062	130.94
401.286	123.94
401.51	137.94
401.734	124.94
401.958	126.94
402.182	128.94
402.406	141.94
402.63	114.94
402.854	139.94
403.078	126.94
403.302	122.94
403.526	144.94
403.75	128.94
403.974	138.94
404.198	139.94
404.422	137.94
404.645	125.94
404.869	126.94
405.093	127.94
405.317	133.94
405.541	131.94
405.765	130.94
405.988	132.94
406.212	126.94
406.436	137.94
406.66	141.94
406.883	123.94
407.107	133.94
407.331	151.94
407.555	147.94
407.778	146.94
408.002	134.94
408.226	137.94
408.449	141.94
408.673	147.94
408.896	149.94
409.12	137.94
409.344	127.94
409.567	119.94
409.791	135.94
410.014	148.94
410.238	149.94
410.461	126.94
410.685	126.94
410.908	143.94
411.132	134.94
411.355	134.94
411.578	136.94
411.802	138.94
412.025	131.94
412.249	139.94
412.472	129.94
412.695	118.94
412.919	133.94
413.142	126.94
413.365	121.94
413.589	142.94
413.812	127.94
414.035	118.94
414.258	130.94
414.482	133.94
414.705	129.94
414.928	133.94
415.151	135.94
415.374	121.94
415.597	134.94
415.821	142.94
416.044	122.94
416.267	124.94
416.49	127.94
416.713	124.94
416.936	129.94
417.159	123.94
417.382	135.94
417.605	123.94
417.828	118.94
418.051	146.94
418.274	130.94
418.497	148.94
418.72	135.94
418.943	133.94
419.166	137.94
419.389	139.94
419.611	130.94
419.834	147.94
420.057	127.94
420.28	137.94
420.503	127.94
420.726	126.94
420.948	136.94
421.171	127.94
421.394	119.94
421.617	125.94
421.839	128.94
422.062	118.94
422.285	116.94
422.507	124.94
422.73	137.94
422.953	133.94
423.175	148.94
423.398	110.94
423.621	123.94
423.843	127.94
424.066	135.94
424.288	129.94
424.511	142.94
424.733	143.94
424.956	136.94
425.178	138.94
425.401	144.94
425.623	135.94
425.846	105.94
426.068	126.94
426.291	120.94
426.513	133.94
426.735	126.94
426.958	117.94
427.18	131.94
427.402	138.94
427.625	151.94
427.847	147.94
428.069	129.94
428.292	142.94
428.514	126.94
428.736	119.94
428.958	112.94
429.181	141.94
429.403	115.94
429.625	137.94
429.847	123.94
430.069	117.94
430.292	125.94
430.514	114.94
430.736	138.94
430.958	135.94
431.18	119.94
431.402	131.94
431.624	128.94
431.846	115.94
432.068	139.94
432.29	146.94
432.512	125.94
432.734	121.94
432.956	116.94
433.178	121.94
433.4	124.94
433.622	122.94
433.844	123.94
434.066	135.94
434.287	126.94
434.509	123.94
434.731	123.94
434.953	130.94
435.175	139.94
435.397	136.94
435.618	135.94
435.84	121.94
436.062	153.94
436.284	150.94
436.505	133.94
436.727	121.94
436.949	123.94
437.17	133.94
437.392	120.94
437.614	134.94
437.835	120.94
438.057	142.94
438.278	153.94
438.5	138.94
438.721	142.94
438.943	150.94
439.165	141.94
439.386	123.94
439.608	135.94
439.829	122.94
440.05	129.94
440.272	136.94
440.493	121.94
440.715	126.94
440.936	136.94
441.158	134.94
441.379	119.94
441.6	137.94
441.822	142.94
442.043	129.94
442.264	152.94
442.486	143.94
442.707	133.94
442.928	139.94
443.149	147.94
443.371	145.94
443.592	133.94
443.813	149.94
444.034	138.94
444.255	142.94
444.476	135.94
444.698	149.94
444.919	140.94
445.14	200.94
445.361	173.94
445.582	159.94
445.803	136.94
446.024	143.94
446.245	143.94
446.466	143.94
446.687	131.94
446.908	124.94
447.129	129.94
447.35	129.94
447.571	138.94
447.792	121.94
448.013	123.94
448.234	134.94
448.455	138.94
448.675	123.94
448.896	134.94
449.117	129.94
449.338	135.94
449.559	139.94
449.779	119.94
450	119.94
450.221	126.94
450.442	121.94
450.662	134.94
450.883	125.94
451.104	133.94
451.324	137.94
451.545	124.94
451.766	121.94
451.986	133.94
452.207	108.94
452.428	120.94
452.648	119.94
452.869	126.94
453.089	119.94
453.31	123.94
453.53	121.94
453.751	116.94
453.971	116.94
454.192	122.94
454.412	120.94
454.633	121.94
454.853	109.94
455.073	117.94
455.294	115.94
455.514	139.94
455.734	134.94
455.955	128.94
456.175	123.94
456.395	125.94
456.616	118.94
456.836	117.94
457.056	104.94
457.276	108.94
457.497	124.94
457.717	107.94
457.937	120.94
458.157	121.94
458.377	123.94
458.598	128.94
458.818	124.94
459.038	125.94
459.258	140.94
459.478	115.94
459.698	122.94
459.918	115.94
460.138	122.94
460.358	125.94
460.578	138.94
460.798	135.94
461.018	127.94
461.238	137.94
461.458	123.94
461.678	126.94
461.898	122.94
462.118	129.94
462.338	125.94
462.558	126.94
462.777	141.94
462.997	131.94
463.217	129.94
463.437	133.94
463.657	130.94
463.876	129.94
464.096	129.94
464.316	127.94
464.536	149.94
464.755	130.94
464.975	139.94
465.195	156.94
465.414	123.94
465.634	122.94
465.854	125.94
466.073	127.94
466.293	134.94
466.512	118.94
466.732	117.94
466.951	121.94
467.171	137.94
467.391	122.94
467.61	134.94
467.829	111.94
468.049	124.94
468.268	115.94
468.488	128.94
468.707	138.94
468.927	134.94
469.146	115.94
469.365	115.94
469.585	130.94
469.804	136.94
470.023	131.94
470.243	135.94
470.462	121.94
470.681	125.94
470.901	122.94
471.12	123.94
471.339	127.94
471.558	126.94
471.777	105.94
471.997	113.94
472.216	122.94
472.435	130.94
472.654	127.94
472.873	120.94
473.092	113.94
473.311	122.94
473.53	131.94
473.749	125.94
473.968	123.94
474.187	129.94
474.406	127.94
474.625	125.94
474.844	118.94
475.063	122.94
475.282	135.94
475.501	126.94
475.72	111.94
475.939	125.94
476.158	129.94
476.377	115.94
476.596	102.94
476.814	113.94
477.033	116.94
477.252	125.94
477.471	124.94
477.69	132.94
477.908	125.94
478.127	135.94
478.346	144.94
478.564	127.94
478.783	131.94
479.002	141.94
479.22	134.94
479.439	129.94
479.658	128.94
479.876	141.94
480.095	127.94
480.313	143.94
480.532	135.94
480.751	138.94
480.969	129.94
481.188	144.94
481.406	143.94
481.624	133.94
481.843	145.94
482.061	136.94
482.28	137.94
482.498	128.94
482.717	122.94
482.935	129.94
483.153	134.94
483.372	143.94
483.59	138.94
483.808	121.94
484.027	148.94
484.245	135.94
484.463	125.94
484.681	135.94
484.9	123.94
485.118	136.94
485.336	145.94
485.554	143.94
485.772	144.94
485.99	121.94
486.209	136.94
486.427	142.94
486.645	137.94
486.863	140.94
487.081	136.94
487.299	137.94
487.517	151.94
487.735	130.94
487.953	143.94
488.171	142.94
488.389	144.94
488.607	124.94
488.825	120.94
489.043	129.94
489.261	135.94
489.479	130.94
489.696	127.94
489.914	130.94
490.132	131.94
490.35	155.94
490.568	138.94
490.786	135.94
491.003	147.94
491.221	150.94
491.439	130.94
491.657	139.94
491.874	144.94
492.092	156.94
492.31	148.94
492.527	141.94
492.745	142.94
492.963	130.94
493.18	128.94
493.398	142.94
493.615	149.94
493.833	135.94
494.05	152.94
494.268	138.94
494.485	146.94
494.703	146.94
494.92	149.94
495.138	132.94
495.355	158.94
495.573	147.94
495.79	142.94
496.008	141.94
496.225	137.94
496.442	156.94
496.66	141.94
496.877	142.94
497.094	150.94
497.312	134.94
497.529	138.94
497.746	157.94
497.963	139.94
498.181	147.94
498.398	142.94
498.615	165.94
498.832	146.94
499.049	168.94
499.267	166.94
499.484	175.94
499.701	180.94
499.918	199.94
500.135	203.94
500.352	208.94
500.569	227.94
500.786	215.94
501.003	217.94
501.22	216.94
501.437	199.94
501.654	172.94
501.871	178.94
502.088	161.94
502.305	180.94
502.522	159.94
502.739	164.94
502.956	145.94
503.172	147.94
503.389	148.94
503.606	160.94
503.823	135.94
504.04	160.94
504.256	153.94
504.473	147.94
504.69	149.94
504.907	144.94
505.123	143.94
505.34	148.94
505.557	137.94
505.773	139.94
