Data from 1968.PennyLincolnUp.Lamp.En5.5.200Scan.071719.P1._HRD10591_14-51-06-970.txt Node
Date: Thu Jul 18 14:51:06 EDT 2019
User: cochatt
Spectrometer: HR+D1059
Trigger mode: 1
Integration Time (sec): 1.000000E-1
Scans to average: 1
Electric dark correction enabled: true
Nonlinearity correction enabled: false
Boxcar width: 0
XAxis mode: Wavelengths
Number of Pixels in Spectrum: 2048
>>>>>Begin Spectral Data<<<<<
223.165	-17.75
223.4	-17.75
223.635	-17.75
223.869	-16.75
224.104	-19.75
224.338	-9.75
224.573	-16.75
224.808	-24.75
225.042	-13.75
225.277	-5.75
225.511	3.25
225.746	-1.75
225.98	3.25
226.215	14.25
226.449	18.25
226.683	17.25
226.918	38.25
227.152	32.25
227.387	36.25
227.621	35.25
227.856	39.25
228.09	44.25
228.324	50.25
228.559	58.25
228.793	55.25
229.027	70.25
229.262	70.25
229.496	68.25
229.73	63.25
229.964	78.25
230.199	69.25
230.433	72.25
230.667	84.25
230.901	79.25
231.136	88.25
231.37	84.25
231.604	97.25
231.838	87.25
232.072	96.25
232.306	85.25
232.541	92.25
232.775	95.25
233.009	64.25
233.243	96.25
233.477	90.25
233.711	83.25
233.945	83.25
234.179	89.25
234.413	83.25
234.647	82.25
234.881	90.25
235.115	96.25
235.349	91.25
235.583	86.25
235.817	79.25
236.051	83.25
236.285	60.25
236.519	84.25
236.753	72.25
236.987	79.25
237.221	85.25
237.455	91.25
237.689	88.25
237.922	85.25
238.156	81.25
238.39	94.25
238.624	107.25
238.858	76.25
239.091	72.25
239.325	82.25
239.559	75.25
239.793	84.25
240.027	94.25
240.26	70.25
240.494	94.25
240.728	78.25
240.961	88.25
241.195	84.25
241.429	69.25
241.662	71.25
241.896	56.25
242.13	85.25
242.363	93.25
242.597	79.25
242.83	86.25
243.064	75.25
243.298	88.25
243.531	86.25
243.765	78.25
243.998	101.25
244.232	93.25
244.465	86.25
244.699	99.25
244.932	87.25
245.166	98.25
245.399	79.25
245.633	85.25
245.866	85.25
246.099	91.25
246.333	83.25
246.566	91.25
246.8	84.25
247.033	84.25
247.266	105.25
247.5	98.25
247.733	73.25
247.966	95.25
248.2	69.25
248.433	89.25
248.666	84.25
248.899	76.25
249.133	90.25
249.366	94.25
249.599	92.25
249.832	90.25
250.066	91.25
250.299	89.25
250.532	81.25
250.765	80.25
250.998	77.25
251.231	76.25
251.465	84.25
251.698	92.25
251.931	75.25
252.164	104.25
252.397	99.25
252.63	87.25
252.863	84.25
253.096	101.25
253.329	102.25
253.562	79.25
253.795	91.25
254.028	91.25
254.261	96.25
254.494	84.25
254.727	88.25
254.96	81.25
255.193	94.25
255.426	87.25
255.659	86.25
255.892	99.25
256.124	83.25
256.357	90.25
256.59	96.25
256.823	87.25
257.056	84.25
257.289	93.25
257.521	68.25
257.754	91.25
257.987	80.25
258.22	95.25
258.452	93.25
258.685	93.25
258.918	90.25
259.151	83.25
259.383	102.25
259.616	101.25
259.849	102.25
260.081	109.25
260.314	91.25
260.547	96.25
260.779	92.25
261.012	98.25
261.244	105.25
261.477	104.25
261.71	87.25
261.942	87.25
262.175	93.25
262.407	98.25
262.64	91.25
262.872	74.25
263.105	91.25
263.337	103.25
263.57	96.25
263.802	89.25
264.035	92.25
264.267	88.25
264.499	97.25
264.732	89.25
264.964	105.25
265.197	101.25
265.429	91.25
265.661	80.25
265.894	93.25
266.126	96.25
266.358	91.25
266.591	90.25
266.823	77.25
267.055	95.25
267.287	95.25
267.52	94.25
267.752	104.25
267.984	92.25
268.216	88.25
268.448	94.25
268.681	96.25
268.913	93.25
269.145	87.25
269.377	98.25
269.609	88.25
269.841	116.25
270.073	97.25
270.306	99.25
270.538	106.25
270.77	97.25
271.002	89.25
271.234	100.25
271.466	86.25
271.698	89.25
271.93	87.25
272.162	99.25
272.394	100.25
272.626	107.25
272.858	100.25
273.09	110.25
273.322	116.25
273.553	93.25
273.785	116.25
274.017	91.25
274.249	102.25
274.481	96.25
274.713	95.25
274.945	111.25
275.176	111.25
275.408	114.25
275.64	96.25
275.872	92.25
276.104	101.25
276.335	88.25
276.567	88.25
276.799	89.25
277.031	114.25
277.262	105.25
277.494	107.25
277.726	110.25
277.957	96.25
278.189	88.25
278.421	95.25
278.652	91.25
278.884	99.25
279.115	95.25
279.347	96.25
279.579	98.25
279.81	94.25
280.042	111.25
280.273	104.25
280.505	103.25
280.736	106.25
280.968	99.25
281.199	99.25
281.431	104.25
281.662	101.25
281.894	102.25
282.125	94.25
282.356	101.25
282.588	99.25
282.819	103.25
283.051	112.25
283.282	96.25
283.513	108.25
283.745	99.25
283.976	91.25
284.207	102.25
284.439	103.25
284.67	87.25
284.901	98.25
285.132	105.25
285.364	103.25
285.595	101.25
285.826	101.25
286.057	100.25
286.288	119.25
286.52	111.25
286.751	97.25
286.982	105.25
287.213	90.25
287.444	88.25
287.675	95.25
287.906	118.25
288.138	98.25
288.369	87.25
288.6	107.25
288.831	99.25
289.062	111.25
289.293	94.25
289.524	105.25
289.755	109.25
289.986	89.25
290.217	96.25
290.448	118.25
290.679	104.25
290.91	106.25
291.141	111.25
291.371	123.25
291.602	108.25
291.833	94.25
292.064	93.25
292.295	94.25
292.526	100.25
292.757	103.25
292.987	97.25
293.218	91.25
293.449	103.25
293.68	89.25
293.91	103.25
294.141	102.25
294.372	80.25
294.603	104.25
294.833	106.25
295.064	91.25
295.295	88.25
295.525	108.25
295.756	98.25
295.987	100.25
296.217	94.25
296.448	116.25
296.679	103.25
296.909	104.25
297.14	127.25
297.37	98.25
297.601	103.25
297.831	108.25
298.062	107.25
298.292	92.25
298.523	105.25
298.753	104.25
298.984	94.25
299.214	111.25
299.445	112.25
299.675	122.25
299.905	101.25
300.136	114.25
300.366	106.25
300.597	103.25
300.827	111.25
301.057	102.25
301.288	102.25
301.518	97.25
301.748	92.25
301.979	98.25
302.209	111.25
302.439	116.25
302.669	100.25
302.9	94.25
303.13	109.25
303.36	99.25
303.59	105.25
303.82	104.25
304.051	106.25
304.281	99.25
304.511	107.25
304.741	111.25
304.971	111.25
305.201	118.25
305.431	110.25
305.661	102.25
305.891	101.25
306.121	105.25
306.352	109.25
306.582	97.25
306.812	100.25
307.042	108.25
307.272	98.25
307.502	101.25
307.731	91.25
307.961	99.25
308.191	111.25
308.421	102.25
308.651	116.25
308.881	107.25
309.111	108.25
309.341	107.25
309.571	89.25
309.8	116.25
310.03	100.25
310.26	99.25
310.49	107.25
310.72	119.25
310.949	107.25
311.179	116.25
311.409	120.25
311.639	106.25
311.868	118.25
312.098	107.25
312.328	116.25
312.557	109.25
312.787	119.25
313.017	123.25
313.246	122.25
313.476	111.25
313.706	113.25
313.935	124.25
314.165	106.25
314.394	109.25
314.624	108.25
314.853	116.25
315.083	95.25
315.312	96.25
315.542	123.25
315.771	106.25
316.001	101.25
316.23	104.25
316.46	115.25
316.689	100.25
316.919	112.25
317.148	107.25
317.377	119.25
317.607	108.25
317.836	106.25
318.065	92.25
318.295	102.25
318.524	118.25
318.753	123.25
318.983	110.25
319.212	102.25
319.441	110.25
319.67	104.25
319.9	97.25
320.129	112.25
320.358	110.25
320.587	96.25
320.816	126.25
321.046	117.25
321.275	115.25
321.504	121.25
321.733	117.25
321.962	122.25
322.191	104.25
322.42	100.25
322.649	101.25
322.878	114.25
323.108	111.25
323.337	114.25
323.566	112.25
323.795	98.25
324.024	122.25
324.253	120.25
324.482	154.25
324.71	159.25
324.939	194.25
325.168	172.25
325.397	134.25
325.626	116.25
325.855	113.25
326.084	123.25
326.313	127.25
326.542	118.25
326.77	112.25
326.999	122.25
327.228	148.25
327.457	138.25
327.686	160.25
327.914	130.25
328.143	119.25
328.372	110.25
328.6	113.25
328.829	112.25
329.058	126.25
329.287	111.25
329.515	135.25
329.744	107.25
329.972	99.25
330.201	116.25
330.43	117.25
330.658	101.25
330.887	128.25
331.115	128.25
331.344	111.25
331.572	99.25
331.801	109.25
332.03	121.25
332.258	103.25
332.486	118.25
332.715	116.25
332.943	117.25
333.172	129.25
333.4	130.25
333.629	120.25
333.857	124.25
334.085	123.25
334.314	116.25
334.542	129.25
334.771	122.25
334.999	103.25
335.227	121.25
335.455	107.25
335.684	115.25
335.912	124.25
336.14	134.25
336.369	105.25
336.597	126.25
336.825	117.25
337.053	118.25
337.281	119.25
337.51	108.25
337.738	110.25
337.966	109.25
338.194	109.25
338.422	107.25
338.65	126.25
338.878	118.25
339.106	125.25
339.334	116.25
339.562	95.25
339.79	121.25
340.018	122.25
340.246	99.25
340.474	111.25
340.702	126.25
340.93	117.25
341.158	114.25
341.386	116.25
341.614	108.25
341.842	96.25
342.07	104.25
342.298	127.25
342.526	130.25
342.754	119.25
342.981	115.25
343.209	117.25
343.437	129.25
343.665	110.25
343.893	115.25
344.12	126.25
344.348	112.25
344.576	119.25
344.804	123.25
345.031	102.25
345.259	109.25
345.487	107.25
345.714	115.25
345.942	119.25
346.17	111.25
346.397	118.25
346.625	120.25
346.853	120.25
347.08	123.25
347.308	102.25
347.535	102.25
347.763	111.25
347.99	114.25
348.218	124.25
348.445	123.25
348.673	105.25
348.9	118.25
349.128	123.25
349.355	108.25
349.583	103.25
349.81	114.25
350.037	114.25
350.265	117.25
350.492	110.25
350.72	106.25
350.947	120.25
351.174	111.25
351.402	116.25
351.629	118.25
351.856	123.25
352.083	119.25
352.311	120.25
352.538	109.25
352.765	112.25
352.992	119.25
353.22	122.25
353.447	100.25
353.674	100.25
353.901	107.25
354.128	116.25
354.355	112.25
354.583	125.25
354.81	115.25
355.037	102.25
355.264	115.25
355.491	114.25
355.718	111.25
355.945	100.25
356.172	105.25
356.399	94.25
356.626	123.25
356.853	114.25
357.08	106.25
357.307	118.25
357.534	115.25
357.761	103.25
357.988	124.25
358.215	120.25
358.441	110.25
358.668	107.25
358.895	114.25
359.122	119.25
359.349	111.25
359.576	118.25
359.802	119.25
360.029	111.25
360.256	111.25
360.483	108.25
360.709	110.25
360.936	114.25
361.163	98.25
361.39	116.25
361.616	111.25
361.843	110.25
362.07	112.25
362.296	119.25
362.523	115.25
362.749	110.25
362.976	106.25
363.203	116.25
363.429	111.25
363.656	99.25
363.882	113.25
364.109	114.25
364.335	123.25
364.562	104.25
364.788	104.25
365.015	121.25
365.241	116.25
365.468	124.25
365.694	125.25
365.92	110.25
366.147	124.25
366.373	120.25
366.599	111.25
366.826	113.25
367.052	109.25
367.278	98.25
367.505	115.25
367.731	114.25
367.957	105.25
368.184	137.25
368.41	122.25
368.636	106.25
368.862	105.25
369.089	116.25
369.315	107.25
369.541	118.25
369.767	112.25
369.993	110.25
370.219	107.25
370.445	118.25
370.672	105.25
370.898	111.25
371.124	107.25
371.35	109.25
371.576	115.25
371.802	125.25
372.028	115.25
372.254	120.25
372.48	107.25
372.706	105.25
372.932	106.25
373.158	100.25
373.384	120.25
373.61	118.25
373.835	110.25
374.061	117.25
374.287	120.25
374.513	125.25
374.739	111.25
374.965	115.25
375.191	112.25
375.416	114.25
375.642	119.25
375.868	118.25
376.094	113.25
376.319	124.25
376.545	119.25
376.771	120.25
376.997	107.25
377.222	100.25
377.448	108.25
377.674	118.25
377.899	110.25
378.125	106.25
378.35	122.25
378.576	112.25
378.802	109.25
379.027	116.25
379.253	112.25
379.478	114.25
379.704	118.25
379.929	115.25
380.155	109.25
380.38	125.25
380.606	100.25
380.831	112.25
381.057	124.25
381.282	96.25
381.507	111.25
381.733	118.25
381.958	123.25
382.184	122.25
382.409	112.25
382.634	103.25
382.86	125.25
383.085	117.25
383.31	108.25
383.535	126.25
383.761	109.25
383.986	106.25
384.211	114.25
384.436	118.25
384.662	110.25
384.887	106.25
385.112	110.25
385.337	125.25
385.562	123.25
385.787	116.25
386.013	143.25
386.238	122.25
386.463	122.25
386.688	124.25
386.913	102.25
387.138	104.25
387.363	125.25
387.588	114.25
387.813	132.25
388.038	118.25
388.263	122.25
388.488	127.25
388.713	119.25
388.938	117.25
389.163	123.25
389.387	128.25
389.612	114.25
389.837	124.25
390.062	114.25
390.287	124.25
390.512	124.25
390.736	115.25
390.961	133.25
391.186	121.25
391.411	122.25
391.636	117.25
391.86	126.25
392.085	125.25
392.31	124.25
392.534	124.25
392.759	124.25
392.984	123.25
393.208	139.25
393.433	124.25
393.658	115.25
393.882	119.25
394.107	125.25
394.331	121.25
394.556	128.25
394.78	131.25
395.005	130.25
395.229	112.25
395.454	132.25
395.678	126.25
395.903	135.25
396.127	122.25
396.352	135.25
396.576	110.25
396.801	126.25
397.025	137.25
397.249	131.25
397.474	111.25
397.698	125.25
397.922	121.25
398.147	125.25
398.371	131.25
398.595	133.25
398.82	131.25
399.044	130.25
399.268	132.25
399.492	147.25
399.717	162.25
399.941	158.25
400.165	139.25
400.389	156.25
400.613	123.25
400.837	150.25
401.062	132.25
401.286	122.25
401.51	148.25
401.734	135.25
401.958	131.25
402.182	129.25
402.406	141.25
402.63	130.25
402.854	125.25
403.078	125.25
403.302	130.25
403.526	130.25
403.75	130.25
403.974	135.25
404.198	121.25
404.422	139.25
404.645	134.25
404.869	136.25
405.093	142.25
405.317	134.25
405.541	144.25
405.765	139.25
405.988	146.25
406.212	148.25
406.436	133.25
406.66	142.25
406.883	139.25
407.107	140.25
407.331	143.25
407.555	155.25
407.778	136.25
408.002	158.25
408.226	150.25
408.449	143.25
408.673	132.25
408.896	133.25
409.12	145.25
409.344	135.25
409.567	138.25
409.791	126.25
410.014	135.25
410.238	142.25
410.461	132.25
410.685	134.25
410.908	133.25
411.132	122.25
411.355	128.25
411.578	140.25
411.802	139.25
412.025	123.25
412.249	135.25
412.472	140.25
412.695	144.25
412.919	134.25
413.142	127.25
413.365	126.25
413.589	124.25
413.812	123.25
414.035	133.25
414.258	111.25
414.482	131.25
414.705	136.25
414.928	131.25
415.151	130.25
415.374	131.25
415.597	127.25
415.821	120.25
416.044	123.25
416.267	122.25
416.49	124.25
416.713	135.25
416.936	134.25
417.159	122.25
417.382	138.25
417.605	139.25
417.828	132.25
418.051	136.25
418.274	127.25
418.497	118.25
418.72	122.25
418.943	139.25
419.166	139.25
419.389	147.25
419.611	134.25
419.834	132.25
420.057	140.25
420.28	140.25
420.503	128.25
420.726	150.25
420.948	129.25
421.171	137.25
421.394	139.25
421.617	141.25
421.839	134.25
422.062	141.25
422.285	124.25
422.507	135.25
422.73	142.25
422.953	144.25
423.175	132.25
423.398	138.25
423.621	135.25
423.843	144.25
424.066	140.25
424.288	127.25
424.511	148.25
424.733	150.25
424.956	137.25
425.178	126.25
425.401	136.25
425.623	147.25
425.846	130.25
426.068	148.25
426.291	128.25
426.513	116.25
426.735	136.25
426.958	128.25
427.18	154.25
427.402	150.25
427.625	159.25
427.847	142.25
428.069	139.25
428.292	141.25
428.514	148.25
428.736	103.25
428.958	124.25
429.181	123.25
429.403	133.25
429.625	129.25
429.847	142.25
430.069	137.25
430.292	136.25
430.514	122.25
430.736	122.25
430.958	134.25
431.18	115.25
431.402	112.25
431.624	128.25
431.846	116.25
432.068	136.25
432.29	127.25
432.512	130.25
432.734	126.25
432.956	131.25
433.178	125.25
433.4	138.25
433.622	110.25
433.844	108.25
434.066	138.25
434.287	122.25
434.509	126.25
434.731	123.25
434.953	130.25
435.175	136.25
435.397	135.25
435.618	129.25
435.84	140.25
436.062	134.25
436.284	158.25
436.505	136.25
436.727	140.25
436.949	134.25
437.17	123.25
437.392	144.25
437.614	126.25
437.835	142.25
438.057	133.25
438.278	146.25
438.5	133.25
438.721	148.25
438.943	154.25
439.165	126.25
439.386	126.25
439.608	138.25
439.829	157.25
440.05	152.25
440.272	151.25
440.493	143.25
440.715	134.25
440.936	126.25
441.158	130.25
441.379	121.25
441.6	143.25
441.822	127.25
442.043	132.25
442.264	151.25
442.486	138.25
442.707	130.25
442.928	142.25
443.149	127.25
443.371	152.25
443.592	150.25
443.813	155.25
444.034	148.25
444.255	136.25
444.476	128.25
444.698	148.25
444.919	124.25
445.14	234.25
445.361	180.25
445.582	150.25
445.803	144.25
446.024	143.25
446.245	147.25
446.466	145.25
446.687	133.25
446.908	133.25
447.129	126.25
447.35	125.25
447.571	132.25
447.792	120.25
448.013	119.25
448.234	118.25
448.455	130.25
448.675	139.25
448.896	135.25
449.117	131.25
449.338	128.25
449.559	144.25
449.779	146.25
450	146.25
450.221	107.25
450.442	134.25
450.662	130.25
450.883	130.25
451.104	124.25
451.324	124.25
451.545	118.25
451.766	135.25
451.986	125.25
452.207	134.25
452.428	123.25
452.648	122.25
452.869	106.25
453.089	105.25
453.31	126.25
453.53	124.25
453.751	129.25
453.971	126.25
454.192	119.25
454.412	116.25
454.633	127.25
454.853	120.25
455.073	115.25
455.294	124.25
455.514	132.25
455.734	127.25
455.955	124.25
456.175	118.25
456.395	116.25
456.616	118.25
456.836	126.25
457.056	128.25
457.276	123.25
457.497	118.25
457.717	122.25
457.937	126.25
458.157	142.25
458.377	116.25
458.598	130.25
458.818	126.25
459.038	125.25
459.258	125.25
459.478	145.25
459.698	118.25
459.918	124.25
460.138	130.25
460.358	150.25
460.578	140.25
460.798	128.25
461.018	139.25
461.238	122.25
461.458	134.25
461.678	119.25
461.898	130.25
462.118	144.25
462.338	130.25
462.558	138.25
462.777	140.25
462.997	142.25
463.217	141.25
463.437	149.25
463.657	144.25
463.876	131.25
464.096	132.25
464.316	136.25
464.536	150.25
464.755	126.25
464.975	140.25
465.195	141.25
465.414	125.25
465.634	118.25
465.854	138.25
466.073	124.25
466.293	130.25
466.512	118.25
466.732	128.25
466.951	123.25
467.171	121.25
467.391	128.25
467.61	120.25
467.829	134.25
468.049	114.25
468.268	111.25
468.488	120.25
468.707	134.25
468.927	118.25
469.146	106.25
469.365	116.25
469.585	126.25
469.804	136.25
470.023	137.25
470.243	120.25
470.462	127.25
470.681	121.25
470.901	138.25
471.12	118.25
471.339	120.25
471.558	127.25
471.777	129.25
471.997	124.25
472.216	134.25
472.435	141.25
472.654	133.25
472.873	142.25
473.092	118.25
473.311	119.25
473.53	129.25
473.749	133.25
473.968	126.25
474.187	128.25
474.406	124.25
474.625	122.25
474.844	122.25
475.063	139.25
475.282	128.25
475.501	127.25
475.72	137.25
475.939	121.25
476.158	130.25
476.377	140.25
476.596	121.25
476.814	102.25
477.033	116.25
477.252	134.25
477.471	130.25
477.69	125.25
477.908	133.25
478.127	136.25
478.346	117.25
478.564	139.25
478.783	142.25
479.002	138.25
479.22	127.25
479.439	136.25
479.658	132.25
479.876	135.25
480.095	146.25
480.313	144.25
480.532	148.25
480.751	137.25
480.969	141.25
481.188	158.25
481.406	150.25
481.624	131.25
481.843	108.25
482.061	120.25
482.28	128.25
482.498	131.25
482.717	136.25
482.935	138.25
483.153	119.25
483.372	140.25
483.59	129.25
483.808	144.25
484.027	138.25
484.245	138.25
484.463	129.25
484.681	143.25
484.9	148.25
485.118	142.25
485.336	125.25
485.554	138.25
485.772	138.25
485.99	128.25
486.209	152.25
486.427	127.25
486.645	131.25
486.863	140.25
487.081	136.25
487.299	126.25
487.517	135.25
487.735	152.25
487.953	140.25
488.171	137.25
488.389	143.25
488.607	141.25
488.825	138.25
489.043	125.25
489.261	155.25
489.479	154.25
489.696	137.25
489.914	131.25
490.132	147.25
490.35	130.25
490.568	138.25
490.786	142.25
491.003	140.25
491.221	157.25
491.439	152.25
491.657	150.25
491.874	142.25
492.092	144.25
492.31	158.25
492.527	149.25
492.745	130.25
492.963	139.25
493.18	143.25
493.398	152.25
493.615	132.25
493.833	126.25
494.05	144.25
494.268	143.25
494.485	154.25
494.703	152.25
494.92	157.25
495.138	138.25
495.355	153.25
495.573	157.25
495.79	151.25
496.008	156.25
496.225	149.25
496.442	141.25
496.66	148.25
496.877	141.25
497.094	154.25
497.312	152.25
497.529	160.25
497.746	157.25
497.963	156.25
498.181	154.25
498.398	151.25
498.615	153.25
498.832	162.25
499.049	163.25
499.267	179.25
499.484	184.25
499.701	189.25
499.918	190.25
500.135	203.25
500.352	208.25
500.569	191.25
500.786	218.25
501.003	200.25
501.22	217.25
501.437	201.25
501.654	183.25
501.871	179.25
502.088	165.25
502.305	168.25
502.522	175.25
502.739	155.25
502.956	147.25
503.172	130.25
503.389	142.25
503.606	143.25
503.823	152.25
504.04	145.25
504.256	138.25
504.473	136.25
504.69	162.25
504.907	144.25
505.123	141.25
505.34	134.25
