Data from 1968.PennyLincolnUp.Lamp.En5.5.200Scan.071719.P1._HRD10591_14-49-57-971.txt Node
Date: Thu Jul 18 14:49:57 EDT 2019
User: cochatt
Spectrometer: HR+D1059
Trigger mode: 1
Integration Time (sec): 1.000000E-1
Scans to average: 1
Electric dark correction enabled: true
Nonlinearity correction enabled: false
Boxcar width: 0
XAxis mode: Wavelengths
Number of Pixels in Spectrum: 2048
>>>>>Begin Spectral Data<<<<<
223.165	-5.06
223.4	-5.06
223.635	-5.06
223.869	-3.06
224.104	-12.06
224.338	5.94
224.573	-15.06
224.808	-16.06
225.042	-3.06
225.277	-9.06
225.511	-10.06
225.746	-11.06
225.98	16.94
226.215	-6.06
226.449	-1.06
226.683	19.94
226.918	32.94
227.152	15.94
227.387	41.94
227.621	38.94
227.856	62.94
228.09	48.94
228.324	64.94
228.559	53.94
228.793	60.94
229.027	61.94
229.262	79.94
229.496	88.94
229.73	86.94
229.964	77.94
230.199	64.94
230.433	76.94
230.667	81.94
230.901	72.94
231.136	88.94
231.37	86.94
231.604	88.94
231.838	81.94
232.072	82.94
232.306	90.94
232.541	94.94
232.775	84.94
233.009	77.94
233.243	85.94
233.477	70.94
233.711	90.94
233.945	98.94
234.179	79.94
234.413	87.94
234.647	81.94
234.881	75.94
235.115	89.94
235.349	94.94
235.583	86.94
235.817	80.94
236.051	78.94
236.285	85.94
236.519	92.94
236.753	78.94
236.987	71.94
237.221	91.94
237.455	88.94
237.689	82.94
237.922	72.94
238.156	82.94
238.39	77.94
238.624	86.94
238.858	85.94
239.091	85.94
239.325	82.94
239.559	88.94
239.793	80.94
240.027	79.94
240.26	81.94
240.494	74.94
240.728	76.94
240.961	84.94
241.195	79.94
241.429	99.94
241.662	74.94
241.896	86.94
242.13	82.94
242.363	80.94
242.597	94.94
242.83	98.94
243.064	85.94
243.298	87.94
243.531	87.94
243.765	81.94
243.998	92.94
244.232	72.94
244.465	92.94
244.699	82.94
244.932	82.94
245.166	82.94
245.399	90.94
245.633	82.94
245.866	85.94
246.099	89.94
246.333	79.94
246.566	97.94
246.8	70.94
247.033	86.94
247.266	78.94
247.5	75.94
247.733	90.94
247.966	86.94
248.2	78.94
248.433	96.94
248.666	87.94
248.899	98.94
249.133	97.94
249.366	87.94
249.599	75.94
249.832	94.94
250.066	88.94
250.299	82.94
250.532	79.94
250.765	95.94
250.998	96.94
251.231	95.94
251.465	102.94
251.698	96.94
251.931	90.94
252.164	103.94
252.397	91.94
252.63	97.94
252.863	93.94
253.096	95.94
253.329	88.94
253.562	86.94
253.795	98.94
254.028	94.94
254.261	106.94
254.494	92.94
254.727	106.94
254.96	74.94
255.193	90.94
255.426	97.94
255.659	92.94
255.892	86.94
256.124	107.94
256.357	96.94
256.59	94.94
256.823	102.94
257.056	85.94
257.289	79.94
257.521	82.94
257.754	97.94
257.987	87.94
258.22	78.94
258.452	80.94
258.685	85.94
258.918	107.94
259.151	98.94
259.383	100.94
259.616	83.94
259.849	100.94
260.081	87.94
260.314	101.94
260.547	105.94
260.779	87.94
261.012	80.94
261.244	87.94
261.477	100.94
261.71	101.94
261.942	88.94
262.175	106.94
262.407	86.94
262.64	89.94
262.872	97.94
263.105	110.94
263.337	109.94
263.57	82.94
263.802	86.94
264.035	98.94
264.267	91.94
264.499	85.94
264.732	92.94
264.964	88.94
265.197	106.94
265.429	96.94
265.661	87.94
265.894	106.94
266.126	85.94
266.358	111.94
266.591	101.94
266.823	88.94
267.055	88.94
267.287	92.94
267.52	88.94
267.752	96.94
267.984	98.94
268.216	83.94
268.448	100.94
268.681	96.94
268.913	97.94
269.145	116.94
269.377	88.94
269.609	93.94
269.841	92.94
270.073	89.94
270.306	103.94
270.538	100.94
270.77	98.94
271.002	109.94
271.234	95.94
271.466	89.94
271.698	92.94
271.93	82.94
272.162	95.94
272.394	95.94
272.626	100.94
272.858	104.94
273.09	99.94
273.322	110.94
273.553	102.94
273.785	98.94
274.017	95.94
274.249	97.94
274.481	93.94
274.713	88.94
274.945	94.94
275.176	98.94
275.408	87.94
275.64	101.94
275.872	97.94
276.104	95.94
276.335	91.94
276.567	107.94
276.799	92.94
277.031	90.94
277.262	106.94
277.494	115.94
277.726	99.94
277.957	92.94
278.189	98.94
278.421	120.94
278.652	106.94
278.884	95.94
279.115	97.94
279.347	101.94
279.579	105.94
279.81	93.94
280.042	91.94
280.273	98.94
280.505	102.94
280.736	105.94
280.968	94.94
281.199	82.94
281.431	97.94
281.662	113.94
281.894	90.94
282.125	104.94
282.356	106.94
282.588	112.94
282.819	86.94
283.051	92.94
283.282	107.94
283.513	104.94
283.745	113.94
283.976	107.94
284.207	101.94
284.439	114.94
284.67	110.94
284.901	94.94
285.132	101.94
285.364	113.94
285.595	104.94
285.826	88.94
286.057	110.94
286.288	114.94
286.52	94.94
286.751	113.94
286.982	116.94
287.213	102.94
287.444	112.94
287.675	108.94
287.906	109.94
288.138	108.94
288.369	107.94
288.6	93.94
288.831	116.94
289.062	107.94
289.293	101.94
289.524	97.94
289.755	103.94
289.986	103.94
290.217	91.94
290.448	108.94
290.679	106.94
290.91	104.94
291.141	99.94
291.371	98.94
291.602	97.94
291.833	110.94
292.064	105.94
292.295	113.94
292.526	104.94
292.757	96.94
292.987	116.94
293.218	107.94
293.449	109.94
293.68	108.94
293.91	110.94
294.141	105.94
294.372	91.94
294.603	90.94
294.833	103.94
295.064	102.94
295.295	98.94
295.525	115.94
295.756	124.94
295.987	105.94
296.217	111.94
296.448	108.94
296.679	97.94
296.909	113.94
297.14	112.94
297.37	102.94
297.601	103.94
297.831	120.94
298.062	102.94
298.292	118.94
298.523	114.94
298.753	98.94
298.984	94.94
299.214	101.94
299.445	101.94
299.675	108.94
299.905	112.94
300.136	112.94
300.366	94.94
300.597	108.94
300.827	108.94
301.057	117.94
301.288	97.94
301.518	113.94
301.748	106.94
301.979	105.94
302.209	107.94
302.439	113.94
302.669	107.94
302.9	116.94
303.13	109.94
303.36	110.94
303.59	105.94
303.82	111.94
304.051	94.94
304.281	105.94
304.511	108.94
304.741	109.94
304.971	103.94
305.201	111.94
305.431	101.94
305.661	110.94
305.891	109.94
306.121	95.94
306.352	98.94
306.582	102.94
306.812	101.94
307.042	109.94
307.272	108.94
307.502	110.94
307.731	109.94
307.961	112.94
308.191	108.94
308.421	115.94
308.651	109.94
308.881	119.94
309.111	104.94
309.341	90.94
309.571	107.94
309.8	111.94
310.03	110.94
310.26	106.94
310.49	107.94
310.72	119.94
310.949	108.94
311.179	107.94
311.409	122.94
311.639	116.94
311.868	110.94
312.098	101.94
312.328	112.94
312.557	110.94
312.787	96.94
313.017	101.94
313.246	116.94
313.476	116.94
313.706	120.94
313.935	110.94
314.165	108.94
314.394	104.94
314.624	117.94
314.853	112.94
315.083	109.94
315.312	109.94
315.542	116.94
315.771	120.94
316.001	118.94
316.23	110.94
316.46	107.94
316.689	105.94
316.919	106.94
317.148	105.94
317.377	112.94
317.607	128.94
317.836	94.94
318.065	126.94
318.295	110.94
318.524	105.94
318.753	125.94
318.983	128.94
319.212	126.94
319.441	118.94
319.67	110.94
319.9	107.94
320.129	108.94
320.358	110.94
320.587	116.94
320.816	119.94
321.046	123.94
321.275	111.94
321.504	118.94
321.733	126.94
321.962	107.94
322.191	119.94
322.42	106.94
322.649	118.94
322.878	111.94
323.108	108.94
323.337	127.94
323.566	127.94
323.795	118.94
324.024	114.94
324.253	119.94
324.482	131.94
324.71	156.94
324.939	172.94
325.168	174.94
325.397	133.94
325.626	110.94
325.855	97.94
326.084	110.94
326.313	113.94
326.542	128.94
326.77	119.94
326.999	116.94
327.228	119.94
327.457	160.94
327.686	153.94
327.914	152.94
328.143	132.94
328.372	123.94
328.6	112.94
328.829	112.94
329.058	98.94
329.287	109.94
329.515	137.94
329.744	116.94
329.972	129.94
330.201	125.94
330.43	121.94
330.658	111.94
330.887	119.94
331.115	120.94
331.344	108.94
331.572	120.94
331.801	118.94
332.03	128.94
332.258	143.94
332.486	109.94
332.715	119.94
332.943	120.94
333.172	135.94
333.4	110.94
333.629	131.94
333.857	120.94
334.085	117.94
334.314	124.94
334.542	126.94
334.771	136.94
334.999	130.94
335.227	128.94
335.455	119.94
335.684	113.94
335.912	113.94
336.14	98.94
336.369	116.94
336.597	116.94
336.825	100.94
337.053	124.94
337.281	117.94
337.51	102.94
337.738	105.94
337.966	100.94
338.194	101.94
338.422	124.94
338.65	111.94
338.878	130.94
339.106	119.94
339.334	138.94
339.562	113.94
339.79	114.94
340.018	116.94
340.246	107.94
340.474	108.94
340.702	109.94
340.93	117.94
341.158	120.94
341.386	118.94
341.614	123.94
341.842	125.94
342.07	120.94
342.298	101.94
342.526	111.94
342.754	109.94
342.981	113.94
343.209	107.94
343.437	131.94
343.665	121.94
343.893	107.94
344.12	116.94
344.348	129.94
344.576	112.94
344.804	116.94
345.031	116.94
345.259	125.94
345.487	105.94
345.714	113.94
345.942	105.94
346.17	109.94
346.397	118.94
346.625	110.94
346.853	113.94
347.08	111.94
347.308	119.94
347.535	118.94
347.763	116.94
347.99	122.94
348.218	122.94
348.445	125.94
348.673	118.94
348.9	117.94
349.128	121.94
349.355	109.94
349.583	119.94
349.81	118.94
350.037	115.94
350.265	114.94
350.492	109.94
350.72	113.94
350.947	112.94
351.174	113.94
351.402	110.94
351.629	115.94
351.856	109.94
352.083	114.94
352.311	130.94
352.538	121.94
352.765	134.94
352.992	123.94
353.22	101.94
353.447	100.94
353.674	120.94
353.901	125.94
354.128	122.94
354.355	108.94
354.583	113.94
354.81	109.94
355.037	103.94
355.264	114.94
355.491	125.94
355.718	94.94
355.945	112.94
356.172	121.94
356.399	122.94
356.626	102.94
356.853	110.94
357.08	110.94
357.307	112.94
357.534	125.94
357.761	113.94
357.988	105.94
358.215	140.94
358.441	121.94
358.668	105.94
358.895	107.94
359.122	113.94
359.349	97.94
359.576	106.94
359.802	120.94
360.029	106.94
360.256	119.94
360.483	130.94
360.709	121.94
360.936	120.94
361.163	105.94
361.39	125.94
361.616	105.94
361.843	114.94
362.07	106.94
362.296	129.94
362.523	98.94
362.749	111.94
362.976	115.94
363.203	108.94
363.429	118.94
363.656	112.94
363.882	112.94
364.109	121.94
364.335	111.94
364.562	121.94
364.788	114.94
365.015	117.94
365.241	121.94
365.468	114.94
365.694	116.94
365.92	103.94
366.147	98.94
366.373	104.94
366.599	112.94
366.826	121.94
367.052	122.94
367.278	110.94
367.505	113.94
367.731	107.94
367.957	123.94
368.184	111.94
368.41	123.94
368.636	98.94
368.862	129.94
369.089	135.94
369.315	109.94
369.541	129.94
369.767	98.94
369.993	117.94
370.219	122.94
370.445	114.94
370.672	120.94
370.898	103.94
371.124	108.94
371.35	101.94
371.576	120.94
371.802	116.94
372.028	105.94
372.254	128.94
372.48	106.94
372.706	104.94
372.932	106.94
373.158	111.94
373.384	128.94
373.61	126.94
373.835	136.94
374.061	122.94
374.287	113.94
374.513	128.94
374.739	117.94
374.965	125.94
375.191	116.94
375.416	127.94
375.642	127.94
375.868	113.94
376.094	120.94
376.319	121.94
376.545	121.94
376.771	119.94
376.997	129.94
377.222	125.94
377.448	100.94
377.674	133.94
377.899	124.94
378.125	118.94
378.35	120.94
378.576	107.94
378.802	116.94
379.027	112.94
379.253	122.94
379.478	104.94
379.704	126.94
379.929	102.94
380.155	108.94
380.38	104.94
380.606	105.94
380.831	101.94
381.057	114.94
381.282	118.94
381.507	109.94
381.733	120.94
381.958	122.94
382.184	113.94
382.409	107.94
382.634	115.94
382.86	124.94
383.085	113.94
383.31	120.94
383.535	111.94
383.761	126.94
383.986	123.94
384.211	128.94
384.436	128.94
384.662	123.94
384.887	122.94
385.112	123.94
385.337	130.94
385.562	124.94
385.787	127.94
386.013	134.94
386.238	126.94
386.463	121.94
386.688	123.94
386.913	125.94
387.138	117.94
387.363	128.94
387.588	126.94
387.813	118.94
388.038	110.94
388.263	117.94
388.488	128.94
388.713	109.94
388.938	116.94
389.163	130.94
389.387	124.94
389.612	113.94
389.837	129.94
390.062	118.94
390.287	102.94
390.512	134.94
390.736	128.94
390.961	137.94
391.186	125.94
391.411	111.94
391.636	116.94
391.86	134.94
392.085	125.94
392.31	135.94
392.534	128.94
392.759	126.94
392.984	138.94
393.208	120.94
393.433	124.94
393.658	113.94
393.882	126.94
394.107	120.94
394.331	128.94
394.556	126.94
394.78	145.94
395.005	119.94
395.229	121.94
395.454	105.94
395.678	128.94
395.903	125.94
396.127	138.94
396.352	121.94
396.576	118.94
396.801	122.94
397.025	131.94
397.249	144.94
397.474	118.94
397.698	119.94
397.922	132.94
398.147	116.94
398.371	130.94
398.595	137.94
398.82	114.94
399.044	118.94
399.268	150.94
399.492	136.94
399.717	156.94
399.941	160.94
400.165	141.94
400.389	143.94
400.613	144.94
400.837	132.94
401.062	124.94
401.286	134.94
401.51	141.94
401.734	138.94
401.958	130.94
402.182	130.94
402.406	137.94
402.63	120.94
402.854	125.94
403.078	130.94
403.302	142.94
403.526	154.94
403.75	135.94
403.974	149.94
404.198	132.94
404.422	136.94
404.645	140.94
404.869	130.94
405.093	129.94
405.317	137.94
405.541	134.94
405.765	130.94
405.988	136.94
406.212	139.94
406.436	150.94
406.66	146.94
406.883	132.94
407.107	138.94
407.331	146.94
407.555	160.94
407.778	156.94
408.002	150.94
408.226	147.94
408.449	152.94
408.673	145.94
408.896	145.94
409.12	147.94
409.344	135.94
409.567	138.94
409.791	130.94
410.014	141.94
410.238	138.94
410.461	130.94
410.685	143.94
410.908	126.94
411.132	128.94
411.355	135.94
411.578	133.94
411.802	137.94
412.025	124.94
412.249	139.94
412.472	142.94
412.695	127.94
412.919	136.94
413.142	128.94
413.365	127.94
413.589	141.94
413.812	130.94
414.035	136.94
414.258	121.94
414.482	126.94
414.705	147.94
414.928	133.94
415.151	144.94
415.374	125.94
415.597	122.94
415.821	146.94
416.044	126.94
416.267	133.94
416.49	118.94
416.713	124.94
416.936	131.94
417.159	128.94
417.382	124.94
417.605	122.94
417.828	151.94
418.051	129.94
418.274	140.94
418.497	138.94
418.72	122.94
418.943	121.94
419.166	131.94
419.389	129.94
419.611	128.94
419.834	137.94
420.057	142.94
420.28	129.94
420.503	131.94
420.726	124.94
420.948	148.94
421.171	122.94
421.394	146.94
421.617	136.94
421.839	145.94
422.062	136.94
422.285	135.94
422.507	145.94
422.73	146.94
422.953	146.94
423.175	137.94
423.398	132.94
423.621	134.94
423.843	135.94
424.066	150.94
424.288	148.94
424.511	133.94
424.733	156.94
424.956	146.94
425.178	136.94
425.401	144.94
425.623	143.94
425.846	132.94
426.068	117.94
426.291	136.94
426.513	138.94
426.735	124.94
426.958	126.94
427.18	138.94
427.402	135.94
427.625	143.94
427.847	137.94
428.069	134.94
428.292	142.94
428.514	134.94
428.736	124.94
428.958	135.94
429.181	130.94
429.403	130.94
429.625	134.94
429.847	122.94
430.069	129.94
430.292	136.94
430.514	134.94
430.736	137.94
430.958	134.94
431.18	106.94
431.402	132.94
431.624	144.94
431.846	117.94
432.068	124.94
432.29	116.94
432.512	127.94
432.734	133.94
432.956	132.94
433.178	136.94
433.4	136.94
433.622	128.94
433.844	130.94
434.066	127.94
434.287	133.94
434.509	117.94
434.731	119.94
434.953	128.94
435.175	123.94
435.397	140.94
435.618	130.94
435.84	117.94
436.062	138.94
436.284	133.94
436.505	144.94
436.727	144.94
436.949	128.94
437.17	118.94
437.392	127.94
437.614	124.94
437.835	124.94
438.057	134.94
438.278	136.94
438.5	132.94
438.721	148.94
438.943	128.94
439.165	136.94
439.386	134.94
439.608	132.94
439.829	131.94
440.05	131.94
440.272	138.94
440.493	144.94
440.715	132.94
440.936	143.94
441.158	131.94
441.379	127.94
441.6	118.94
441.822	136.94
442.043	135.94
442.264	136.94
442.486	145.94
442.707	105.94
442.928	134.94
443.149	129.94
443.371	133.94
443.592	140.94
443.813	129.94
444.034	138.94
444.255	142.94
444.476	136.94
444.698	130.94
444.919	131.94
445.14	257.94
445.361	194.94
445.582	140.94
445.803	126.94
446.024	143.94
446.245	157.94
446.466	136.94
446.687	127.94
446.908	136.94
447.129	133.94
447.35	134.94
447.571	119.94
447.792	137.94
448.013	125.94
448.234	123.94
448.455	125.94
448.675	123.94
448.896	126.94
449.117	131.94
449.338	146.94
449.559	133.94
449.779	142.94
450	133.94
450.221	121.94
450.442	130.94
450.662	117.94
450.883	118.94
451.104	123.94
451.324	124.94
451.545	111.94
451.766	124.94
451.986	112.94
452.207	122.94
452.428	130.94
452.648	118.94
452.869	125.94
453.089	119.94
453.31	109.94
453.53	130.94
453.751	125.94
453.971	111.94
454.192	116.94
454.412	94.94
454.633	128.94
454.853	117.94
455.073	135.94
455.294	116.94
455.514	135.94
455.734	137.94
455.955	114.94
456.175	121.94
456.395	113.94
456.616	116.94
456.836	101.94
457.056	109.94
457.276	110.94
457.497	128.94
457.717	110.94
457.937	120.94
458.157	124.94
458.377	131.94
458.598	126.94
458.818	115.94
459.038	126.94
459.258	124.94
459.478	113.94
459.698	105.94
459.918	132.94
460.138	124.94
460.358	133.94
460.578	144.94
460.798	128.94
461.018	143.94
461.238	129.94
461.458	130.94
461.678	128.94
461.898	150.94
462.118	132.94
462.338	126.94
462.558	137.94
462.777	152.94
462.997	143.94
463.217	140.94
463.437	142.94
463.657	133.94
463.876	126.94
464.096	145.94
464.316	145.94
464.536	142.94
464.755	130.94
464.975	131.94
465.195	128.94
465.414	131.94
465.634	125.94
465.854	122.94
466.073	116.94
466.293	129.94
466.512	129.94
466.732	123.94
466.951	120.94
467.171	127.94
467.391	119.94
467.61	127.94
467.829	121.94
468.049	117.94
468.268	135.94
468.488	124.94
468.707	126.94
468.927	121.94
469.146	106.94
469.365	118.94
469.585	135.94
469.804	123.94
470.023	125.94
470.243	132.94
470.462	129.94
470.681	128.94
470.901	126.94
471.12	126.94
471.339	127.94
471.558	127.94
471.777	128.94
471.997	133.94
472.216	133.94
472.435	123.94
472.654	121.94
472.873	109.94
473.092	116.94
473.311	120.94
473.53	127.94
473.749	126.94
473.968	127.94
474.187	149.94
474.406	118.94
474.625	121.94
474.844	133.94
475.063	128.94
475.282	124.94
475.501	119.94
475.72	126.94
475.939	107.94
476.158	138.94
476.377	136.94
476.596	122.94
476.814	119.94
477.033	117.94
477.252	124.94
477.471	134.94
477.69	117.94
477.908	124.94
478.127	118.94
478.346	128.94
478.564	142.94
478.783	133.94
479.002	140.94
479.22	134.94
479.439	137.94
479.658	129.94
479.876	132.94
480.095	138.94
480.313	135.94
480.532	126.94
480.751	141.94
480.969	134.94
481.188	132.94
481.406	143.94
481.624	131.94
481.843	119.94
482.061	141.94
482.28	137.94
482.498	136.94
482.717	129.94
482.935	145.94
483.153	133.94
483.372	129.94
483.59	133.94
483.808	121.94
484.027	129.94
484.245	125.94
484.463	122.94
484.681	141.94
484.9	141.94
485.118	124.94
485.336	133.94
485.554	138.94
485.772	138.94
485.99	136.94
486.209	142.94
486.427	130.94
486.645	145.94
486.863	134.94
487.081	138.94
487.299	139.94
487.517	142.94
487.735	146.94
487.953	140.94
488.171	150.94
488.389	129.94
488.607	143.94
488.825	131.94
489.043	137.94
489.261	135.94
489.479	145.94
489.696	140.94
489.914	148.94
490.132	130.94
490.35	147.94
490.568	132.94
490.786	128.94
491.003	144.94
491.221	155.94
491.439	141.94
491.657	144.94
491.874	139.94
492.092	141.94
492.31	151.94
492.527	153.94
492.745	144.94
492.963	147.94
493.18	147.94
493.398	149.94
493.615	139.94
493.833	148.94
494.05	140.94
494.268	135.94
494.485	138.94
494.703	152.94
494.92	157.94
495.138	146.94
495.355	149.94
495.573	162.94
495.79	138.94
496.008	137.94
496.225	134.94
496.442	146.94
496.66	132.94
496.877	144.94
497.094	155.94
497.312	148.94
497.529	157.94
497.746	156.94
497.963	154.94
498.181	135.94
498.398	142.94
498.615	141.94
498.832	170.94
499.049	161.94
499.267	167.94
499.484	169.94
499.701	180.94
499.918	184.94
500.135	213.94
500.352	230.94
500.569	233.94
500.786	219.94
501.003	195.94
501.22	190.94
501.437	196.94
501.654	176.94
501.871	163.94
502.088	159.94
502.305	169.94
502.522	161.94
502.739	162.94
502.956	148.94
503.172	151.94
503.389	145.94
503.606	134.94
503.823	158.94
504.04	154.94
504.256	164.94
504.473	151.94
504.69	158.94
504.907	148.94
505.123	147.94
