Data from 1968.PennyLincolnUp.Lamp.En5.5.200Scan.071719.P1._HRD10591_14-52-13-970.txt Node
Date: Thu Jul 18 14:52:13 EDT 2019
User: cochatt
Spectrometer: HR+D1059
Trigger mode: 1
Integration Time (sec): 1.000000E-1
Scans to average: 1
Electric dark correction enabled: true
Nonlinearity correction enabled: false
Boxcar width: 0
XAxis mode: Wavelengths
Number of Pixels in Spectrum: 2048
>>>>>Begin Spectral Data<<<<<
223.165	-20.38
223.4	-20.38
223.635	-20.38
223.869	-11.38
224.104	-12.38
224.338	-3.38
224.573	-15.38
224.808	-13.38
225.042	5.62
225.277	-8.38
225.511	-3.38
225.746	1.62
225.98	4.62
226.215	9.62
226.449	13.62
226.683	6.62
226.918	14.62
227.152	31.62
227.387	31.62
227.621	29.62
227.856	54.62
228.09	43.62
228.324	45.62
228.559	68.62
228.793	54.62
229.027	61.62
229.262	65.62
229.496	51.62
229.73	75.62
229.964	76.62
230.199	90.62
230.433	84.62
230.667	66.62
230.901	81.62
231.136	86.62
231.37	88.62
231.604	73.62
231.838	87.62
232.072	87.62
232.306	88.62
232.541	75.62
232.775	92.62
233.009	69.62
233.243	81.62
233.477	84.62
233.711	90.62
233.945	79.62
234.179	84.62
234.413	92.62
234.647	87.62
234.881	74.62
235.115	84.62
235.349	91.62
235.583	78.62
235.817	66.62
236.051	80.62
236.285	84.62
236.519	79.62
236.753	73.62
236.987	91.62
237.221	79.62
237.455	78.62
237.689	72.62
237.922	70.62
238.156	70.62
238.39	86.62
238.624	89.62
238.858	83.62
239.091	79.62
239.325	82.62
239.559	86.62
239.793	88.62
240.027	82.62
240.26	91.62
240.494	91.62
240.728	83.62
240.961	94.62
241.195	81.62
241.429	71.62
241.662	81.62
241.896	83.62
242.13	73.62
242.363	79.62
242.597	83.62
242.83	78.62
243.064	76.62
243.298	85.62
243.531	83.62
243.765	84.62
243.998	78.62
244.232	84.62
244.465	93.62
244.699	79.62
244.932	75.62
245.166	74.62
245.399	75.62
245.633	89.62
245.866	86.62
246.099	92.62
246.333	80.62
246.566	81.62
246.8	90.62
247.033	86.62
247.266	89.62
247.5	86.62
247.733	83.62
247.966	91.62
248.2	100.62
248.433	88.62
248.666	89.62
248.899	79.62
249.133	84.62
249.366	98.62
249.599	84.62
249.832	98.62
250.066	101.62
250.299	89.62
250.532	97.62
250.765	84.62
250.998	100.62
251.231	83.62
251.465	93.62
251.698	102.62
251.931	91.62
252.164	81.62
252.397	86.62
252.63	78.62
252.863	95.62
253.096	88.62
253.329	82.62
253.562	93.62
253.795	87.62
254.028	92.62
254.261	101.62
254.494	85.62
254.727	85.62
254.96	94.62
255.193	94.62
255.426	83.62
255.659	85.62
255.892	96.62
256.124	76.62
256.357	82.62
256.59	97.62
256.823	99.62
257.056	103.62
257.289	94.62
257.521	86.62
257.754	84.62
257.987	90.62
258.22	76.62
258.452	91.62
258.685	88.62
258.918	78.62
259.151	98.62
259.383	79.62
259.616	87.62
259.849	101.62
260.081	86.62
260.314	90.62
260.547	99.62
260.779	87.62
261.012	85.62
261.244	89.62
261.477	82.62
261.71	98.62
261.942	105.62
262.175	94.62
262.407	89.62
262.64	73.62
262.872	75.62
263.105	102.62
263.337	86.62
263.57	90.62
263.802	94.62
264.035	85.62
264.267	93.62
264.499	93.62
264.732	88.62
264.964	82.62
265.197	89.62
265.429	80.62
265.661	96.62
265.894	98.62
266.126	89.62
266.358	87.62
266.591	96.62
266.823	96.62
267.055	103.62
267.287	100.62
267.52	102.62
267.752	100.62
267.984	102.62
268.216	100.62
268.448	95.62
268.681	89.62
268.913	86.62
269.145	84.62
269.377	100.62
269.609	96.62
269.841	83.62
270.073	85.62
270.306	82.62
270.538	87.62
270.77	100.62
271.002	91.62
271.234	99.62
271.466	97.62
271.698	103.62
271.93	97.62
272.162	97.62
272.394	115.62
272.626	95.62
272.858	103.62
273.09	95.62
273.322	87.62
273.553	91.62
273.785	114.62
274.017	99.62
274.249	97.62
274.481	95.62
274.713	103.62
274.945	94.62
275.176	104.62
275.408	104.62
275.64	107.62
275.872	100.62
276.104	93.62
276.335	82.62
276.567	92.62
276.799	99.62
277.031	90.62
277.262	100.62
277.494	104.62
277.726	92.62
277.957	106.62
278.189	93.62
278.421	96.62
278.652	103.62
278.884	93.62
279.115	95.62
279.347	94.62
279.579	89.62
279.81	102.62
280.042	92.62
280.273	108.62
280.505	89.62
280.736	90.62
280.968	105.62
281.199	93.62
281.431	91.62
281.662	97.62
281.894	105.62
282.125	109.62
282.356	101.62
282.588	109.62
282.819	107.62
283.051	116.62
283.282	100.62
283.513	106.62
283.745	82.62
283.976	123.62
284.207	95.62
284.439	113.62
284.67	99.62
284.901	114.62
285.132	88.62
285.364	104.62
285.595	96.62
285.826	90.62
286.057	105.62
286.288	102.62
286.52	102.62
286.751	100.62
286.982	105.62
287.213	90.62
287.444	89.62
287.675	96.62
287.906	101.62
288.138	108.62
288.369	118.62
288.6	91.62
288.831	99.62
289.062	102.62
289.293	104.62
289.524	115.62
289.755	114.62
289.986	91.62
290.217	106.62
290.448	99.62
290.679	114.62
290.91	105.62
291.141	112.62
291.371	106.62
291.602	96.62
291.833	111.62
292.064	100.62
292.295	97.62
292.526	98.62
292.757	106.62
292.987	102.62
293.218	107.62
293.449	111.62
293.68	86.62
293.91	109.62
294.141	103.62
294.372	109.62
294.603	102.62
294.833	107.62
295.064	103.62
295.295	100.62
295.525	109.62
295.756	101.62
295.987	93.62
296.217	97.62
296.448	104.62
296.679	109.62
296.909	104.62
297.14	108.62
297.37	121.62
297.601	106.62
297.831	101.62
298.062	104.62
298.292	105.62
298.523	104.62
298.753	106.62
298.984	103.62
299.214	119.62
299.445	122.62
299.675	111.62
299.905	108.62
300.136	121.62
300.366	102.62
300.597	113.62
300.827	109.62
301.057	105.62
301.288	85.62
301.518	104.62
301.748	92.62
301.979	117.62
302.209	107.62
302.439	107.62
302.669	114.62
302.9	113.62
303.13	103.62
303.36	113.62
303.59	102.62
303.82	98.62
304.051	103.62
304.281	108.62
304.511	115.62
304.741	99.62
304.971	95.62
305.201	103.62
305.431	101.62
305.661	107.62
305.891	119.62
306.121	103.62
306.352	120.62
306.582	104.62
306.812	105.62
307.042	109.62
307.272	98.62
307.502	96.62
307.731	100.62
307.961	101.62
308.191	90.62
308.421	101.62
308.651	106.62
308.881	102.62
309.111	107.62
309.341	101.62
309.571	120.62
309.8	117.62
310.03	100.62
310.26	121.62
310.49	107.62
310.72	114.62
310.949	116.62
311.179	115.62
311.409	115.62
311.639	109.62
311.868	98.62
312.098	109.62
312.328	123.62
312.557	117.62
312.787	123.62
313.017	93.62
313.246	121.62
313.476	115.62
313.706	109.62
313.935	121.62
314.165	109.62
314.394	116.62
314.624	117.62
314.853	110.62
315.083	109.62
315.312	105.62
315.542	102.62
315.771	110.62
316.001	110.62
316.23	108.62
316.46	102.62
316.689	109.62
316.919	106.62
317.148	112.62
317.377	121.62
317.607	85.62
317.836	113.62
318.065	101.62
318.295	99.62
318.524	111.62
318.753	111.62
318.983	98.62
319.212	115.62
319.441	130.62
319.67	109.62
319.9	117.62
320.129	107.62
320.358	113.62
320.587	109.62
320.816	110.62
321.046	112.62
321.275	113.62
321.504	105.62
321.733	122.62
321.962	117.62
322.191	110.62
322.42	113.62
322.649	119.62
322.878	113.62
323.108	106.62
323.337	117.62
323.566	106.62
323.795	100.62
324.024	126.62
324.253	124.62
324.482	136.62
324.71	174.62
324.939	171.62
325.168	163.62
325.397	130.62
325.626	129.62
325.855	101.62
326.084	118.62
326.313	109.62
326.542	127.62
326.77	108.62
326.999	129.62
327.228	127.62
327.457	156.62
327.686	156.62
327.914	139.62
328.143	125.62
328.372	109.62
328.6	103.62
328.829	120.62
329.058	115.62
329.287	116.62
329.515	108.62
329.744	124.62
329.972	123.62
330.201	127.62
330.43	114.62
330.658	110.62
330.887	108.62
331.115	125.62
331.344	121.62
331.572	117.62
331.801	118.62
332.03	123.62
332.258	130.62
332.486	117.62
332.715	124.62
332.943	119.62
333.172	126.62
333.4	122.62
333.629	138.62
333.857	126.62
334.085	124.62
334.314	131.62
334.542	144.62
334.771	120.62
334.999	128.62
335.227	117.62
335.455	127.62
335.684	111.62
335.912	107.62
336.14	110.62
336.369	111.62
336.597	117.62
336.825	116.62
337.053	122.62
337.281	103.62
337.51	101.62
337.738	102.62
337.966	118.62
338.194	113.62
338.422	100.62
338.65	107.62
338.878	122.62
339.106	113.62
339.334	102.62
339.562	107.62
339.79	109.62
340.018	102.62
340.246	120.62
340.474	115.62
340.702	106.62
340.93	121.62
341.158	99.62
341.386	117.62
341.614	98.62
341.842	99.62
342.07	104.62
342.298	119.62
342.526	105.62
342.754	113.62
342.981	113.62
343.209	118.62
343.437	122.62
343.665	119.62
343.893	119.62
344.12	129.62
344.348	121.62
344.576	124.62
344.804	97.62
345.031	125.62
345.259	115.62
345.487	121.62
345.714	108.62
345.942	110.62
346.17	94.62
346.397	109.62
346.625	109.62
346.853	118.62
347.08	114.62
347.308	103.62
347.535	132.62
347.763	101.62
347.99	114.62
348.218	106.62
348.445	101.62
348.673	115.62
348.9	124.62
349.128	112.62
349.355	125.62
349.583	120.62
349.81	115.62
350.037	130.62
350.265	117.62
350.492	109.62
350.72	123.62
350.947	110.62
351.174	110.62
351.402	109.62
351.629	122.62
351.856	107.62
352.083	113.62
352.311	110.62
352.538	119.62
352.765	105.62
352.992	123.62
353.22	117.62
353.447	111.62
353.674	115.62
353.901	104.62
354.128	101.62
354.355	118.62
354.583	114.62
354.81	120.62
355.037	107.62
355.264	111.62
355.491	118.62
355.718	119.62
355.945	108.62
356.172	122.62
356.399	127.62
356.626	115.62
356.853	99.62
357.08	107.62
357.307	115.62
357.534	113.62
357.761	102.62
357.988	106.62
358.215	110.62
358.441	122.62
358.668	103.62
358.895	109.62
359.122	122.62
359.349	122.62
359.576	106.62
359.802	110.62
360.029	124.62
360.256	108.62
360.483	97.62
360.709	101.62
360.936	114.62
361.163	109.62
361.39	129.62
361.616	113.62
361.843	113.62
362.07	115.62
362.296	105.62
362.523	103.62
362.749	125.62
362.976	122.62
363.203	121.62
363.429	116.62
363.656	117.62
363.882	117.62
364.109	109.62
364.335	102.62
364.562	101.62
364.788	110.62
365.015	104.62
365.241	108.62
365.468	111.62
365.694	108.62
365.92	94.62
366.147	100.62
366.373	92.62
366.599	96.62
366.826	94.62
367.052	93.62
367.278	110.62
367.505	103.62
367.731	121.62
367.957	113.62
368.184	99.62
368.41	109.62
368.636	103.62
368.862	121.62
369.089	107.62
369.315	94.62
369.541	116.62
369.767	117.62
369.993	103.62
370.219	110.62
370.445	109.62
370.672	105.62
370.898	98.62
371.124	105.62
371.35	103.62
371.576	110.62
371.802	120.62
372.028	127.62
372.254	126.62
372.48	109.62
372.706	140.62
372.932	117.62
373.158	117.62
373.384	106.62
373.61	106.62
373.835	116.62
374.061	108.62
374.287	118.62
374.513	105.62
374.739	125.62
374.965	100.62
375.191	121.62
375.416	119.62
375.642	107.62
375.868	112.62
376.094	117.62
376.319	119.62
376.545	113.62
376.771	114.62
376.997	113.62
377.222	100.62
377.448	108.62
377.674	116.62
377.899	120.62
378.125	119.62
378.35	105.62
378.576	114.62
378.802	109.62
379.027	121.62
379.253	103.62
379.478	107.62
379.704	106.62
379.929	118.62
380.155	110.62
380.38	102.62
380.606	99.62
380.831	121.62
381.057	122.62
381.282	120.62
381.507	124.62
381.733	118.62
381.958	117.62
382.184	102.62
382.409	104.62
382.634	110.62
382.86	106.62
383.085	102.62
383.31	120.62
383.535	109.62
383.761	115.62
383.986	116.62
384.211	100.62
384.436	111.62
384.662	114.62
384.887	102.62
385.112	128.62
385.337	129.62
385.562	120.62
385.787	113.62
386.013	129.62
386.238	121.62
386.463	114.62
386.688	98.62
386.913	107.62
387.138	114.62
387.363	115.62
387.588	109.62
387.813	117.62
388.038	125.62
388.263	128.62
388.488	133.62
388.713	125.62
388.938	114.62
389.163	125.62
389.387	114.62
389.612	110.62
389.837	126.62
390.062	111.62
390.287	109.62
390.512	119.62
390.736	115.62
390.961	132.62
391.186	110.62
391.411	123.62
391.636	119.62
391.86	120.62
392.085	129.62
392.31	124.62
392.534	119.62
392.759	108.62
392.984	121.62
393.208	124.62
393.433	121.62
393.658	120.62
393.882	124.62
394.107	109.62
394.331	111.62
394.556	114.62
394.78	123.62
395.005	128.62
395.229	125.62
395.454	125.62
395.678	130.62
395.903	117.62
396.127	106.62
396.352	104.62
396.576	120.62
396.801	127.62
397.025	123.62
397.249	117.62
397.474	130.62
397.698	120.62
397.922	119.62
398.147	120.62
398.371	131.62
398.595	134.62
398.82	133.62
399.044	134.62
399.268	143.62
399.492	140.62
399.717	147.62
399.941	142.62
400.165	141.62
400.389	136.62
400.613	128.62
400.837	126.62
401.062	116.62
401.286	115.62
401.51	137.62
401.734	130.62
401.958	137.62
402.182	114.62
402.406	125.62
402.63	137.62
402.854	118.62
403.078	132.62
403.302	116.62
403.526	132.62
403.75	118.62
403.974	131.62
404.198	124.62
404.422	131.62
404.645	128.62
404.869	131.62
405.093	138.62
405.317	138.62
405.541	148.62
405.765	134.62
405.988	129.62
406.212	131.62
406.436	132.62
406.66	135.62
406.883	119.62
407.107	138.62
407.331	151.62
407.555	138.62
407.778	149.62
408.002	146.62
408.226	141.62
408.449	142.62
408.673	127.62
408.896	127.62
409.12	136.62
409.344	115.62
409.567	111.62
409.791	127.62
410.014	133.62
410.238	135.62
410.461	138.62
410.685	126.62
410.908	113.62
411.132	131.62
411.355	132.62
411.578	126.62
411.802	148.62
412.025	119.62
412.249	130.62
412.472	141.62
412.695	135.62
412.919	122.62
413.142	133.62
413.365	135.62
413.589	144.62
413.812	128.62
414.035	127.62
414.258	122.62
414.482	125.62
414.705	121.62
414.928	139.62
415.151	119.62
415.374	138.62
415.597	114.62
415.821	120.62
416.044	119.62
416.267	119.62
416.49	128.62
416.713	135.62
416.936	137.62
417.159	131.62
417.382	136.62
417.605	123.62
417.828	126.62
418.051	126.62
418.274	120.62
418.497	135.62
418.72	127.62
418.943	109.62
419.166	137.62
419.389	126.62
419.611	124.62
419.834	140.62
420.057	135.62
420.28	130.62
420.503	123.62
420.726	124.62
420.948	133.62
421.171	120.62
421.394	144.62
421.617	139.62
421.839	127.62
422.062	121.62
422.285	127.62
422.507	149.62
422.73	134.62
422.953	142.62
423.175	129.62
423.398	129.62
423.621	153.62
423.843	129.62
424.066	129.62
424.288	122.62
424.511	122.62
424.733	123.62
424.956	131.62
425.178	138.62
425.401	134.62
425.623	132.62
425.846	126.62
426.068	108.62
426.291	118.62
426.513	123.62
426.735	134.62
426.958	135.62
427.18	130.62
427.402	137.62
427.625	143.62
427.847	127.62
428.069	127.62
428.292	134.62
428.514	121.62
428.736	128.62
428.958	129.62
429.181	125.62
429.403	135.62
429.625	109.62
429.847	127.62
430.069	127.62
430.292	143.62
430.514	134.62
430.736	122.62
430.958	129.62
431.18	117.62
431.402	120.62
431.624	125.62
431.846	131.62
432.068	133.62
432.29	116.62
432.512	116.62
432.734	111.62
432.956	126.62
433.178	124.62
433.4	122.62
433.622	123.62
433.844	124.62
434.066	114.62
434.287	114.62
434.509	121.62
434.731	130.62
434.953	127.62
435.175	125.62
435.397	130.62
435.618	120.62
435.84	134.62
436.062	141.62
436.284	141.62
436.505	140.62
436.727	125.62
436.949	123.62
437.17	125.62
437.392	124.62
437.614	121.62
437.835	125.62
438.057	114.62
438.278	131.62
438.5	137.62
438.721	141.62
438.943	148.62
439.165	119.62
439.386	124.62
439.608	133.62
439.829	126.62
440.05	125.62
440.272	122.62
440.493	122.62
440.715	126.62
440.936	121.62
441.158	129.62
441.379	117.62
441.6	124.62
441.822	145.62
442.043	132.62
442.264	150.62
442.486	118.62
442.707	134.62
442.928	135.62
443.149	133.62
443.371	134.62
443.592	138.62
443.813	138.62
444.034	139.62
444.255	130.62
444.476	126.62
444.698	135.62
444.919	140.62
445.14	193.62
445.361	167.62
445.582	152.62
445.803	139.62
446.024	144.62
446.245	157.62
446.466	147.62
446.687	126.62
446.908	121.62
447.129	121.62
447.35	126.62
447.571	126.62
447.792	141.62
448.013	110.62
448.234	121.62
448.455	113.62
448.675	141.62
448.896	136.62
449.117	127.62
449.338	132.62
449.559	142.62
449.779	131.62
450	133.62
450.221	104.62
450.442	116.62
450.662	121.62
450.883	126.62
451.104	123.62
451.324	124.62
451.545	123.62
451.766	117.62
451.986	115.62
452.207	123.62
452.428	117.62
452.648	115.62
452.869	132.62
453.089	122.62
453.31	114.62
453.53	120.62
453.751	123.62
453.971	125.62
454.192	129.62
454.412	129.62
454.633	118.62
454.853	126.62
455.073	113.62
455.294	122.62
455.514	124.62
455.734	132.62
455.955	117.62
456.175	114.62
456.395	121.62
456.616	102.62
456.836	118.62
457.056	118.62
457.276	99.62
457.497	114.62
457.717	110.62
457.937	120.62
458.157	125.62
458.377	104.62
458.598	127.62
458.818	123.62
459.038	129.62
459.258	115.62
459.478	127.62
459.698	137.62
459.918	125.62
460.138	118.62
460.358	131.62
460.578	130.62
460.798	134.62
461.018	124.62
461.238	148.62
461.458	124.62
461.678	122.62
461.898	129.62
462.118	127.62
462.338	141.62
462.558	130.62
462.777	120.62
462.997	153.62
463.217	146.62
463.437	134.62
463.657	129.62
463.876	128.62
464.096	134.62
464.316	137.62
464.536	133.62
464.755	141.62
464.975	142.62
465.195	137.62
465.414	136.62
465.634	134.62
465.854	121.62
466.073	124.62
466.293	131.62
466.512	103.62
466.732	122.62
466.951	115.62
467.171	131.62
467.391	120.62
467.61	125.62
467.829	114.62
468.049	142.62
468.268	127.62
468.488	113.62
468.707	114.62
468.927	123.62
469.146	118.62
469.365	123.62
469.585	131.62
469.804	125.62
470.023	111.62
470.243	122.62
470.462	121.62
470.681	117.62
470.901	124.62
471.12	118.62
471.339	131.62
471.558	119.62
471.777	123.62
471.997	110.62
472.216	116.62
472.435	115.62
472.654	114.62
472.873	126.62
473.092	126.62
473.311	118.62
473.53	130.62
473.749	139.62
473.968	130.62
474.187	139.62
474.406	142.62
474.625	128.62
474.844	136.62
475.063	123.62
475.282	117.62
475.501	119.62
475.72	127.62
475.939	130.62
476.158	125.62
476.377	115.62
476.596	118.62
476.814	122.62
477.033	127.62
477.252	130.62
477.471	117.62
477.69	127.62
477.908	120.62
478.127	125.62
478.346	125.62
478.564	124.62
478.783	141.62
479.002	122.62
479.22	120.62
479.439	130.62
479.658	125.62
479.876	127.62
480.095	128.62
480.313	136.62
480.532	120.62
480.751	126.62
480.969	127.62
481.188	136.62
481.406	136.62
481.624	126.62
481.843	119.62
482.061	127.62
482.28	126.62
482.498	129.62
482.717	125.62
482.935	123.62
483.153	124.62
483.372	131.62
483.59	144.62
483.808	117.62
484.027	133.62
484.245	140.62
484.463	142.62
484.681	127.62
484.9	125.62
485.118	125.62
485.336	130.62
485.554	140.62
485.772	136.62
485.99	140.62
486.209	127.62
486.427	132.62
486.645	123.62
486.863	151.62
487.081	133.62
487.299	134.62
487.517	134.62
487.735	147.62
487.953	147.62
488.171	132.62
488.389	135.62
488.607	117.62
488.825	142.62
489.043	142.62
489.261	131.62
489.479	136.62
489.696	125.62
489.914	137.62
490.132	131.62
490.35	142.62
490.568	141.62
490.786	135.62
491.003	133.62
491.221	132.62
491.439	137.62
491.657	131.62
491.874	141.62
492.092	145.62
492.31	148.62
492.527	136.62
492.745	159.62
492.963	128.62
493.18	145.62
493.398	133.62
493.615	126.62
493.833	142.62
494.05	143.62
494.268	137.62
494.485	135.62
494.703	147.62
494.92	133.62
495.138	132.62
495.355	145.62
495.573	133.62
495.79	131.62
496.008	150.62
496.225	145.62
496.442	131.62
496.66	138.62
496.877	144.62
497.094	153.62
497.312	149.62
497.529	130.62
497.746	146.62
497.963	149.62
498.181	146.62
498.398	156.62
498.615	139.62
498.832	138.62
499.049	165.62
499.267	168.62
499.484	181.62
499.701	169.62
499.918	185.62
500.135	193.62
500.352	197.62
500.569	205.62
500.786	218.62
501.003	207.62
501.22	195.62
501.437	189.62
501.654	166.62
501.871	177.62
502.088	161.62
502.305	171.62
502.522	156.62
502.739	155.62
502.956	175.62
503.172	149.62
503.389	142.62
503.606	148.62
503.823	146.62
504.04	148.62
504.256	149.62
504.473	149.62
504.69	151.62
504.907	143.62
505.123	156.62
505.34	127.62
