Data from 1968.PennyLincolnUp.Lamp.En5.5.200Scan.071719.P1._HRD10591_14-49-45-969.txt Node
Date: Thu Jul 18 14:49:45 EDT 2019
User: cochatt
Spectrometer: HR+D1059
Trigger mode: 1
Integration Time (sec): 1.000000E-1
Scans to average: 1
Electric dark correction enabled: true
Nonlinearity correction enabled: false
Boxcar width: 0
XAxis mode: Wavelengths
Number of Pixels in Spectrum: 2048
>>>>>Begin Spectral Data<<<<<
223.165	-12.5
223.4	-12.5
223.635	-12.5
223.869	-16.5
224.104	-16.5
224.338	-3.5
224.573	-20.5
224.808	-5.5
225.042	-13.5
225.277	-17.5
225.511	-15.5
225.746	17.5
225.98	3.5
226.215	10.5
226.449	17.5
226.683	18.5
226.918	22.5
227.152	31.5
227.387	22.5
227.621	36.5
227.856	41.5
228.09	34.5
228.324	36.5
228.559	61.5
228.793	63.5
229.027	70.5
229.262	64.5
229.496	75.5
229.73	64.5
229.964	62.5
230.199	61.5
230.433	84.5
230.667	86.5
230.901	75.5
231.136	82.5
231.37	79.5
231.604	86.5
231.838	67.5
232.072	93.5
232.306	89.5
232.541	85.5
232.775	85.5
233.009	89.5
233.243	67.5
233.477	88.5
233.711	86.5
233.945	83.5
234.179	79.5
234.413	90.5
234.647	92.5
234.881	85.5
235.115	88.5
235.349	83.5
235.583	76.5
235.817	99.5
236.051	85.5
236.285	81.5
236.519	79.5
236.753	78.5
236.987	77.5
237.221	102.5
237.455	86.5
237.689	72.5
237.922	80.5
238.156	73.5
238.39	76.5
238.624	68.5
238.858	79.5
239.091	87.5
239.325	78.5
239.559	84.5
239.793	85.5
240.027	86.5
240.26	87.5
240.494	98.5
240.728	74.5
240.961	73.5
241.195	85.5
241.429	72.5
241.662	86.5
241.896	73.5
242.13	68.5
242.363	81.5
242.597	86.5
242.83	94.5
243.064	74.5
243.298	78.5
243.531	76.5
243.765	81.5
243.998	77.5
244.232	96.5
244.465	82.5
244.699	80.5
244.932	93.5
245.166	90.5
245.399	82.5
245.633	89.5
245.866	87.5
246.099	80.5
246.333	98.5
246.566	90.5
246.8	93.5
247.033	107.5
247.266	83.5
247.5	82.5
247.733	86.5
247.966	88.5
248.2	84.5
248.433	94.5
248.666	93.5
248.899	80.5
249.133	86.5
249.366	108.5
249.599	91.5
249.832	92.5
250.066	91.5
250.299	78.5
250.532	76.5
250.765	78.5
250.998	88.5
251.231	83.5
251.465	84.5
251.698	96.5
251.931	82.5
252.164	96.5
252.397	92.5
252.63	76.5
252.863	79.5
253.096	90.5
253.329	87.5
253.562	91.5
253.795	88.5
254.028	95.5
254.261	101.5
254.494	92.5
254.727	98.5
254.96	91.5
255.193	87.5
255.426	79.5
255.659	98.5
255.892	86.5
256.124	82.5
256.357	100.5
256.59	99.5
256.823	108.5
257.056	102.5
257.289	107.5
257.521	90.5
257.754	72.5
257.987	93.5
258.22	83.5
258.452	88.5
258.685	99.5
258.918	83.5
259.151	88.5
259.383	89.5
259.616	82.5
259.849	87.5
260.081	97.5
260.314	98.5
260.547	95.5
260.779	78.5
261.012	93.5
261.244	84.5
261.477	98.5
261.71	89.5
261.942	94.5
262.175	101.5
262.407	98.5
262.64	91.5
262.872	76.5
263.105	81.5
263.337	87.5
263.57	87.5
263.802	107.5
264.035	86.5
264.267	91.5
264.499	88.5
264.732	100.5
264.964	94.5
265.197	87.5
265.429	98.5
265.661	84.5
265.894	97.5
266.126	96.5
266.358	88.5
266.591	79.5
266.823	88.5
267.055	87.5
267.287	92.5
267.52	88.5
267.752	101.5
267.984	95.5
268.216	94.5
268.448	101.5
268.681	99.5
268.913	95.5
269.145	99.5
269.377	93.5
269.609	97.5
269.841	96.5
270.073	88.5
270.306	89.5
270.538	106.5
270.77	91.5
271.002	97.5
271.234	87.5
271.466	106.5
271.698	94.5
271.93	96.5
272.162	100.5
272.394	88.5
272.626	98.5
272.858	93.5
273.09	102.5
273.322	101.5
273.553	100.5
273.785	95.5
274.017	95.5
274.249	90.5
274.481	88.5
274.713	95.5
274.945	93.5
275.176	94.5
275.408	103.5
275.64	100.5
275.872	98.5
276.104	104.5
276.335	99.5
276.567	94.5
276.799	97.5
277.031	118.5
277.262	102.5
277.494	120.5
277.726	95.5
277.957	100.5
278.189	84.5
278.421	88.5
278.652	103.5
278.884	96.5
279.115	89.5
279.347	93.5
279.579	87.5
279.81	100.5
280.042	94.5
280.273	99.5
280.505	98.5
280.736	87.5
280.968	103.5
281.199	102.5
281.431	103.5
281.662	102.5
281.894	103.5
282.125	102.5
282.356	97.5
282.588	118.5
282.819	115.5
283.051	87.5
283.282	94.5
283.513	101.5
283.745	108.5
283.976	112.5
284.207	114.5
284.439	109.5
284.67	103.5
284.901	88.5
285.132	105.5
285.364	88.5
285.595	103.5
285.826	107.5
286.057	106.5
286.288	106.5
286.52	97.5
286.751	99.5
286.982	99.5
287.213	107.5
287.444	92.5
287.675	106.5
287.906	106.5
288.138	99.5
288.369	98.5
288.6	106.5
288.831	97.5
289.062	101.5
289.293	90.5
289.524	91.5
289.755	97.5
289.986	95.5
290.217	92.5
290.448	104.5
290.679	101.5
290.91	114.5
291.141	108.5
291.371	108.5
291.602	108.5
291.833	95.5
292.064	91.5
292.295	103.5
292.526	95.5
292.757	94.5
292.987	91.5
293.218	93.5
293.449	101.5
293.68	104.5
293.91	111.5
294.141	106.5
294.372	120.5
294.603	100.5
294.833	114.5
295.064	108.5
295.295	101.5
295.525	110.5
295.756	117.5
295.987	106.5
296.217	107.5
296.448	105.5
296.679	103.5
296.909	91.5
297.14	108.5
297.37	111.5
297.601	116.5
297.831	108.5
298.062	99.5
298.292	120.5
298.523	109.5
298.753	107.5
298.984	95.5
299.214	101.5
299.445	109.5
299.675	96.5
299.905	111.5
300.136	83.5
300.366	95.5
300.597	104.5
300.827	116.5
301.057	103.5
301.288	103.5
301.518	119.5
301.748	97.5
301.979	101.5
302.209	121.5
302.439	95.5
302.669	102.5
302.9	110.5
303.13	116.5
303.36	115.5
303.59	103.5
303.82	110.5
304.051	101.5
304.281	109.5
304.511	116.5
304.741	107.5
304.971	100.5
305.201	101.5
305.431	104.5
305.661	103.5
305.891	91.5
306.121	115.5
306.352	104.5
306.582	116.5
306.812	111.5
307.042	106.5
307.272	103.5
307.502	92.5
307.731	103.5
307.961	95.5
308.191	106.5
308.421	108.5
308.651	111.5
308.881	104.5
309.111	99.5
309.341	114.5
309.571	117.5
309.8	98.5
310.03	101.5
310.26	107.5
310.49	111.5
310.72	108.5
310.949	117.5
311.179	117.5
311.409	115.5
311.639	124.5
311.868	109.5
312.098	103.5
312.328	114.5
312.557	104.5
312.787	114.5
313.017	117.5
313.246	97.5
313.476	106.5
313.706	90.5
313.935	108.5
314.165	101.5
314.394	106.5
314.624	122.5
314.853	108.5
315.083	90.5
315.312	92.5
315.542	108.5
315.771	115.5
316.001	109.5
316.23	108.5
316.46	94.5
316.689	93.5
316.919	108.5
317.148	122.5
317.377	110.5
317.607	117.5
317.836	100.5
318.065	112.5
318.295	89.5
318.524	110.5
318.753	116.5
318.983	98.5
319.212	86.5
319.441	101.5
319.67	107.5
319.9	101.5
320.129	115.5
320.358	116.5
320.587	114.5
320.816	119.5
321.046	104.5
321.275	105.5
321.504	101.5
321.733	105.5
321.962	119.5
322.191	101.5
322.42	109.5
322.649	122.5
322.878	106.5
323.108	118.5
323.337	105.5
323.566	115.5
323.795	112.5
324.024	114.5
324.253	110.5
324.482	132.5
324.71	155.5
324.939	171.5
325.168	145.5
325.397	127.5
325.626	99.5
325.855	116.5
326.084	117.5
326.313	108.5
326.542	119.5
326.77	126.5
326.999	112.5
327.228	130.5
327.457	134.5
327.686	149.5
327.914	126.5
328.143	110.5
328.372	122.5
328.6	119.5
328.829	107.5
329.058	128.5
329.287	122.5
329.515	118.5
329.744	106.5
329.972	111.5
330.201	117.5
330.43	120.5
330.658	114.5
330.887	113.5
331.115	118.5
331.344	120.5
331.572	106.5
331.801	136.5
332.03	118.5
332.258	116.5
332.486	107.5
332.715	117.5
332.943	113.5
333.172	117.5
333.4	117.5
333.629	127.5
333.857	101.5
334.085	126.5
334.314	119.5
334.542	119.5
334.771	131.5
334.999	108.5
335.227	116.5
335.455	118.5
335.684	118.5
335.912	117.5
336.14	104.5
336.369	124.5
336.597	120.5
336.825	115.5
337.053	118.5
337.281	108.5
337.51	116.5
337.738	104.5
337.966	105.5
338.194	126.5
338.422	102.5
338.65	110.5
338.878	119.5
339.106	115.5
339.334	124.5
339.562	107.5
339.79	108.5
340.018	117.5
340.246	122.5
340.474	104.5
340.702	111.5
340.93	116.5
341.158	116.5
341.386	123.5
341.614	108.5
341.842	114.5
342.07	110.5
342.298	118.5
342.526	108.5
342.754	113.5
342.981	122.5
343.209	109.5
343.437	122.5
343.665	126.5
343.893	107.5
344.12	119.5
344.348	122.5
344.576	118.5
344.804	108.5
345.031	112.5
345.259	122.5
345.487	114.5
345.714	112.5
345.942	118.5
346.17	114.5
346.397	117.5
346.625	99.5
346.853	101.5
347.08	114.5
347.308	120.5
347.535	122.5
347.763	109.5
347.99	119.5
348.218	116.5
348.445	110.5
348.673	108.5
348.9	110.5
349.128	117.5
349.355	108.5
349.583	103.5
349.81	92.5
350.037	104.5
350.265	112.5
350.492	110.5
350.72	100.5
350.947	111.5
351.174	115.5
351.402	100.5
351.629	108.5
351.856	108.5
352.083	108.5
352.311	103.5
352.538	110.5
352.765	114.5
352.992	112.5
353.22	111.5
353.447	116.5
353.674	108.5
353.901	106.5
354.128	118.5
354.355	122.5
354.583	116.5
354.81	124.5
355.037	105.5
355.264	115.5
355.491	100.5
355.718	108.5
355.945	124.5
356.172	102.5
356.399	106.5
356.626	107.5
356.853	115.5
357.08	110.5
357.307	100.5
357.534	111.5
357.761	125.5
357.988	100.5
358.215	98.5
358.441	99.5
358.668	126.5
358.895	129.5
359.122	126.5
359.349	114.5
359.576	108.5
359.802	106.5
360.029	115.5
360.256	122.5
360.483	112.5
360.709	113.5
360.936	108.5
361.163	110.5
361.39	122.5
361.616	98.5
361.843	115.5
362.07	103.5
362.296	103.5
362.523	107.5
362.749	120.5
362.976	123.5
363.203	118.5
363.429	101.5
363.656	111.5
363.882	104.5
364.109	124.5
364.335	96.5
364.562	114.5
364.788	114.5
365.015	93.5
365.241	103.5
365.468	111.5
365.694	120.5
365.92	109.5
366.147	114.5
366.373	96.5
366.599	116.5
366.826	118.5
367.052	106.5
367.278	120.5
367.505	101.5
367.731	104.5
367.957	113.5
368.184	106.5
368.41	108.5
368.636	122.5
368.862	115.5
369.089	109.5
369.315	94.5
369.541	108.5
369.767	119.5
369.993	111.5
370.219	123.5
370.445	114.5
370.672	108.5
370.898	107.5
371.124	116.5
371.35	101.5
371.576	110.5
371.802	112.5
372.028	106.5
372.254	109.5
372.48	136.5
372.706	126.5
372.932	127.5
373.158	114.5
373.384	109.5
373.61	108.5
373.835	126.5
374.061	114.5
374.287	117.5
374.513	127.5
374.739	134.5
374.965	115.5
375.191	124.5
375.416	113.5
375.642	110.5
375.868	120.5
376.094	123.5
376.319	123.5
376.545	117.5
376.771	111.5
376.997	136.5
377.222	121.5
377.448	108.5
377.674	111.5
377.899	127.5
378.125	118.5
378.35	105.5
378.576	117.5
378.802	117.5
379.027	121.5
379.253	123.5
379.478	123.5
379.704	116.5
379.929	96.5
380.155	101.5
380.38	105.5
380.606	131.5
380.831	120.5
381.057	110.5
381.282	116.5
381.507	110.5
381.733	121.5
381.958	118.5
382.184	104.5
382.409	108.5
382.634	123.5
382.86	111.5
383.085	112.5
383.31	123.5
383.535	124.5
383.761	122.5
383.986	117.5
384.211	130.5
384.436	112.5
384.662	130.5
384.887	119.5
385.112	119.5
385.337	119.5
385.562	123.5
385.787	122.5
386.013	138.5
386.238	131.5
386.463	134.5
386.688	123.5
386.913	111.5
387.138	114.5
387.363	106.5
387.588	124.5
387.813	121.5
388.038	117.5
388.263	122.5
388.488	118.5
388.713	117.5
388.938	108.5
389.163	116.5
389.387	114.5
389.612	108.5
389.837	106.5
390.062	117.5
390.287	121.5
390.512	121.5
390.736	125.5
390.961	136.5
391.186	128.5
391.411	126.5
391.636	126.5
391.86	127.5
392.085	130.5
392.31	126.5
392.534	116.5
392.759	129.5
392.984	134.5
393.208	111.5
393.433	111.5
393.658	116.5
393.882	125.5
394.107	129.5
394.331	100.5
394.556	122.5
394.78	126.5
395.005	126.5
395.229	133.5
395.454	114.5
395.678	117.5
395.903	118.5
396.127	115.5
396.352	128.5
396.576	121.5
396.801	109.5
397.025	130.5
397.249	119.5
397.474	127.5
397.698	124.5
397.922	118.5
398.147	119.5
398.371	114.5
398.595	130.5
398.82	127.5
399.044	118.5
399.268	144.5
399.492	158.5
399.717	151.5
399.941	140.5
400.165	134.5
400.389	132.5
400.613	128.5
400.837	147.5
401.062	136.5
401.286	136.5
401.51	124.5
401.734	112.5
401.958	123.5
402.182	136.5
402.406	119.5
402.63	124.5
402.854	135.5
403.078	132.5
403.302	144.5
403.526	134.5
403.75	142.5
403.974	153.5
404.198	135.5
404.422	142.5
404.645	132.5
404.869	127.5
405.093	150.5
405.317	147.5
405.541	137.5
405.765	147.5
405.988	142.5
406.212	134.5
406.436	137.5
406.66	134.5
406.883	125.5
407.107	140.5
407.331	131.5
407.555	140.5
407.778	155.5
408.002	141.5
408.226	144.5
408.449	143.5
408.673	142.5
408.896	134.5
409.12	150.5
409.344	154.5
409.567	127.5
409.791	134.5
410.014	128.5
410.238	130.5
410.461	123.5
410.685	127.5
410.908	127.5
411.132	127.5
411.355	126.5
411.578	126.5
411.802	127.5
412.025	130.5
412.249	127.5
412.472	126.5
412.695	127.5
412.919	121.5
413.142	129.5
413.365	132.5
413.589	135.5
413.812	129.5
414.035	134.5
414.258	112.5
414.482	118.5
414.705	142.5
414.928	134.5
415.151	133.5
415.374	126.5
415.597	124.5
415.821	135.5
416.044	126.5
416.267	130.5
416.49	135.5
416.713	127.5
416.936	139.5
417.159	119.5
417.382	129.5
417.605	118.5
417.828	122.5
418.051	145.5
418.274	130.5
418.497	142.5
418.72	139.5
418.943	142.5
419.166	125.5
419.389	143.5
419.611	147.5
419.834	127.5
420.057	123.5
420.28	122.5
420.503	122.5
420.726	132.5
420.948	138.5
421.171	140.5
421.394	140.5
421.617	130.5
421.839	127.5
422.062	131.5
422.285	135.5
422.507	135.5
422.73	122.5
422.953	137.5
423.175	146.5
423.398	129.5
423.621	137.5
423.843	125.5
424.066	111.5
424.288	152.5
424.511	141.5
424.733	128.5
424.956	142.5
425.178	126.5
425.401	125.5
425.623	136.5
425.846	126.5
426.068	121.5
426.291	130.5
426.513	121.5
426.735	118.5
426.958	127.5
427.18	142.5
427.402	133.5
427.625	139.5
427.847	143.5
428.069	129.5
428.292	123.5
428.514	129.5
428.736	112.5
428.958	140.5
429.181	129.5
429.403	128.5
429.625	133.5
429.847	147.5
430.069	139.5
430.292	116.5
430.514	106.5
430.736	117.5
430.958	121.5
431.18	128.5
431.402	116.5
431.624	116.5
431.846	126.5
432.068	123.5
432.29	121.5
432.512	131.5
432.734	123.5
432.956	122.5
433.178	122.5
433.4	122.5
433.622	119.5
433.844	124.5
434.066	135.5
434.287	126.5
434.509	126.5
434.731	121.5
434.953	125.5
435.175	134.5
435.397	137.5
435.618	131.5
435.84	126.5
436.062	144.5
436.284	137.5
436.505	126.5
436.727	132.5
436.949	110.5
437.17	118.5
437.392	120.5
437.614	125.5
437.835	128.5
438.057	125.5
438.278	129.5
438.5	149.5
438.721	138.5
438.943	142.5
439.165	132.5
439.386	133.5
439.608	128.5
439.829	118.5
440.05	128.5
440.272	134.5
440.493	137.5
440.715	126.5
440.936	122.5
441.158	118.5
441.379	127.5
441.6	136.5
441.822	126.5
442.043	120.5
442.264	128.5
442.486	133.5
442.707	137.5
442.928	138.5
443.149	126.5
443.371	136.5
443.592	151.5
443.813	144.5
444.034	136.5
444.255	125.5
444.476	126.5
444.698	131.5
444.919	154.5
445.14	244.5
445.361	187.5
445.582	138.5
445.803	127.5
446.024	137.5
446.245	128.5
446.466	128.5
446.687	130.5
446.908	119.5
447.129	135.5
447.35	143.5
447.571	118.5
447.792	128.5
448.013	134.5
448.234	118.5
448.455	137.5
448.675	128.5
448.896	135.5
449.117	126.5
449.338	139.5
449.559	142.5
449.779	132.5
450	134.5
450.221	130.5
450.442	137.5
450.662	129.5
450.883	130.5
451.104	129.5
451.324	99.5
451.545	118.5
451.766	114.5
451.986	119.5
452.207	112.5
452.428	127.5
452.648	110.5
452.869	111.5
453.089	129.5
453.31	118.5
453.53	119.5
453.751	116.5
453.971	109.5
454.192	114.5
454.412	114.5
454.633	115.5
454.853	132.5
455.073	140.5
455.294	125.5
455.514	140.5
455.734	123.5
455.955	124.5
456.175	134.5
456.395	120.5
456.616	118.5
456.836	115.5
457.056	104.5
457.276	116.5
457.497	115.5
457.717	115.5
457.937	107.5
458.157	115.5
458.377	117.5
458.598	103.5
458.818	130.5
459.038	126.5
459.258	130.5
459.478	138.5
459.698	126.5
459.918	120.5
460.138	118.5
460.358	138.5
460.578	138.5
460.798	122.5
461.018	136.5
461.238	131.5
461.458	125.5
461.678	142.5
461.898	112.5
462.118	133.5
462.338	120.5
462.558	127.5
462.777	123.5
462.997	148.5
463.217	150.5
463.437	140.5
463.657	143.5
463.876	126.5
464.096	138.5
464.316	132.5
464.536	131.5
464.755	142.5
464.975	131.5
465.195	148.5
465.414	133.5
465.634	140.5
465.854	126.5
466.073	130.5
466.293	130.5
466.512	144.5
466.732	127.5
466.951	132.5
467.171	123.5
467.391	130.5
467.61	125.5
467.829	126.5
468.049	125.5
468.268	122.5
468.488	108.5
468.707	123.5
468.927	122.5
469.146	109.5
469.365	126.5
469.585	116.5
469.804	117.5
470.023	111.5
470.243	124.5
470.462	110.5
470.681	126.5
470.901	117.5
471.12	128.5
471.339	130.5
471.558	148.5
471.777	126.5
471.997	127.5
472.216	128.5
472.435	131.5
472.654	122.5
472.873	122.5
473.092	118.5
473.311	119.5
473.53	133.5
473.749	123.5
473.968	125.5
474.187	134.5
474.406	119.5
474.625	128.5
474.844	139.5
475.063	106.5
475.282	118.5
475.501	118.5
475.72	122.5
475.939	125.5
476.158	118.5
476.377	130.5
476.596	140.5
476.814	126.5
477.033	134.5
477.252	121.5
477.471	116.5
477.69	131.5
477.908	126.5
478.127	132.5
478.346	132.5
478.564	128.5
478.783	130.5
479.002	138.5
479.22	132.5
479.439	144.5
479.658	142.5
479.876	129.5
480.095	135.5
480.313	127.5
480.532	126.5
480.751	144.5
480.969	126.5
481.188	138.5
481.406	133.5
481.624	134.5
481.843	144.5
482.061	133.5
482.28	123.5
482.498	119.5
482.717	134.5
482.935	143.5
483.153	132.5
483.372	136.5
483.59	125.5
483.808	139.5
484.027	134.5
484.245	125.5
484.463	119.5
484.681	129.5
484.9	138.5
485.118	139.5
485.336	143.5
485.554	128.5
485.772	129.5
485.99	136.5
486.209	136.5
486.427	120.5
486.645	137.5
486.863	136.5
487.081	138.5
487.299	137.5
487.517	144.5
487.735	130.5
487.953	141.5
488.171	146.5
488.389	121.5
488.607	130.5
488.825	138.5
489.043	156.5
489.261	139.5
489.479	130.5
489.696	136.5
489.914	134.5
490.132	136.5
490.35	117.5
490.568	137.5
490.786	134.5
491.003	136.5
491.221	147.5
491.439	160.5
491.657	162.5
491.874	145.5
492.092	144.5
492.31	164.5
492.527	146.5
492.745	147.5
492.963	144.5
493.18	140.5
493.398	134.5
493.615	144.5
493.833	139.5
494.05	141.5
494.268	141.5
494.485	155.5
494.703	160.5
494.92	149.5
495.138	152.5
495.355	153.5
495.573	148.5
495.79	147.5
496.008	126.5
496.225	142.5
496.442	146.5
496.66	152.5
496.877	158.5
497.094	153.5
497.312	123.5
497.529	133.5
497.746	156.5
497.963	140.5
498.181	167.5
498.398	154.5
498.615	130.5
498.832	158.5
499.049	174.5
499.267	162.5
499.484	179.5
499.701	176.5
499.918	184.5
500.135	198.5
500.352	205.5
500.569	221.5
500.786	213.5
501.003	216.5
501.22	194.5
501.437	186.5
501.654	176.5
501.871	164.5
502.088	175.5
502.305	174.5
502.522	161.5
502.739	170.5
502.956	149.5
503.172	170.5
503.389	144.5
503.606	142.5
503.823	148.5
504.04	140.5
504.256	149.5
504.473	142.5
504.69	160.5
504.907	131.5
505.123	166.5
505.34	142.5
505.557	135.5
505.773	148.5
505.99	126.5
506.207	150.5
506.423	135.5
506.64	134.5
506.856	137.5
507.073	141.5
507.289	126.5
507.506	139.5
507.722	123.5
507.939	140.5
508.155	124.5
508.372	136.5
508.588	141.5
508.805	125.5
509.021	127.5
509.238	132.5
509.454	127.5
509.67	123.5
509.887	118.5
510.103	124.5
510.319	116.5
510.536	141.5
510.752	171.5
510.968	126.5
511.184	141.5
511.401	142.5
511.617	118.5
511.833	125.5
512.049	128.5
512.265	139.5
512.481	135.5
512.698	124.5
512.914	122.5
513.13	128.5
513.346	121.5
513.562	121.5
513.778	116.5
513.994	133.5
514.21	115.5
514.426	138.5
514.642	126.5
514.858	131.5
515.074	128.5
515.29	160.5
515.506	149.5
515.721	150.5
515.937	136.5
516.153	116.5
516.369	132.5
516.585	131.5
516.801	142.5
517.016	151.5
517.232	144.5
517.448	149.5
517.664	154.5
517.879	124.5
518.095	139.5
518.311	138.5
518.527	151.5
518.742	137.5
518.958	137.5
519.173	131.5
519.389	141.5
519.605	127.5
519.82	135.5
520.036	128.5
520.251	122.5
520.467	120.5
520.682	126.5
520.898	129.5
521.113	128.5
521.329	147.5
521.544	144.5
521.76	140.5
521.975	171.5
522.19	159.5
522.406	134.5
522.621	119.5
522.836	126.5
523.052	139.5
523.267	128.5
523.482	119.5
