Data from 1968.PennyLincolnUp.Lamp.En5.5.200Scan.071719.P1._HRD10591_14-50-42-970.txt Node
Date: Thu Jul 18 14:50:42 EDT 2019
User: cochatt
Spectrometer: HR+D1059
Trigger mode: 1
Integration Time (sec): 1.000000E-1
Scans to average: 1
Electric dark correction enabled: true
Nonlinearity correction enabled: false
Boxcar width: 0
XAxis mode: Wavelengths
Number of Pixels in Spectrum: 2048
>>>>>Begin Spectral Data<<<<<
223.165	-12.12
223.4	-12.12
223.635	-12.12
223.869	-18.12
224.104	-28.12
224.338	-14.12
224.573	-2.12
224.808	-11.12
225.042	-4.12
225.277	4.88
225.511	-11.12
225.746	-3.12
225.98	0.88
226.215	5.88
226.449	23.88
226.683	19.88
226.918	14.88
227.152	33.88
227.387	33.88
227.621	42.88
227.856	46.88
228.09	51.88
228.324	38.88
228.559	56.88
228.793	61.88
229.027	68.88
229.262	69.88
229.496	58.88
229.73	61.88
229.964	77.88
230.199	67.88
230.433	80.88
230.667	88.88
230.901	64.88
231.136	84.88
231.37	71.88
231.604	81.88
231.838	87.88
232.072	77.88
232.306	74.88
232.541	87.88
232.775	85.88
233.009	71.88
233.243	82.88
233.477	88.88
233.711	89.88
233.945	72.88
234.179	78.88
234.413	81.88
234.647	85.88
234.881	78.88
235.115	70.88
235.349	98.88
235.583	77.88
235.817	72.88
236.051	75.88
236.285	74.88
236.519	78.88
236.753	80.88
236.987	89.88
237.221	81.88
237.455	84.88
237.689	90.88
237.922	69.88
238.156	78.88
238.39	70.88
238.624	76.88
238.858	84.88
239.091	85.88
239.325	81.88
239.559	70.88
239.793	87.88
240.027	82.88
240.26	74.88
240.494	91.88
240.728	89.88
240.961	88.88
241.195	98.88
241.429	74.88
241.662	85.88
241.896	83.88
242.13	74.88
242.363	84.88
242.597	82.88
242.83	88.88
243.064	87.88
243.298	74.88
243.531	76.88
243.765	91.88
243.998	76.88
244.232	75.88
244.465	75.88
244.699	72.88
244.932	93.88
245.166	87.88
245.399	84.88
245.633	93.88
245.866	100.88
246.099	83.88
246.333	76.88
246.566	78.88
246.8	87.88
247.033	79.88
247.266	86.88
247.5	85.88
247.733	79.88
247.966	83.88
248.2	75.88
248.433	85.88
248.666	79.88
248.899	96.88
249.133	85.88
249.366	98.88
249.599	88.88
249.832	88.88
250.066	100.88
250.299	90.88
250.532	83.88
250.765	91.88
250.998	78.88
251.231	82.88
251.465	87.88
251.698	84.88
251.931	91.88
252.164	90.88
252.397	77.88
252.63	84.88
252.863	91.88
253.096	97.88
253.329	82.88
253.562	89.88
253.795	91.88
254.028	80.88
254.261	89.88
254.494	100.88
254.727	96.88
254.96	93.88
255.193	90.88
255.426	89.88
255.659	76.88
255.892	100.88
256.124	93.88
256.357	86.88
256.59	88.88
256.823	93.88
257.056	102.88
257.289	99.88
257.521	84.88
257.754	92.88
257.987	90.88
258.22	101.88
258.452	89.88
258.685	93.88
258.918	83.88
259.151	83.88
259.383	85.88
259.616	88.88
259.849	84.88
260.081	86.88
260.314	81.88
260.547	92.88
260.779	86.88
261.012	84.88
261.244	96.88
261.477	100.88
261.71	91.88
261.942	98.88
262.175	97.88
262.407	102.88
262.64	92.88
262.872	83.88
263.105	97.88
263.337	97.88
263.57	102.88
263.802	82.88
264.035	100.88
264.267	92.88
264.499	85.88
264.732	99.88
264.964	88.88
265.197	101.88
265.429	84.88
265.661	86.88
265.894	92.88
266.126	96.88
266.358	98.88
266.591	106.88
266.823	96.88
267.055	94.88
267.287	96.88
267.52	84.88
267.752	94.88
267.984	94.88
268.216	100.88
268.448	100.88
268.681	97.88
268.913	89.88
269.145	101.88
269.377	108.88
269.609	69.88
269.841	95.88
270.073	98.88
270.306	106.88
270.538	90.88
270.77	97.88
271.002	109.88
271.234	98.88
271.466	97.88
271.698	100.88
271.93	108.88
272.162	93.88
272.394	85.88
272.626	99.88
272.858	105.88
273.09	121.88
273.322	95.88
273.553	82.88
273.785	104.88
274.017	93.88
274.249	85.88
274.481	88.88
274.713	93.88
274.945	85.88
275.176	85.88
275.408	92.88
275.64	96.88
275.872	90.88
276.104	93.88
276.335	84.88
276.567	90.88
276.799	97.88
277.031	95.88
277.262	94.88
277.494	87.88
277.726	99.88
277.957	94.88
278.189	104.88
278.421	97.88
278.652	101.88
278.884	102.88
279.115	103.88
279.347	84.88
279.579	103.88
279.81	98.88
280.042	102.88
280.273	84.88
280.505	89.88
280.736	104.88
280.968	98.88
281.199	108.88
281.431	99.88
281.662	89.88
281.894	101.88
282.125	102.88
282.356	94.88
282.588	108.88
282.819	102.88
283.051	83.88
283.282	106.88
283.513	87.88
283.745	115.88
283.976	105.88
284.207	94.88
284.439	81.88
284.67	90.88
284.901	96.88
285.132	95.88
285.364	87.88
285.595	84.88
285.826	97.88
286.057	103.88
286.288	110.88
286.52	106.88
286.751	93.88
286.982	98.88
287.213	99.88
287.444	102.88
287.675	105.88
287.906	106.88
288.138	102.88
288.369	103.88
288.6	101.88
288.831	109.88
289.062	102.88
289.293	98.88
289.524	101.88
289.755	101.88
289.986	107.88
290.217	102.88
290.448	98.88
290.679	112.88
290.91	100.88
291.141	91.88
291.371	110.88
291.602	84.88
291.833	116.88
292.064	111.88
292.295	83.88
292.526	92.88
292.757	85.88
292.987	120.88
293.218	108.88
293.449	84.88
293.68	99.88
293.91	103.88
294.141	98.88
294.372	78.88
294.603	104.88
294.833	98.88
295.064	99.88
295.295	94.88
295.525	91.88
295.756	105.88
295.987	116.88
296.217	91.88
296.448	101.88
296.679	105.88
296.909	99.88
297.14	107.88
297.37	96.88
297.601	99.88
297.831	97.88
298.062	98.88
298.292	92.88
298.523	114.88
298.753	108.88
298.984	103.88
299.214	100.88
299.445	105.88
299.675	101.88
299.905	116.88
300.136	98.88
300.366	91.88
300.597	105.88
300.827	100.88
301.057	88.88
301.288	99.88
301.518	104.88
301.748	114.88
301.979	103.88
302.209	102.88
302.439	106.88
302.669	112.88
302.9	108.88
303.13	103.88
303.36	93.88
303.59	102.88
303.82	117.88
304.051	106.88
304.281	97.88
304.511	104.88
304.741	112.88
304.971	106.88
305.201	98.88
305.431	98.88
305.661	99.88
305.891	100.88
306.121	91.88
306.352	101.88
306.582	89.88
306.812	104.88
307.042	115.88
307.272	100.88
307.502	107.88
307.731	92.88
307.961	98.88
308.191	105.88
308.421	118.88
308.651	114.88
308.881	101.88
309.111	96.88
309.341	104.88
309.571	105.88
309.8	109.88
310.03	103.88
310.26	108.88
310.49	98.88
310.72	94.88
310.949	105.88
311.179	122.88
311.409	112.88
311.639	93.88
311.868	114.88
312.098	90.88
312.328	99.88
312.557	102.88
312.787	102.88
313.017	104.88
313.246	109.88
313.476	105.88
313.706	109.88
313.935	109.88
314.165	110.88
314.394	109.88
314.624	94.88
314.853	113.88
315.083	102.88
315.312	96.88
315.542	115.88
315.771	102.88
316.001	99.88
316.23	106.88
316.46	107.88
316.689	101.88
316.919	90.88
317.148	120.88
317.377	106.88
317.607	103.88
317.836	109.88
318.065	109.88
318.295	107.88
318.524	113.88
318.753	97.88
318.983	107.88
319.212	106.88
319.441	106.88
319.67	105.88
319.9	116.88
320.129	101.88
320.358	93.88
320.587	112.88
320.816	105.88
321.046	104.88
321.275	111.88
321.504	112.88
321.733	117.88
321.962	120.88
322.191	91.88
322.42	112.88
322.649	105.88
322.878	100.88
323.108	114.88
323.337	115.88
323.566	106.88
323.795	112.88
324.024	109.88
324.253	120.88
324.482	132.88
324.71	166.88
324.939	173.88
325.168	156.88
325.397	116.88
325.626	118.88
325.855	124.88
326.084	115.88
326.313	114.88
326.542	104.88
326.77	112.88
326.999	120.88
327.228	122.88
327.457	149.88
327.686	156.88
327.914	119.88
328.143	134.88
328.372	117.88
328.6	93.88
328.829	119.88
329.058	106.88
329.287	113.88
329.515	101.88
329.744	101.88
329.972	107.88
330.201	112.88
330.43	110.88
330.658	125.88
330.887	111.88
331.115	124.88
331.344	121.88
331.572	101.88
331.801	95.88
332.03	101.88
332.258	113.88
332.486	114.88
332.715	112.88
332.943	98.88
333.172	124.88
333.4	105.88
333.629	118.88
333.857	117.88
334.085	109.88
334.314	118.88
334.542	107.88
334.771	111.88
334.999	111.88
335.227	100.88
335.455	120.88
335.684	87.88
335.912	107.88
336.14	116.88
336.369	119.88
336.597	111.88
336.825	114.88
337.053	103.88
337.281	108.88
337.51	122.88
337.738	116.88
337.966	125.88
338.194	112.88
338.422	110.88
338.65	92.88
338.878	124.88
339.106	124.88
339.334	113.88
339.562	114.88
339.79	116.88
340.018	117.88
340.246	115.88
340.474	122.88
340.702	107.88
340.93	114.88
341.158	109.88
341.386	115.88
341.614	115.88
341.842	123.88
342.07	117.88
342.298	110.88
342.526	98.88
342.754	102.88
342.981	114.88
343.209	100.88
343.437	109.88
343.665	104.88
343.893	109.88
344.12	107.88
344.348	114.88
344.576	122.88
344.804	117.88
345.031	117.88
345.259	102.88
345.487	112.88
345.714	112.88
345.942	111.88
346.17	123.88
346.397	118.88
346.625	107.88
346.853	110.88
347.08	118.88
347.308	124.88
347.535	109.88
347.763	117.88
347.99	102.88
348.218	113.88
348.445	90.88
348.673	101.88
348.9	107.88
349.128	102.88
349.355	91.88
349.583	108.88
349.81	114.88
350.037	106.88
350.265	118.88
350.492	105.88
350.72	104.88
350.947	102.88
351.174	103.88
351.402	91.88
351.629	107.88
351.856	104.88
352.083	115.88
352.311	117.88
352.538	102.88
352.765	104.88
352.992	107.88
353.22	110.88
353.447	105.88
353.674	120.88
353.901	107.88
354.128	93.88
354.355	109.88
354.583	109.88
354.81	104.88
355.037	107.88
355.264	102.88
355.491	116.88
355.718	114.88
355.945	121.88
356.172	108.88
356.399	92.88
356.626	108.88
356.853	118.88
357.08	104.88
357.307	100.88
357.534	101.88
357.761	105.88
357.988	104.88
358.215	106.88
358.441	108.88
358.668	94.88
358.895	95.88
359.122	88.88
359.349	116.88
359.576	120.88
359.802	102.88
360.029	108.88
360.256	101.88
360.483	88.88
360.709	120.88
360.936	112.88
361.163	111.88
361.39	107.88
361.616	118.88
361.843	108.88
362.07	104.88
362.296	105.88
362.523	112.88
362.749	98.88
362.976	104.88
363.203	109.88
363.429	115.88
363.656	106.88
363.882	109.88
364.109	117.88
364.335	97.88
364.562	100.88
364.788	117.88
365.015	112.88
365.241	99.88
365.468	132.88
365.694	99.88
365.92	107.88
366.147	109.88
366.373	112.88
366.599	122.88
366.826	100.88
367.052	104.88
367.278	105.88
367.505	109.88
367.731	119.88
367.957	104.88
368.184	112.88
368.41	105.88
368.636	120.88
368.862	116.88
369.089	93.88
369.315	107.88
369.541	99.88
369.767	98.88
369.993	97.88
370.219	120.88
370.445	125.88
370.672	124.88
370.898	112.88
371.124	114.88
371.35	116.88
371.576	114.88
371.802	113.88
372.028	105.88
372.254	109.88
372.48	108.88
372.706	103.88
372.932	117.88
373.158	119.88
373.384	117.88
373.61	99.88
373.835	116.88
374.061	113.88
374.287	106.88
374.513	118.88
374.739	115.88
374.965	100.88
375.191	115.88
375.416	116.88
375.642	113.88
375.868	115.88
376.094	115.88
376.319	111.88
376.545	115.88
376.771	117.88
376.997	99.88
377.222	112.88
377.448	104.88
377.674	114.88
377.899	104.88
378.125	83.88
378.35	110.88
378.576	118.88
378.802	114.88
379.027	93.88
379.253	112.88
379.478	103.88
379.704	116.88
379.929	101.88
380.155	123.88
380.38	105.88
380.606	113.88
380.831	100.88
381.057	105.88
381.282	109.88
381.507	126.88
381.733	126.88
381.958	122.88
382.184	114.88
382.409	103.88
382.634	115.88
382.86	110.88
383.085	100.88
383.31	102.88
383.535	107.88
383.761	108.88
383.986	122.88
384.211	115.88
384.436	116.88
384.662	119.88
384.887	127.88
385.112	106.88
385.337	108.88
385.562	113.88
385.787	113.88
386.013	125.88
386.238	123.88
386.463	124.88
386.688	122.88
386.913	115.88
387.138	116.88
387.363	113.88
387.588	110.88
387.813	102.88
388.038	119.88
388.263	108.88
388.488	105.88
388.713	120.88
388.938	115.88
389.163	114.88
389.387	121.88
389.612	118.88
389.837	110.88
390.062	110.88
390.287	131.88
390.512	119.88
390.736	116.88
390.961	127.88
391.186	124.88
391.411	121.88
391.636	116.88
391.86	133.88
392.085	126.88
392.31	102.88
392.534	107.88
392.759	126.88
392.984	110.88
393.208	116.88
393.433	122.88
393.658	126.88
393.882	125.88
394.107	118.88
394.331	123.88
394.556	111.88
394.78	125.88
395.005	118.88
395.229	120.88
395.454	115.88
395.678	118.88
395.903	137.88
396.127	125.88
396.352	130.88
396.576	118.88
396.801	110.88
397.025	132.88
397.249	113.88
397.474	134.88
397.698	132.88
397.922	125.88
398.147	130.88
398.371	123.88
398.595	128.88
398.82	133.88
399.044	135.88
399.268	145.88
399.492	132.88
399.717	154.88
399.941	146.88
400.165	152.88
400.389	135.88
400.613	125.88
400.837	123.88
401.062	132.88
401.286	129.88
401.51	123.88
401.734	134.88
401.958	125.88
402.182	122.88
402.406	119.88
402.63	132.88
402.854	135.88
403.078	126.88
403.302	124.88
403.526	137.88
403.75	132.88
403.974	115.88
404.198	136.88
404.422	138.88
404.645	136.88
404.869	120.88
405.093	136.88
405.317	142.88
405.541	126.88
405.765	122.88
405.988	140.88
406.212	136.88
406.436	137.88
406.66	146.88
406.883	137.88
407.107	132.88
407.331	140.88
407.555	142.88
407.778	142.88
408.002	129.88
408.226	139.88
408.449	126.88
408.673	144.88
408.896	140.88
409.12	140.88
409.344	129.88
409.567	113.88
409.791	132.88
410.014	141.88
410.238	122.88
410.461	122.88
410.685	136.88
410.908	121.88
411.132	124.88
411.355	133.88
411.578	138.88
411.802	130.88
412.025	117.88
412.249	125.88
412.472	139.88
412.695	127.88
412.919	118.88
413.142	122.88
413.365	121.88
413.589	120.88
413.812	121.88
414.035	122.88
414.258	131.88
414.482	136.88
414.705	123.88
414.928	141.88
415.151	126.88
415.374	129.88
415.597	129.88
415.821	130.88
416.044	115.88
416.267	125.88
416.49	125.88
416.713	125.88
416.936	124.88
417.159	122.88
417.382	127.88
417.605	129.88
417.828	125.88
418.051	128.88
418.274	132.88
418.497	121.88
418.72	130.88
418.943	124.88
419.166	121.88
419.389	131.88
419.611	132.88
419.834	120.88
420.057	134.88
420.28	117.88
420.503	117.88
420.726	114.88
420.948	117.88
421.171	131.88
421.394	128.88
421.617	134.88
421.839	122.88
422.062	127.88
422.285	125.88
422.507	139.88
422.73	125.88
422.953	123.88
423.175	135.88
423.398	125.88
423.621	124.88
423.843	121.88
424.066	136.88
424.288	127.88
424.511	132.88
424.733	149.88
424.956	141.88
425.178	128.88
425.401	138.88
425.623	135.88
425.846	143.88
426.068	142.88
426.291	127.88
426.513	125.88
426.735	128.88
426.958	136.88
427.18	129.88
427.402	143.88
427.625	151.88
427.847	124.88
428.069	130.88
428.292	133.88
428.514	126.88
428.736	133.88
428.958	128.88
429.181	132.88
429.403	109.88
429.625	111.88
429.847	126.88
430.069	136.88
430.292	138.88
430.514	126.88
430.736	124.88
430.958	125.88
431.18	122.88
431.402	125.88
431.624	124.88
431.846	114.88
432.068	115.88
432.29	122.88
432.512	125.88
432.734	109.88
432.956	128.88
433.178	127.88
433.4	129.88
433.622	129.88
433.844	136.88
434.066	118.88
434.287	122.88
434.509	135.88
434.731	129.88
434.953	128.88
435.175	118.88
435.397	122.88
435.618	125.88
435.84	132.88
436.062	128.88
436.284	133.88
436.505	118.88
436.727	116.88
436.949	133.88
437.17	126.88
437.392	123.88
437.614	126.88
437.835	116.88
438.057	133.88
438.278	135.88
438.5	117.88
438.721	132.88
438.943	128.88
439.165	121.88
439.386	123.88
439.608	139.88
439.829	130.88
440.05	123.88
440.272	120.88
440.493	156.88
440.715	133.88
440.936	120.88
441.158	140.88
441.379	136.88
441.6	125.88
441.822	135.88
442.043	139.88
442.264	146.88
442.486	148.88
442.707	120.88
442.928	134.88
443.149	131.88
443.371	140.88
443.592	133.88
443.813	129.88
444.034	147.88
444.255	123.88
444.476	143.88
444.698	121.88
444.919	136.88
445.14	216.88
445.361	185.88
445.582	137.88
445.803	142.88
446.024	143.88
446.245	142.88
446.466	120.88
446.687	136.88
446.908	130.88
447.129	128.88
447.35	137.88
447.571	124.88
447.792	115.88
448.013	123.88
448.234	127.88
448.455	128.88
448.675	124.88
448.896	115.88
449.117	142.88
449.338	124.88
449.559	140.88
449.779	149.88
450	136.88
450.221	120.88
450.442	131.88
450.662	118.88
450.883	124.88
451.104	134.88
451.324	116.88
451.545	118.88
451.766	128.88
451.986	121.88
452.207	118.88
452.428	123.88
452.648	107.88
452.869	116.88
453.089	116.88
453.31	130.88
453.53	127.88
453.751	132.88
453.971	123.88
454.192	113.88
454.412	108.88
454.633	112.88
454.853	107.88
455.073	118.88
455.294	117.88
455.514	120.88
455.734	119.88
455.955	113.88
456.175	120.88
456.395	108.88
456.616	106.88
456.836	117.88
457.056	122.88
457.276	119.88
457.497	117.88
457.717	128.88
457.937	114.88
458.157	124.88
458.377	112.88
458.598	120.88
458.818	112.88
459.038	130.88
459.258	130.88
459.478	118.88
459.698	112.88
459.918	132.88
460.138	136.88
460.358	121.88
460.578	128.88
460.798	136.88
461.018	129.88
461.238	116.88
461.458	129.88
461.678	139.88
461.898	129.88
462.118	134.88
462.338	136.88
462.558	133.88
462.777	147.88
462.997	141.88
463.217	140.88
463.437	123.88
463.657	136.88
463.876	130.88
464.096	121.88
464.316	134.88
464.536	139.88
464.755	140.88
464.975	126.88
465.195	155.88
465.414	123.88
465.634	135.88
465.854	130.88
466.073	124.88
466.293	109.88
466.512	120.88
466.732	114.88
466.951	122.88
467.171	112.88
467.391	113.88
467.61	117.88
467.829	121.88
468.049	116.88
468.268	119.88
468.488	121.88
468.707	120.88
468.927	117.88
469.146	121.88
469.365	130.88
469.585	120.88
469.804	124.88
470.023	132.88
470.243	115.88
470.462	122.88
470.681	118.88
470.901	118.88
471.12	121.88
471.339	121.88
471.558	132.88
471.777	126.88
471.997	143.88
472.216	110.88
472.435	132.88
472.654	116.88
472.873	110.88
473.092	100.88
473.311	126.88
473.53	122.88
473.749	115.88
473.968	126.88
474.187	122.88
474.406	114.88
474.625	117.88
474.844	123.88
475.063	125.88
475.282	135.88
475.501	119.88
475.72	134.88
475.939	124.88
476.158	128.88
476.377	130.88
476.596	129.88
476.814	122.88
477.033	121.88
477.252	132.88
477.471	119.88
477.69	120.88
477.908	128.88
478.127	126.88
478.346	130.88
478.564	125.88
478.783	125.88
479.002	113.88
479.22	134.88
479.439	123.88
479.658	128.88
479.876	141.88
480.095	123.88
480.313	133.88
480.532	130.88
480.751	122.88
480.969	128.88
481.188	133.88
481.406	136.88
481.624	128.88
481.843	131.88
482.061	138.88
482.28	124.88
482.498	142.88
482.717	127.88
482.935	128.88
483.153	125.88
483.372	132.88
483.59	128.88
483.808	137.88
484.027	130.88
484.245	145.88
484.463	112.88
484.681	150.88
484.9	135.88
485.118	134.88
485.336	137.88
485.554	126.88
485.772	137.88
485.99	129.88
486.209	132.88
486.427	134.88
486.645	128.88
486.863	107.88
487.081	118.88
487.299	136.88
487.517	122.88
487.735	147.88
487.953	148.88
488.171	136.88
488.389	146.88
488.607	141.88
488.825	128.88
489.043	128.88
489.261	135.88
489.479	130.88
489.696	134.88
489.914	133.88
490.132	140.88
490.35	140.88
490.568	114.88
490.786	124.88
491.003	139.88
491.221	143.88
491.439	136.88
491.657	138.88
491.874	149.88
492.092	138.88
492.31	145.88
492.527	148.88
492.745	141.88
492.963	126.88
493.18	121.88
493.398	140.88
493.615	152.88
493.833	149.88
494.05	147.88
494.268	145.88
494.485	130.88
494.703	141.88
494.92	149.88
495.138	134.88
495.355	166.88
495.573	138.88
495.79	142.88
496.008	140.88
496.225	141.88
496.442	160.88
496.66	142.88
496.877	148.88
497.094	135.88
497.312	136.88
497.529	138.88
497.746	161.88
497.963	157.88
498.181	146.88
498.398	159.88
498.615	161.88
498.832	163.88
499.049	158.88
499.267	150.88
499.484	160.88
499.701	166.88
499.918	181.88
500.135	180.88
500.352	201.88
500.569	200.88
500.786	219.88
501.003	195.88
501.22	177.88
501.437	194.88
501.654	185.88
501.871	180.88
502.088	147.88
502.305	171.88
502.522	169.88
502.739	169.88
502.956	131.88
503.172	162.88
503.389	133.88
503.606	130.88
503.823	138.88
504.04	153.88
504.256	166.88
504.473	161.88
504.69	140.88
504.907	148.88
505.123	151.88
505.34	133.88
505.557	104.88
505.773	125.88
505.99	140.88
