Data from 1968.PennyLincolnUp.Lamp.En5.5.200Scan.071719.P1._HRD10591_14-49-41-968.txt Node
Date: Thu Jul 18 14:49:41 EDT 2019
User: cochatt
Spectrometer: HR+D1059
Trigger mode: 1
Integration Time (sec): 1.000000E-1
Scans to average: 1
Electric dark correction enabled: true
Nonlinearity correction enabled: false
Boxcar width: 0
XAxis mode: Wavelengths
Number of Pixels in Spectrum: 2048
>>>>>Begin Spectral Data<<<<<
223.165	-21.44
223.4	-21.44
223.635	-21.44
223.869	-20.44
224.104	-17.44
224.338	-13.44
224.573	-15.44
224.808	-17.44
225.042	-5.44
225.277	0.56
225.511	-12.44
225.746	4.56
225.98	-7.44
226.215	11.56
226.449	23.56
226.683	22.56
226.918	28.56
227.152	39.56
227.387	28.56
227.621	41.56
227.856	54.56
228.09	47.56
228.324	53.56
228.559	60.56
228.793	55.56
229.027	48.56
229.262	60.56
229.496	72.56
229.73	66.56
229.964	74.56
230.199	59.56
230.433	80.56
230.667	80.56
230.901	85.56
231.136	75.56
231.37	75.56
231.604	77.56
231.838	91.56
232.072	82.56
232.306	92.56
232.541	92.56
232.775	88.56
233.009	88.56
233.243	73.56
233.477	84.56
233.711	68.56
233.945	83.56
234.179	90.56
234.413	92.56
234.647	75.56
234.881	84.56
235.115	98.56
235.349	77.56
235.583	68.56
235.817	67.56
236.051	87.56
236.285	88.56
236.519	77.56
236.753	89.56
236.987	79.56
237.221	90.56
237.455	83.56
237.689	67.56
237.922	91.56
238.156	72.56
238.39	69.56
238.624	78.56
238.858	75.56
239.091	75.56
239.325	90.56
239.559	71.56
239.793	75.56
240.027	77.56
240.26	80.56
240.494	77.56
240.728	64.56
240.961	73.56
241.195	70.56
241.429	85.56
241.662	75.56
241.896	87.56
242.13	96.56
242.363	89.56
242.597	88.56
242.83	73.56
243.064	88.56
243.298	84.56
243.531	87.56
243.765	82.56
243.998	92.56
244.232	68.56
244.465	78.56
244.699	86.56
244.932	53.56
245.166	83.56
245.399	85.56
245.633	78.56
245.866	78.56
246.099	86.56
246.333	72.56
246.566	66.56
246.8	79.56
247.033	81.56
247.266	94.56
247.5	71.56
247.733	81.56
247.966	85.56
248.2	94.56
248.433	91.56
248.666	83.56
248.899	83.56
249.133	81.56
249.366	82.56
249.599	83.56
249.832	91.56
250.066	98.56
250.299	81.56
250.532	83.56
250.765	97.56
250.998	93.56
251.231	91.56
251.465	84.56
251.698	84.56
251.931	71.56
252.164	94.56
252.397	80.56
252.63	86.56
252.863	88.56
253.096	93.56
253.329	102.56
253.562	88.56
253.795	80.56
254.028	94.56
254.261	81.56
254.494	91.56
254.727	95.56
254.96	79.56
255.193	80.56
255.426	96.56
255.659	98.56
255.892	91.56
256.124	101.56
256.357	91.56
256.59	98.56
256.823	73.56
257.056	85.56
257.289	90.56
257.521	93.56
257.754	89.56
257.987	92.56
258.22	84.56
258.452	87.56
258.685	67.56
258.918	84.56
259.151	92.56
259.383	96.56
259.616	89.56
259.849	94.56
260.081	89.56
260.314	100.56
260.547	97.56
260.779	85.56
261.012	83.56
261.244	64.56
261.477	84.56
261.71	94.56
261.942	89.56
262.175	90.56
262.407	97.56
262.64	83.56
262.872	84.56
263.105	97.56
263.337	89.56
263.57	95.56
263.802	84.56
264.035	79.56
264.267	93.56
264.499	93.56
264.732	94.56
264.964	76.56
265.197	76.56
265.429	81.56
265.661	83.56
265.894	85.56
266.126	89.56
266.358	94.56
266.591	104.56
266.823	103.56
267.055	94.56
267.287	85.56
267.52	76.56
267.752	76.56
267.984	78.56
268.216	94.56
268.448	96.56
268.681	85.56
268.913	96.56
269.145	96.56
269.377	91.56
269.609	94.56
269.841	79.56
270.073	95.56
270.306	83.56
270.538	95.56
270.77	89.56
271.002	94.56
271.234	97.56
271.466	94.56
271.698	81.56
271.93	89.56
272.162	87.56
272.394	105.56
272.626	89.56
272.858	98.56
273.09	91.56
273.322	87.56
273.553	88.56
273.785	104.56
274.017	91.56
274.249	95.56
274.481	85.56
274.713	75.56
274.945	75.56
275.176	82.56
275.408	96.56
275.64	96.56
275.872	80.56
276.104	81.56
276.335	94.56
276.567	101.56
276.799	110.56
277.031	109.56
277.262	97.56
277.494	101.56
277.726	102.56
277.957	98.56
278.189	92.56
278.421	104.56
278.652	89.56
278.884	103.56
279.115	94.56
279.347	92.56
279.579	85.56
279.81	80.56
280.042	104.56
280.273	103.56
280.505	96.56
280.736	91.56
280.968	94.56
281.199	96.56
281.431	95.56
281.662	100.56
281.894	110.56
282.125	94.56
282.356	112.56
282.588	99.56
282.819	93.56
283.051	91.56
283.282	85.56
283.513	90.56
283.745	82.56
283.976	108.56
284.207	99.56
284.439	90.56
284.67	92.56
284.901	99.56
285.132	99.56
285.364	89.56
285.595	86.56
285.826	95.56
286.057	84.56
286.288	83.56
286.52	104.56
286.751	92.56
286.982	110.56
287.213	98.56
287.444	112.56
287.675	76.56
287.906	101.56
288.138	98.56
288.369	89.56
288.6	96.56
288.831	94.56
289.062	101.56
289.293	103.56
289.524	111.56
289.755	105.56
289.986	91.56
290.217	101.56
290.448	93.56
290.679	94.56
290.91	106.56
291.141	106.56
291.371	111.56
291.602	100.56
291.833	120.56
292.064	96.56
292.295	94.56
292.526	101.56
292.757	94.56
292.987	111.56
293.218	100.56
293.449	94.56
293.68	95.56
293.91	91.56
294.141	102.56
294.372	99.56
294.603	108.56
294.833	94.56
295.064	94.56
295.295	86.56
295.525	98.56
295.756	94.56
295.987	100.56
296.217	103.56
296.448	107.56
296.679	95.56
296.909	109.56
297.14	103.56
297.37	94.56
297.601	95.56
297.831	102.56
298.062	95.56
298.292	110.56
298.523	92.56
298.753	107.56
298.984	94.56
299.214	96.56
299.445	104.56
299.675	89.56
299.905	113.56
300.136	94.56
300.366	113.56
300.597	122.56
300.827	97.56
301.057	106.56
301.288	116.56
301.518	106.56
301.748	100.56
301.979	97.56
302.209	98.56
302.439	95.56
302.669	104.56
302.9	97.56
303.13	114.56
303.36	94.56
303.59	105.56
303.82	103.56
304.051	95.56
304.281	98.56
304.511	117.56
304.741	102.56
304.971	96.56
305.201	102.56
305.431	105.56
305.661	96.56
305.891	93.56
306.121	100.56
306.352	99.56
306.582	96.56
306.812	102.56
307.042	96.56
307.272	115.56
307.502	104.56
307.731	112.56
307.961	101.56
308.191	102.56
308.421	96.56
308.651	100.56
308.881	104.56
309.111	102.56
309.341	94.56
309.571	96.56
309.8	102.56
310.03	112.56
310.26	101.56
310.49	100.56
310.72	113.56
310.949	98.56
311.179	106.56
311.409	98.56
311.639	115.56
311.868	96.56
312.098	98.56
312.328	99.56
312.557	113.56
312.787	114.56
313.017	99.56
313.246	103.56
313.476	100.56
313.706	106.56
313.935	101.56
314.165	95.56
314.394	102.56
314.624	102.56
314.853	100.56
315.083	95.56
315.312	107.56
315.542	107.56
315.771	110.56
316.001	98.56
316.23	120.56
316.46	96.56
316.689	102.56
316.919	98.56
317.148	116.56
317.377	110.56
317.607	105.56
317.836	101.56
318.065	102.56
318.295	100.56
318.524	110.56
318.753	91.56
318.983	110.56
319.212	103.56
319.441	98.56
319.67	105.56
319.9	96.56
320.129	106.56
320.358	100.56
320.587	105.56
320.816	108.56
321.046	99.56
321.275	111.56
321.504	100.56
321.733	106.56
321.962	105.56
322.191	115.56
322.42	103.56
322.649	96.56
322.878	106.56
323.108	99.56
323.337	97.56
323.566	110.56
323.795	111.56
324.024	121.56
324.253	125.56
324.482	118.56
324.71	148.56
324.939	164.56
325.168	141.56
325.397	115.56
325.626	109.56
325.855	127.56
326.084	115.56
326.313	110.56
326.542	114.56
326.77	117.56
326.999	110.56
327.228	127.56
327.457	133.56
327.686	140.56
327.914	137.56
328.143	115.56
328.372	116.56
328.6	112.56
328.829	115.56
329.058	110.56
329.287	106.56
329.515	112.56
329.744	107.56
329.972	122.56
330.201	102.56
330.43	114.56
330.658	113.56
330.887	131.56
331.115	120.56
331.344	97.56
331.572	126.56
331.801	114.56
332.03	119.56
332.258	117.56
332.486	111.56
332.715	126.56
332.943	99.56
333.172	134.56
333.4	128.56
333.629	114.56
333.857	111.56
334.085	99.56
334.314	114.56
334.542	118.56
334.771	119.56
334.999	107.56
335.227	108.56
335.455	113.56
335.684	122.56
335.912	114.56
336.14	116.56
336.369	102.56
336.597	110.56
336.825	108.56
337.053	128.56
337.281	113.56
337.51	107.56
337.738	111.56
337.966	112.56
338.194	98.56
338.422	115.56
338.65	122.56
338.878	105.56
339.106	112.56
339.334	116.56
339.562	105.56
339.79	106.56
340.018	114.56
340.246	121.56
340.474	116.56
340.702	113.56
340.93	127.56
341.158	102.56
341.386	100.56
341.614	111.56
341.842	114.56
342.07	104.56
342.298	110.56
342.526	110.56
342.754	104.56
342.981	96.56
343.209	107.56
343.437	104.56
343.665	105.56
343.893	98.56
344.12	108.56
344.348	106.56
344.576	114.56
344.804	110.56
345.031	113.56
345.259	111.56
345.487	103.56
345.714	105.56
345.942	102.56
346.17	107.56
346.397	96.56
346.625	122.56
346.853	114.56
347.08	103.56
347.308	108.56
347.535	94.56
347.763	112.56
347.99	110.56
348.218	124.56
348.445	110.56
348.673	104.56
348.9	111.56
349.128	120.56
349.355	110.56
349.583	114.56
349.81	111.56
350.037	105.56
350.265	106.56
350.492	100.56
350.72	103.56
350.947	116.56
351.174	110.56
351.402	111.56
351.629	110.56
351.856	114.56
352.083	108.56
352.311	125.56
352.538	120.56
352.765	101.56
352.992	115.56
353.22	100.56
353.447	111.56
353.674	114.56
353.901	111.56
354.128	115.56
354.355	99.56
354.583	93.56
354.81	116.56
355.037	108.56
355.264	110.56
355.491	110.56
355.718	103.56
355.945	101.56
356.172	106.56
356.399	104.56
356.626	98.56
356.853	103.56
357.08	115.56
357.307	104.56
357.534	100.56
357.761	116.56
357.988	107.56
358.215	113.56
358.441	114.56
358.668	94.56
358.895	114.56
359.122	104.56
359.349	100.56
359.576	105.56
359.802	114.56
360.029	112.56
360.256	112.56
360.483	118.56
360.709	103.56
360.936	102.56
361.163	113.56
361.39	98.56
361.616	112.56
361.843	91.56
362.07	108.56
362.296	113.56
362.523	99.56
362.749	104.56
362.976	116.56
363.203	117.56
363.429	108.56
363.656	105.56
363.882	110.56
364.109	116.56
364.335	114.56
364.562	118.56
364.788	99.56
365.015	90.56
365.241	114.56
365.468	103.56
365.694	100.56
365.92	112.56
366.147	113.56
366.373	115.56
366.599	113.56
366.826	117.56
367.052	100.56
367.278	100.56
367.505	102.56
367.731	112.56
367.957	104.56
368.184	91.56
368.41	108.56
368.636	95.56
368.862	106.56
369.089	114.56
369.315	107.56
369.541	107.56
369.767	102.56
369.993	113.56
370.219	91.56
370.445	110.56
370.672	102.56
370.898	101.56
371.124	121.56
371.35	96.56
371.576	110.56
371.802	96.56
372.028	116.56
372.254	117.56
372.48	110.56
372.706	102.56
372.932	91.56
373.158	110.56
373.384	122.56
373.61	103.56
373.835	107.56
374.061	116.56
374.287	105.56
374.513	123.56
374.739	118.56
374.965	116.56
375.191	118.56
375.416	104.56
375.642	117.56
375.868	121.56
376.094	111.56
376.319	116.56
376.545	129.56
376.771	95.56
376.997	107.56
377.222	103.56
377.448	108.56
377.674	112.56
377.899	96.56
378.125	97.56
378.35	107.56
378.576	108.56
378.802	112.56
379.027	109.56
379.253	99.56
379.478	119.56
379.704	99.56
379.929	120.56
380.155	99.56
380.38	96.56
380.606	113.56
380.831	121.56
381.057	117.56
381.282	117.56
381.507	107.56
381.733	118.56
381.958	98.56
382.184	122.56
382.409	97.56
382.634	120.56
382.86	112.56
383.085	113.56
383.31	116.56
383.535	102.56
383.761	114.56
383.986	114.56
384.211	104.56
384.436	107.56
384.662	115.56
384.887	110.56
385.112	95.56
385.337	107.56
385.562	119.56
385.787	117.56
386.013	108.56
386.238	120.56
386.463	120.56
386.688	110.56
386.913	117.56
387.138	103.56
387.363	128.56
387.588	119.56
387.813	106.56
388.038	128.56
388.263	113.56
388.488	119.56
388.713	111.56
388.938	110.56
389.163	128.56
389.387	116.56
389.612	105.56
389.837	109.56
390.062	110.56
390.287	119.56
390.512	112.56
390.736	103.56
390.961	124.56
391.186	120.56
391.411	116.56
391.636	117.56
391.86	117.56
392.085	122.56
392.31	113.56
392.534	99.56
392.759	108.56
392.984	119.56
393.208	112.56
393.433	118.56
393.658	126.56
393.882	123.56
394.107	112.56
394.331	129.56
394.556	118.56
394.78	126.56
395.005	112.56
395.229	126.56
395.454	122.56
395.678	125.56
395.903	122.56
396.127	122.56
396.352	109.56
396.576	115.56
396.801	121.56
397.025	119.56
397.249	121.56
397.474	109.56
397.698	130.56
397.922	120.56
398.147	122.56
398.371	111.56
398.595	124.56
398.82	116.56
399.044	120.56
399.268	125.56
399.492	156.56
399.717	161.56
399.941	141.56
400.165	121.56
400.389	126.56
400.613	132.56
400.837	120.56
401.062	121.56
401.286	122.56
401.51	140.56
401.734	124.56
401.958	118.56
402.182	95.56
402.406	122.56
402.63	105.56
402.854	139.56
403.078	120.56
403.302	126.56
403.526	130.56
403.75	122.56
403.974	137.56
404.198	117.56
404.422	123.56
404.645	135.56
404.869	124.56
405.093	140.56
405.317	131.56
405.541	132.56
405.765	126.56
405.988	125.56
406.212	124.56
406.436	104.56
406.66	116.56
406.883	137.56
407.107	131.56
407.331	135.56
407.555	129.56
407.778	131.56
408.002	145.56
408.226	136.56
408.449	134.56
408.673	127.56
408.896	126.56
409.12	127.56
409.344	111.56
409.567	122.56
409.791	130.56
410.014	130.56
410.238	116.56
410.461	123.56
410.685	122.56
410.908	141.56
411.132	138.56
411.355	127.56
411.578	126.56
411.802	131.56
412.025	140.56
412.249	122.56
412.472	128.56
412.695	122.56
412.919	116.56
413.142	127.56
413.365	126.56
413.589	130.56
413.812	112.56
414.035	132.56
414.258	130.56
414.482	123.56
414.705	119.56
414.928	129.56
415.151	138.56
415.374	137.56
415.597	130.56
415.821	130.56
416.044	124.56
416.267	131.56
416.49	125.56
416.713	122.56
416.936	135.56
417.159	110.56
417.382	122.56
417.605	127.56
417.828	122.56
418.051	122.56
418.274	132.56
418.497	130.56
418.72	128.56
418.943	107.56
419.166	115.56
419.389	137.56
419.611	116.56
419.834	129.56
420.057	125.56
420.28	128.56
420.503	108.56
420.726	134.56
420.948	132.56
421.171	126.56
421.394	132.56
421.617	132.56
421.839	111.56
422.062	131.56
422.285	123.56
422.507	130.56
422.73	147.56
422.953	126.56
423.175	128.56
423.398	124.56
423.621	134.56
423.843	134.56
424.066	138.56
424.288	135.56
424.511	128.56
424.733	126.56
424.956	133.56
425.178	129.56
425.401	122.56
425.623	127.56
425.846	130.56
426.068	124.56
426.291	132.56
426.513	117.56
426.735	136.56
426.958	131.56
427.18	136.56
427.402	135.56
427.625	128.56
427.847	136.56
428.069	114.56
428.292	118.56
428.514	128.56
428.736	127.56
428.958	120.56
429.181	123.56
429.403	124.56
429.625	138.56
429.847	135.56
430.069	127.56
430.292	136.56
430.514	112.56
430.736	113.56
430.958	115.56
431.18	122.56
431.402	117.56
431.624	128.56
431.846	104.56
432.068	119.56
432.29	121.56
432.512	120.56
432.734	132.56
432.956	135.56
433.178	120.56
433.4	113.56
433.622	115.56
433.844	124.56
434.066	126.56
434.287	127.56
434.509	123.56
434.731	118.56
434.953	122.56
435.175	127.56
435.397	126.56
435.618	113.56
435.84	124.56
436.062	144.56
436.284	136.56
436.505	131.56
436.727	131.56
436.949	115.56
437.17	124.56
437.392	118.56
437.614	132.56
437.835	118.56
438.057	116.56
438.278	113.56
438.5	128.56
438.721	146.56
438.943	135.56
439.165	133.56
439.386	105.56
439.608	115.56
439.829	138.56
440.05	122.56
440.272	139.56
440.493	127.56
440.715	129.56
440.936	121.56
441.158	138.56
441.379	105.56
441.6	132.56
441.822	141.56
442.043	131.56
442.264	139.56
442.486	141.56
442.707	126.56
442.928	133.56
443.149	130.56
443.371	114.56
443.592	132.56
443.813	141.56
444.034	131.56
444.255	140.56
444.476	132.56
444.698	135.56
444.919	136.56
445.14	241.56
445.361	180.56
445.582	138.56
445.803	127.56
446.024	139.56
446.245	151.56
446.466	129.56
446.687	135.56
446.908	136.56
447.129	129.56
447.35	119.56
447.571	119.56
447.792	114.56
448.013	127.56
448.234	139.56
448.455	123.56
448.675	131.56
448.896	126.56
449.117	142.56
449.338	124.56
449.559	120.56
449.779	147.56
450	144.56
450.221	120.56
450.442	113.56
450.662	120.56
450.883	122.56
451.104	126.56
451.324	112.56
451.545	126.56
451.766	121.56
451.986	124.56
452.207	113.56
452.428	104.56
452.648	117.56
452.869	110.56
453.089	120.56
453.31	104.56
453.53	98.56
453.751	110.56
453.971	124.56
454.192	121.56
454.412	99.56
454.633	114.56
454.853	115.56
455.073	117.56
455.294	111.56
455.514	118.56
455.734	128.56
455.955	115.56
456.175	113.56
456.395	108.56
456.616	124.56
456.836	124.56
457.056	110.56
457.276	108.56
457.497	112.56
457.717	125.56
457.937	117.56
458.157	126.56
458.377	123.56
458.598	108.56
458.818	130.56
459.038	93.56
459.258	115.56
459.478	122.56
459.698	112.56
459.918	117.56
460.138	134.56
460.358	119.56
460.578	122.56
460.798	119.56
461.018	129.56
461.238	133.56
461.458	131.56
461.678	118.56
461.898	124.56
462.118	135.56
462.338	140.56
462.558	117.56
462.777	133.56
462.997	140.56
463.217	132.56
463.437	125.56
463.657	128.56
463.876	133.56
464.096	130.56
464.316	124.56
464.536	133.56
464.755	137.56
464.975	123.56
465.195	120.56
465.414	126.56
465.634	116.56
465.854	128.56
466.073	132.56
466.293	126.56
466.512	126.56
466.732	108.56
466.951	126.56
467.171	118.56
467.391	120.56
467.61	112.56
467.829	122.56
468.049	126.56
468.268	116.56
468.488	124.56
468.707	114.56
468.927	131.56
469.146	120.56
469.365	118.56
469.585	117.56
469.804	104.56
470.023	114.56
470.243	112.56
470.462	121.56
470.681	121.56
470.901	116.56
471.12	128.56
471.339	116.56
471.558	135.56
471.777	122.56
471.997	122.56
472.216	128.56
472.435	116.56
472.654	128.56
472.873	123.56
473.092	100.56
473.311	120.56
473.53	117.56
473.749	113.56
473.968	136.56
474.187	126.56
474.406	128.56
474.625	116.56
474.844	113.56
475.063	103.56
475.282	104.56
475.501	127.56
475.72	114.56
475.939	130.56
476.158	120.56
476.377	118.56
476.596	107.56
476.814	130.56
477.033	124.56
477.252	123.56
477.471	128.56
477.69	117.56
477.908	144.56
478.127	129.56
478.346	133.56
478.564	127.56
478.783	128.56
479.002	135.56
479.22	130.56
479.439	123.56
479.658	130.56
479.876	122.56
480.095	136.56
480.313	130.56
480.532	144.56
480.751	128.56
480.969	123.56
481.188	134.56
481.406	126.56
481.624	131.56
481.843	129.56
482.061	130.56
482.28	125.56
482.498	101.56
482.717	120.56
482.935	121.56
483.153	127.56
483.372	128.56
483.59	136.56
483.808	128.56
484.027	135.56
484.245	128.56
484.463	131.56
484.681	138.56
484.9	123.56
485.118	117.56
485.336	138.56
485.554	125.56
485.772	131.56
485.99	140.56
486.209	120.56
486.427	118.56
486.645	139.56
486.863	122.56
487.081	140.56
487.299	132.56
487.517	128.56
487.735	140.56
487.953	141.56
488.171	128.56
488.389	131.56
488.607	138.56
488.825	119.56
489.043	139.56
489.261	124.56
489.479	138.56
489.696	124.56
489.914	128.56
490.132	118.56
490.35	131.56
490.568	134.56
490.786	135.56
491.003	114.56
491.221	126.56
491.439	126.56
491.657	119.56
491.874	124.56
492.092	137.56
492.31	140.56
492.527	143.56
492.745	157.56
492.963	149.56
493.18	144.56
493.398	130.56
493.615	152.56
493.833	145.56
494.05	154.56
494.268	148.56
494.485	128.56
494.703	135.56
494.92	140.56
495.138	138.56
495.355	143.56
495.573	138.56
495.79	130.56
496.008	137.56
496.225	136.56
496.442	150.56
496.66	141.56
496.877	143.56
497.094	163.56
497.312	146.56
497.529	145.56
497.746	132.56
497.963	139.56
498.181	147.56
498.398	148.56
498.615	151.56
498.832	150.56
499.049	141.56
499.267	166.56
499.484	150.56
499.701	158.56
499.918	179.56
500.135	212.56
500.352	217.56
500.569	207.56
500.786	207.56
501.003	211.56
501.22	200.56
501.437	192.56
501.654	178.56
501.871	166.56
502.088	158.56
502.305	154.56
502.522	160.56
502.739	169.56
502.956	149.56
503.172	149.56
503.389	149.56
503.606	151.56
503.823	126.56
504.04	136.56
504.256	135.56
504.473	136.56
504.69	147.56
504.907	135.56
505.123	138.56
505.34	136.56
505.557	140.56
505.773	131.56
505.99	133.56
506.207	129.56
506.423	122.56
