Data from 1968.PennyLincolnUp.Lamp.En5.5.200Scan.071719.P1._HRD10591_14-52-05-970.txt Node
Date: Thu Jul 18 14:52:05 EDT 2019
User: cochatt
Spectrometer: HR+D1059
Trigger mode: 1
Integration Time (sec): 1.000000E-1
Scans to average: 1
Electric dark correction enabled: true
Nonlinearity correction enabled: false
Boxcar width: 0
XAxis mode: Wavelengths
Number of Pixels in Spectrum: 2048
>>>>>Begin Spectral Data<<<<<
223.165	-23.31
223.4	-23.31
223.635	-23.31
223.869	-28.31
224.104	-24.31
224.338	-13.31
224.573	-3.31
224.808	-9.31
225.042	-10.31
225.277	-11.31
225.511	13.69
225.746	-3.31
225.98	2.69
226.215	11.69
226.449	14.69
226.683	22.69
226.918	25.69
227.152	35.69
227.387	29.69
227.621	32.69
227.856	60.69
228.09	48.69
228.324	46.69
228.559	62.69
228.793	68.69
229.027	66.69
229.262	74.69
229.496	77.69
229.73	64.69
229.964	66.69
230.199	84.69
230.433	82.69
230.667	87.69
230.901	78.69
231.136	81.69
231.37	87.69
231.604	85.69
231.838	85.69
232.072	95.69
232.306	94.69
232.541	99.69
232.775	86.69
233.009	91.69
233.243	77.69
233.477	88.69
233.711	96.69
233.945	91.69
234.179	95.69
234.413	92.69
234.647	87.69
234.881	71.69
235.115	95.69
235.349	86.69
235.583	87.69
235.817	91.69
236.051	94.69
236.285	89.69
236.519	98.69
236.753	87.69
236.987	86.69
237.221	87.69
237.455	92.69
237.689	86.69
237.922	95.69
238.156	87.69
238.39	85.69
238.624	84.69
238.858	95.69
239.091	90.69
239.325	90.69
239.559	75.69
239.793	70.69
240.027	75.69
240.26	80.69
240.494	100.69
240.728	97.69
240.961	83.69
241.195	77.69
241.429	73.69
241.662	73.69
241.896	79.69
242.13	81.69
242.363	77.69
242.597	86.69
242.83	92.69
243.064	89.69
243.298	95.69
243.531	101.69
243.765	88.69
243.998	102.69
244.232	87.69
244.465	94.69
244.699	94.69
244.932	91.69
245.166	81.69
245.399	77.69
245.633	98.69
245.866	78.69
246.099	97.69
246.333	84.69
246.566	82.69
246.8	85.69
247.033	97.69
247.266	77.69
247.5	89.69
247.733	82.69
247.966	89.69
248.2	90.69
248.433	96.69
248.666	73.69
248.899	93.69
249.133	94.69
249.366	99.69
249.599	97.69
249.832	95.69
250.066	91.69
250.299	94.69
250.532	98.69
250.765	94.69
250.998	104.69
251.231	95.69
251.465	104.69
251.698	77.69
251.931	95.69
252.164	107.69
252.397	96.69
252.63	89.69
252.863	80.69
253.096	85.69
253.329	95.69
253.562	71.69
253.795	100.69
254.028	105.69
254.261	103.69
254.494	93.69
254.727	117.69
254.96	100.69
255.193	107.69
255.426	97.69
255.659	87.69
255.892	95.69
256.124	101.69
256.357	91.69
256.59	101.69
256.823	94.69
257.056	103.69
257.289	92.69
257.521	91.69
257.754	85.69
257.987	94.69
258.22	102.69
258.452	80.69
258.685	87.69
258.918	88.69
259.151	107.69
259.383	89.69
259.616	83.69
259.849	100.69
260.081	93.69
260.314	113.69
260.547	90.69
260.779	86.69
261.012	84.69
261.244	93.69
261.477	104.69
261.71	100.69
261.942	108.69
262.175	105.69
262.407	92.69
262.64	96.69
262.872	87.69
263.105	92.69
263.337	96.69
263.57	103.69
263.802	104.69
264.035	97.69
264.267	88.69
264.499	94.69
264.732	86.69
264.964	96.69
265.197	87.69
265.429	92.69
265.661	92.69
265.894	81.69
266.126	110.69
266.358	92.69
266.591	84.69
266.823	101.69
267.055	87.69
267.287	101.69
267.52	93.69
267.752	88.69
267.984	119.69
268.216	93.69
268.448	90.69
268.681	106.69
268.913	95.69
269.145	88.69
269.377	102.69
269.609	100.69
269.841	97.69
270.073	93.69
270.306	103.69
270.538	93.69
270.77	83.69
271.002	102.69
271.234	86.69
271.466	104.69
271.698	95.69
271.93	105.69
272.162	97.69
272.394	91.69
272.626	105.69
272.858	113.69
273.09	104.69
273.322	102.69
273.553	104.69
273.785	110.69
274.017	104.69
274.249	98.69
274.481	99.69
274.713	107.69
274.945	102.69
275.176	81.69
275.408	98.69
275.64	81.69
275.872	79.69
276.104	113.69
276.335	94.69
276.567	84.69
276.799	85.69
277.031	107.69
277.262	109.69
277.494	90.69
277.726	101.69
277.957	100.69
278.189	101.69
278.421	93.69
278.652	98.69
278.884	96.69
279.115	102.69
279.347	80.69
279.579	89.69
279.81	96.69
280.042	108.69
280.273	101.69
280.505	105.69
280.736	99.69
280.968	103.69
281.199	99.69
281.431	106.69
281.662	85.69
281.894	90.69
282.125	82.69
282.356	111.69
282.588	99.69
282.819	112.69
283.051	117.69
283.282	101.69
283.513	101.69
283.745	98.69
283.976	109.69
284.207	107.69
284.439	102.69
284.67	116.69
284.901	92.69
285.132	108.69
285.364	106.69
285.595	96.69
285.826	100.69
286.057	119.69
286.288	96.69
286.52	99.69
286.751	97.69
286.982	112.69
287.213	100.69
287.444	108.69
287.675	106.69
287.906	103.69
288.138	104.69
288.369	116.69
288.6	117.69
288.831	105.69
289.062	97.69
289.293	103.69
289.524	112.69
289.755	107.69
289.986	107.69
290.217	95.69
290.448	101.69
290.679	104.69
290.91	120.69
291.141	106.69
291.371	108.69
291.602	108.69
291.833	83.69
292.064	111.69
292.295	85.69
292.526	113.69
292.757	103.69
292.987	93.69
293.218	103.69
293.449	101.69
293.68	104.69
293.91	118.69
294.141	101.69
294.372	105.69
294.603	97.69
294.833	120.69
295.064	104.69
295.295	97.69
295.525	100.69
295.756	109.69
295.987	111.69
296.217	119.69
296.448	121.69
296.679	109.69
296.909	101.69
297.14	110.69
297.37	121.69
297.601	109.69
297.831	91.69
298.062	107.69
298.292	108.69
298.523	109.69
298.753	104.69
298.984	108.69
299.214	113.69
299.445	115.69
299.675	103.69
299.905	108.69
300.136	97.69
300.366	107.69
300.597	106.69
300.827	101.69
301.057	112.69
301.288	104.69
301.518	118.69
301.748	105.69
301.979	115.69
302.209	95.69
302.439	103.69
302.669	107.69
302.9	120.69
303.13	103.69
303.36	100.69
303.59	101.69
303.82	117.69
304.051	117.69
304.281	116.69
304.511	109.69
304.741	105.69
304.971	109.69
305.201	110.69
305.431	102.69
305.661	118.69
305.891	121.69
306.121	112.69
306.352	115.69
306.582	113.69
306.812	106.69
307.042	105.69
307.272	102.69
307.502	110.69
307.731	109.69
307.961	103.69
308.191	104.69
308.421	124.69
308.651	107.69
308.881	115.69
309.111	107.69
309.341	95.69
309.571	99.69
309.8	101.69
310.03	107.69
310.26	113.69
310.49	123.69
310.72	115.69
310.949	114.69
311.179	124.69
311.409	111.69
311.639	103.69
311.868	112.69
312.098	106.69
312.328	116.69
312.557	108.69
312.787	109.69
313.017	131.69
313.246	112.69
313.476	105.69
313.706	112.69
313.935	115.69
314.165	117.69
314.394	125.69
314.624	106.69
314.853	104.69
315.083	110.69
315.312	120.69
315.542	102.69
315.771	98.69
316.001	102.69
316.23	105.69
316.46	120.69
316.689	111.69
316.919	109.69
317.148	107.69
317.377	107.69
317.607	101.69
317.836	110.69
318.065	104.69
318.295	109.69
318.524	115.69
318.753	111.69
318.983	108.69
319.212	94.69
319.441	107.69
319.67	117.69
319.9	101.69
320.129	102.69
320.358	102.69
320.587	116.69
320.816	112.69
321.046	109.69
321.275	119.69
321.504	114.69
321.733	111.69
321.962	95.69
322.191	102.69
322.42	102.69
322.649	110.69
322.878	118.69
323.108	92.69
323.337	132.69
323.566	128.69
323.795	120.69
324.024	123.69
324.253	125.69
324.482	139.69
324.71	153.69
324.939	181.69
325.168	161.69
325.397	143.69
325.626	116.69
325.855	131.69
326.084	116.69
326.313	118.69
326.542	120.69
326.77	119.69
326.999	137.69
327.228	141.69
327.457	169.69
327.686	165.69
327.914	142.69
328.143	118.69
328.372	125.69
328.6	109.69
328.829	123.69
329.058	121.69
329.287	114.69
329.515	129.69
329.744	124.69
329.972	121.69
330.201	124.69
330.43	121.69
330.658	120.69
330.887	126.69
331.115	128.69
331.344	119.69
331.572	123.69
331.801	106.69
332.03	111.69
332.258	116.69
332.486	122.69
332.715	117.69
332.943	109.69
333.172	136.69
333.4	132.69
333.629	108.69
333.857	111.69
334.085	118.69
334.314	128.69
334.542	134.69
334.771	121.69
334.999	121.69
335.227	117.69
335.455	124.69
335.684	130.69
335.912	126.69
336.14	124.69
336.369	115.69
336.597	109.69
336.825	122.69
337.053	119.69
337.281	120.69
337.51	120.69
337.738	113.69
337.966	121.69
338.194	116.69
338.422	114.69
338.65	111.69
338.878	110.69
339.106	111.69
339.334	106.69
339.562	111.69
339.79	112.69
340.018	117.69
340.246	115.69
340.474	131.69
340.702	89.69
340.93	122.69
341.158	113.69
341.386	101.69
341.614	112.69
341.842	97.69
342.07	125.69
342.298	128.69
342.526	119.69
342.754	115.69
342.981	103.69
343.209	116.69
343.437	115.69
343.665	121.69
343.893	117.69
344.12	127.69
344.348	111.69
344.576	109.69
344.804	113.69
345.031	129.69
345.259	125.69
345.487	109.69
345.714	98.69
345.942	108.69
346.17	112.69
346.397	104.69
346.625	117.69
346.853	106.69
347.08	115.69
347.308	115.69
347.535	110.69
347.763	117.69
347.99	111.69
348.218	120.69
348.445	127.69
348.673	117.69
348.9	118.69
349.128	120.69
349.355	112.69
349.583	99.69
349.81	111.69
350.037	96.69
350.265	107.69
350.492	95.69
350.72	104.69
350.947	113.69
351.174	109.69
351.402	112.69
351.629	108.69
351.856	107.69
352.083	106.69
352.311	111.69
352.538	111.69
352.765	122.69
352.992	101.69
353.22	108.69
353.447	111.69
353.674	118.69
353.901	127.69
354.128	115.69
354.355	117.69
354.583	117.69
354.81	115.69
355.037	110.69
355.264	124.69
355.491	124.69
355.718	117.69
355.945	109.69
356.172	113.69
356.399	106.69
356.626	107.69
356.853	117.69
357.08	114.69
357.307	100.69
357.534	116.69
357.761	109.69
357.988	125.69
358.215	126.69
358.441	110.69
358.668	108.69
358.895	107.69
359.122	100.69
359.349	110.69
359.576	118.69
359.802	120.69
360.029	123.69
360.256	101.69
360.483	118.69
360.709	111.69
360.936	125.69
361.163	109.69
361.39	118.69
361.616	120.69
361.843	115.69
362.07	110.69
362.296	120.69
362.523	115.69
362.749	107.69
362.976	120.69
363.203	119.69
363.429	104.69
363.656	109.69
363.882	103.69
364.109	115.69
364.335	115.69
364.562	113.69
364.788	110.69
365.015	115.69
365.241	113.69
365.468	119.69
365.694	106.69
365.92	126.69
366.147	123.69
366.373	122.69
366.599	118.69
366.826	117.69
367.052	123.69
367.278	119.69
367.505	113.69
367.731	107.69
367.957	107.69
368.184	119.69
368.41	123.69
368.636	108.69
368.862	121.69
369.089	112.69
369.315	116.69
369.541	110.69
369.767	108.69
369.993	123.69
370.219	120.69
370.445	111.69
370.672	104.69
370.898	120.69
371.124	108.69
371.35	115.69
371.576	110.69
371.802	123.69
372.028	124.69
372.254	121.69
372.48	109.69
372.706	101.69
372.932	117.69
373.158	116.69
373.384	127.69
373.61	119.69
373.835	100.69
374.061	119.69
374.287	105.69
374.513	122.69
374.739	123.69
374.965	110.69
375.191	112.69
375.416	124.69
375.642	118.69
375.868	105.69
376.094	120.69
376.319	101.69
376.545	124.69
376.771	103.69
376.997	127.69
377.222	114.69
377.448	125.69
377.674	105.69
377.899	107.69
378.125	115.69
378.35	125.69
378.576	126.69
378.802	113.69
379.027	110.69
379.253	102.69
379.478	109.69
379.704	109.69
379.929	119.69
380.155	121.69
380.38	131.69
380.606	114.69
380.831	126.69
381.057	121.69
381.282	124.69
381.507	115.69
381.733	127.69
381.958	113.69
382.184	114.69
382.409	123.69
382.634	125.69
382.86	110.69
383.085	119.69
383.31	121.69
383.535	112.69
383.761	116.69
383.986	122.69
384.211	123.69
384.436	105.69
384.662	109.69
384.887	123.69
385.112	121.69
385.337	114.69
385.562	123.69
385.787	125.69
386.013	124.69
386.238	134.69
386.463	127.69
386.688	123.69
386.913	125.69
387.138	122.69
387.363	121.69
387.588	116.69
387.813	116.69
388.038	119.69
388.263	122.69
388.488	110.69
388.713	105.69
388.938	119.69
389.163	125.69
389.387	132.69
389.612	124.69
389.837	104.69
390.062	127.69
390.287	115.69
390.512	116.69
390.736	122.69
390.961	126.69
391.186	101.69
391.411	131.69
391.636	118.69
391.86	124.69
392.085	128.69
392.31	108.69
392.534	121.69
392.759	126.69
392.984	131.69
393.208	133.69
393.433	126.69
393.658	133.69
393.882	128.69
394.107	122.69
394.331	119.69
394.556	122.69
394.78	117.69
395.005	116.69
395.229	132.69
395.454	130.69
395.678	136.69
395.903	138.69
396.127	127.69
396.352	126.69
396.576	131.69
396.801	134.69
397.025	129.69
397.249	118.69
397.474	124.69
397.698	125.69
397.922	128.69
398.147	127.69
398.371	112.69
398.595	135.69
398.82	125.69
399.044	123.69
399.268	129.69
399.492	152.69
399.717	162.69
399.941	152.69
400.165	137.69
400.389	137.69
400.613	127.69
400.837	129.69
401.062	127.69
401.286	115.69
401.51	133.69
401.734	140.69
401.958	135.69
402.182	131.69
402.406	141.69
402.63	136.69
402.854	136.69
403.078	134.69
403.302	129.69
403.526	139.69
403.75	148.69
403.974	119.69
404.198	139.69
404.422	148.69
404.645	142.69
404.869	132.69
405.093	132.69
405.317	143.69
405.541	146.69
405.765	121.69
405.988	130.69
406.212	140.69
406.436	141.69
406.66	163.69
406.883	135.69
407.107	123.69
407.331	144.69
407.555	144.69
407.778	142.69
408.002	137.69
408.226	146.69
408.449	146.69
408.673	144.69
408.896	137.69
409.12	131.69
409.344	143.69
409.567	125.69
409.791	126.69
410.014	145.69
410.238	139.69
410.461	130.69
410.685	134.69
410.908	123.69
411.132	145.69
411.355	139.69
411.578	144.69
411.802	132.69
412.025	131.69
412.249	125.69
412.472	135.69
412.695	135.69
412.919	158.69
413.142	135.69
413.365	139.69
413.589	142.69
413.812	140.69
414.035	152.69
414.258	122.69
414.482	138.69
414.705	116.69
414.928	128.69
415.151	127.69
415.374	131.69
415.597	128.69
415.821	141.69
416.044	139.69
416.267	126.69
416.49	127.69
416.713	128.69
416.936	131.69
417.159	125.69
417.382	132.69
417.605	136.69
417.828	129.69
418.051	134.69
418.274	127.69
418.497	121.69
418.72	127.69
418.943	136.69
419.166	138.69
419.389	144.69
419.611	133.69
419.834	138.69
420.057	128.69
420.28	138.69
420.503	128.69
420.726	129.69
420.948	127.69
421.171	140.69
421.394	152.69
421.617	129.69
421.839	154.69
422.062	129.69
422.285	131.69
422.507	134.69
422.73	131.69
422.953	141.69
423.175	136.69
423.398	130.69
423.621	119.69
423.843	140.69
424.066	137.69
424.288	139.69
424.511	142.69
424.733	132.69
424.956	141.69
425.178	135.69
425.401	131.69
425.623	139.69
425.846	140.69
426.068	137.69
426.291	136.69
426.513	133.69
426.735	141.69
426.958	127.69
427.18	145.69
427.402	158.69
427.625	145.69
427.847	137.69
428.069	140.69
428.292	122.69
428.514	124.69
428.736	121.69
428.958	132.69
429.181	136.69
429.403	125.69
429.625	116.69
429.847	121.69
430.069	131.69
430.292	140.69
430.514	135.69
430.736	127.69
430.958	128.69
431.18	129.69
431.402	149.69
431.624	134.69
431.846	127.69
432.068	129.69
432.29	125.69
432.512	122.69
432.734	131.69
432.956	131.69
433.178	135.69
433.4	135.69
433.622	118.69
433.844	133.69
434.066	116.69
434.287	137.69
434.509	124.69
434.731	133.69
434.953	114.69
435.175	127.69
435.397	131.69
435.618	152.69
435.84	131.69
436.062	139.69
436.284	150.69
436.505	142.69
436.727	123.69
436.949	130.69
437.17	128.69
437.392	139.69
437.614	127.69
437.835	150.69
438.057	140.69
438.278	133.69
438.5	129.69
438.721	147.69
438.943	150.69
439.165	124.69
439.386	135.69
439.608	127.69
439.829	119.69
440.05	128.69
440.272	141.69
440.493	136.69
440.715	136.69
440.936	121.69
441.158	131.69
441.379	128.69
441.6	143.69
441.822	154.69
442.043	131.69
442.264	131.69
442.486	139.69
442.707	143.69
442.928	144.69
443.149	146.69
443.371	130.69
443.592	153.69
443.813	146.69
444.034	151.69
444.255	159.69
444.476	149.69
444.698	145.69
444.919	137.69
445.14	268.69
445.361	193.69
445.582	135.69
445.803	150.69
446.024	143.69
446.245	148.69
446.466	151.69
446.687	137.69
446.908	130.69
447.129	139.69
447.35	131.69
447.571	121.69
447.792	128.69
448.013	127.69
448.234	130.69
448.455	126.69
448.675	147.69
448.896	156.69
449.117	154.69
449.338	131.69
449.559	143.69
449.779	131.69
450	131.69
450.221	141.69
450.442	125.69
450.662	117.69
450.883	128.69
451.104	129.69
451.324	127.69
451.545	119.69
451.766	125.69
451.986	128.69
452.207	124.69
452.428	117.69
452.648	118.69
452.869	120.69
453.089	131.69
453.31	128.69
453.53	121.69
453.751	129.69
453.971	120.69
454.192	117.69
454.412	110.69
454.633	115.69
454.853	128.69
455.073	124.69
455.294	128.69
455.514	128.69
455.734	119.69
455.955	121.69
456.175	119.69
456.395	123.69
456.616	117.69
456.836	122.69
457.056	120.69
457.276	124.69
457.497	116.69
457.717	117.69
457.937	116.69
458.157	106.69
458.377	127.69
458.598	133.69
458.818	133.69
459.038	132.69
459.258	116.69
459.478	136.69
459.698	130.69
459.918	145.69
460.138	137.69
460.358	137.69
460.578	143.69
460.798	128.69
461.018	121.69
461.238	128.69
461.458	149.69
461.678	131.69
461.898	127.69
462.118	142.69
462.338	134.69
462.558	145.69
462.777	123.69
462.997	130.69
463.217	145.69
463.437	137.69
463.657	145.69
463.876	153.69
464.096	143.69
464.316	140.69
464.536	138.69
464.755	155.69
464.975	117.69
465.195	135.69
465.414	141.69
465.634	139.69
465.854	144.69
466.073	135.69
466.293	124.69
466.512	128.69
466.732	132.69
466.951	127.69
467.171	141.69
467.391	130.69
467.61	127.69
467.829	143.69
468.049	122.69
468.268	126.69
468.488	125.69
468.707	126.69
468.927	109.69
469.146	129.69
469.365	129.69
469.585	132.69
469.804	141.69
470.023	115.69
470.243	139.69
470.462	145.69
470.681	131.69
470.901	128.69
471.12	115.69
471.339	144.69
471.558	130.69
471.777	143.69
471.997	135.69
472.216	129.69
472.435	131.69
472.654	104.69
472.873	122.69
473.092	119.69
473.311	122.69
473.53	113.69
473.749	126.69
473.968	133.69
474.187	136.69
474.406	137.69
474.625	124.69
474.844	125.69
475.063	113.69
475.282	113.69
475.501	137.69
475.72	145.69
475.939	120.69
476.158	124.69
476.377	124.69
476.596	140.69
476.814	141.69
477.033	137.69
477.252	133.69
477.471	131.69
477.69	132.69
477.908	129.69
478.127	135.69
478.346	130.69
478.564	136.69
478.783	135.69
479.002	141.69
479.22	127.69
479.439	141.69
479.658	143.69
479.876	126.69
480.095	133.69
480.313	145.69
480.532	133.69
480.751	149.69
480.969	137.69
481.188	148.69
481.406	135.69
481.624	125.69
481.843	140.69
482.061	142.69
482.28	143.69
482.498	149.69
482.717	127.69
482.935	135.69
483.153	150.69
483.372	136.69
483.59	131.69
483.808	133.69
484.027	122.69
484.245	126.69
484.463	122.69
484.681	138.69
484.9	136.69
485.118	132.69
485.336	133.69
485.554	135.69
485.772	129.69
485.99	143.69
486.209	141.69
486.427	128.69
486.645	125.69
486.863	143.69
487.081	150.69
487.299	150.69
487.517	158.69
487.735	131.69
487.953	133.69
488.171	135.69
488.389	129.69
488.607	133.69
488.825	126.69
489.043	144.69
489.261	138.69
489.479	158.69
489.696	141.69
489.914	129.69
490.132	134.69
490.35	153.69
490.568	139.69
490.786	136.69
491.003	141.69
491.221	136.69
491.439	143.69
491.657	141.69
491.874	151.69
492.092	149.69
492.31	153.69
492.527	156.69
492.745	151.69
492.963	135.69
493.18	158.69
493.398	145.69
493.615	155.69
493.833	143.69
494.05	149.69
494.268	143.69
494.485	147.69
494.703	140.69
494.92	153.69
495.138	139.69
495.355	152.69
495.573	139.69
495.79	131.69
496.008	143.69
496.225	135.69
496.442	144.69
496.66	143.69
496.877	160.69
497.094	151.69
497.312	146.69
497.529	163.69
497.746	145.69
497.963	155.69
498.181	149.69
498.398	168.69
498.615	157.69
498.832	162.69
499.049	167.69
499.267	188.69
499.484	163.69
499.701	188.69
499.918	199.69
500.135	195.69
500.352	228.69
500.569	238.69
500.786	231.69
501.003	224.69
501.22	185.69
501.437	203.69
501.654	191.69
501.871	164.69
502.088	160.69
502.305	173.69
502.522	166.69
502.739	161.69
502.956	152.69
503.172	150.69
503.389	139.69
503.606	144.69
503.823	136.69
504.04	153.69
504.256	157.69
504.473	141.69
504.69	145.69
