Data from 1968.PennyLincolnUp.Lamp.En5.5.200Scan.071719.P1._HRD10591_14-49-36-969.txt Node
Date: Thu Jul 18 14:49:36 EDT 2019
User: cochatt
Spectrometer: HR+D1059
Trigger mode: 1
Integration Time (sec): 1.000000E-1
Scans to average: 1
Electric dark correction enabled: true
Nonlinearity correction enabled: false
Boxcar width: 0
XAxis mode: Wavelengths
Number of Pixels in Spectrum: 2048
>>>>>Begin Spectral Data<<<<<
223.165	-10.25
223.4	-10.25
223.635	-10.25
223.869	-27.25
224.104	-21.25
224.338	-14.25
224.573	-5.25
224.808	-7.25
225.042	-12.25
225.277	-2.25
225.511	-7.25
225.746	-2.25
225.98	0.75
226.215	10.75
226.449	24.75
226.683	13.75
226.918	25.75
227.152	33.75
227.387	19.75
227.621	36.75
227.856	42.75
228.09	46.75
228.324	45.75
228.559	55.75
228.793	57.75
229.027	62.75
229.262	75.75
229.496	73.75
229.73	83.75
229.964	78.75
230.199	83.75
230.433	63.75
230.667	87.75
230.901	89.75
231.136	90.75
231.37	81.75
231.604	85.75
231.838	75.75
232.072	82.75
232.306	89.75
232.541	85.75
232.775	77.75
233.009	78.75
233.243	79.75
233.477	83.75
233.711	79.75
233.945	97.75
234.179	79.75
234.413	81.75
234.647	92.75
234.881	95.75
235.115	81.75
235.349	82.75
235.583	90.75
235.817	102.75
236.051	88.75
236.285	81.75
236.519	71.75
236.753	76.75
236.987	95.75
237.221	76.75
237.455	82.75
237.689	96.75
237.922	91.75
238.156	83.75
238.39	70.75
238.624	88.75
238.858	69.75
239.091	75.75
239.325	71.75
239.559	92.75
239.793	83.75
240.027	88.75
240.26	83.75
240.494	73.75
240.728	77.75
240.961	95.75
241.195	73.75
241.429	88.75
241.662	67.75
241.896	94.75
242.13	76.75
242.363	85.75
242.597	80.75
242.83	92.75
243.064	74.75
243.298	79.75
243.531	86.75
243.765	75.75
243.998	78.75
244.232	95.75
244.465	88.75
244.699	88.75
244.932	101.75
245.166	91.75
245.399	90.75
245.633	77.75
245.866	76.75
246.099	79.75
246.333	89.75
246.566	81.75
246.8	82.75
247.033	84.75
247.266	73.75
247.5	91.75
247.733	73.75
247.966	78.75
248.2	79.75
248.433	82.75
248.666	85.75
248.899	90.75
249.133	92.75
249.366	90.75
249.599	89.75
249.832	80.75
250.066	85.75
250.299	93.75
250.532	91.75
250.765	98.75
250.998	94.75
251.231	91.75
251.465	90.75
251.698	94.75
251.931	72.75
252.164	90.75
252.397	86.75
252.63	82.75
252.863	74.75
253.096	86.75
253.329	86.75
253.562	79.75
253.795	81.75
254.028	80.75
254.261	77.75
254.494	83.75
254.727	85.75
254.96	93.75
255.193	93.75
255.426	94.75
255.659	86.75
255.892	85.75
256.124	89.75
256.357	93.75
256.59	85.75
256.823	98.75
257.056	86.75
257.289	92.75
257.521	91.75
257.754	92.75
257.987	86.75
258.22	86.75
258.452	84.75
258.685	84.75
258.918	76.75
259.151	83.75
259.383	94.75
259.616	93.75
259.849	91.75
260.081	92.75
260.314	93.75
260.547	89.75
260.779	89.75
261.012	86.75
261.244	87.75
261.477	88.75
261.71	97.75
261.942	92.75
262.175	90.75
262.407	93.75
262.64	90.75
262.872	94.75
263.105	91.75
263.337	91.75
263.57	100.75
263.802	83.75
264.035	92.75
264.267	90.75
264.499	81.75
264.732	97.75
264.964	101.75
265.197	90.75
265.429	100.75
265.661	100.75
265.894	86.75
266.126	103.75
266.358	107.75
266.591	94.75
266.823	105.75
267.055	103.75
267.287	107.75
267.52	94.75
267.752	90.75
267.984	91.75
268.216	96.75
268.448	88.75
268.681	85.75
268.913	89.75
269.145	91.75
269.377	85.75
269.609	103.75
269.841	105.75
270.073	94.75
270.306	96.75
270.538	104.75
270.77	90.75
271.002	102.75
271.234	82.75
271.466	95.75
271.698	92.75
271.93	97.75
272.162	97.75
272.394	100.75
272.626	97.75
272.858	97.75
273.09	86.75
273.322	106.75
273.553	79.75
273.785	96.75
274.017	93.75
274.249	100.75
274.481	79.75
274.713	93.75
274.945	93.75
275.176	89.75
275.408	87.75
275.64	83.75
275.872	108.75
276.104	89.75
276.335	101.75
276.567	101.75
276.799	106.75
277.031	107.75
277.262	103.75
277.494	95.75
277.726	99.75
277.957	102.75
278.189	97.75
278.421	90.75
278.652	94.75
278.884	93.75
279.115	103.75
279.347	102.75
279.579	92.75
279.81	94.75
280.042	104.75
280.273	87.75
280.505	103.75
280.736	104.75
280.968	106.75
281.199	80.75
281.431	104.75
281.662	107.75
281.894	92.75
282.125	89.75
282.356	106.75
282.588	97.75
282.819	93.75
283.051	90.75
283.282	99.75
283.513	88.75
283.745	107.75
283.976	95.75
284.207	93.75
284.439	94.75
284.67	94.75
284.901	89.75
285.132	89.75
285.364	118.75
285.595	102.75
285.826	87.75
286.057	100.75
286.288	94.75
286.52	102.75
286.751	97.75
286.982	107.75
287.213	102.75
287.444	95.75
287.675	91.75
287.906	114.75
288.138	107.75
288.369	97.75
288.6	105.75
288.831	100.75
289.062	85.75
289.293	101.75
289.524	102.75
289.755	96.75
289.986	105.75
290.217	91.75
290.448	108.75
290.679	102.75
290.91	119.75
291.141	101.75
291.371	99.75
291.602	108.75
291.833	88.75
292.064	101.75
292.295	94.75
292.526	100.75
292.757	105.75
292.987	95.75
293.218	108.75
293.449	108.75
293.68	108.75
293.91	102.75
294.141	108.75
294.372	88.75
294.603	101.75
294.833	103.75
295.064	105.75
295.295	99.75
295.525	110.75
295.756	106.75
295.987	104.75
296.217	103.75
296.448	107.75
296.679	107.75
296.909	97.75
297.14	114.75
297.37	101.75
297.601	108.75
297.831	100.75
298.062	90.75
298.292	82.75
298.523	97.75
298.753	95.75
298.984	106.75
299.214	122.75
299.445	111.75
299.675	105.75
299.905	108.75
300.136	111.75
300.366	93.75
300.597	101.75
300.827	116.75
301.057	102.75
301.288	106.75
301.518	95.75
301.748	108.75
301.979	110.75
302.209	103.75
302.439	104.75
302.669	106.75
302.9	101.75
303.13	100.75
303.36	101.75
303.59	101.75
303.82	91.75
304.051	118.75
304.281	110.75
304.511	131.75
304.741	100.75
304.971	99.75
305.201	117.75
305.431	97.75
305.661	101.75
305.891	93.75
306.121	102.75
306.352	110.75
306.582	107.75
306.812	103.75
307.042	116.75
307.272	107.75
307.502	107.75
307.731	109.75
307.961	111.75
308.191	104.75
308.421	109.75
308.651	104.75
308.881	101.75
309.111	108.75
309.341	105.75
309.571	108.75
309.8	97.75
310.03	94.75
310.26	103.75
310.49	105.75
310.72	100.75
310.949	117.75
311.179	106.75
311.409	91.75
311.639	97.75
311.868	107.75
312.098	119.75
312.328	109.75
312.557	109.75
312.787	101.75
313.017	116.75
313.246	115.75
313.476	106.75
313.706	104.75
313.935	111.75
314.165	108.75
314.394	109.75
314.624	110.75
314.853	118.75
315.083	96.75
315.312	117.75
315.542	106.75
315.771	108.75
316.001	104.75
316.23	103.75
316.46	118.75
316.689	116.75
316.919	113.75
317.148	114.75
317.377	113.75
317.607	115.75
317.836	113.75
318.065	98.75
318.295	104.75
318.524	87.75
318.753	108.75
318.983	114.75
319.212	102.75
319.441	104.75
319.67	106.75
319.9	105.75
320.129	111.75
320.358	108.75
320.587	101.75
320.816	106.75
321.046	102.75
321.275	92.75
321.504	91.75
321.733	122.75
321.962	101.75
322.191	107.75
322.42	122.75
322.649	117.75
322.878	108.75
323.108	113.75
323.337	96.75
323.566	120.75
323.795	108.75
324.024	120.75
324.253	123.75
324.482	117.75
324.71	139.75
324.939	156.75
325.168	141.75
325.397	118.75
325.626	111.75
325.855	107.75
326.084	103.75
326.313	109.75
326.542	116.75
326.77	112.75
326.999	125.75
327.228	116.75
327.457	142.75
327.686	152.75
327.914	133.75
328.143	113.75
328.372	117.75
328.6	107.75
328.829	117.75
329.058	109.75
329.287	116.75
329.515	113.75
329.744	102.75
329.972	118.75
330.201	104.75
330.43	102.75
330.658	122.75
330.887	110.75
331.115	117.75
331.344	126.75
331.572	125.75
331.801	114.75
332.03	108.75
332.258	115.75
332.486	109.75
332.715	115.75
332.943	117.75
333.172	124.75
333.4	123.75
333.629	121.75
333.857	125.75
334.085	129.75
334.314	116.75
334.542	126.75
334.771	119.75
334.999	109.75
335.227	120.75
335.455	107.75
335.684	107.75
335.912	129.75
336.14	114.75
336.369	113.75
336.597	108.75
336.825	123.75
337.053	114.75
337.281	125.75
337.51	126.75
337.738	110.75
337.966	112.75
338.194	126.75
338.422	117.75
338.65	103.75
338.878	121.75
339.106	130.75
339.334	125.75
339.562	115.75
339.79	116.75
340.018	119.75
340.246	107.75
340.474	101.75
340.702	104.75
340.93	117.75
341.158	121.75
341.386	114.75
341.614	104.75
341.842	106.75
342.07	114.75
342.298	103.75
342.526	98.75
342.754	113.75
342.981	109.75
343.209	104.75
343.437	114.75
343.665	104.75
343.893	108.75
344.12	115.75
344.348	128.75
344.576	126.75
344.804	121.75
345.031	93.75
345.259	105.75
345.487	109.75
345.714	101.75
345.942	121.75
346.17	111.75
346.397	111.75
346.625	108.75
346.853	100.75
347.08	108.75
347.308	108.75
347.535	124.75
347.763	112.75
347.99	115.75
348.218	99.75
348.445	102.75
348.673	107.75
348.9	113.75
349.128	117.75
349.355	98.75
349.583	120.75
349.81	113.75
350.037	107.75
350.265	107.75
350.492	102.75
350.72	104.75
350.947	117.75
351.174	107.75
351.402	117.75
351.629	121.75
351.856	100.75
352.083	110.75
352.311	99.75
352.538	109.75
352.765	101.75
352.992	107.75
353.22	115.75
353.447	125.75
353.674	94.75
353.901	124.75
354.128	117.75
354.355	95.75
354.583	99.75
354.81	100.75
355.037	113.75
355.264	114.75
355.491	106.75
355.718	100.75
355.945	117.75
356.172	116.75
356.399	104.75
356.626	123.75
356.853	97.75
357.08	104.75
357.307	115.75
357.534	118.75
357.761	103.75
357.988	104.75
358.215	110.75
358.441	107.75
358.668	108.75
358.895	118.75
359.122	109.75
359.349	107.75
359.576	102.75
359.802	102.75
360.029	127.75
360.256	112.75
360.483	124.75
360.709	110.75
360.936	104.75
361.163	116.75
361.39	96.75
361.616	118.75
361.843	107.75
362.07	110.75
362.296	132.75
362.523	99.75
362.749	116.75
362.976	95.75
363.203	119.75
363.429	111.75
363.656	105.75
363.882	99.75
364.109	123.75
364.335	88.75
364.562	114.75
364.788	111.75
365.015	115.75
365.241	108.75
365.468	117.75
365.694	110.75
365.92	111.75
366.147	107.75
366.373	118.75
366.599	113.75
366.826	102.75
367.052	110.75
367.278	115.75
367.505	117.75
367.731	108.75
367.957	107.75
368.184	105.75
368.41	101.75
368.636	118.75
368.862	110.75
369.089	125.75
369.315	117.75
369.541	109.75
369.767	94.75
369.993	120.75
370.219	117.75
370.445	108.75
370.672	112.75
370.898	101.75
371.124	127.75
371.35	115.75
371.576	101.75
371.802	120.75
372.028	104.75
372.254	112.75
372.48	107.75
372.706	103.75
372.932	104.75
373.158	107.75
373.384	110.75
373.61	111.75
373.835	106.75
374.061	124.75
374.287	122.75
374.513	106.75
374.739	111.75
374.965	106.75
375.191	114.75
375.416	121.75
375.642	109.75
375.868	107.75
376.094	108.75
376.319	117.75
376.545	123.75
376.771	108.75
376.997	115.75
377.222	110.75
377.448	97.75
377.674	120.75
377.899	101.75
378.125	123.75
378.35	117.75
378.576	98.75
378.802	108.75
379.027	121.75
379.253	108.75
379.478	111.75
379.704	108.75
379.929	120.75
380.155	108.75
380.38	112.75
380.606	103.75
380.831	110.75
381.057	108.75
381.282	112.75
381.507	110.75
381.733	106.75
381.958	102.75
382.184	92.75
382.409	112.75
382.634	126.75
382.86	119.75
383.085	116.75
383.31	119.75
383.535	124.75
383.761	129.75
383.986	119.75
384.211	122.75
384.436	120.75
384.662	122.75
384.887	126.75
385.112	115.75
385.337	107.75
385.562	121.75
385.787	117.75
386.013	130.75
386.238	127.75
386.463	124.75
386.688	124.75
386.913	105.75
387.138	111.75
387.363	125.75
387.588	125.75
387.813	123.75
388.038	112.75
388.263	125.75
388.488	107.75
388.713	103.75
388.938	120.75
389.163	98.75
389.387	110.75
389.612	110.75
389.837	104.75
390.062	130.75
390.287	119.75
390.512	121.75
390.736	120.75
390.961	125.75
391.186	112.75
391.411	114.75
391.636	124.75
391.86	117.75
392.085	107.75
392.31	117.75
392.534	123.75
392.759	142.75
392.984	109.75
393.208	133.75
393.433	123.75
393.658	120.75
393.882	122.75
394.107	109.75
394.331	124.75
394.556	116.75
394.78	121.75
395.005	117.75
395.229	115.75
395.454	119.75
395.678	120.75
395.903	132.75
396.127	115.75
396.352	120.75
396.576	123.75
396.801	133.75
397.025	117.75
397.249	129.75
397.474	136.75
397.698	131.75
397.922	124.75
398.147	129.75
398.371	116.75
398.595	135.75
398.82	132.75
399.044	124.75
399.268	140.75
399.492	127.75
399.717	139.75
399.941	153.75
400.165	147.75
400.389	131.75
400.613	143.75
400.837	135.75
401.062	139.75
401.286	128.75
401.51	129.75
401.734	124.75
401.958	127.75
402.182	123.75
402.406	124.75
402.63	137.75
402.854	129.75
403.078	131.75
403.302	134.75
403.526	145.75
403.75	135.75
403.974	133.75
404.198	138.75
404.422	140.75
404.645	142.75
404.869	138.75
405.093	139.75
405.317	141.75
405.541	137.75
405.765	127.75
405.988	125.75
406.212	129.75
406.436	120.75
406.66	124.75
406.883	126.75
407.107	131.75
407.331	149.75
407.555	151.75
407.778	142.75
408.002	141.75
408.226	133.75
408.449	126.75
408.673	139.75
408.896	121.75
409.12	139.75
409.344	135.75
409.567	124.75
409.791	131.75
410.014	138.75
410.238	129.75
410.461	135.75
410.685	134.75
410.908	136.75
411.132	153.75
411.355	137.75
411.578	143.75
411.802	130.75
412.025	138.75
412.249	128.75
412.472	126.75
412.695	136.75
412.919	125.75
413.142	124.75
413.365	129.75
413.589	116.75
413.812	117.75
414.035	129.75
414.258	126.75
414.482	134.75
414.705	131.75
414.928	122.75
415.151	125.75
415.374	122.75
415.597	121.75
415.821	139.75
416.044	121.75
416.267	147.75
416.49	134.75
416.713	121.75
416.936	125.75
417.159	118.75
417.382	112.75
417.605	116.75
417.828	139.75
418.051	126.75
418.274	140.75
418.497	114.75
418.72	127.75
418.943	129.75
419.166	131.75
419.389	132.75
419.611	127.75
419.834	132.75
420.057	139.75
420.28	141.75
420.503	133.75
420.726	124.75
420.948	114.75
421.171	127.75
421.394	142.75
421.617	132.75
421.839	126.75
422.062	143.75
422.285	125.75
422.507	147.75
422.73	138.75
422.953	138.75
423.175	131.75
423.398	129.75
423.621	143.75
423.843	123.75
424.066	129.75
424.288	133.75
424.511	136.75
424.733	134.75
424.956	146.75
425.178	147.75
425.401	136.75
425.623	139.75
425.846	135.75
426.068	125.75
426.291	123.75
426.513	139.75
426.735	121.75
426.958	128.75
427.18	132.75
427.402	150.75
427.625	158.75
427.847	132.75
428.069	136.75
428.292	121.75
428.514	120.75
428.736	121.75
428.958	133.75
429.181	123.75
429.403	124.75
429.625	127.75
429.847	136.75
430.069	120.75
430.292	129.75
430.514	120.75
430.736	115.75
430.958	131.75
431.18	127.75
431.402	123.75
431.624	114.75
431.846	125.75
432.068	106.75
432.29	124.75
432.512	135.75
432.734	127.75
432.956	123.75
433.178	115.75
433.4	121.75
433.622	127.75
433.844	134.75
434.066	136.75
434.287	133.75
434.509	129.75
434.731	137.75
434.953	130.75
435.175	128.75
435.397	141.75
435.618	128.75
435.84	144.75
436.062	142.75
436.284	158.75
436.505	130.75
436.727	133.75
436.949	119.75
437.17	104.75
437.392	110.75
437.614	118.75
437.835	138.75
438.057	129.75
438.278	130.75
438.5	126.75
438.721	137.75
438.943	124.75
439.165	118.75
439.386	121.75
439.608	127.75
439.829	131.75
440.05	143.75
440.272	132.75
440.493	140.75
440.715	122.75
440.936	115.75
441.158	129.75
441.379	120.75
441.6	123.75
441.822	147.75
442.043	138.75
442.264	143.75
442.486	138.75
442.707	133.75
442.928	126.75
443.149	131.75
443.371	137.75
443.592	134.75
443.813	144.75
444.034	135.75
444.255	127.75
444.476	133.75
444.698	139.75
444.919	148.75
445.14	277.75
445.361	187.75
445.582	141.75
445.803	130.75
446.024	129.75
446.245	150.75
446.466	131.75
446.687	141.75
446.908	126.75
447.129	125.75
447.35	126.75
447.571	135.75
447.792	127.75
448.013	120.75
448.234	114.75
448.455	131.75
448.675	139.75
448.896	144.75
449.117	127.75
449.338	129.75
449.559	138.75
449.779	141.75
450	137.75
450.221	121.75
450.442	112.75
450.662	117.75
450.883	124.75
451.104	131.75
451.324	121.75
451.545	126.75
451.766	119.75
451.986	119.75
452.207	121.75
452.428	119.75
452.648	126.75
452.869	119.75
453.089	104.75
453.31	119.75
453.53	122.75
453.751	124.75
453.971	109.75
454.192	124.75
454.412	114.75
454.633	118.75
454.853	121.75
455.073	120.75
455.294	111.75
455.514	129.75
455.734	110.75
455.955	115.75
456.175	124.75
456.395	120.75
456.616	106.75
456.836	114.75
457.056	123.75
457.276	111.75
457.497	109.75
457.717	127.75
457.937	109.75
458.157	120.75
458.377	139.75
458.598	123.75
458.818	124.75
459.038	133.75
459.258	124.75
459.478	105.75
459.698	125.75
459.918	124.75
460.138	117.75
460.358	118.75
460.578	125.75
460.798	141.75
461.018	126.75
461.238	114.75
461.458	124.75
461.678	135.75
461.898	126.75
462.118	135.75
462.338	137.75
462.558	126.75
462.777	129.75
462.997	139.75
463.217	130.75
463.437	134.75
463.657	121.75
463.876	133.75
464.096	121.75
464.316	144.75
464.536	133.75
464.755	129.75
464.975	125.75
465.195	131.75
465.414	137.75
465.634	131.75
465.854	127.75
466.073	115.75
466.293	147.75
466.512	132.75
466.732	111.75
466.951	125.75
467.171	138.75
467.391	114.75
467.61	117.75
467.829	125.75
468.049	127.75
468.268	120.75
468.488	111.75
468.707	108.75
468.927	132.75
469.146	123.75
469.365	110.75
469.585	112.75
469.804	123.75
470.023	126.75
470.243	130.75
470.462	121.75
470.681	122.75
470.901	129.75
471.12	123.75
471.339	134.75
471.558	123.75
471.777	135.75
471.997	122.75
472.216	120.75
472.435	116.75
472.654	115.75
472.873	114.75
473.092	127.75
473.311	124.75
473.53	127.75
473.749	123.75
473.968	131.75
474.187	126.75
474.406	127.75
474.625	135.75
474.844	121.75
475.063	131.75
475.282	126.75
475.501	125.75
475.72	127.75
475.939	109.75
476.158	123.75
476.377	111.75
476.596	125.75
476.814	118.75
477.033	110.75
477.252	137.75
477.471	124.75
477.69	105.75
477.908	130.75
478.127	127.75
478.346	121.75
478.564	128.75
478.783	133.75
479.002	129.75
479.22	140.75
479.439	141.75
479.658	124.75
479.876	125.75
480.095	122.75
480.313	137.75
480.532	130.75
480.751	129.75
480.969	122.75
481.188	142.75
481.406	135.75
481.624	133.75
481.843	109.75
482.061	133.75
482.28	129.75
482.498	116.75
482.717	122.75
482.935	116.75
483.153	133.75
483.372	128.75
483.59	121.75
483.808	130.75
484.027	117.75
484.245	150.75
484.463	147.75
484.681	139.75
484.9	133.75
485.118	121.75
485.336	141.75
485.554	131.75
485.772	140.75
485.99	139.75
486.209	119.75
486.427	128.75
486.645	137.75
486.863	142.75
487.081	142.75
487.299	137.75
487.517	129.75
487.735	132.75
487.953	137.75
488.171	136.75
488.389	140.75
488.607	141.75
488.825	129.75
489.043	121.75
489.261	133.75
489.479	124.75
489.696	138.75
489.914	138.75
490.132	144.75
490.35	131.75
490.568	129.75
490.786	138.75
491.003	144.75
491.221	121.75
491.439	121.75
491.657	135.75
491.874	156.75
492.092	144.75
492.31	157.75
492.527	139.75
492.745	141.75
492.963	135.75
493.18	145.75
493.398	127.75
493.615	150.75
493.833	136.75
494.05	145.75
494.268	147.75
494.485	150.75
494.703	145.75
494.92	133.75
495.138	129.75
495.355	142.75
495.573	139.75
495.79	156.75
496.008	148.75
496.225	141.75
496.442	142.75
496.66	148.75
496.877	135.75
497.094	141.75
497.312	125.75
497.529	145.75
497.746	153.75
497.963	155.75
498.181	148.75
498.398	158.75
498.615	172.75
498.832	165.75
499.049	143.75
499.267	173.75
499.484	172.75
499.701	184.75
499.918	197.75
500.135	198.75
500.352	206.75
500.569	222.75
500.786	225.75
501.003	199.75
501.22	189.75
501.437	194.75
501.654	188.75
501.871	173.75
502.088	156.75
502.305	155.75
502.522	154.75
502.739	174.75
502.956	154.75
503.172	147.75
503.389	141.75
503.606	144.75
503.823	148.75
504.04	145.75
504.256	148.75
504.473	153.75
504.69	138.75
504.907	154.75
505.123	134.75
505.34	137.75
505.557	138.75
