Data from 1968.PennyLincolnUp.Lamp.En5.5.200Scan.071719.P1._HRD10591_14-51-36-970.txt Node
Date: Thu Jul 18 14:51:36 EDT 2019
User: cochatt
Spectrometer: HR+D1059
Trigger mode: 1
Integration Time (sec): 1.000000E-1
Scans to average: 1
Electric dark correction enabled: true
Nonlinearity correction enabled: false
Boxcar width: 0
XAxis mode: Wavelengths
Number of Pixels in Spectrum: 2048
>>>>>Begin Spectral Data<<<<<
223.165	-9.25
223.4	-9.25
223.635	-9.25
223.869	-24.25
224.104	-20.25
224.338	-17.25
224.573	-2.25
224.808	-14.25
225.042	-6.25
225.277	-16.25
225.511	-11.25
225.746	-10.25
225.98	6.75
226.215	23.75
226.449	23.75
226.683	14.75
226.918	32.75
227.152	29.75
227.387	31.75
227.621	36.75
227.856	38.75
228.09	51.75
228.324	48.75
228.559	41.75
228.793	50.75
229.027	78.75
229.262	60.75
229.496	79.75
229.73	73.75
229.964	59.75
230.199	65.75
230.433	78.75
230.667	76.75
230.901	80.75
231.136	79.75
231.37	80.75
231.604	75.75
231.838	85.75
232.072	84.75
232.306	76.75
232.541	76.75
232.775	87.75
233.009	87.75
233.243	69.75
233.477	72.75
233.711	93.75
233.945	79.75
234.179	79.75
234.413	86.75
234.647	79.75
234.881	86.75
235.115	76.75
235.349	80.75
235.583	87.75
235.817	65.75
236.051	83.75
236.285	87.75
236.519	72.75
236.753	104.75
236.987	82.75
237.221	74.75
237.455	87.75
237.689	84.75
237.922	79.75
238.156	75.75
238.39	83.75
238.624	82.75
238.858	78.75
239.091	70.75
239.325	73.75
239.559	77.75
239.793	77.75
240.027	80.75
240.26	73.75
240.494	78.75
240.728	96.75
240.961	71.75
241.195	80.75
241.429	81.75
241.662	83.75
241.896	91.75
242.13	79.75
242.363	92.75
242.597	78.75
242.83	83.75
243.064	93.75
243.298	94.75
243.531	80.75
243.765	78.75
243.998	88.75
244.232	95.75
244.465	80.75
244.699	86.75
244.932	78.75
245.166	95.75
245.399	88.75
245.633	84.75
245.866	83.75
246.099	95.75
246.333	92.75
246.566	89.75
246.8	89.75
247.033	95.75
247.266	99.75
247.5	79.75
247.733	91.75
247.966	86.75
248.2	83.75
248.433	88.75
248.666	74.75
248.899	78.75
249.133	96.75
249.366	100.75
249.599	90.75
249.832	108.75
250.066	103.75
250.299	82.75
250.532	82.75
250.765	88.75
250.998	84.75
251.231	79.75
251.465	94.75
251.698	97.75
251.931	85.75
252.164	104.75
252.397	95.75
252.63	89.75
252.863	74.75
253.096	89.75
253.329	108.75
253.562	88.75
253.795	94.75
254.028	100.75
254.261	85.75
254.494	98.75
254.727	103.75
254.96	87.75
255.193	87.75
255.426	94.75
255.659	94.75
255.892	88.75
256.124	104.75
256.357	94.75
256.59	96.75
256.823	83.75
257.056	88.75
257.289	99.75
257.521	89.75
257.754	101.75
257.987	87.75
258.22	98.75
258.452	71.75
258.685	94.75
258.918	100.75
259.151	98.75
259.383	97.75
259.616	88.75
259.849	95.75
260.081	89.75
260.314	86.75
260.547	105.75
260.779	98.75
261.012	89.75
261.244	91.75
261.477	111.75
261.71	115.75
261.942	90.75
262.175	98.75
262.407	86.75
262.64	92.75
262.872	99.75
263.105	111.75
263.337	88.75
263.57	92.75
263.802	92.75
264.035	78.75
264.267	89.75
264.499	93.75
264.732	92.75
264.964	92.75
265.197	94.75
265.429	87.75
265.661	88.75
265.894	85.75
266.126	92.75
266.358	106.75
266.591	84.75
266.823	93.75
267.055	100.75
267.287	103.75
267.52	81.75
267.752	104.75
267.984	95.75
268.216	92.75
268.448	101.75
268.681	112.75
268.913	112.75
269.145	102.75
269.377	93.75
269.609	99.75
269.841	92.75
270.073	95.75
270.306	99.75
270.538	97.75
270.77	111.75
271.002	99.75
271.234	90.75
271.466	108.75
271.698	103.75
271.93	88.75
272.162	87.75
272.394	111.75
272.626	102.75
272.858	94.75
273.09	102.75
273.322	106.75
273.553	109.75
273.785	99.75
274.017	96.75
274.249	103.75
274.481	93.75
274.713	90.75
274.945	98.75
275.176	103.75
275.408	89.75
275.64	101.75
275.872	98.75
276.104	91.75
276.335	90.75
276.567	94.75
276.799	102.75
277.031	98.75
277.262	106.75
277.494	106.75
277.726	108.75
277.957	102.75
278.189	92.75
278.421	93.75
278.652	94.75
278.884	95.75
279.115	94.75
279.347	90.75
279.579	101.75
279.81	109.75
280.042	107.75
280.273	101.75
280.505	94.75
280.736	104.75
280.968	95.75
281.199	95.75
281.431	92.75
281.662	96.75
281.894	91.75
282.125	113.75
282.356	102.75
282.588	104.75
282.819	96.75
283.051	94.75
283.282	112.75
283.513	98.75
283.745	102.75
283.976	99.75
284.207	87.75
284.439	104.75
284.67	102.75
284.901	107.75
285.132	102.75
285.364	109.75
285.595	112.75
285.826	94.75
286.057	102.75
286.288	108.75
286.52	102.75
286.751	120.75
286.982	94.75
287.213	95.75
287.444	93.75
287.675	103.75
287.906	109.75
288.138	100.75
288.369	96.75
288.6	106.75
288.831	100.75
289.062	110.75
289.293	86.75
289.524	95.75
289.755	116.75
289.986	101.75
290.217	108.75
290.448	120.75
290.679	111.75
290.91	101.75
291.141	100.75
291.371	96.75
291.602	102.75
291.833	115.75
292.064	116.75
292.295	99.75
292.526	91.75
292.757	91.75
292.987	95.75
293.218	104.75
293.449	107.75
293.68	106.75
293.91	109.75
294.141	99.75
294.372	96.75
294.603	119.75
294.833	98.75
295.064	102.75
295.295	112.75
295.525	126.75
295.756	119.75
295.987	103.75
296.217	93.75
296.448	100.75
296.679	118.75
296.909	103.75
297.14	102.75
297.37	109.75
297.601	104.75
297.831	94.75
298.062	99.75
298.292	108.75
298.523	102.75
298.753	104.75
298.984	107.75
299.214	91.75
299.445	103.75
299.675	110.75
299.905	102.75
300.136	100.75
300.366	105.75
300.597	104.75
300.827	106.75
301.057	108.75
301.288	87.75
301.518	101.75
301.748	101.75
301.979	109.75
302.209	97.75
302.439	107.75
302.669	97.75
302.9	89.75
303.13	101.75
303.36	108.75
303.59	94.75
303.82	99.75
304.051	106.75
304.281	114.75
304.511	109.75
304.741	98.75
304.971	105.75
305.201	98.75
305.431	110.75
305.661	90.75
305.891	100.75
306.121	101.75
306.352	99.75
306.582	93.75
306.812	96.75
307.042	112.75
307.272	114.75
307.502	114.75
307.731	112.75
307.961	96.75
308.191	102.75
308.421	111.75
308.651	118.75
308.881	100.75
309.111	114.75
309.341	114.75
309.571	111.75
309.8	114.75
310.03	111.75
310.26	103.75
310.49	95.75
310.72	94.75
310.949	112.75
311.179	101.75
311.409	109.75
311.639	118.75
311.868	105.75
312.098	121.75
312.328	114.75
312.557	94.75
312.787	110.75
313.017	113.75
313.246	111.75
313.476	93.75
313.706	115.75
313.935	110.75
314.165	99.75
314.394	89.75
314.624	123.75
314.853	104.75
315.083	113.75
315.312	110.75
315.542	116.75
315.771	103.75
316.001	95.75
316.23	120.75
316.46	112.75
316.689	105.75
316.919	104.75
317.148	111.75
317.377	102.75
317.607	101.75
317.836	109.75
318.065	109.75
318.295	116.75
318.524	96.75
318.753	95.75
318.983	115.75
319.212	111.75
319.441	101.75
319.67	112.75
319.9	123.75
320.129	112.75
320.358	112.75
320.587	103.75
320.816	120.75
321.046	113.75
321.275	112.75
321.504	115.75
321.733	106.75
321.962	86.75
322.191	94.75
322.42	108.75
322.649	114.75
322.878	112.75
323.108	116.75
323.337	122.75
323.566	110.75
323.795	118.75
324.024	109.75
324.253	115.75
324.482	139.75
324.71	158.75
324.939	180.75
325.168	152.75
325.397	128.75
325.626	132.75
325.855	107.75
326.084	116.75
326.313	104.75
326.542	108.75
326.77	126.75
326.999	127.75
327.228	126.75
327.457	135.75
327.686	154.75
327.914	126.75
328.143	107.75
328.372	110.75
328.6	114.75
328.829	109.75
329.058	116.75
329.287	112.75
329.515	127.75
329.744	114.75
329.972	118.75
330.201	123.75
330.43	110.75
330.658	110.75
330.887	110.75
331.115	126.75
331.344	108.75
331.572	114.75
331.801	111.75
332.03	110.75
332.258	128.75
332.486	121.75
332.715	136.75
332.943	120.75
333.172	133.75
333.4	121.75
333.629	117.75
333.857	122.75
334.085	126.75
334.314	120.75
334.542	117.75
334.771	116.75
334.999	129.75
335.227	127.75
335.455	99.75
335.684	126.75
335.912	136.75
336.14	127.75
336.369	109.75
336.597	112.75
336.825	110.75
337.053	116.75
337.281	118.75
337.51	115.75
337.738	122.75
337.966	93.75
338.194	115.75
338.422	104.75
338.65	111.75
338.878	125.75
339.106	106.75
339.334	112.75
339.562	108.75
339.79	126.75
340.018	120.75
340.246	117.75
340.474	119.75
340.702	118.75
340.93	104.75
341.158	95.75
341.386	117.75
341.614	118.75
341.842	108.75
342.07	98.75
342.298	113.75
342.526	107.75
342.754	118.75
342.981	120.75
343.209	103.75
343.437	100.75
343.665	100.75
343.893	99.75
344.12	105.75
344.348	124.75
344.576	113.75
344.804	95.75
345.031	118.75
345.259	112.75
345.487	102.75
345.714	114.75
345.942	101.75
346.17	106.75
346.397	107.75
346.625	111.75
346.853	102.75
347.08	105.75
347.308	96.75
347.535	105.75
347.763	115.75
347.99	107.75
348.218	106.75
348.445	110.75
348.673	119.75
348.9	113.75
349.128	118.75
349.355	115.75
349.583	101.75
349.81	122.75
350.037	100.75
350.265	120.75
350.492	100.75
350.72	106.75
350.947	112.75
351.174	111.75
351.402	110.75
351.629	107.75
351.856	106.75
352.083	113.75
352.311	114.75
352.538	104.75
352.765	100.75
352.992	117.75
353.22	91.75
353.447	101.75
353.674	114.75
353.901	109.75
354.128	124.75
354.355	117.75
354.583	96.75
354.81	121.75
355.037	110.75
355.264	95.75
355.491	103.75
355.718	97.75
355.945	117.75
356.172	100.75
356.399	112.75
356.626	118.75
356.853	102.75
357.08	121.75
357.307	129.75
357.534	103.75
357.761	112.75
357.988	110.75
358.215	101.75
358.441	111.75
358.668	128.75
358.895	122.75
359.122	117.75
359.349	111.75
359.576	107.75
359.802	110.75
360.029	123.75
360.256	104.75
360.483	102.75
360.709	116.75
360.936	112.75
361.163	95.75
361.39	102.75
361.616	110.75
361.843	100.75
362.07	115.75
362.296	110.75
362.523	107.75
362.749	102.75
362.976	106.75
363.203	120.75
363.429	99.75
363.656	96.75
363.882	115.75
364.109	118.75
364.335	99.75
364.562	105.75
364.788	104.75
365.015	107.75
365.241	110.75
365.468	109.75
365.694	117.75
365.92	112.75
366.147	106.75
366.373	104.75
366.599	118.75
366.826	104.75
367.052	115.75
367.278	94.75
367.505	120.75
367.731	106.75
367.957	102.75
368.184	119.75
368.41	108.75
368.636	94.75
368.862	102.75
369.089	123.75
369.315	90.75
369.541	109.75
369.767	108.75
369.993	111.75
370.219	109.75
370.445	104.75
370.672	103.75
370.898	95.75
371.124	111.75
371.35	119.75
371.576	122.75
371.802	102.75
372.028	107.75
372.254	102.75
372.48	115.75
372.706	108.75
372.932	128.75
373.158	116.75
373.384	115.75
373.61	115.75
373.835	95.75
374.061	110.75
374.287	115.75
374.513	114.75
374.739	104.75
374.965	109.75
375.191	121.75
375.416	111.75
375.642	101.75
375.868	112.75
376.094	106.75
376.319	122.75
376.545	121.75
376.771	120.75
376.997	107.75
377.222	107.75
377.448	120.75
377.674	101.75
377.899	120.75
378.125	100.75
378.35	112.75
378.576	110.75
378.802	109.75
379.027	107.75
379.253	117.75
379.478	106.75
379.704	112.75
379.929	113.75
380.155	114.75
380.38	110.75
380.606	125.75
380.831	109.75
381.057	116.75
381.282	118.75
381.507	122.75
381.733	117.75
381.958	110.75
382.184	102.75
382.409	88.75
382.634	116.75
382.86	119.75
383.085	103.75
383.31	111.75
383.535	121.75
383.761	112.75
383.986	104.75
384.211	117.75
384.436	122.75
384.662	116.75
384.887	117.75
385.112	116.75
385.337	122.75
385.562	116.75
385.787	121.75
386.013	121.75
386.238	119.75
386.463	105.75
386.688	121.75
386.913	126.75
387.138	102.75
387.363	110.75
387.588	124.75
387.813	114.75
388.038	127.75
388.263	126.75
388.488	116.75
388.713	124.75
388.938	125.75
389.163	116.75
389.387	108.75
389.612	109.75
389.837	109.75
390.062	126.75
390.287	118.75
390.512	111.75
390.736	112.75
390.961	116.75
391.186	115.75
391.411	106.75
391.636	114.75
391.86	100.75
392.085	104.75
392.31	126.75
392.534	112.75
392.759	113.75
392.984	130.75
393.208	115.75
393.433	125.75
393.658	115.75
393.882	115.75
394.107	117.75
394.331	104.75
394.556	122.75
394.78	133.75
395.005	121.75
395.229	130.75
395.454	118.75
395.678	124.75
395.903	114.75
396.127	116.75
396.352	120.75
396.576	115.75
396.801	105.75
397.025	126.75
397.249	122.75
397.474	118.75
397.698	137.75
397.922	112.75
398.147	122.75
398.371	114.75
398.595	127.75
398.82	137.75
399.044	128.75
399.268	126.75
399.492	146.75
399.717	143.75
399.941	148.75
400.165	152.75
400.389	142.75
400.613	139.75
400.837	147.75
401.062	130.75
401.286	138.75
401.51	137.75
401.734	123.75
401.958	140.75
402.182	130.75
402.406	134.75
402.63	132.75
402.854	142.75
403.078	132.75
403.302	135.75
403.526	134.75
403.75	140.75
403.974	132.75
404.198	139.75
404.422	130.75
404.645	138.75
404.869	119.75
405.093	135.75
405.317	144.75
405.541	141.75
405.765	127.75
405.988	135.75
406.212	131.75
406.436	135.75
406.66	126.75
406.883	136.75
407.107	129.75
407.331	138.75
407.555	141.75
407.778	143.75
408.002	123.75
408.226	133.75
408.449	134.75
408.673	128.75
408.896	130.75
409.12	139.75
409.344	155.75
409.567	134.75
409.791	134.75
410.014	130.75
410.238	119.75
410.461	119.75
410.685	117.75
410.908	132.75
411.132	130.75
411.355	136.75
411.578	148.75
411.802	127.75
412.025	133.75
412.249	131.75
412.472	126.75
412.695	132.75
412.919	139.75
413.142	125.75
413.365	135.75
413.589	131.75
413.812	139.75
414.035	119.75
414.258	123.75
414.482	132.75
414.705	136.75
414.928	140.75
415.151	126.75
415.374	116.75
415.597	124.75
415.821	113.75
416.044	126.75
416.267	134.75
416.49	131.75
416.713	122.75
416.936	131.75
417.159	129.75
417.382	117.75
417.605	110.75
417.828	138.75
418.051	140.75
418.274	135.75
418.497	134.75
418.72	125.75
418.943	122.75
419.166	140.75
419.389	126.75
419.611	123.75
419.834	122.75
420.057	125.75
420.28	143.75
420.503	141.75
420.726	115.75
420.948	133.75
421.171	119.75
421.394	150.75
421.617	126.75
421.839	138.75
422.062	120.75
422.285	130.75
422.507	137.75
422.73	142.75
422.953	138.75
423.175	124.75
423.398	135.75
423.621	140.75
423.843	140.75
424.066	139.75
424.288	147.75
424.511	142.75
424.733	131.75
424.956	147.75
425.178	140.75
425.401	142.75
425.623	126.75
425.846	127.75
426.068	127.75
426.291	130.75
426.513	134.75
426.735	132.75
426.958	123.75
427.18	134.75
427.402	144.75
427.625	161.75
427.847	136.75
428.069	125.75
428.292	132.75
428.514	125.75
428.736	130.75
428.958	126.75
429.181	125.75
429.403	137.75
429.625	126.75
429.847	120.75
430.069	132.75
430.292	129.75
430.514	138.75
430.736	118.75
430.958	125.75
431.18	101.75
431.402	110.75
431.624	114.75
431.846	134.75
432.068	136.75
432.29	130.75
432.512	106.75
432.734	123.75
432.956	109.75
433.178	120.75
433.4	126.75
433.622	115.75
433.844	110.75
434.066	122.75
434.287	128.75
434.509	125.75
434.731	123.75
434.953	108.75
435.175	125.75
435.397	124.75
435.618	126.75
435.84	126.75
436.062	139.75
436.284	138.75
436.505	142.75
436.727	119.75
436.949	106.75
437.17	130.75
437.392	130.75
437.614	133.75
437.835	127.75
438.057	127.75
438.278	137.75
438.5	125.75
438.721	130.75
438.943	137.75
439.165	116.75
439.386	110.75
439.608	127.75
439.829	126.75
440.05	124.75
440.272	132.75
440.493	127.75
440.715	132.75
440.936	143.75
441.158	138.75
441.379	124.75
441.6	142.75
441.822	122.75
442.043	137.75
442.264	144.75
442.486	135.75
442.707	144.75
442.928	144.75
443.149	124.75
443.371	135.75
443.592	139.75
443.813	142.75
444.034	135.75
444.255	145.75
444.476	128.75
444.698	147.75
444.919	150.75
445.14	257.75
445.361	202.75
445.582	142.75
445.803	141.75
446.024	140.75
446.245	130.75
446.466	126.75
446.687	141.75
446.908	135.75
447.129	130.75
447.35	127.75
447.571	122.75
447.792	121.75
448.013	130.75
448.234	128.75
448.455	136.75
448.675	138.75
448.896	126.75
449.117	145.75
449.338	132.75
449.559	128.75
449.779	140.75
450	134.75
450.221	126.75
450.442	125.75
450.662	122.75
450.883	127.75
451.104	122.75
451.324	112.75
451.545	119.75
451.766	125.75
451.986	119.75
452.207	116.75
452.428	132.75
452.648	107.75
452.869	127.75
453.089	110.75
453.31	124.75
453.53	116.75
453.751	124.75
453.971	124.75
454.192	122.75
454.412	128.75
454.633	125.75
454.853	119.75
455.073	111.75
455.294	105.75
455.514	122.75
455.734	119.75
455.955	126.75
456.175	118.75
456.395	116.75
456.616	115.75
456.836	124.75
457.056	118.75
457.276	116.75
457.497	123.75
457.717	124.75
457.937	121.75
458.157	116.75
458.377	132.75
458.598	107.75
458.818	133.75
459.038	131.75
459.258	132.75
459.478	120.75
459.698	114.75
459.918	134.75
460.138	133.75
460.358	118.75
460.578	118.75
460.798	124.75
461.018	136.75
461.238	130.75
461.458	122.75
461.678	113.75
461.898	141.75
462.118	116.75
462.338	137.75
462.558	138.75
462.777	134.75
462.997	126.75
463.217	141.75
463.437	153.75
463.657	151.75
463.876	138.75
464.096	138.75
464.316	137.75
464.536	144.75
464.755	124.75
464.975	134.75
465.195	150.75
465.414	133.75
465.634	147.75
465.854	146.75
466.073	104.75
466.293	118.75
466.512	121.75
466.732	128.75
466.951	135.75
467.171	130.75
467.391	132.75
467.61	124.75
467.829	142.75
468.049	125.75
468.268	136.75
468.488	117.75
468.707	132.75
468.927	138.75
469.146	114.75
469.365	118.75
469.585	112.75
469.804	125.75
470.023	126.75
470.243	137.75
470.462	103.75
470.681	124.75
470.901	114.75
471.12	123.75
471.339	136.75
471.558	119.75
471.777	115.75
471.997	126.75
472.216	141.75
472.435	135.75
472.654	115.75
472.873	124.75
473.092	120.75
473.311	131.75
473.53	115.75
473.749	125.75
473.968	132.75
474.187	126.75
474.406	127.75
474.625	129.75
474.844	131.75
475.063	139.75
475.282	130.75
475.501	116.75
475.72	120.75
475.939	125.75
476.158	125.75
476.377	124.75
476.596	115.75
476.814	122.75
477.033	128.75
477.252	131.75
477.471	123.75
477.69	133.75
477.908	121.75
478.127	127.75
478.346	128.75
478.564	116.75
478.783	128.75
479.002	118.75
479.22	125.75
479.439	150.75
479.658	137.75
479.876	140.75
480.095	121.75
480.313	145.75
480.532	131.75
480.751	128.75
480.969	129.75
481.188	124.75
481.406	140.75
481.624	139.75
481.843	132.75
482.061	138.75
482.28	135.75
482.498	128.75
482.717	108.75
482.935	127.75
483.153	118.75
483.372	124.75
483.59	116.75
483.808	123.75
484.027	123.75
484.245	126.75
484.463	132.75
484.681	148.75
484.9	138.75
485.118	136.75
485.336	120.75
485.554	123.75
485.772	128.75
485.99	128.75
486.209	121.75
486.427	130.75
486.645	130.75
486.863	130.75
487.081	134.75
487.299	121.75
487.517	132.75
487.735	163.75
487.953	140.75
488.171	131.75
488.389	136.75
488.607	126.75
488.825	137.75
489.043	134.75
489.261	130.75
489.479	135.75
489.696	132.75
489.914	126.75
490.132	138.75
490.35	134.75
490.568	148.75
490.786	140.75
491.003	141.75
491.221	140.75
491.439	142.75
491.657	142.75
491.874	139.75
492.092	139.75
492.31	145.75
492.527	146.75
492.745	151.75
492.963	149.75
493.18	149.75
493.398	141.75
493.615	159.75
493.833	141.75
494.05	135.75
494.268	141.75
494.485	138.75
494.703	133.75
494.92	128.75
495.138	134.75
495.355	154.75
495.573	149.75
495.79	130.75
496.008	158.75
496.225	146.75
496.442	142.75
496.66	143.75
496.877	137.75
497.094	155.75
497.312	146.75
497.529	152.75
497.746	135.75
497.963	142.75
498.181	156.75
498.398	152.75
498.615	171.75
498.832	162.75
499.049	167.75
499.267	183.75
499.484	186.75
499.701	164.75
499.918	184.75
500.135	197.75
500.352	220.75
500.569	214.75
500.786	202.75
501.003	209.75
501.22	197.75
501.437	174.75
501.654	179.75
501.871	162.75
502.088	165.75
502.305	186.75
502.522	166.75
502.739	162.75
502.956	147.75
503.172	148.75
503.389	140.75
503.606	162.75
503.823	159.75
504.04	158.75
504.256	139.75
504.473	155.75
504.69	145.75
504.907	135.75
505.123	145.75
505.34	139.75
505.557	133.75
