Data from 1968.PennyLincolnUp.Lamp.En5.5.200Scan.071719.P1._HRD10591_14-50-31-969.txt Node
Date: Thu Jul 18 14:50:31 EDT 2019
User: cochatt
Spectrometer: HR+D1059
Trigger mode: 1
Integration Time (sec): 1.000000E-1
Scans to average: 1
Electric dark correction enabled: true
Nonlinearity correction enabled: false
Boxcar width: 0
XAxis mode: Wavelengths
Number of Pixels in Spectrum: 2048
>>>>>Begin Spectral Data<<<<<
223.165	-10.62
223.4	-10.62
223.635	-10.62
223.869	-17.62
224.104	-23.62
224.338	-4.62
224.573	-14.62
224.808	-18.62
225.042	-10.62
225.277	-1.62
225.511	-1.62
225.746	8.38
225.98	11.38
226.215	14.38
226.449	21.38
226.683	11.38
226.918	14.38
227.152	22.38
227.387	29.38
227.621	40.38
227.856	32.38
228.09	49.38
228.324	42.38
228.559	58.38
228.793	54.38
229.027	66.38
229.262	60.38
229.496	63.38
229.73	64.38
229.964	67.38
230.199	70.38
230.433	78.38
230.667	69.38
230.901	79.38
231.136	88.38
231.37	83.38
231.604	97.38
231.838	77.38
232.072	85.38
232.306	92.38
232.541	81.38
232.775	86.38
233.009	77.38
233.243	89.38
233.477	96.38
233.711	83.38
233.945	95.38
234.179	85.38
234.413	77.38
234.647	71.38
234.881	78.38
235.115	92.38
235.349	84.38
235.583	91.38
235.817	78.38
236.051	83.38
236.285	76.38
236.519	91.38
236.753	76.38
236.987	87.38
237.221	82.38
237.455	71.38
237.689	70.38
237.922	84.38
238.156	83.38
238.39	65.38
238.624	75.38
238.858	78.38
239.091	84.38
239.325	72.38
239.559	80.38
239.793	91.38
240.027	89.38
240.26	83.38
240.494	89.38
240.728	74.38
240.961	71.38
241.195	87.38
241.429	88.38
241.662	88.38
241.896	78.38
242.13	78.38
242.363	91.38
242.597	68.38
242.83	77.38
243.064	81.38
243.298	83.38
243.531	73.38
243.765	66.38
243.998	80.38
244.232	82.38
244.465	84.38
244.699	86.38
244.932	79.38
245.166	72.38
245.399	68.38
245.633	75.38
245.866	74.38
246.099	89.38
246.333	81.38
246.566	87.38
246.8	82.38
247.033	82.38
247.266	88.38
247.5	95.38
247.733	85.38
247.966	80.38
248.2	83.38
248.433	90.38
248.666	81.38
248.899	93.38
249.133	84.38
249.366	92.38
249.599	94.38
249.832	89.38
250.066	83.38
250.299	98.38
250.532	79.38
250.765	85.38
250.998	83.38
251.231	76.38
251.465	77.38
251.698	91.38
251.931	79.38
252.164	90.38
252.397	89.38
252.63	91.38
252.863	94.38
253.096	99.38
253.329	79.38
253.562	82.38
253.795	85.38
254.028	87.38
254.261	81.38
254.494	99.38
254.727	90.38
254.96	101.38
255.193	81.38
255.426	86.38
255.659	84.38
255.892	93.38
256.124	88.38
256.357	84.38
256.59	94.38
256.823	87.38
257.056	79.38
257.289	71.38
257.521	89.38
257.754	85.38
257.987	92.38
258.22	95.38
258.452	91.38
258.685	75.38
258.918	105.38
259.151	89.38
259.383	100.38
259.616	93.38
259.849	93.38
260.081	94.38
260.314	98.38
260.547	87.38
260.779	94.38
261.012	97.38
261.244	98.38
261.477	101.38
261.71	86.38
261.942	84.38
262.175	92.38
262.407	80.38
262.64	85.38
262.872	94.38
263.105	90.38
263.337	92.38
263.57	109.38
263.802	96.38
264.035	79.38
264.267	98.38
264.499	81.38
264.732	96.38
264.964	103.38
265.197	89.38
265.429	93.38
265.661	107.38
265.894	93.38
266.126	90.38
266.358	87.38
266.591	91.38
266.823	98.38
267.055	90.38
267.287	98.38
267.52	98.38
267.752	103.38
267.984	98.38
268.216	99.38
268.448	97.38
268.681	94.38
268.913	94.38
269.145	89.38
269.377	81.38
269.609	104.38
269.841	91.38
270.073	100.38
270.306	93.38
270.538	98.38
270.77	87.38
271.002	92.38
271.234	99.38
271.466	107.38
271.698	96.38
271.93	100.38
272.162	79.38
272.394	91.38
272.626	100.38
272.858	105.38
273.09	101.38
273.322	87.38
273.553	87.38
273.785	90.38
274.017	100.38
274.249	92.38
274.481	98.38
274.713	95.38
274.945	102.38
275.176	93.38
275.408	103.38
275.64	108.38
275.872	101.38
276.104	97.38
276.335	101.38
276.567	100.38
276.799	108.38
277.031	110.38
277.262	91.38
277.494	90.38
277.726	90.38
277.957	107.38
278.189	106.38
278.421	97.38
278.652	99.38
278.884	106.38
279.115	90.38
279.347	99.38
279.579	93.38
279.81	97.38
280.042	95.38
280.273	104.38
280.505	94.38
280.736	97.38
280.968	90.38
281.199	97.38
281.431	101.38
281.662	95.38
281.894	103.38
282.125	87.38
282.356	101.38
282.588	94.38
282.819	109.38
283.051	92.38
283.282	111.38
283.513	83.38
283.745	97.38
283.976	108.38
284.207	88.38
284.439	94.38
284.67	89.38
284.901	90.38
285.132	104.38
285.364	102.38
285.595	113.38
285.826	83.38
286.057	76.38
286.288	81.38
286.52	94.38
286.751	90.38
286.982	97.38
287.213	97.38
287.444	92.38
287.675	106.38
287.906	87.38
288.138	89.38
288.369	87.38
288.6	83.38
288.831	97.38
289.062	101.38
289.293	99.38
289.524	104.38
289.755	111.38
289.986	86.38
290.217	105.38
290.448	100.38
290.679	105.38
290.91	87.38
291.141	104.38
291.371	102.38
291.602	101.38
291.833	106.38
292.064	103.38
292.295	91.38
292.526	105.38
292.757	106.38
292.987	98.38
293.218	90.38
293.449	100.38
293.68	73.38
293.91	97.38
294.141	97.38
294.372	109.38
294.603	106.38
294.833	109.38
295.064	95.38
295.295	110.38
295.525	112.38
295.756	101.38
295.987	104.38
296.217	109.38
296.448	99.38
296.679	113.38
296.909	117.38
297.14	97.38
297.37	93.38
297.601	105.38
297.831	106.38
298.062	100.38
298.292	101.38
298.523	90.38
298.753	111.38
298.984	77.38
299.214	100.38
299.445	100.38
299.675	91.38
299.905	109.38
300.136	110.38
300.366	105.38
300.597	108.38
300.827	98.38
301.057	91.38
301.288	117.38
301.518	108.38
301.748	101.38
301.979	101.38
302.209	97.38
302.439	109.38
302.669	95.38
302.9	97.38
303.13	106.38
303.36	112.38
303.59	102.38
303.82	97.38
304.051	108.38
304.281	115.38
304.511	99.38
304.741	105.38
304.971	106.38
305.201	96.38
305.431	101.38
305.661	97.38
305.891	106.38
306.121	104.38
306.352	98.38
306.582	102.38
306.812	111.38
307.042	93.38
307.272	101.38
307.502	104.38
307.731	105.38
307.961	109.38
308.191	113.38
308.421	92.38
308.651	113.38
308.881	101.38
309.111	103.38
309.341	118.38
309.571	102.38
309.8	109.38
310.03	97.38
310.26	111.38
310.49	94.38
310.72	112.38
310.949	114.38
311.179	96.38
311.409	95.38
311.639	105.38
311.868	104.38
312.098	99.38
312.328	111.38
312.557	121.38
312.787	121.38
313.017	110.38
313.246	111.38
313.476	104.38
313.706	104.38
313.935	112.38
314.165	103.38
314.394	95.38
314.624	87.38
314.853	114.38
315.083	107.38
315.312	111.38
315.542	97.38
315.771	113.38
316.001	105.38
316.23	115.38
316.46	121.38
316.689	109.38
316.919	107.38
317.148	115.38
317.377	102.38
317.607	106.38
317.836	97.38
318.065	106.38
318.295	102.38
318.524	103.38
318.753	107.38
318.983	103.38
319.212	114.38
319.441	117.38
319.67	111.38
319.9	101.38
320.129	100.38
320.358	101.38
320.587	119.38
320.816	121.38
321.046	102.38
321.275	113.38
321.504	107.38
321.733	113.38
321.962	121.38
322.191	116.38
322.42	107.38
322.649	124.38
322.878	108.38
323.108	110.38
323.337	109.38
323.566	104.38
323.795	115.38
324.024	100.38
324.253	123.38
324.482	135.38
324.71	157.38
324.939	169.38
325.168	164.38
325.397	129.38
325.626	126.38
325.855	119.38
326.084	103.38
326.313	113.38
326.542	101.38
326.77	104.38
326.999	116.38
327.228	120.38
327.457	140.38
327.686	148.38
327.914	110.38
328.143	125.38
328.372	109.38
328.6	121.38
328.829	118.38
329.058	119.38
329.287	113.38
329.515	120.38
329.744	115.38
329.972	109.38
330.201	99.38
330.43	120.38
330.658	115.38
330.887	115.38
331.115	122.38
331.344	111.38
331.572	109.38
331.801	116.38
332.03	115.38
332.258	122.38
332.486	117.38
332.715	111.38
332.943	118.38
333.172	121.38
333.4	111.38
333.629	122.38
333.857	111.38
334.085	101.38
334.314	139.38
334.542	118.38
334.771	110.38
334.999	127.38
335.227	106.38
335.455	107.38
335.684	105.38
335.912	118.38
336.14	108.38
336.369	119.38
336.597	107.38
336.825	116.38
337.053	117.38
337.281	119.38
337.51	110.38
337.738	109.38
337.966	99.38
338.194	117.38
338.422	127.38
338.65	114.38
338.878	117.38
339.106	115.38
339.334	116.38
339.562	106.38
339.79	111.38
340.018	120.38
340.246	112.38
340.474	110.38
340.702	109.38
340.93	107.38
341.158	110.38
341.386	96.38
341.614	109.38
341.842	115.38
342.07	108.38
342.298	113.38
342.526	107.38
342.754	117.38
342.981	110.38
343.209	113.38
343.437	118.38
343.665	103.38
343.893	90.38
344.12	119.38
344.348	103.38
344.576	114.38
344.804	108.38
345.031	115.38
345.259	115.38
345.487	115.38
345.714	104.38
345.942	115.38
346.17	109.38
346.397	110.38
346.625	119.38
346.853	119.38
347.08	109.38
347.308	105.38
347.535	115.38
347.763	100.38
347.99	113.38
348.218	101.38
348.445	117.38
348.673	105.38
348.9	128.38
349.128	110.38
349.355	104.38
349.583	106.38
349.81	92.38
350.037	101.38
350.265	114.38
350.492	112.38
350.72	106.38
350.947	105.38
351.174	108.38
351.402	98.38
351.629	116.38
351.856	98.38
352.083	121.38
352.311	113.38
352.538	108.38
352.765	108.38
352.992	125.38
353.22	97.38
353.447	104.38
353.674	106.38
353.901	120.38
354.128	110.38
354.355	100.38
354.583	113.38
354.81	107.38
355.037	115.38
355.264	115.38
355.491	105.38
355.718	115.38
355.945	116.38
356.172	115.38
356.399	110.38
356.626	92.38
356.853	114.38
357.08	109.38
357.307	102.38
357.534	106.38
357.761	109.38
357.988	108.38
358.215	105.38
358.441	105.38
358.668	107.38
358.895	127.38
359.122	119.38
359.349	121.38
359.576	105.38
359.802	104.38
360.029	107.38
360.256	98.38
360.483	117.38
360.709	115.38
360.936	123.38
361.163	98.38
361.39	101.38
361.616	101.38
361.843	104.38
362.07	100.38
362.296	119.38
362.523	107.38
362.749	98.38
362.976	99.38
363.203	103.38
363.429	105.38
363.656	113.38
363.882	103.38
364.109	113.38
364.335	124.38
364.562	134.38
364.788	119.38
365.015	103.38
365.241	115.38
365.468	111.38
365.694	100.38
365.92	107.38
366.147	96.38
366.373	98.38
366.599	113.38
366.826	99.38
367.052	118.38
367.278	102.38
367.505	109.38
367.731	117.38
367.957	107.38
368.184	97.38
368.41	113.38
368.636	91.38
368.862	119.38
369.089	123.38
369.315	122.38
369.541	114.38
369.767	98.38
369.993	121.38
370.219	109.38
370.445	108.38
370.672	97.38
370.898	99.38
371.124	112.38
371.35	110.38
371.576	120.38
371.802	113.38
372.028	115.38
372.254	119.38
372.48	116.38
372.706	108.38
372.932	110.38
373.158	98.38
373.384	106.38
373.61	104.38
373.835	114.38
374.061	124.38
374.287	115.38
374.513	104.38
374.739	111.38
374.965	101.38
375.191	123.38
375.416	106.38
375.642	121.38
375.868	115.38
376.094	109.38
376.319	96.38
376.545	108.38
376.771	123.38
376.997	101.38
377.222	113.38
377.448	119.38
377.674	117.38
377.899	115.38
378.125	111.38
378.35	101.38
378.576	120.38
378.802	113.38
379.027	116.38
379.253	121.38
379.478	115.38
379.704	129.38
379.929	121.38
380.155	102.38
380.38	117.38
380.606	114.38
380.831	117.38
381.057	107.38
381.282	109.38
381.507	117.38
381.733	118.38
381.958	124.38
382.184	105.38
382.409	103.38
382.634	115.38
382.86	114.38
383.085	116.38
383.31	102.38
383.535	121.38
383.761	111.38
383.986	110.38
384.211	123.38
384.436	119.38
384.662	114.38
384.887	116.38
385.112	111.38
385.337	116.38
385.562	119.38
385.787	108.38
386.013	125.38
386.238	123.38
386.463	114.38
386.688	117.38
386.913	120.38
387.138	123.38
387.363	117.38
387.588	109.38
387.813	117.38
388.038	114.38
388.263	122.38
388.488	107.38
388.713	128.38
388.938	106.38
389.163	125.38
389.387	117.38
389.612	118.38
389.837	124.38
390.062	117.38
390.287	117.38
390.512	116.38
390.736	118.38
390.961	118.38
391.186	114.38
391.411	124.38
391.636	108.38
391.86	122.38
392.085	127.38
392.31	115.38
392.534	117.38
392.759	100.38
392.984	122.38
393.208	109.38
393.433	119.38
393.658	123.38
393.882	125.38
394.107	125.38
394.331	114.38
394.556	125.38
394.78	129.38
395.005	122.38
395.229	128.38
395.454	106.38
395.678	127.38
395.903	117.38
396.127	125.38
396.352	119.38
396.576	108.38
396.801	113.38
397.025	108.38
397.249	126.38
397.474	118.38
397.698	125.38
397.922	126.38
398.147	121.38
398.371	124.38
398.595	127.38
398.82	121.38
399.044	133.38
399.268	125.38
399.492	136.38
399.717	144.38
399.941	140.38
400.165	148.38
400.389	141.38
400.613	118.38
400.837	131.38
401.062	139.38
401.286	120.38
401.51	126.38
401.734	129.38
401.958	127.38
402.182	101.38
402.406	132.38
402.63	130.38
402.854	123.38
403.078	116.38
403.302	118.38
403.526	122.38
403.75	132.38
403.974	127.38
404.198	122.38
404.422	125.38
404.645	126.38
404.869	126.38
405.093	138.38
405.317	145.38
405.541	135.38
405.765	127.38
405.988	132.38
406.212	128.38
406.436	126.38
406.66	106.38
406.883	137.38
407.107	130.38
407.331	142.38
407.555	144.38
407.778	152.38
408.002	141.38
408.226	143.38
408.449	139.38
408.673	134.38
408.896	138.38
409.12	135.38
409.344	127.38
409.567	124.38
409.791	126.38
410.014	127.38
410.238	127.38
410.461	128.38
410.685	135.38
410.908	133.38
411.132	123.38
411.355	130.38
411.578	137.38
411.802	134.38
412.025	121.38
412.249	127.38
412.472	139.38
412.695	144.38
412.919	145.38
413.142	132.38
413.365	125.38
413.589	129.38
413.812	122.38
414.035	135.38
414.258	129.38
414.482	116.38
414.705	134.38
414.928	137.38
415.151	110.38
415.374	133.38
415.597	133.38
415.821	124.38
416.044	122.38
416.267	135.38
416.49	123.38
416.713	127.38
416.936	130.38
417.159	128.38
417.382	123.38
417.605	123.38
417.828	136.38
418.051	125.38
418.274	116.38
418.497	123.38
418.72	125.38
418.943	129.38
419.166	129.38
419.389	127.38
419.611	123.38
419.834	133.38
420.057	131.38
420.28	119.38
420.503	133.38
420.726	123.38
420.948	117.38
421.171	133.38
421.394	119.38
421.617	140.38
421.839	141.38
422.062	109.38
422.285	138.38
422.507	138.38
422.73	125.38
422.953	125.38
423.175	127.38
423.398	133.38
423.621	137.38
423.843	124.38
424.066	123.38
424.288	133.38
424.511	136.38
424.733	139.38
424.956	138.38
425.178	134.38
425.401	123.38
425.623	149.38
425.846	133.38
426.068	125.38
426.291	131.38
426.513	117.38
426.735	130.38
426.958	125.38
427.18	150.38
427.402	139.38
427.625	131.38
427.847	131.38
428.069	125.38
428.292	126.38
428.514	125.38
428.736	127.38
428.958	125.38
429.181	130.38
429.403	121.38
429.625	122.38
429.847	132.38
430.069	128.38
430.292	143.38
430.514	133.38
430.736	116.38
430.958	126.38
431.18	128.38
431.402	118.38
431.624	129.38
431.846	116.38
432.068	108.38
432.29	103.38
432.512	129.38
432.734	119.38
432.956	124.38
433.178	121.38
433.4	128.38
433.622	139.38
433.844	123.38
434.066	123.38
434.287	128.38
434.509	122.38
434.731	121.38
434.953	117.38
435.175	122.38
435.397	125.38
435.618	128.38
435.84	126.38
436.062	139.38
436.284	152.38
436.505	136.38
436.727	125.38
436.949	122.38
437.17	121.38
437.392	119.38
437.614	132.38
437.835	133.38
438.057	138.38
438.278	145.38
438.5	147.38
438.721	128.38
438.943	143.38
439.165	128.38
439.386	121.38
439.608	123.38
439.829	120.38
440.05	125.38
440.272	138.38
440.493	135.38
440.715	129.38
440.936	130.38
441.158	119.38
441.379	132.38
441.6	127.38
441.822	148.38
442.043	133.38
442.264	135.38
442.486	125.38
442.707	136.38
442.928	131.38
443.149	130.38
443.371	131.38
443.592	148.38
443.813	141.38
444.034	131.38
444.255	132.38
444.476	138.38
444.698	143.38
444.919	141.38
445.14	213.38
445.361	175.38
445.582	126.38
445.803	131.38
446.024	144.38
446.245	131.38
446.466	137.38
446.687	126.38
446.908	137.38
447.129	129.38
447.35	118.38
447.571	110.38
447.792	125.38
448.013	128.38
448.234	126.38
448.455	130.38
448.675	138.38
448.896	142.38
449.117	125.38
449.338	123.38
449.559	143.38
449.779	151.38
450	121.38
450.221	127.38
450.442	135.38
450.662	118.38
450.883	116.38
451.104	122.38
451.324	123.38
451.545	111.38
451.766	117.38
451.986	123.38
452.207	117.38
452.428	99.38
452.648	111.38
452.869	117.38
453.089	117.38
453.31	109.38
453.53	122.38
453.751	117.38
453.971	117.38
454.192	137.38
454.412	126.38
454.633	119.38
454.853	110.38
455.073	114.38
455.294	109.38
455.514	112.38
455.734	123.38
455.955	101.38
456.175	120.38
456.395	115.38
456.616	122.38
456.836	126.38
457.056	130.38
457.276	125.38
457.497	107.38
457.717	121.38
457.937	114.38
458.157	117.38
458.377	121.38
458.598	116.38
458.818	120.38
459.038	119.38
459.258	125.38
459.478	122.38
459.698	117.38
459.918	123.38
460.138	129.38
460.358	114.38
460.578	125.38
460.798	121.38
461.018	127.38
461.238	126.38
461.458	130.38
461.678	127.38
461.898	122.38
462.118	130.38
462.338	128.38
462.558	127.38
462.777	144.38
462.997	148.38
463.217	135.38
463.437	143.38
463.657	126.38
463.876	117.38
464.096	125.38
464.316	118.38
464.536	131.38
464.755	141.38
464.975	132.38
465.195	141.38
465.414	140.38
465.634	122.38
465.854	125.38
466.073	131.38
466.293	130.38
466.512	134.38
466.732	122.38
466.951	127.38
467.171	113.38
467.391	113.38
467.61	118.38
467.829	121.38
468.049	130.38
468.268	127.38
468.488	118.38
468.707	131.38
468.927	125.38
469.146	118.38
469.365	113.38
469.585	121.38
469.804	127.38
470.023	118.38
470.243	118.38
470.462	127.38
470.681	128.38
470.901	118.38
471.12	129.38
471.339	125.38
471.558	133.38
471.777	129.38
471.997	124.38
472.216	113.38
472.435	134.38
472.654	131.38
472.873	102.38
473.092	105.38
473.311	121.38
473.53	123.38
473.749	127.38
473.968	129.38
474.187	143.38
474.406	125.38
474.625	115.38
474.844	129.38
475.063	121.38
475.282	111.38
475.501	108.38
475.72	131.38
475.939	117.38
476.158	117.38
476.377	129.38
476.596	121.38
476.814	129.38
477.033	121.38
477.252	118.38
477.471	108.38
477.69	125.38
477.908	131.38
478.127	138.38
478.346	121.38
478.564	127.38
478.783	131.38
479.002	127.38
479.22	126.38
479.439	132.38
479.658	141.38
479.876	127.38
480.095	149.38
480.313	132.38
480.532	145.38
480.751	135.38
480.969	133.38
481.188	140.38
481.406	126.38
481.624	117.38
481.843	133.38
482.061	124.38
482.28	137.38
482.498	117.38
482.717	117.38
482.935	103.38
483.153	125.38
483.372	125.38
483.59	133.38
483.808	128.38
484.027	121.38
484.245	121.38
484.463	140.38
484.681	143.38
484.9	129.38
485.118	151.38
485.336	127.38
485.554	148.38
485.772	127.38
485.99	122.38
486.209	143.38
486.427	121.38
486.645	129.38
486.863	129.38
487.081	134.38
487.299	122.38
487.517	131.38
487.735	133.38
487.953	149.38
488.171	140.38
488.389	154.38
488.607	127.38
488.825	141.38
489.043	140.38
489.261	148.38
489.479	137.38
489.696	133.38
489.914	122.38
490.132	149.38
490.35	133.38
490.568	142.38
490.786	147.38
491.003	138.38
491.221	129.38
491.439	151.38
491.657	149.38
491.874	150.38
492.092	141.38
492.31	142.38
492.527	159.38
492.745	135.38
492.963	146.38
493.18	140.38
493.398	147.38
493.615	151.38
493.833	131.38
494.05	125.38
494.268	142.38
494.485	137.38
494.703	145.38
494.92	141.38
495.138	147.38
495.355	140.38
495.573	150.38
495.79	139.38
496.008	131.38
496.225	141.38
496.442	141.38
496.66	156.38
496.877	145.38
497.094	153.38
497.312	135.38
497.529	149.38
497.746	143.38
497.963	145.38
498.181	143.38
498.398	150.38
498.615	154.38
498.832	143.38
499.049	153.38
499.267	157.38
499.484	182.38
499.701	189.38
499.918	185.38
500.135	174.38
500.352	207.38
500.569	216.38
500.786	202.38
501.003	198.38
501.22	195.38
501.437	175.38
501.654	161.38
501.871	178.38
502.088	159.38
502.305	163.38
502.522	172.38
502.739	157.38
502.956	158.38
503.172	143.38
503.389	158.38
503.606	160.38
503.823	162.38
504.04	124.38
504.256	138.38
504.473	143.38
504.69	150.38
504.907	139.38
505.123	135.38
505.34	127.38
505.557	149.38
505.773	144.38
