Data from 1968.PennyLincolnUp.Lamp.En5.5.200Scan.071719.P1._HRD10591_14-51-21-970.txt Node
Date: Thu Jul 18 14:51:21 EDT 2019
User: cochatt
Spectrometer: HR+D1059
Trigger mode: 1
Integration Time (sec): 1.000000E-1
Scans to average: 1
Electric dark correction enabled: true
Nonlinearity correction enabled: false
Boxcar width: 0
XAxis mode: Wavelengths
Number of Pixels in Spectrum: 2048
>>>>>Begin Spectral Data<<<<<
223.165	-11.81
223.4	-11.81
223.635	-11.81
223.869	-9.81
224.104	-13.81
224.338	-8.81
224.573	-13.81
224.808	-21.81
225.042	0.19
225.277	-17.81
225.511	10.19
225.746	0.19
225.98	6.19
226.215	-0.81
226.449	17.19
226.683	19.19
226.918	24.19
227.152	21.19
227.387	41.19
227.621	47.19
227.856	34.19
228.09	52.19
228.324	57.19
228.559	57.19
228.793	53.19
229.027	71.19
229.262	77.19
229.496	71.19
229.73	63.19
229.964	74.19
230.199	68.19
230.433	84.19
230.667	83.19
230.901	72.19
231.136	71.19
231.37	72.19
231.604	73.19
231.838	76.19
232.072	90.19
232.306	89.19
232.541	90.19
232.775	84.19
233.009	86.19
233.243	79.19
233.477	103.19
233.711	84.19
233.945	83.19
234.179	79.19
234.413	101.19
234.647	71.19
234.881	95.19
235.115	71.19
235.349	90.19
235.583	85.19
235.817	79.19
236.051	77.19
236.285	91.19
236.519	81.19
236.753	72.19
236.987	74.19
237.221	88.19
237.455	88.19
237.689	83.19
237.922	74.19
238.156	86.19
238.39	73.19
238.624	84.19
238.858	84.19
239.091	91.19
239.325	70.19
239.559	73.19
239.793	78.19
240.027	80.19
240.26	79.19
240.494	84.19
240.728	74.19
240.961	72.19
241.195	82.19
241.429	90.19
241.662	91.19
241.896	80.19
242.13	80.19
242.363	90.19
242.597	80.19
242.83	77.19
243.064	95.19
243.298	75.19
243.531	82.19
243.765	85.19
243.998	86.19
244.232	88.19
244.465	80.19
244.699	79.19
244.932	85.19
245.166	92.19
245.399	86.19
245.633	93.19
245.866	82.19
246.099	88.19
246.333	94.19
246.566	74.19
246.8	75.19
247.033	90.19
247.266	90.19
247.5	83.19
247.733	113.19
247.966	79.19
248.2	86.19
248.433	86.19
248.666	67.19
248.899	99.19
249.133	83.19
249.366	83.19
249.599	95.19
249.832	87.19
250.066	77.19
250.299	80.19
250.532	61.19
250.765	87.19
250.998	86.19
251.231	95.19
251.465	78.19
251.698	88.19
251.931	82.19
252.164	84.19
252.397	83.19
252.63	88.19
252.863	84.19
253.096	86.19
253.329	85.19
253.562	84.19
253.795	88.19
254.028	102.19
254.261	87.19
254.494	99.19
254.727	96.19
254.96	96.19
255.193	90.19
255.426	90.19
255.659	90.19
255.892	96.19
256.124	83.19
256.357	94.19
256.59	102.19
256.823	100.19
257.056	91.19
257.289	94.19
257.521	118.19
257.754	96.19
257.987	91.19
258.22	92.19
258.452	87.19
258.685	104.19
258.918	93.19
259.151	92.19
259.383	95.19
259.616	88.19
259.849	86.19
260.081	99.19
260.314	109.19
260.547	103.19
260.779	88.19
261.012	81.19
261.244	95.19
261.477	102.19
261.71	86.19
261.942	80.19
262.175	81.19
262.407	90.19
262.64	79.19
262.872	88.19
263.105	92.19
263.337	96.19
263.57	94.19
263.802	81.19
264.035	90.19
264.267	86.19
264.499	93.19
264.732	88.19
264.964	102.19
265.197	104.19
265.429	103.19
265.661	91.19
265.894	106.19
266.126	96.19
266.358	89.19
266.591	94.19
266.823	83.19
267.055	92.19
267.287	90.19
267.52	106.19
267.752	93.19
267.984	103.19
268.216	102.19
268.448	94.19
268.681	101.19
268.913	94.19
269.145	101.19
269.377	99.19
269.609	90.19
269.841	91.19
270.073	91.19
270.306	99.19
270.538	97.19
270.77	109.19
271.002	86.19
271.234	102.19
271.466	92.19
271.698	94.19
271.93	83.19
272.162	96.19
272.394	78.19
272.626	91.19
272.858	93.19
273.09	111.19
273.322	99.19
273.553	86.19
273.785	99.19
274.017	92.19
274.249	98.19
274.481	102.19
274.713	98.19
274.945	106.19
275.176	95.19
275.408	83.19
275.64	111.19
275.872	94.19
276.104	106.19
276.335	100.19
276.567	95.19
276.799	102.19
277.031	105.19
277.262	92.19
277.494	105.19
277.726	115.19
277.957	88.19
278.189	106.19
278.421	88.19
278.652	86.19
278.884	95.19
279.115	87.19
279.347	98.19
279.579	88.19
279.81	98.19
280.042	105.19
280.273	110.19
280.505	95.19
280.736	87.19
280.968	91.19
281.199	95.19
281.431	84.19
281.662	105.19
281.894	98.19
282.125	100.19
282.356	106.19
282.588	89.19
282.819	103.19
283.051	109.19
283.282	95.19
283.513	101.19
283.745	105.19
283.976	96.19
284.207	101.19
284.439	95.19
284.67	106.19
284.901	98.19
285.132	101.19
285.364	81.19
285.595	108.19
285.826	94.19
286.057	99.19
286.288	74.19
286.52	102.19
286.751	93.19
286.982	88.19
287.213	102.19
287.444	103.19
287.675	105.19
287.906	104.19
288.138	89.19
288.369	85.19
288.6	98.19
288.831	90.19
289.062	110.19
289.293	105.19
289.524	107.19
289.755	102.19
289.986	98.19
290.217	114.19
290.448	104.19
290.679	106.19
290.91	88.19
291.141	100.19
291.371	101.19
291.602	95.19
291.833	107.19
292.064	95.19
292.295	107.19
292.526	107.19
292.757	106.19
292.987	112.19
293.218	100.19
293.449	101.19
293.68	111.19
293.91	88.19
294.141	104.19
294.372	109.19
294.603	102.19
294.833	104.19
295.064	107.19
295.295	109.19
295.525	111.19
295.756	98.19
295.987	102.19
296.217	106.19
296.448	101.19
296.679	104.19
296.909	117.19
297.14	99.19
297.37	110.19
297.601	117.19
297.831	116.19
298.062	105.19
298.292	111.19
298.523	102.19
298.753	102.19
298.984	103.19
299.214	85.19
299.445	103.19
299.675	114.19
299.905	96.19
300.136	91.19
300.366	101.19
300.597	105.19
300.827	108.19
301.057	115.19
301.288	101.19
301.518	95.19
301.748	106.19
301.979	102.19
302.209	97.19
302.439	104.19
302.669	114.19
302.9	99.19
303.13	116.19
303.36	98.19
303.59	114.19
303.82	115.19
304.051	103.19
304.281	102.19
304.511	100.19
304.741	109.19
304.971	98.19
305.201	110.19
305.431	118.19
305.661	97.19
305.891	106.19
306.121	114.19
306.352	98.19
306.582	105.19
306.812	94.19
307.042	98.19
307.272	104.19
307.502	110.19
307.731	111.19
307.961	111.19
308.191	116.19
308.421	98.19
308.651	109.19
308.881	99.19
309.111	98.19
309.341	93.19
309.571	107.19
309.8	103.19
310.03	110.19
310.26	95.19
310.49	112.19
310.72	109.19
310.949	101.19
311.179	93.19
311.409	104.19
311.639	106.19
311.868	117.19
312.098	109.19
312.328	118.19
312.557	114.19
312.787	116.19
313.017	105.19
313.246	116.19
313.476	102.19
313.706	106.19
313.935	116.19
314.165	102.19
314.394	116.19
314.624	112.19
314.853	105.19
315.083	105.19
315.312	120.19
315.542	103.19
315.771	114.19
316.001	108.19
316.23	112.19
316.46	102.19
316.689	94.19
316.919	107.19
317.148	109.19
317.377	103.19
317.607	106.19
317.836	107.19
318.065	106.19
318.295	104.19
318.524	112.19
318.753	116.19
318.983	93.19
319.212	113.19
319.441	106.19
319.67	102.19
319.9	94.19
320.129	104.19
320.358	114.19
320.587	108.19
320.816	92.19
321.046	108.19
321.275	118.19
321.504	100.19
321.733	114.19
321.962	120.19
322.191	120.19
322.42	107.19
322.649	114.19
322.878	111.19
323.108	128.19
323.337	102.19
323.566	111.19
323.795	117.19
324.024	103.19
324.253	94.19
324.482	122.19
324.71	157.19
324.939	178.19
325.168	175.19
325.397	133.19
325.626	128.19
325.855	115.19
326.084	115.19
326.313	110.19
326.542	124.19
326.77	117.19
326.999	126.19
327.228	133.19
327.457	151.19
327.686	148.19
327.914	138.19
328.143	115.19
328.372	110.19
328.6	109.19
328.829	111.19
329.058	118.19
329.287	117.19
329.515	118.19
329.744	115.19
329.972	108.19
330.201	107.19
330.43	126.19
330.658	112.19
330.887	114.19
331.115	117.19
331.344	109.19
331.572	118.19
331.801	118.19
332.03	110.19
332.258	110.19
332.486	125.19
332.715	116.19
332.943	125.19
333.172	124.19
333.4	114.19
333.629	111.19
333.857	120.19
334.085	123.19
334.314	122.19
334.542	118.19
334.771	126.19
334.999	128.19
335.227	119.19
335.455	107.19
335.684	118.19
335.912	128.19
336.14	116.19
336.369	115.19
336.597	119.19
336.825	115.19
337.053	115.19
337.281	102.19
337.51	109.19
337.738	103.19
337.966	108.19
338.194	130.19
338.422	103.19
338.65	114.19
338.878	116.19
339.106	116.19
339.334	115.19
339.562	110.19
339.79	111.19
340.018	107.19
340.246	118.19
340.474	106.19
340.702	117.19
340.93	108.19
341.158	112.19
341.386	113.19
341.614	127.19
341.842	91.19
342.07	110.19
342.298	118.19
342.526	110.19
342.754	114.19
342.981	108.19
343.209	121.19
343.437	124.19
343.665	108.19
343.893	122.19
344.12	146.19
344.348	121.19
344.576	108.19
344.804	116.19
345.031	108.19
345.259	108.19
345.487	123.19
345.714	124.19
345.942	111.19
346.17	98.19
346.397	116.19
346.625	99.19
346.853	104.19
347.08	107.19
347.308	119.19
347.535	108.19
347.763	110.19
347.99	111.19
348.218	106.19
348.445	119.19
348.673	116.19
348.9	127.19
349.128	112.19
349.355	103.19
349.583	106.19
349.81	115.19
350.037	112.19
350.265	115.19
350.492	102.19
350.72	117.19
350.947	123.19
351.174	118.19
351.402	122.19
351.629	112.19
351.856	114.19
352.083	116.19
352.311	120.19
352.538	101.19
352.765	114.19
352.992	108.19
353.22	110.19
353.447	115.19
353.674	109.19
353.901	119.19
354.128	111.19
354.355	115.19
354.583	116.19
354.81	103.19
355.037	95.19
355.264	101.19
355.491	116.19
355.718	124.19
355.945	125.19
356.172	109.19
356.399	101.19
356.626	106.19
356.853	109.19
357.08	118.19
357.307	100.19
357.534	120.19
357.761	106.19
357.988	116.19
358.215	96.19
358.441	107.19
358.668	122.19
358.895	101.19
359.122	111.19
359.349	129.19
359.576	117.19
359.802	114.19
360.029	111.19
360.256	113.19
360.483	107.19
360.709	111.19
360.936	119.19
361.163	130.19
361.39	111.19
361.616	114.19
361.843	108.19
362.07	108.19
362.296	103.19
362.523	116.19
362.749	94.19
362.976	114.19
363.203	105.19
363.429	111.19
363.656	111.19
363.882	118.19
364.109	122.19
364.335	102.19
364.562	110.19
364.788	105.19
365.015	103.19
365.241	96.19
365.468	111.19
365.694	119.19
365.92	111.19
366.147	102.19
366.373	109.19
366.599	115.19
366.826	103.19
367.052	130.19
367.278	102.19
367.505	111.19
367.731	111.19
367.957	119.19
368.184	107.19
368.41	96.19
368.636	106.19
368.862	108.19
369.089	111.19
369.315	107.19
369.541	94.19
369.767	101.19
369.993	120.19
370.219	111.19
370.445	114.19
370.672	126.19
370.898	102.19
371.124	112.19
371.35	115.19
371.576	106.19
371.802	101.19
372.028	111.19
372.254	100.19
372.48	110.19
372.706	108.19
372.932	110.19
373.158	124.19
373.384	116.19
373.61	122.19
373.835	99.19
374.061	113.19
374.287	126.19
374.513	106.19
374.739	119.19
374.965	114.19
375.191	104.19
375.416	122.19
375.642	126.19
375.868	106.19
376.094	109.19
376.319	115.19
376.545	114.19
376.771	112.19
376.997	117.19
377.222	112.19
377.448	105.19
377.674	115.19
377.899	106.19
378.125	109.19
378.35	114.19
378.576	109.19
378.802	122.19
379.027	102.19
379.253	116.19
379.478	108.19
379.704	103.19
379.929	98.19
380.155	120.19
380.38	125.19
380.606	114.19
380.831	104.19
381.057	111.19
381.282	120.19
381.507	113.19
381.733	112.19
381.958	107.19
382.184	113.19
382.409	116.19
382.634	121.19
382.86	104.19
383.085	115.19
383.31	98.19
383.535	122.19
383.761	116.19
383.986	108.19
384.211	119.19
384.436	132.19
384.662	106.19
384.887	130.19
385.112	120.19
385.337	125.19
385.562	122.19
385.787	131.19
386.013	131.19
386.238	118.19
386.463	135.19
386.688	117.19
386.913	125.19
387.138	111.19
387.363	112.19
387.588	122.19
387.813	136.19
388.038	108.19
388.263	122.19
388.488	126.19
388.713	118.19
388.938	112.19
389.163	122.19
389.387	119.19
389.612	120.19
389.837	104.19
390.062	114.19
390.287	109.19
390.512	101.19
390.736	116.19
390.961	130.19
391.186	120.19
391.411	135.19
391.636	139.19
391.86	108.19
392.085	129.19
392.31	124.19
392.534	123.19
392.759	123.19
392.984	115.19
393.208	118.19
393.433	116.19
393.658	108.19
393.882	125.19
394.107	125.19
394.331	120.19
394.556	126.19
394.78	128.19
395.005	111.19
395.229	117.19
395.454	122.19
395.678	121.19
395.903	125.19
396.127	118.19
396.352	129.19
396.576	120.19
396.801	119.19
397.025	124.19
397.249	122.19
397.474	126.19
397.698	135.19
397.922	129.19
398.147	122.19
398.371	140.19
398.595	123.19
398.82	115.19
399.044	138.19
399.268	134.19
399.492	129.19
399.717	147.19
399.941	157.19
400.165	149.19
400.389	142.19
400.613	129.19
400.837	131.19
401.062	125.19
401.286	121.19
401.51	130.19
401.734	132.19
401.958	122.19
402.182	133.19
402.406	124.19
402.63	128.19
402.854	134.19
403.078	121.19
403.302	135.19
403.526	145.19
403.75	126.19
403.974	132.19
404.198	130.19
404.422	132.19
404.645	135.19
404.869	120.19
405.093	135.19
405.317	136.19
405.541	126.19
405.765	137.19
405.988	144.19
406.212	130.19
406.436	138.19
406.66	139.19
406.883	114.19
407.107	149.19
407.331	132.19
407.555	160.19
407.778	140.19
408.002	124.19
408.226	137.19
408.449	132.19
408.673	139.19
408.896	146.19
409.12	147.19
409.344	143.19
409.567	122.19
409.791	143.19
410.014	124.19
410.238	132.19
410.461	129.19
410.685	126.19
410.908	136.19
411.132	130.19
411.355	135.19
411.578	124.19
411.802	114.19
412.025	125.19
412.249	124.19
412.472	122.19
412.695	128.19
412.919	127.19
413.142	143.19
413.365	111.19
413.589	139.19
413.812	125.19
414.035	123.19
414.258	124.19
414.482	123.19
414.705	127.19
414.928	132.19
415.151	115.19
415.374	125.19
415.597	130.19
415.821	135.19
416.044	125.19
416.267	139.19
416.49	122.19
416.713	129.19
416.936	135.19
417.159	121.19
417.382	115.19
417.605	136.19
417.828	121.19
418.051	129.19
418.274	121.19
418.497	125.19
418.72	135.19
418.943	123.19
419.166	128.19
419.389	146.19
419.611	141.19
419.834	128.19
420.057	120.19
420.28	126.19
420.503	127.19
420.726	138.19
420.948	138.19
421.171	142.19
421.394	132.19
421.617	136.19
421.839	134.19
422.062	129.19
422.285	131.19
422.507	127.19
422.73	135.19
422.953	140.19
423.175	149.19
423.398	128.19
423.621	138.19
423.843	132.19
424.066	130.19
424.288	121.19
424.511	125.19
424.733	132.19
424.956	146.19
425.178	132.19
425.401	139.19
425.623	130.19
425.846	134.19
426.068	144.19
426.291	128.19
426.513	130.19
426.735	127.19
426.958	143.19
427.18	136.19
427.402	139.19
427.625	144.19
427.847	131.19
428.069	132.19
428.292	128.19
428.514	118.19
428.736	128.19
428.958	128.19
429.181	119.19
429.403	126.19
429.625	112.19
429.847	124.19
430.069	129.19
430.292	143.19
430.514	124.19
430.736	128.19
430.958	123.19
431.18	136.19
431.402	118.19
431.624	116.19
431.846	114.19
432.068	109.19
432.29	122.19
432.512	121.19
432.734	126.19
432.956	129.19
433.178	127.19
433.4	124.19
433.622	134.19
433.844	138.19
434.066	107.19
434.287	122.19
434.509	123.19
434.731	125.19
434.953	126.19
435.175	124.19
435.397	135.19
435.618	127.19
435.84	134.19
436.062	140.19
436.284	135.19
436.505	149.19
436.727	126.19
436.949	132.19
437.17	129.19
437.392	127.19
437.614	124.19
437.835	120.19
438.057	120.19
438.278	131.19
438.5	132.19
438.721	135.19
438.943	141.19
439.165	133.19
439.386	125.19
439.608	119.19
439.829	120.19
440.05	131.19
440.272	128.19
440.493	123.19
440.715	125.19
440.936	113.19
441.158	123.19
441.379	124.19
441.6	128.19
441.822	136.19
442.043	142.19
442.264	152.19
442.486	137.19
442.707	136.19
442.928	124.19
443.149	135.19
443.371	127.19
443.592	142.19
443.813	142.19
444.034	140.19
444.255	139.19
444.476	136.19
444.698	129.19
444.919	130.19
445.14	226.19
445.361	173.19
445.582	134.19
445.803	123.19
446.024	146.19
446.245	128.19
446.466	141.19
446.687	138.19
446.908	150.19
447.129	118.19
447.35	120.19
447.571	137.19
447.792	124.19
448.013	118.19
448.234	122.19
448.455	117.19
448.675	140.19
448.896	130.19
449.117	120.19
449.338	124.19
449.559	134.19
449.779	152.19
450	126.19
450.221	119.19
450.442	112.19
450.662	125.19
450.883	126.19
451.104	133.19
451.324	119.19
451.545	126.19
451.766	123.19
451.986	122.19
452.207	134.19
452.428	124.19
452.648	124.19
452.869	124.19
453.089	120.19
453.31	119.19
453.53	124.19
453.751	114.19
453.971	109.19
454.192	140.19
454.412	121.19
454.633	112.19
454.853	121.19
455.073	116.19
455.294	113.19
455.514	118.19
455.734	118.19
455.955	115.19
456.175	112.19
456.395	112.19
456.616	115.19
456.836	124.19
457.056	122.19
457.276	111.19
457.497	116.19
457.717	124.19
457.937	120.19
458.157	106.19
458.377	110.19
458.598	120.19
458.818	115.19
459.038	128.19
459.258	128.19
459.478	124.19
459.698	121.19
459.918	118.19
460.138	114.19
460.358	142.19
460.578	134.19
460.798	134.19
461.018	116.19
461.238	116.19
461.458	127.19
461.678	144.19
461.898	117.19
462.118	144.19
462.338	130.19
462.558	139.19
462.777	135.19
462.997	132.19
463.217	143.19
463.437	143.19
463.657	141.19
463.876	122.19
464.096	123.19
464.316	137.19
464.536	128.19
464.755	139.19
464.975	144.19
465.195	135.19
465.414	120.19
465.634	126.19
465.854	120.19
466.073	124.19
466.293	132.19
466.512	119.19
466.732	116.19
466.951	129.19
467.171	112.19
467.391	125.19
467.61	122.19
467.829	116.19
468.049	126.19
468.268	115.19
468.488	117.19
468.707	116.19
468.927	126.19
469.146	120.19
469.365	120.19
469.585	125.19
469.804	138.19
470.023	126.19
470.243	135.19
470.462	126.19
470.681	134.19
470.901	116.19
471.12	126.19
471.339	140.19
471.558	118.19
471.777	119.19
471.997	111.19
472.216	123.19
472.435	141.19
472.654	130.19
472.873	128.19
473.092	124.19
473.311	121.19
473.53	118.19
473.749	131.19
473.968	124.19
474.187	127.19
474.406	124.19
474.625	127.19
474.844	121.19
475.063	110.19
475.282	128.19
475.501	144.19
475.72	130.19
475.939	126.19
476.158	118.19
476.377	114.19
476.596	114.19
476.814	124.19
477.033	133.19
477.252	113.19
477.471	115.19
477.69	128.19
477.908	125.19
478.127	132.19
478.346	139.19
478.564	116.19
478.783	131.19
479.002	127.19
479.22	131.19
479.439	133.19
479.658	124.19
479.876	134.19
480.095	127.19
480.313	134.19
480.532	123.19
480.751	126.19
480.969	135.19
481.188	139.19
481.406	142.19
481.624	120.19
481.843	126.19
482.061	142.19
482.28	130.19
482.498	137.19
482.717	118.19
482.935	140.19
483.153	126.19
483.372	134.19
483.59	138.19
483.808	123.19
484.027	130.19
484.245	134.19
484.463	136.19
484.681	128.19
484.9	123.19
485.118	152.19
485.336	136.19
485.554	130.19
485.772	130.19
485.99	125.19
486.209	125.19
486.427	123.19
486.645	137.19
486.863	130.19
487.081	135.19
487.299	130.19
487.517	127.19
487.735	136.19
487.953	132.19
488.171	125.19
488.389	134.19
488.607	122.19
488.825	143.19
489.043	135.19
489.261	139.19
489.479	132.19
489.696	128.19
489.914	144.19
490.132	121.19
490.35	127.19
490.568	138.19
490.786	132.19
491.003	134.19
491.221	139.19
491.439	140.19
491.657	150.19
491.874	158.19
492.092	131.19
492.31	142.19
492.527	169.19
492.745	141.19
492.963	138.19
493.18	127.19
493.398	146.19
493.615	149.19
493.833	143.19
494.05	145.19
494.268	142.19
494.485	144.19
494.703	140.19
494.92	147.19
495.138	139.19
495.355	146.19
495.573	129.19
495.79	143.19
496.008	151.19
496.225	150.19
496.442	142.19
496.66	151.19
496.877	133.19
497.094	139.19
497.312	136.19
497.529	148.19
497.746	154.19
497.963	151.19
498.181	139.19
498.398	151.19
498.615	175.19
498.832	146.19
499.049	150.19
499.267	174.19
499.484	178.19
499.701	184.19
499.918	196.19
500.135	192.19
500.352	218.19
500.569	221.19
500.786	189.19
501.003	205.19
501.22	195.19
501.437	175.19
501.654	181.19
501.871	178.19
502.088	159.19
502.305	163.19
502.522	164.19
502.739	170.19
502.956	147.19
503.172	161.19
503.389	126.19
503.606	152.19
503.823	160.19
504.04	145.19
504.256	141.19
504.473	145.19
504.69	141.19
504.907	156.19
505.123	144.19
505.34	132.19
