Data from 1968.PennyLincolnUp.Lamp.En5.5.200Scan.071719.P1._HRD10591_14-49-49-969.txt Node
Date: Thu Jul 18 14:49:49 EDT 2019
User: cochatt
Spectrometer: HR+D1059
Trigger mode: 1
Integration Time (sec): 1.000000E-1
Scans to average: 1
Electric dark correction enabled: true
Nonlinearity correction enabled: false
Boxcar width: 0
XAxis mode: Wavelengths
Number of Pixels in Spectrum: 2048
>>>>>Begin Spectral Data<<<<<
223.165	-5.62
223.4	-5.62
223.635	-5.62
223.869	-24.62
224.104	-15.62
224.338	-19.62
224.573	-10.62
224.808	-16.62
225.042	-1.62
225.277	-5.62
225.511	-12.62
225.746	14.38
225.98	-3.62
226.215	15.38
226.449	23.38
226.683	6.38
226.918	18.38
227.152	38.38
227.387	29.38
227.621	23.38
227.856	44.38
228.09	48.38
228.324	54.38
228.559	68.38
228.793	59.38
229.027	57.38
229.262	71.38
229.496	62.38
229.73	61.38
229.964	83.38
230.199	78.38
230.433	73.38
230.667	84.38
230.901	78.38
231.136	83.38
231.37	88.38
231.604	96.38
231.838	103.38
232.072	97.38
232.306	80.38
232.541	78.38
232.775	86.38
233.009	84.38
233.243	78.38
233.477	82.38
233.711	89.38
233.945	91.38
234.179	83.38
234.413	98.38
234.647	88.38
234.881	70.38
235.115	82.38
235.349	88.38
235.583	79.38
235.817	91.38
236.051	85.38
236.285	81.38
236.519	80.38
236.753	81.38
236.987	80.38
237.221	77.38
237.455	83.38
237.689	75.38
237.922	89.38
238.156	84.38
238.39	82.38
238.624	80.38
238.858	81.38
239.091	66.38
239.325	88.38
239.559	69.38
239.793	87.38
240.027	76.38
240.26	85.38
240.494	89.38
240.728	90.38
240.961	73.38
241.195	91.38
241.429	94.38
241.662	72.38
241.896	84.38
242.13	79.38
242.363	80.38
242.597	81.38
242.83	80.38
243.064	78.38
243.298	84.38
243.531	90.38
243.765	106.38
243.998	94.38
244.232	78.38
244.465	90.38
244.699	87.38
244.932	82.38
245.166	80.38
245.399	84.38
245.633	87.38
245.866	83.38
246.099	68.38
246.333	79.38
246.566	86.38
246.8	76.38
247.033	91.38
247.266	83.38
247.5	93.38
247.733	81.38
247.966	88.38
248.2	81.38
248.433	66.38
248.666	100.38
248.899	93.38
249.133	96.38
249.366	86.38
249.599	72.38
249.832	79.38
250.066	80.38
250.299	78.38
250.532	80.38
250.765	78.38
250.998	78.38
251.231	68.38
251.465	71.38
251.698	93.38
251.931	98.38
252.164	87.38
252.397	84.38
252.63	85.38
252.863	90.38
253.096	88.38
253.329	99.38
253.562	85.38
253.795	93.38
254.028	85.38
254.261	89.38
254.494	87.38
254.727	93.38
254.96	102.38
255.193	97.38
255.426	100.38
255.659	84.38
255.892	89.38
256.124	86.38
256.357	91.38
256.59	100.38
256.823	88.38
257.056	94.38
257.289	104.38
257.521	91.38
257.754	85.38
257.987	96.38
258.22	91.38
258.452	92.38
258.685	87.38
258.918	83.38
259.151	90.38
259.383	83.38
259.616	98.38
259.849	78.38
260.081	87.38
260.314	74.38
260.547	96.38
260.779	108.38
261.012	86.38
261.244	97.38
261.477	89.38
261.71	89.38
261.942	98.38
262.175	107.38
262.407	94.38
262.64	103.38
262.872	85.38
263.105	90.38
263.337	98.38
263.57	90.38
263.802	100.38
264.035	88.38
264.267	85.38
264.499	90.38
264.732	82.38
264.964	85.38
265.197	102.38
265.429	99.38
265.661	81.38
265.894	87.38
266.126	97.38
266.358	79.38
266.591	84.38
266.823	96.38
267.055	91.38
267.287	101.38
267.52	97.38
267.752	89.38
267.984	100.38
268.216	88.38
268.448	102.38
268.681	100.38
268.913	90.38
269.145	96.38
269.377	101.38
269.609	99.38
269.841	106.38
270.073	100.38
270.306	95.38
270.538	101.38
270.77	92.38
271.002	101.38
271.234	103.38
271.466	90.38
271.698	93.38
271.93	102.38
272.162	106.38
272.394	110.38
272.626	91.38
272.858	104.38
273.09	86.38
273.322	103.38
273.553	92.38
273.785	99.38
274.017	96.38
274.249	99.38
274.481	92.38
274.713	98.38
274.945	93.38
275.176	104.38
275.408	105.38
275.64	101.38
275.872	96.38
276.104	103.38
276.335	99.38
276.567	115.38
276.799	85.38
277.031	107.38
277.262	90.38
277.494	106.38
277.726	101.38
277.957	88.38
278.189	91.38
278.421	91.38
278.652	100.38
278.884	103.38
279.115	89.38
279.347	107.38
279.579	95.38
279.81	104.38
280.042	106.38
280.273	111.38
280.505	98.38
280.736	93.38
280.968	98.38
281.199	93.38
281.431	97.38
281.662	105.38
281.894	101.38
282.125	92.38
282.356	111.38
282.588	112.38
282.819	103.38
283.051	109.38
283.282	105.38
283.513	92.38
283.745	110.38
283.976	102.38
284.207	100.38
284.439	90.38
284.67	111.38
284.901	117.38
285.132	94.38
285.364	108.38
285.595	83.38
285.826	101.38
286.057	102.38
286.288	94.38
286.52	107.38
286.751	96.38
286.982	94.38
287.213	115.38
287.444	113.38
287.675	91.38
287.906	107.38
288.138	100.38
288.369	92.38
288.6	91.38
288.831	104.38
289.062	103.38
289.293	110.38
289.524	95.38
289.755	105.38
289.986	118.38
290.217	90.38
290.448	100.38
290.679	97.38
290.91	101.38
291.141	88.38
291.371	109.38
291.602	95.38
291.833	90.38
292.064	106.38
292.295	91.38
292.526	102.38
292.757	103.38
292.987	102.38
293.218	93.38
293.449	114.38
293.68	108.38
293.91	112.38
294.141	109.38
294.372	102.38
294.603	115.38
294.833	109.38
295.064	107.38
295.295	114.38
295.525	103.38
295.756	100.38
295.987	114.38
296.217	104.38
296.448	101.38
296.679	112.38
296.909	104.38
297.14	108.38
297.37	98.38
297.601	93.38
297.831	103.38
298.062	90.38
298.292	101.38
298.523	92.38
298.753	92.38
298.984	98.38
299.214	112.38
299.445	109.38
299.675	110.38
299.905	101.38
300.136	117.38
300.366	114.38
300.597	92.38
300.827	132.38
301.057	106.38
301.288	118.38
301.518	106.38
301.748	109.38
301.979	98.38
302.209	92.38
302.439	96.38
302.669	113.38
302.9	97.38
303.13	103.38
303.36	111.38
303.59	99.38
303.82	103.38
304.051	101.38
304.281	100.38
304.511	106.38
304.741	109.38
304.971	102.38
305.201	95.38
305.431	102.38
305.661	100.38
305.891	115.38
306.121	99.38
306.352	105.38
306.582	102.38
306.812	104.38
307.042	106.38
307.272	96.38
307.502	101.38
307.731	104.38
307.961	103.38
308.191	107.38
308.421	106.38
308.651	110.38
308.881	107.38
309.111	103.38
309.341	103.38
309.571	125.38
309.8	104.38
310.03	102.38
310.26	123.38
310.49	100.38
310.72	98.38
310.949	107.38
311.179	101.38
311.409	110.38
311.639	108.38
311.868	120.38
312.098	111.38
312.328	122.38
312.557	116.38
312.787	94.38
313.017	112.38
313.246	105.38
313.476	104.38
313.706	112.38
313.935	110.38
314.165	114.38
314.394	105.38
314.624	104.38
314.853	109.38
315.083	106.38
315.312	123.38
315.542	114.38
315.771	104.38
316.001	115.38
316.23	104.38
316.46	119.38
316.689	102.38
316.919	100.38
317.148	102.38
317.377	83.38
317.607	112.38
317.836	113.38
318.065	120.38
318.295	102.38
318.524	95.38
318.753	103.38
318.983	107.38
319.212	114.38
319.441	108.38
319.67	124.38
319.9	97.38
320.129	91.38
320.358	104.38
320.587	102.38
320.816	102.38
321.046	103.38
321.275	115.38
321.504	127.38
321.733	108.38
321.962	101.38
322.191	111.38
322.42	105.38
322.649	104.38
322.878	129.38
323.108	99.38
323.337	109.38
323.566	114.38
323.795	114.38
324.024	123.38
324.253	118.38
324.482	129.38
324.71	146.38
324.939	169.38
325.168	168.38
325.397	132.38
325.626	118.38
325.855	120.38
326.084	112.38
326.313	91.38
326.542	111.38
326.77	130.38
326.999	118.38
327.228	126.38
327.457	145.38
327.686	144.38
327.914	119.38
328.143	112.38
328.372	113.38
328.6	105.38
328.829	111.38
329.058	103.38
329.287	122.38
329.515	108.38
329.744	120.38
329.972	119.38
330.201	111.38
330.43	121.38
330.658	122.38
330.887	110.38
331.115	117.38
331.344	108.38
331.572	125.38
331.801	107.38
332.03	118.38
332.258	120.38
332.486	124.38
332.715	113.38
332.943	114.38
333.172	117.38
333.4	114.38
333.629	106.38
333.857	118.38
334.085	119.38
334.314	125.38
334.542	104.38
334.771	122.38
334.999	105.38
335.227	120.38
335.455	134.38
335.684	131.38
335.912	118.38
336.14	111.38
336.369	118.38
336.597	124.38
336.825	121.38
337.053	124.38
337.281	107.38
337.51	100.38
337.738	130.38
337.966	101.38
338.194	126.38
338.422	124.38
338.65	129.38
338.878	115.38
339.106	100.38
339.334	114.38
339.562	112.38
339.79	109.38
340.018	99.38
340.246	108.38
340.474	119.38
340.702	100.38
340.93	112.38
341.158	95.38
341.386	120.38
341.614	108.38
341.842	112.38
342.07	103.38
342.298	102.38
342.526	111.38
342.754	112.38
342.981	117.38
343.209	122.38
343.437	116.38
343.665	110.38
343.893	126.38
344.12	132.38
344.348	119.38
344.576	108.38
344.804	111.38
345.031	120.38
345.259	120.38
345.487	118.38
345.714	105.38
345.942	114.38
346.17	110.38
346.397	95.38
346.625	102.38
346.853	103.38
347.08	114.38
347.308	113.38
347.535	103.38
347.763	106.38
347.99	101.38
348.218	121.38
348.445	105.38
348.673	106.38
348.9	86.38
349.128	106.38
349.355	99.38
349.583	116.38
349.81	103.38
350.037	109.38
350.265	117.38
350.492	115.38
350.72	100.38
350.947	103.38
351.174	117.38
351.402	116.38
351.629	109.38
351.856	112.38
352.083	106.38
352.311	94.38
352.538	91.38
352.765	117.38
352.992	103.38
353.22	111.38
353.447	96.38
353.674	110.38
353.901	105.38
354.128	95.38
354.355	112.38
354.583	116.38
354.81	123.38
355.037	114.38
355.264	99.38
355.491	103.38
355.718	123.38
355.945	116.38
356.172	106.38
356.399	121.38
356.626	128.38
356.853	108.38
357.08	102.38
357.307	109.38
357.534	114.38
357.761	111.38
357.988	112.38
358.215	111.38
358.441	104.38
358.668	105.38
358.895	94.38
359.122	124.38
359.349	104.38
359.576	102.38
359.802	109.38
360.029	107.38
360.256	117.38
360.483	122.38
360.709	121.38
360.936	109.38
361.163	110.38
361.39	98.38
361.616	125.38
361.843	105.38
362.07	103.38
362.296	109.38
362.523	108.38
362.749	103.38
362.976	122.38
363.203	115.38
363.429	121.38
363.656	114.38
363.882	104.38
364.109	108.38
364.335	111.38
364.562	123.38
364.788	111.38
365.015	110.38
365.241	113.38
365.468	123.38
365.694	108.38
365.92	114.38
366.147	97.38
366.373	94.38
366.599	111.38
366.826	105.38
367.052	98.38
367.278	112.38
367.505	101.38
367.731	106.38
367.957	93.38
368.184	104.38
368.41	107.38
368.636	116.38
368.862	125.38
369.089	113.38
369.315	120.38
369.541	118.38
369.767	103.38
369.993	112.38
370.219	120.38
370.445	116.38
370.672	101.38
370.898	116.38
371.124	122.38
371.35	118.38
371.576	124.38
371.802	112.38
372.028	118.38
372.254	123.38
372.48	115.38
372.706	111.38
372.932	109.38
373.158	118.38
373.384	128.38
373.61	116.38
373.835	112.38
374.061	119.38
374.287	116.38
374.513	128.38
374.739	103.38
374.965	109.38
375.191	121.38
375.416	117.38
375.642	107.38
375.868	122.38
376.094	103.38
376.319	108.38
376.545	114.38
376.771	127.38
376.997	118.38
377.222	96.38
377.448	103.38
377.674	108.38
377.899	104.38
378.125	119.38
378.35	118.38
378.576	112.38
378.802	104.38
379.027	124.38
379.253	119.38
379.478	118.38
379.704	114.38
379.929	119.38
380.155	111.38
380.38	106.38
380.606	104.38
380.831	120.38
381.057	120.38
381.282	117.38
381.507	107.38
381.733	105.38
381.958	120.38
382.184	118.38
382.409	126.38
382.634	108.38
382.86	115.38
383.085	110.38
383.31	116.38
383.535	117.38
383.761	106.38
383.986	124.38
384.211	112.38
384.436	129.38
384.662	130.38
384.887	129.38
385.112	129.38
385.337	132.38
385.562	128.38
385.787	124.38
386.013	131.38
386.238	120.38
386.463	118.38
386.688	124.38
386.913	115.38
387.138	121.38
387.363	118.38
387.588	123.38
387.813	128.38
388.038	118.38
388.263	110.38
388.488	124.38
388.713	119.38
388.938	115.38
389.163	123.38
389.387	124.38
389.612	131.38
389.837	116.38
390.062	119.38
390.287	123.38
390.512	117.38
390.736	122.38
390.961	122.38
391.186	133.38
391.411	118.38
391.636	108.38
391.86	114.38
392.085	107.38
392.31	130.38
392.534	131.38
392.759	130.38
392.984	110.38
393.208	124.38
393.433	123.38
393.658	122.38
393.882	130.38
394.107	120.38
394.331	126.38
394.556	114.38
394.78	117.38
395.005	133.38
395.229	128.38
395.454	115.38
395.678	123.38
395.903	119.38
396.127	118.38
396.352	120.38
396.576	115.38
396.801	114.38
397.025	125.38
397.249	130.38
397.474	127.38
397.698	127.38
397.922	123.38
398.147	135.38
398.371	125.38
398.595	126.38
398.82	126.38
399.044	122.38
399.268	145.38
399.492	123.38
399.717	142.38
399.941	148.38
400.165	150.38
400.389	138.38
400.613	144.38
400.837	115.38
401.062	136.38
401.286	129.38
401.51	124.38
401.734	134.38
401.958	141.38
402.182	127.38
402.406	134.38
402.63	138.38
402.854	124.38
403.078	131.38
403.302	132.38
403.526	141.38
403.75	137.38
403.974	137.38
404.198	133.38
404.422	127.38
404.645	136.38
404.869	118.38
405.093	126.38
405.317	130.38
405.541	137.38
405.765	126.38
405.988	119.38
406.212	130.38
406.436	141.38
406.66	135.38
406.883	143.38
407.107	103.38
407.331	146.38
407.555	141.38
407.778	140.38
408.002	132.38
408.226	138.38
408.449	138.38
408.673	134.38
408.896	130.38
409.12	134.38
409.344	135.38
409.567	129.38
409.791	144.38
410.014	128.38
410.238	130.38
410.461	132.38
410.685	135.38
410.908	137.38
411.132	136.38
411.355	141.38
411.578	130.38
411.802	143.38
412.025	140.38
412.249	140.38
412.472	123.38
412.695	141.38
412.919	144.38
413.142	126.38
413.365	136.38
413.589	125.38
413.812	130.38
414.035	129.38
414.258	111.38
414.482	134.38
414.705	117.38
414.928	135.38
415.151	126.38
415.374	119.38
415.597	126.38
415.821	124.38
416.044	138.38
416.267	130.38
416.49	119.38
416.713	148.38
416.936	127.38
417.159	116.38
417.382	129.38
417.605	122.38
417.828	130.38
418.051	128.38
418.274	131.38
418.497	128.38
418.72	130.38
418.943	135.38
419.166	134.38
419.389	135.38
419.611	128.38
419.834	144.38
420.057	124.38
420.28	128.38
420.503	135.38
420.726	134.38
420.948	124.38
421.171	138.38
421.394	136.38
421.617	137.38
421.839	130.38
422.062	139.38
422.285	136.38
422.507	125.38
422.73	139.38
422.953	132.38
423.175	130.38
423.398	133.38
423.621	141.38
423.843	123.38
424.066	139.38
424.288	140.38
424.511	134.38
424.733	126.38
424.956	134.38
425.178	140.38
425.401	130.38
425.623	137.38
425.846	132.38
426.068	125.38
426.291	145.38
426.513	128.38
426.735	125.38
426.958	127.38
427.18	122.38
427.402	136.38
427.625	154.38
427.847	137.38
428.069	141.38
428.292	132.38
428.514	132.38
428.736	129.38
428.958	140.38
429.181	139.38
429.403	127.38
429.625	120.38
429.847	142.38
430.069	122.38
430.292	120.38
430.514	117.38
430.736	126.38
430.958	129.38
431.18	122.38
431.402	126.38
431.624	114.38
431.846	126.38
432.068	131.38
432.29	118.38
432.512	122.38
432.734	125.38
432.956	120.38
433.178	121.38
433.4	114.38
433.622	121.38
433.844	118.38
434.066	122.38
434.287	123.38
434.509	121.38
434.731	129.38
434.953	110.38
435.175	112.38
435.397	123.38
435.618	126.38
435.84	133.38
436.062	143.38
436.284	142.38
436.505	131.38
436.727	116.38
436.949	120.38
437.17	119.38
437.392	121.38
437.614	136.38
437.835	118.38
438.057	118.38
438.278	140.38
438.5	129.38
438.721	155.38
438.943	144.38
439.165	130.38
439.386	126.38
439.608	116.38
439.829	133.38
440.05	120.38
440.272	123.38
440.493	122.38
440.715	118.38
440.936	137.38
441.158	124.38
441.379	131.38
441.6	136.38
441.822	133.38
442.043	134.38
442.264	143.38
442.486	121.38
442.707	130.38
442.928	154.38
443.149	128.38
443.371	132.38
443.592	144.38
443.813	163.38
444.034	142.38
444.255	137.38
444.476	132.38
444.698	131.38
444.919	141.38
445.14	291.38
445.361	185.38
445.582	143.38
445.803	135.38
446.024	149.38
446.245	134.38
446.466	139.38
446.687	117.38
446.908	126.38
447.129	123.38
447.35	128.38
447.571	118.38
447.792	123.38
448.013	115.38
448.234	108.38
448.455	133.38
448.675	135.38
448.896	133.38
449.117	103.38
449.338	122.38
449.559	128.38
449.779	149.38
450	133.38
450.221	119.38
450.442	118.38
450.662	118.38
450.883	112.38
451.104	122.38
451.324	122.38
451.545	131.38
451.766	116.38
451.986	132.38
452.207	122.38
452.428	117.38
452.648	111.38
452.869	115.38
453.089	128.38
453.31	130.38
453.53	132.38
453.751	135.38
453.971	125.38
454.192	120.38
454.412	122.38
454.633	114.38
454.853	123.38
455.073	102.38
455.294	136.38
455.514	105.38
455.734	126.38
455.955	119.38
456.175	110.38
456.395	128.38
456.616	127.38
456.836	110.38
457.056	108.38
457.276	106.38
457.497	112.38
457.717	132.38
457.937	126.38
458.157	109.38
458.377	126.38
458.598	110.38
458.818	125.38
459.038	120.38
459.258	142.38
459.478	128.38
459.698	121.38
459.918	126.38
460.138	138.38
460.358	122.38
460.578	127.38
460.798	142.38
461.018	128.38
461.238	123.38
461.458	114.38
461.678	134.38
461.898	139.38
462.118	126.38
462.338	146.38
462.558	134.38
462.777	122.38
462.997	128.38
463.217	147.38
463.437	120.38
463.657	126.38
463.876	136.38
464.096	138.38
464.316	140.38
464.536	127.38
464.755	144.38
464.975	136.38
465.195	141.38
465.414	126.38
465.634	117.38
465.854	133.38
466.073	128.38
466.293	131.38
466.512	130.38
466.732	111.38
466.951	120.38
467.171	128.38
467.391	125.38
467.61	140.38
467.829	119.38
468.049	120.38
468.268	115.38
468.488	125.38
468.707	108.38
468.927	112.38
469.146	127.38
469.365	127.38
469.585	127.38
469.804	130.38
470.023	116.38
470.243	139.38
470.462	136.38
470.681	123.38
470.901	126.38
471.12	127.38
471.339	124.38
471.558	126.38
471.777	127.38
471.997	110.38
472.216	132.38
472.435	140.38
472.654	123.38
472.873	112.38
473.092	128.38
473.311	118.38
473.53	109.38
473.749	118.38
473.968	126.38
474.187	122.38
474.406	134.38
474.625	112.38
474.844	124.38
475.063	130.38
475.282	124.38
475.501	115.38
475.72	117.38
475.939	123.38
476.158	110.38
476.377	122.38
476.596	126.38
476.814	127.38
477.033	126.38
477.252	137.38
477.471	126.38
477.69	128.38
477.908	138.38
478.127	123.38
478.346	127.38
478.564	120.38
478.783	145.38
479.002	142.38
479.22	129.38
479.439	128.38
479.658	138.38
479.876	138.38
480.095	122.38
480.313	116.38
480.532	158.38
480.751	132.38
480.969	132.38
481.188	138.38
481.406	129.38
481.624	136.38
481.843	137.38
482.061	116.38
482.28	132.38
482.498	132.38
482.717	129.38
482.935	138.38
483.153	120.38
483.372	137.38
483.59	123.38
483.808	117.38
484.027	142.38
484.245	127.38
484.463	134.38
484.681	123.38
484.9	126.38
485.118	128.38
485.336	140.38
485.554	137.38
485.772	131.38
485.99	121.38
486.209	134.38
486.427	135.38
486.645	131.38
486.863	138.38
487.081	140.38
487.299	131.38
487.517	142.38
487.735	150.38
487.953	134.38
488.171	152.38
488.389	154.38
488.607	138.38
488.825	127.38
489.043	124.38
489.261	141.38
489.479	137.38
489.696	138.38
489.914	146.38
490.132	129.38
490.35	140.38
490.568	147.38
490.786	139.38
491.003	172.38
491.221	134.38
491.439	148.38
491.657	140.38
491.874	142.38
492.092	135.38
492.31	143.38
492.527	143.38
492.745	157.38
492.963	155.38
493.18	148.38
493.398	145.38
493.615	147.38
493.833	140.38
494.05	128.38
494.268	134.38
494.485	121.38
494.703	149.38
494.92	141.38
495.138	130.38
495.355	150.38
495.573	140.38
495.79	142.38
496.008	131.38
496.225	146.38
496.442	130.38
496.66	147.38
496.877	150.38
497.094	169.38
497.312	138.38
497.529	152.38
497.746	150.38
497.963	157.38
498.181	146.38
498.398	154.38
498.615	172.38
498.832	138.38
499.049	162.38
499.267	159.38
499.484	163.38
499.701	186.38
499.918	202.38
500.135	211.38
500.352	214.38
500.569	229.38
500.786	218.38
501.003	206.38
501.22	185.38
501.437	200.38
501.654	155.38
501.871	168.38
502.088	154.38
502.305	166.38
502.522	143.38
502.739	157.38
502.956	146.38
503.172	158.38
503.389	147.38
503.606	140.38
503.823	151.38
504.04	149.38
504.256	161.38
504.473	134.38
504.69	130.38
504.907	155.38
505.123	134.38
505.34	141.38
