Data from 1968.PennyLincolnUp.Lamp.En5.5.200Scan.071719.P1._HRD10591_14-51-20-970.txt Node
Date: Thu Jul 18 14:51:20 EDT 2019
User: cochatt
Spectrometer: HR+D1059
Trigger mode: 1
Integration Time (sec): 1.000000E-1
Scans to average: 1
Electric dark correction enabled: true
Nonlinearity correction enabled: false
Boxcar width: 0
XAxis mode: Wavelengths
Number of Pixels in Spectrum: 2048
>>>>>Begin Spectral Data<<<<<
223.165	3.44
223.4	3.44
223.635	3.44
223.869	-25.56
224.104	-19.56
224.338	-13.56
224.573	-22.56
224.808	-0.56
225.042	4.44
225.277	-15.56
225.511	-6.56
225.746	4.44
225.98	1.44
226.215	13.44
226.449	22.44
226.683	11.44
226.918	15.44
227.152	27.44
227.387	27.44
227.621	35.44
227.856	37.44
228.09	49.44
228.324	36.44
228.559	46.44
228.793	59.44
229.027	59.44
229.262	68.44
229.496	71.44
229.73	69.44
229.964	59.44
230.199	51.44
230.433	78.44
230.667	78.44
230.901	84.44
231.136	76.44
231.37	94.44
231.604	93.44
231.838	83.44
232.072	85.44
232.306	93.44
232.541	92.44
232.775	93.44
233.009	88.44
233.243	72.44
233.477	96.44
233.711	100.44
233.945	75.44
234.179	93.44
234.413	79.44
234.647	88.44
234.881	81.44
235.115	88.44
235.349	85.44
235.583	82.44
235.817	85.44
236.051	77.44
236.285	90.44
236.519	91.44
236.753	91.44
236.987	82.44
237.221	77.44
237.455	82.44
237.689	83.44
237.922	79.44
238.156	70.44
238.39	88.44
238.624	93.44
238.858	78.44
239.091	84.44
239.325	85.44
239.559	87.44
239.793	86.44
240.027	76.44
240.26	79.44
240.494	101.44
240.728	102.44
240.961	83.44
241.195	73.44
241.429	83.44
241.662	70.44
241.896	73.44
242.13	75.44
242.363	82.44
242.597	79.44
242.83	75.44
243.064	83.44
243.298	95.44
243.531	103.44
243.765	82.44
243.998	78.44
244.232	79.44
244.465	93.44
244.699	77.44
244.932	92.44
245.166	82.44
245.399	83.44
245.633	86.44
245.866	94.44
246.099	80.44
246.333	89.44
246.566	84.44
246.8	82.44
247.033	89.44
247.266	73.44
247.5	76.44
247.733	92.44
247.966	85.44
248.2	82.44
248.433	96.44
248.666	98.44
248.899	91.44
249.133	100.44
249.366	91.44
249.599	82.44
249.832	95.44
250.066	90.44
250.299	82.44
250.532	80.44
250.765	87.44
250.998	92.44
251.231	80.44
251.465	95.44
251.698	98.44
251.931	90.44
252.164	86.44
252.397	83.44
252.63	82.44
252.863	87.44
253.096	85.44
253.329	95.44
253.562	102.44
253.795	86.44
254.028	91.44
254.261	116.44
254.494	93.44
254.727	88.44
254.96	77.44
255.193	95.44
255.426	102.44
255.659	85.44
255.892	99.44
256.124	78.44
256.357	97.44
256.59	87.44
256.823	89.44
257.056	93.44
257.289	92.44
257.521	102.44
257.754	106.44
257.987	97.44
258.22	85.44
258.452	91.44
258.685	93.44
258.918	93.44
259.151	104.44
259.383	100.44
259.616	87.44
259.849	88.44
260.081	92.44
260.314	106.44
260.547	94.44
260.779	83.44
261.012	79.44
261.244	89.44
261.477	97.44
261.71	80.44
261.942	96.44
262.175	95.44
262.407	102.44
262.64	107.44
262.872	94.44
263.105	90.44
263.337	86.44
263.57	82.44
263.802	97.44
264.035	89.44
264.267	86.44
264.499	84.44
264.732	98.44
264.964	93.44
265.197	86.44
265.429	98.44
265.661	100.44
265.894	87.44
266.126	103.44
266.358	91.44
266.591	88.44
266.823	96.44
267.055	108.44
267.287	98.44
267.52	86.44
267.752	81.44
267.984	101.44
268.216	94.44
268.448	97.44
268.681	94.44
268.913	93.44
269.145	90.44
269.377	100.44
269.609	95.44
269.841	74.44
270.073	100.44
270.306	94.44
270.538	103.44
270.77	97.44
271.002	90.44
271.234	102.44
271.466	90.44
271.698	98.44
271.93	94.44
272.162	92.44
272.394	100.44
272.626	105.44
272.858	104.44
273.09	95.44
273.322	99.44
273.553	106.44
273.785	104.44
274.017	91.44
274.249	89.44
274.481	88.44
274.713	118.44
274.945	110.44
275.176	105.44
275.408	83.44
275.64	82.44
275.872	92.44
276.104	89.44
276.335	104.44
276.567	94.44
276.799	86.44
277.031	103.44
277.262	112.44
277.494	102.44
277.726	86.44
277.957	97.44
278.189	102.44
278.421	89.44
278.652	101.44
278.884	95.44
279.115	92.44
279.347	112.44
279.579	91.44
279.81	97.44
280.042	109.44
280.273	102.44
280.505	99.44
280.736	99.44
280.968	110.44
281.199	89.44
281.431	97.44
281.662	99.44
281.894	100.44
282.125	114.44
282.356	111.44
282.588	108.44
282.819	97.44
283.051	108.44
283.282	97.44
283.513	102.44
283.745	100.44
283.976	112.44
284.207	115.44
284.439	116.44
284.67	100.44
284.901	90.44
285.132	100.44
285.364	91.44
285.595	91.44
285.826	102.44
286.057	104.44
286.288	106.44
286.52	96.44
286.751	105.44
286.982	96.44
287.213	116.44
287.444	110.44
287.675	100.44
287.906	96.44
288.138	96.44
288.369	110.44
288.6	122.44
288.831	107.44
289.062	99.44
289.293	100.44
289.524	99.44
289.755	104.44
289.986	108.44
290.217	111.44
290.448	98.44
290.679	98.44
290.91	105.44
291.141	99.44
291.371	100.44
291.602	95.44
291.833	106.44
292.064	117.44
292.295	117.44
292.526	98.44
292.757	107.44
292.987	87.44
293.218	114.44
293.449	100.44
293.68	102.44
293.91	100.44
294.141	97.44
294.372	93.44
294.603	105.44
294.833	99.44
295.064	116.44
295.295	107.44
295.525	94.44
295.756	97.44
295.987	98.44
296.217	100.44
296.448	88.44
296.679	117.44
296.909	107.44
297.14	95.44
297.37	106.44
297.601	120.44
297.831	100.44
298.062	127.44
298.292	99.44
298.523	113.44
298.753	101.44
298.984	100.44
299.214	119.44
299.445	116.44
299.675	109.44
299.905	118.44
300.136	102.44
300.366	103.44
300.597	95.44
300.827	114.44
301.057	121.44
301.288	111.44
301.518	103.44
301.748	108.44
301.979	94.44
302.209	109.44
302.439	94.44
302.669	121.44
302.9	99.44
303.13	111.44
303.36	96.44
303.59	100.44
303.82	97.44
304.051	104.44
304.281	101.44
304.511	115.44
304.741	105.44
304.971	102.44
305.201	117.44
305.431	108.44
305.661	119.44
305.891	104.44
306.121	115.44
306.352	102.44
306.582	110.44
306.812	94.44
307.042	107.44
307.272	102.44
307.502	105.44
307.731	92.44
307.961	108.44
308.191	97.44
308.421	105.44
308.651	107.44
308.881	99.44
309.111	120.44
309.341	111.44
309.571	106.44
309.8	101.44
310.03	122.44
310.26	110.44
310.49	106.44
310.72	100.44
310.949	101.44
311.179	101.44
311.409	98.44
311.639	98.44
311.868	124.44
312.098	100.44
312.328	103.44
312.557	116.44
312.787	108.44
313.017	103.44
313.246	103.44
313.476	98.44
313.706	92.44
313.935	98.44
314.165	104.44
314.394	96.44
314.624	106.44
314.853	109.44
315.083	123.44
315.312	111.44
315.542	102.44
315.771	101.44
316.001	107.44
316.23	110.44
316.46	105.44
316.689	124.44
316.919	103.44
317.148	123.44
317.377	114.44
317.607	110.44
317.836	105.44
318.065	111.44
318.295	108.44
318.524	101.44
318.753	113.44
318.983	117.44
319.212	106.44
319.441	109.44
319.67	117.44
319.9	115.44
320.129	113.44
320.358	109.44
320.587	98.44
320.816	99.44
321.046	105.44
321.275	98.44
321.504	99.44
321.733	106.44
321.962	119.44
322.191	114.44
322.42	99.44
322.649	100.44
322.878	122.44
323.108	121.44
323.337	120.44
323.566	115.44
323.795	114.44
324.024	112.44
324.253	124.44
324.482	138.44
324.71	179.44
324.939	177.44
325.168	174.44
325.397	136.44
325.626	105.44
325.855	123.44
326.084	118.44
326.313	122.44
326.542	117.44
326.77	111.44
326.999	123.44
327.228	127.44
327.457	158.44
327.686	156.44
327.914	129.44
328.143	130.44
328.372	112.44
328.6	119.44
328.829	119.44
329.058	110.44
329.287	113.44
329.515	119.44
329.744	115.44
329.972	125.44
330.201	112.44
330.43	122.44
330.658	125.44
330.887	116.44
331.115	111.44
331.344	111.44
331.572	127.44
331.801	121.44
332.03	130.44
332.258	111.44
332.486	125.44
332.715	122.44
332.943	113.44
333.172	118.44
333.4	118.44
333.629	127.44
333.857	126.44
334.085	127.44
334.314	116.44
334.542	122.44
334.771	123.44
334.999	105.44
335.227	123.44
335.455	109.44
335.684	105.44
335.912	116.44
336.14	133.44
336.369	121.44
336.597	110.44
336.825	112.44
337.053	119.44
337.281	110.44
337.51	110.44
337.738	104.44
337.966	108.44
338.194	120.44
338.422	113.44
338.65	107.44
338.878	119.44
339.106	113.44
339.334	113.44
339.562	117.44
339.79	93.44
340.018	128.44
340.246	107.44
340.474	120.44
340.702	115.44
340.93	115.44
341.158	133.44
341.386	119.44
341.614	118.44
341.842	114.44
342.07	113.44
342.298	95.44
342.526	114.44
342.754	106.44
342.981	126.44
343.209	121.44
343.437	110.44
343.665	107.44
343.893	108.44
344.12	126.44
344.348	105.44
344.576	130.44
344.804	123.44
345.031	123.44
345.259	117.44
345.487	115.44
345.714	124.44
345.942	112.44
346.17	102.44
346.397	113.44
346.625	106.44
346.853	109.44
347.08	113.44
347.308	114.44
347.535	113.44
347.763	97.44
347.99	117.44
348.218	110.44
348.445	121.44
348.673	94.44
348.9	121.44
349.128	109.44
349.355	113.44
349.583	111.44
349.81	98.44
350.037	107.44
350.265	108.44
350.492	110.44
350.72	105.44
350.947	114.44
351.174	120.44
351.402	104.44
351.629	118.44
351.856	105.44
352.083	125.44
352.311	117.44
352.538	104.44
352.765	119.44
352.992	118.44
353.22	106.44
353.447	111.44
353.674	104.44
353.901	105.44
354.128	122.44
354.355	109.44
354.583	95.44
354.81	105.44
355.037	113.44
355.264	110.44
355.491	97.44
355.718	117.44
355.945	108.44
356.172	121.44
356.399	131.44
356.626	100.44
356.853	105.44
357.08	108.44
357.307	102.44
357.534	115.44
357.761	113.44
357.988	107.44
358.215	117.44
358.441	104.44
358.668	137.44
358.895	115.44
359.122	127.44
359.349	118.44
359.576	125.44
359.802	114.44
360.029	109.44
360.256	125.44
360.483	109.44
360.709	99.44
360.936	123.44
361.163	118.44
361.39	117.44
361.616	107.44
361.843	107.44
362.07	117.44
362.296	113.44
362.523	123.44
362.749	133.44
362.976	95.44
363.203	118.44
363.429	107.44
363.656	104.44
363.882	110.44
364.109	104.44
364.335	119.44
364.562	107.44
364.788	108.44
365.015	108.44
365.241	112.44
365.468	117.44
365.694	107.44
365.92	117.44
366.147	102.44
366.373	105.44
366.599	105.44
366.826	105.44
367.052	104.44
367.278	98.44
367.505	109.44
367.731	117.44
367.957	113.44
368.184	114.44
368.41	102.44
368.636	91.44
368.862	108.44
369.089	108.44
369.315	116.44
369.541	99.44
369.767	105.44
369.993	107.44
370.219	109.44
370.445	117.44
370.672	127.44
370.898	118.44
371.124	113.44
371.35	111.44
371.576	106.44
371.802	116.44
372.028	120.44
372.254	102.44
372.48	115.44
372.706	106.44
372.932	124.44
373.158	116.44
373.384	114.44
373.61	122.44
373.835	121.44
374.061	115.44
374.287	122.44
374.513	121.44
374.739	119.44
374.965	117.44
375.191	107.44
375.416	113.44
375.642	121.44
375.868	112.44
376.094	113.44
376.319	114.44
376.545	120.44
376.771	103.44
376.997	106.44
377.222	110.44
377.448	106.44
377.674	128.44
377.899	114.44
378.125	105.44
378.35	114.44
378.576	103.44
378.802	108.44
379.027	116.44
379.253	125.44
379.478	111.44
379.704	106.44
379.929	97.44
380.155	106.44
380.38	108.44
380.606	103.44
380.831	105.44
381.057	128.44
381.282	108.44
381.507	113.44
381.733	107.44
381.958	121.44
382.184	115.44
382.409	111.44
382.634	122.44
382.86	111.44
383.085	113.44
383.31	113.44
383.535	121.44
383.761	115.44
383.986	125.44
384.211	114.44
384.436	123.44
384.662	126.44
384.887	122.44
385.112	105.44
385.337	123.44
385.562	113.44
385.787	119.44
386.013	126.44
386.238	124.44
386.463	120.44
386.688	121.44
386.913	133.44
387.138	125.44
387.363	123.44
387.588	122.44
387.813	118.44
388.038	114.44
388.263	125.44
388.488	118.44
388.713	129.44
388.938	111.44
389.163	127.44
389.387	124.44
389.612	121.44
389.837	130.44
390.062	118.44
390.287	101.44
390.512	129.44
390.736	114.44
390.961	116.44
391.186	129.44
391.411	109.44
391.636	127.44
391.86	117.44
392.085	122.44
392.31	131.44
392.534	125.44
392.759	133.44
392.984	123.44
393.208	124.44
393.433	124.44
393.658	119.44
393.882	129.44
394.107	120.44
394.331	129.44
394.556	124.44
394.78	119.44
395.005	119.44
395.229	122.44
395.454	127.44
395.678	127.44
395.903	115.44
396.127	123.44
396.352	127.44
396.576	118.44
396.801	116.44
397.025	124.44
397.249	112.44
397.474	124.44
397.698	117.44
397.922	120.44
398.147	146.44
398.371	135.44
398.595	124.44
398.82	129.44
399.044	140.44
399.268	130.44
399.492	130.44
399.717	149.44
399.941	139.44
400.165	150.44
400.389	128.44
400.613	121.44
400.837	131.44
401.062	125.44
401.286	127.44
401.51	122.44
401.734	123.44
401.958	136.44
402.182	133.44
402.406	138.44
402.63	124.44
402.854	134.44
403.078	134.44
403.302	131.44
403.526	131.44
403.75	138.44
403.974	139.44
404.198	137.44
404.422	125.44
404.645	126.44
404.869	134.44
405.093	152.44
405.317	155.44
405.541	149.44
405.765	127.44
405.988	149.44
406.212	139.44
406.436	141.44
406.66	148.44
406.883	150.44
407.107	140.44
407.331	132.44
407.555	146.44
407.778	153.44
408.002	135.44
408.226	142.44
408.449	143.44
408.673	132.44
408.896	135.44
409.12	149.44
409.344	133.44
409.567	128.44
409.791	128.44
410.014	134.44
410.238	131.44
410.461	145.44
410.685	139.44
410.908	129.44
411.132	143.44
411.355	143.44
411.578	138.44
411.802	138.44
412.025	138.44
412.249	133.44
412.472	139.44
412.695	132.44
412.919	131.44
413.142	135.44
413.365	131.44
413.589	128.44
413.812	126.44
414.035	141.44
414.258	127.44
414.482	133.44
414.705	139.44
414.928	134.44
415.151	136.44
415.374	137.44
415.597	133.44
415.821	127.44
416.044	116.44
416.267	135.44
416.49	137.44
416.713	133.44
416.936	129.44
417.159	134.44
417.382	133.44
417.605	134.44
417.828	125.44
418.051	123.44
418.274	125.44
418.497	125.44
418.72	122.44
418.943	123.44
419.166	143.44
419.389	143.44
419.611	126.44
419.834	142.44
420.057	140.44
420.28	130.44
420.503	130.44
420.726	139.44
420.948	124.44
421.171	140.44
421.394	139.44
421.617	120.44
421.839	125.44
422.062	140.44
422.285	122.44
422.507	129.44
422.73	144.44
422.953	138.44
423.175	143.44
423.398	138.44
423.621	130.44
423.843	142.44
424.066	138.44
424.288	134.44
424.511	151.44
424.733	141.44
424.956	133.44
425.178	137.44
425.401	129.44
425.623	135.44
425.846	130.44
426.068	132.44
426.291	115.44
426.513	131.44
426.735	127.44
426.958	137.44
427.18	133.44
427.402	134.44
427.625	161.44
427.847	133.44
428.069	138.44
428.292	129.44
428.514	121.44
428.736	134.44
428.958	121.44
429.181	113.44
429.403	138.44
429.625	122.44
429.847	143.44
430.069	114.44
430.292	132.44
430.514	123.44
430.736	128.44
430.958	125.44
431.18	126.44
431.402	125.44
431.624	133.44
431.846	123.44
432.068	133.44
432.29	122.44
432.512	131.44
432.734	123.44
432.956	134.44
433.178	148.44
433.4	131.44
433.622	125.44
433.844	117.44
434.066	140.44
434.287	121.44
434.509	133.44
434.731	151.44
434.953	130.44
435.175	124.44
435.397	145.44
435.618	131.44
435.84	129.44
436.062	137.44
436.284	132.44
436.505	136.44
436.727	120.44
436.949	123.44
437.17	118.44
437.392	123.44
437.614	129.44
437.835	124.44
438.057	138.44
438.278	134.44
438.5	139.44
438.721	142.44
438.943	142.44
439.165	128.44
439.386	124.44
439.608	131.44
439.829	135.44
440.05	134.44
440.272	123.44
440.493	131.44
440.715	115.44
440.936	117.44
441.158	129.44
441.379	140.44
441.6	126.44
441.822	133.44
442.043	144.44
442.264	138.44
442.486	132.44
442.707	122.44
442.928	129.44
443.149	143.44
443.371	144.44
443.592	144.44
443.813	135.44
444.034	150.44
444.255	139.44
444.476	134.44
444.698	149.44
444.919	142.44
445.14	231.44
445.361	166.44
445.582	143.44
445.803	131.44
446.024	151.44
446.245	141.44
446.466	146.44
446.687	117.44
446.908	129.44
447.129	125.44
447.35	124.44
447.571	135.44
447.792	123.44
448.013	134.44
448.234	139.44
448.455	141.44
448.675	135.44
448.896	142.44
449.117	127.44
449.338	135.44
449.559	152.44
449.779	135.44
450	123.44
450.221	131.44
450.442	121.44
450.662	125.44
450.883	124.44
451.104	133.44
451.324	116.44
451.545	108.44
451.766	125.44
451.986	132.44
452.207	114.44
452.428	119.44
452.648	121.44
452.869	137.44
453.089	119.44
453.31	119.44
453.53	109.44
453.751	105.44
453.971	109.44
454.192	127.44
454.412	118.44
454.633	121.44
454.853	115.44
455.073	117.44
455.294	116.44
455.514	117.44
455.734	128.44
455.955	115.44
456.175	113.44
456.395	114.44
456.616	120.44
456.836	127.44
457.056	123.44
457.276	120.44
457.497	129.44
457.717	117.44
457.937	111.44
458.157	122.44
458.377	120.44
458.598	113.44
458.818	132.44
459.038	127.44
459.258	127.44
459.478	125.44
459.698	117.44
459.918	123.44
460.138	127.44
460.358	133.44
460.578	134.44
460.798	128.44
461.018	140.44
461.238	114.44
461.458	125.44
461.678	129.44
461.898	145.44
462.118	133.44
462.338	119.44
462.558	142.44
462.777	127.44
462.997	137.44
463.217	134.44
463.437	157.44
463.657	135.44
463.876	139.44
464.096	141.44
464.316	133.44
464.536	147.44
464.755	134.44
464.975	135.44
465.195	142.44
465.414	123.44
465.634	138.44
465.854	119.44
466.073	137.44
466.293	124.44
466.512	132.44
466.732	130.44
466.951	126.44
467.171	131.44
467.391	141.44
467.61	109.44
467.829	127.44
468.049	122.44
468.268	138.44
468.488	124.44
468.707	125.44
468.927	110.44
469.146	123.44
469.365	129.44
469.585	109.44
469.804	133.44
470.023	132.44
470.243	145.44
470.462	129.44
470.681	107.44
470.901	131.44
471.12	126.44
471.339	127.44
471.558	134.44
471.777	137.44
471.997	130.44
472.216	118.44
472.435	122.44
472.654	118.44
472.873	130.44
473.092	115.44
473.311	115.44
473.53	126.44
473.749	123.44
473.968	129.44
474.187	132.44
474.406	131.44
474.625	123.44
474.844	110.44
475.063	120.44
475.282	130.44
475.501	117.44
475.72	122.44
475.939	126.44
476.158	112.44
476.377	126.44
476.596	137.44
476.814	121.44
477.033	105.44
477.252	125.44
477.471	124.44
477.69	129.44
477.908	130.44
478.127	128.44
478.346	126.44
478.564	133.44
478.783	120.44
479.002	118.44
479.22	131.44
479.439	138.44
479.658	130.44
479.876	124.44
480.095	128.44
480.313	146.44
480.532	133.44
480.751	134.44
480.969	122.44
481.188	126.44
481.406	132.44
481.624	131.44
481.843	113.44
482.061	114.44
482.28	141.44
482.498	131.44
482.717	130.44
482.935	132.44
483.153	139.44
483.372	125.44
483.59	121.44
483.808	131.44
484.027	123.44
484.245	143.44
484.463	133.44
484.681	137.44
484.9	135.44
485.118	147.44
485.336	135.44
485.554	126.44
485.772	136.44
485.99	119.44
486.209	141.44
486.427	123.44
486.645	140.44
486.863	128.44
487.081	132.44
487.299	142.44
487.517	141.44
487.735	128.44
487.953	137.44
488.171	124.44
488.389	138.44
488.607	129.44
488.825	129.44
489.043	141.44
489.261	126.44
489.479	129.44
489.696	139.44
489.914	138.44
490.132	159.44
490.35	122.44
490.568	139.44
490.786	131.44
491.003	135.44
491.221	152.44
491.439	142.44
491.657	152.44
491.874	142.44
492.092	135.44
492.31	154.44
492.527	155.44
492.745	141.44
492.963	161.44
493.18	131.44
493.398	159.44
493.615	147.44
493.833	144.44
494.05	152.44
494.268	139.44
494.485	137.44
494.703	140.44
494.92	140.44
495.138	140.44
495.355	144.44
495.573	153.44
495.79	138.44
496.008	156.44
496.225	141.44
496.442	153.44
496.66	138.44
496.877	150.44
497.094	159.44
497.312	163.44
497.529	148.44
497.746	148.44
497.963	153.44
498.181	161.44
498.398	161.44
498.615	162.44
498.832	156.44
499.049	163.44
499.267	160.44
499.484	174.44
499.701	181.44
499.918	182.44
500.135	220.44
500.352	214.44
500.569	205.44
500.786	219.44
501.003	218.44
501.22	197.44
501.437	211.44
501.654	184.44
501.871	168.44
502.088	170.44
502.305	164.44
502.522	156.44
502.739	167.44
502.956	145.44
503.172	155.44
503.389	151.44
503.606	158.44
503.823	143.44
504.04	149.44
504.256	146.44
504.473	153.44
504.69	150.44
504.907	154.44
505.123	153.44
505.34	141.44
505.557	153.44
