Data from 1968.PennyLincolnUp.Lamp.En5.5.200Scan.071719.P1._HRD10591_14-51-11-970.txt Node
Date: Thu Jul 18 14:51:11 EDT 2019
User: cochatt
Spectrometer: HR+D1059
Trigger mode: 1
Integration Time (sec): 1.000000E-1
Scans to average: 1
Electric dark correction enabled: true
Nonlinearity correction enabled: false
Boxcar width: 0
XAxis mode: Wavelengths
Number of Pixels in Spectrum: 2048
>>>>>Begin Spectral Data<<<<<
223.165	-12.5
223.4	-12.5
223.635	-12.5
223.869	-13.5
224.104	-21.5
224.338	-23.5
224.573	-13.5
224.808	-5.5
225.042	-9.5
225.277	-4.5
225.511	1.5
225.746	6.5
225.98	4.5
226.215	5.5
226.449	13.5
226.683	29.5
226.918	25.5
227.152	17.5
227.387	22.5
227.621	40.5
227.856	44.5
228.09	52.5
228.324	36.5
228.559	49.5
228.793	56.5
229.027	55.5
229.262	68.5
229.496	65.5
229.73	58.5
229.964	75.5
230.199	66.5
230.433	75.5
230.667	85.5
230.901	76.5
231.136	81.5
231.37	82.5
231.604	73.5
231.838	86.5
232.072	71.5
232.306	73.5
232.541	74.5
232.775	95.5
233.009	87.5
233.243	86.5
233.477	79.5
233.711	83.5
233.945	89.5
234.179	88.5
234.413	84.5
234.647	95.5
234.881	83.5
235.115	63.5
235.349	94.5
235.583	82.5
235.817	87.5
236.051	80.5
236.285	80.5
236.519	84.5
236.753	76.5
236.987	76.5
237.221	83.5
237.455	88.5
237.689	62.5
237.922	95.5
238.156	85.5
238.39	82.5
238.624	80.5
238.858	76.5
239.091	72.5
239.325	79.5
239.559	68.5
239.793	78.5
240.027	71.5
240.26	68.5
240.494	71.5
240.728	78.5
240.961	88.5
241.195	88.5
241.429	81.5
241.662	77.5
241.896	73.5
242.13	75.5
242.363	76.5
242.597	95.5
242.83	86.5
243.064	85.5
243.298	79.5
243.531	76.5
243.765	89.5
243.998	77.5
244.232	88.5
244.465	68.5
244.699	67.5
244.932	74.5
245.166	87.5
245.399	73.5
245.633	95.5
245.866	76.5
246.099	79.5
246.333	73.5
246.566	83.5
246.8	72.5
247.033	77.5
247.266	82.5
247.5	97.5
247.733	93.5
247.966	81.5
248.2	79.5
248.433	75.5
248.666	81.5
248.899	92.5
249.133	87.5
249.366	88.5
249.599	77.5
249.832	95.5
250.066	91.5
250.299	77.5
250.532	99.5
250.765	88.5
250.998	98.5
251.231	93.5
251.465	82.5
251.698	94.5
251.931	85.5
252.164	89.5
252.397	93.5
252.63	97.5
252.863	80.5
253.096	86.5
253.329	91.5
253.562	97.5
253.795	85.5
254.028	83.5
254.261	81.5
254.494	78.5
254.727	84.5
254.96	98.5
255.193	74.5
255.426	90.5
255.659	95.5
255.892	89.5
256.124	88.5
256.357	84.5
256.59	102.5
256.823	80.5
257.056	86.5
257.289	85.5
257.521	95.5
257.754	79.5
257.987	101.5
258.22	97.5
258.452	92.5
258.685	92.5
258.918	84.5
259.151	100.5
259.383	74.5
259.616	107.5
259.849	94.5
260.081	96.5
260.314	87.5
260.547	85.5
260.779	92.5
261.012	84.5
261.244	84.5
261.477	96.5
261.71	93.5
261.942	96.5
262.175	97.5
262.407	77.5
262.64	95.5
262.872	93.5
263.105	86.5
263.337	91.5
263.57	84.5
263.802	71.5
264.035	82.5
264.267	90.5
264.499	89.5
264.732	102.5
264.964	84.5
265.197	99.5
265.429	82.5
265.661	87.5
265.894	82.5
266.126	86.5
266.358	84.5
266.591	86.5
266.823	88.5
267.055	68.5
267.287	76.5
267.52	91.5
267.752	77.5
267.984	91.5
268.216	102.5
268.448	89.5
268.681	80.5
268.913	93.5
269.145	97.5
269.377	97.5
269.609	87.5
269.841	84.5
270.073	96.5
270.306	97.5
270.538	84.5
270.77	99.5
271.002	90.5
271.234	85.5
271.466	99.5
271.698	89.5
271.93	106.5
272.162	100.5
272.394	85.5
272.626	93.5
272.858	101.5
273.09	106.5
273.322	105.5
273.553	105.5
273.785	93.5
274.017	90.5
274.249	82.5
274.481	99.5
274.713	99.5
274.945	103.5
275.176	104.5
275.408	95.5
275.64	86.5
275.872	95.5
276.104	101.5
276.335	101.5
276.567	103.5
276.799	98.5
277.031	97.5
277.262	93.5
277.494	85.5
277.726	102.5
277.957	102.5
278.189	99.5
278.421	90.5
278.652	98.5
278.884	91.5
279.115	88.5
279.347	85.5
279.579	104.5
279.81	98.5
280.042	92.5
280.273	101.5
280.505	89.5
280.736	101.5
280.968	92.5
281.199	108.5
281.431	107.5
281.662	95.5
281.894	96.5
282.125	98.5
282.356	97.5
282.588	104.5
282.819	96.5
283.051	96.5
283.282	98.5
283.513	105.5
283.745	95.5
283.976	88.5
284.207	93.5
284.439	87.5
284.67	102.5
284.901	113.5
285.132	84.5
285.364	102.5
285.595	107.5
285.826	107.5
286.057	107.5
286.288	95.5
286.52	104.5
286.751	104.5
286.982	93.5
287.213	101.5
287.444	105.5
287.675	94.5
287.906	96.5
288.138	105.5
288.369	97.5
288.6	108.5
288.831	83.5
289.062	115.5
289.293	87.5
289.524	97.5
289.755	88.5
289.986	102.5
290.217	107.5
290.448	111.5
290.679	104.5
290.91	103.5
291.141	89.5
291.371	99.5
291.602	103.5
291.833	93.5
292.064	99.5
292.295	98.5
292.526	111.5
292.757	103.5
292.987	103.5
293.218	117.5
293.449	115.5
293.68	107.5
293.91	99.5
294.141	98.5
294.372	105.5
294.603	97.5
294.833	93.5
295.064	98.5
295.295	99.5
295.525	108.5
295.756	109.5
295.987	111.5
296.217	110.5
296.448	104.5
296.679	103.5
296.909	107.5
297.14	103.5
297.37	105.5
297.601	103.5
297.831	89.5
298.062	97.5
298.292	106.5
298.523	105.5
298.753	98.5
298.984	106.5
299.214	107.5
299.445	102.5
299.675	103.5
299.905	107.5
300.136	99.5
300.366	104.5
300.597	111.5
300.827	104.5
301.057	96.5
301.288	102.5
301.518	92.5
301.748	93.5
301.979	97.5
302.209	101.5
302.439	107.5
302.669	110.5
302.9	106.5
303.13	95.5
303.36	99.5
303.59	106.5
303.82	104.5
304.051	97.5
304.281	112.5
304.511	99.5
304.741	100.5
304.971	90.5
305.201	103.5
305.431	113.5
305.661	104.5
305.891	106.5
306.121	111.5
306.352	104.5
306.582	106.5
306.812	104.5
307.042	90.5
307.272	95.5
307.502	101.5
307.731	100.5
307.961	92.5
308.191	93.5
308.421	99.5
308.651	115.5
308.881	89.5
309.111	108.5
309.341	99.5
309.571	106.5
309.8	108.5
310.03	113.5
310.26	98.5
310.49	109.5
310.72	103.5
310.949	103.5
311.179	107.5
311.409	98.5
311.639	99.5
311.868	96.5
312.098	100.5
312.328	91.5
312.557	95.5
312.787	104.5
313.017	106.5
313.246	91.5
313.476	103.5
313.706	100.5
313.935	107.5
314.165	112.5
314.394	117.5
314.624	117.5
314.853	101.5
315.083	105.5
315.312	104.5
315.542	105.5
315.771	111.5
316.001	93.5
316.23	111.5
316.46	104.5
316.689	111.5
316.919	106.5
317.148	123.5
317.377	111.5
317.607	100.5
317.836	98.5
318.065	112.5
318.295	116.5
318.524	120.5
318.753	111.5
318.983	126.5
319.212	95.5
319.441	103.5
319.67	106.5
319.9	121.5
320.129	101.5
320.358	104.5
320.587	80.5
320.816	109.5
321.046	103.5
321.275	104.5
321.504	124.5
321.733	113.5
321.962	112.5
322.191	108.5
322.42	116.5
322.649	121.5
322.878	108.5
323.108	108.5
323.337	122.5
323.566	109.5
323.795	100.5
324.024	117.5
324.253	110.5
324.482	133.5
324.71	156.5
324.939	179.5
325.168	168.5
325.397	116.5
325.626	107.5
325.855	135.5
326.084	112.5
326.313	113.5
326.542	108.5
326.77	114.5
326.999	121.5
327.228	141.5
327.457	176.5
327.686	156.5
327.914	132.5
328.143	101.5
328.372	103.5
328.6	119.5
328.829	115.5
329.058	108.5
329.287	99.5
329.515	106.5
329.744	99.5
329.972	108.5
330.201	100.5
330.43	108.5
330.658	93.5
330.887	99.5
331.115	115.5
331.344	102.5
331.572	113.5
331.801	108.5
332.03	123.5
332.258	119.5
332.486	120.5
332.715	111.5
332.943	122.5
333.172	111.5
333.4	125.5
333.629	116.5
333.857	109.5
334.085	122.5
334.314	125.5
334.542	125.5
334.771	107.5
334.999	121.5
335.227	115.5
335.455	119.5
335.684	134.5
335.912	119.5
336.14	118.5
336.369	106.5
336.597	108.5
336.825	120.5
337.053	113.5
337.281	119.5
337.51	119.5
337.738	108.5
337.966	115.5
338.194	127.5
338.422	106.5
338.65	103.5
338.878	114.5
339.106	114.5
339.334	106.5
339.562	117.5
339.79	116.5
340.018	98.5
340.246	104.5
340.474	108.5
340.702	106.5
340.93	110.5
341.158	113.5
341.386	113.5
341.614	107.5
341.842	117.5
342.07	109.5
342.298	102.5
342.526	99.5
342.754	115.5
342.981	106.5
343.209	114.5
343.437	112.5
343.665	115.5
343.893	125.5
344.12	117.5
344.348	120.5
344.576	127.5
344.804	116.5
345.031	104.5
345.259	110.5
345.487	108.5
345.714	105.5
345.942	96.5
346.17	104.5
346.397	114.5
346.625	115.5
346.853	113.5
347.08	107.5
347.308	107.5
347.535	107.5
347.763	112.5
347.99	98.5
348.218	100.5
348.445	114.5
348.673	106.5
348.9	99.5
349.128	119.5
349.355	113.5
349.583	117.5
349.81	100.5
350.037	113.5
350.265	114.5
350.492	105.5
350.72	121.5
350.947	119.5
351.174	115.5
351.402	111.5
351.629	112.5
351.856	106.5
352.083	105.5
352.311	108.5
352.538	106.5
352.765	109.5
352.992	115.5
353.22	114.5
353.447	119.5
353.674	123.5
353.901	114.5
354.128	116.5
354.355	114.5
354.583	112.5
354.81	99.5
355.037	108.5
355.264	103.5
355.491	101.5
355.718	99.5
355.945	115.5
356.172	118.5
356.399	115.5
356.626	115.5
356.853	114.5
357.08	108.5
357.307	115.5
357.534	105.5
357.761	104.5
357.988	104.5
358.215	118.5
358.441	105.5
358.668	119.5
358.895	113.5
359.122	115.5
359.349	111.5
359.576	108.5
359.802	113.5
360.029	112.5
360.256	117.5
360.483	102.5
360.709	119.5
360.936	121.5
361.163	98.5
361.39	97.5
361.616	116.5
361.843	103.5
362.07	117.5
362.296	111.5
362.523	104.5
362.749	111.5
362.976	93.5
363.203	110.5
363.429	98.5
363.656	119.5
363.882	116.5
364.109	100.5
364.335	127.5
364.562	110.5
364.788	117.5
365.015	111.5
365.241	114.5
365.468	104.5
365.694	123.5
365.92	115.5
366.147	121.5
366.373	102.5
366.599	111.5
366.826	121.5
367.052	117.5
367.278	107.5
367.505	108.5
367.731	103.5
367.957	124.5
368.184	113.5
368.41	111.5
368.636	106.5
368.862	116.5
369.089	111.5
369.315	106.5
369.541	115.5
369.767	108.5
369.993	109.5
370.219	95.5
370.445	119.5
370.672	123.5
370.898	114.5
371.124	107.5
371.35	105.5
371.576	110.5
371.802	105.5
372.028	119.5
372.254	100.5
372.48	104.5
372.706	113.5
372.932	122.5
373.158	124.5
373.384	116.5
373.61	122.5
373.835	115.5
374.061	121.5
374.287	106.5
374.513	129.5
374.739	112.5
374.965	121.5
375.191	111.5
375.416	112.5
375.642	100.5
375.868	103.5
376.094	106.5
376.319	106.5
376.545	120.5
376.771	104.5
376.997	108.5
377.222	133.5
377.448	123.5
377.674	107.5
377.899	125.5
378.125	104.5
378.35	108.5
378.576	110.5
378.802	102.5
379.027	106.5
379.253	107.5
379.478	99.5
379.704	118.5
379.929	105.5
380.155	106.5
380.38	110.5
380.606	119.5
380.831	103.5
381.057	118.5
381.282	108.5
381.507	90.5
381.733	125.5
381.958	124.5
382.184	111.5
382.409	107.5
382.634	94.5
382.86	100.5
383.085	124.5
383.31	120.5
383.535	118.5
383.761	108.5
383.986	137.5
384.211	118.5
384.436	105.5
384.662	107.5
384.887	105.5
385.112	104.5
385.337	96.5
385.562	117.5
385.787	112.5
386.013	120.5
386.238	113.5
386.463	116.5
386.688	103.5
386.913	122.5
387.138	118.5
387.363	108.5
387.588	119.5
387.813	119.5
388.038	114.5
388.263	123.5
388.488	120.5
388.713	113.5
388.938	126.5
389.163	103.5
389.387	115.5
389.612	118.5
389.837	113.5
390.062	129.5
390.287	119.5
390.512	126.5
390.736	122.5
390.961	105.5
391.186	117.5
391.411	121.5
391.636	121.5
391.86	125.5
392.085	124.5
392.31	117.5
392.534	115.5
392.759	119.5
392.984	117.5
393.208	117.5
393.433	132.5
393.658	117.5
393.882	127.5
394.107	116.5
394.331	107.5
394.556	111.5
394.78	129.5
395.005	126.5
395.229	109.5
395.454	128.5
395.678	127.5
395.903	105.5
396.127	114.5
396.352	127.5
396.576	117.5
396.801	115.5
397.025	111.5
397.249	131.5
397.474	126.5
397.698	120.5
397.922	126.5
398.147	123.5
398.371	121.5
398.595	126.5
398.82	129.5
399.044	126.5
399.268	152.5
399.492	142.5
399.717	143.5
399.941	141.5
400.165	159.5
400.389	147.5
400.613	124.5
400.837	114.5
401.062	118.5
401.286	132.5
401.51	138.5
401.734	121.5
401.958	125.5
402.182	122.5
402.406	128.5
402.63	125.5
402.854	123.5
403.078	123.5
403.302	128.5
403.526	133.5
403.75	134.5
403.974	123.5
404.198	136.5
404.422	143.5
404.645	137.5
404.869	131.5
405.093	136.5
405.317	123.5
405.541	141.5
405.765	124.5
405.988	129.5
406.212	132.5
406.436	123.5
406.66	145.5
406.883	139.5
407.107	137.5
407.331	143.5
407.555	144.5
407.778	135.5
408.002	133.5
408.226	149.5
408.449	137.5
408.673	130.5
408.896	124.5
409.12	129.5
409.344	124.5
409.567	131.5
409.791	123.5
410.014	148.5
410.238	129.5
410.461	144.5
410.685	143.5
410.908	137.5
411.132	135.5
411.355	138.5
411.578	135.5
411.802	120.5
412.025	140.5
412.249	128.5
412.472	126.5
412.695	142.5
412.919	140.5
413.142	120.5
413.365	135.5
413.589	132.5
413.812	131.5
414.035	135.5
414.258	127.5
414.482	133.5
414.705	125.5
414.928	117.5
415.151	116.5
415.374	135.5
415.597	140.5
415.821	140.5
416.044	128.5
416.267	137.5
416.49	130.5
416.713	138.5
416.936	135.5
417.159	137.5
417.382	133.5
417.605	130.5
417.828	142.5
418.051	127.5
418.274	135.5
418.497	136.5
418.72	121.5
418.943	133.5
419.166	124.5
419.389	140.5
419.611	120.5
419.834	127.5
420.057	128.5
420.28	116.5
420.503	128.5
420.726	116.5
420.948	124.5
421.171	128.5
421.394	132.5
421.617	123.5
421.839	129.5
422.062	136.5
422.285	143.5
422.507	145.5
422.73	132.5
422.953	139.5
423.175	131.5
423.398	118.5
423.621	121.5
423.843	128.5
424.066	134.5
424.288	121.5
424.511	148.5
424.733	144.5
424.956	135.5
425.178	125.5
425.401	153.5
425.623	137.5
425.846	120.5
426.068	130.5
426.291	129.5
426.513	129.5
426.735	129.5
426.958	146.5
427.18	153.5
427.402	147.5
427.625	146.5
427.847	135.5
428.069	140.5
428.292	116.5
428.514	125.5
428.736	119.5
428.958	133.5
429.181	140.5
429.403	111.5
429.625	123.5
429.847	137.5
430.069	130.5
430.292	127.5
430.514	120.5
430.736	130.5
430.958	127.5
431.18	123.5
431.402	114.5
431.624	121.5
431.846	119.5
432.068	120.5
432.29	124.5
432.512	121.5
432.734	112.5
432.956	127.5
433.178	129.5
433.4	135.5
433.622	127.5
433.844	124.5
434.066	121.5
434.287	118.5
434.509	124.5
434.731	124.5
434.953	146.5
435.175	112.5
435.397	124.5
435.618	128.5
435.84	134.5
436.062	149.5
436.284	149.5
436.505	119.5
436.727	129.5
436.949	145.5
437.17	113.5
437.392	131.5
437.614	116.5
437.835	109.5
438.057	123.5
438.278	143.5
438.5	130.5
438.721	147.5
438.943	145.5
439.165	134.5
439.386	119.5
439.608	121.5
439.829	118.5
440.05	144.5
440.272	134.5
440.493	131.5
440.715	139.5
440.936	148.5
441.158	144.5
441.379	152.5
441.6	123.5
441.822	133.5
442.043	131.5
442.264	136.5
442.486	146.5
442.707	129.5
442.928	131.5
443.149	130.5
443.371	128.5
443.592	135.5
443.813	139.5
444.034	149.5
444.255	135.5
444.476	138.5
444.698	133.5
444.919	145.5
445.14	223.5
445.361	167.5
445.582	141.5
445.803	133.5
446.024	125.5
446.245	144.5
446.466	133.5
446.687	107.5
446.908	125.5
447.129	119.5
447.35	111.5
447.571	124.5
447.792	138.5
448.013	132.5
448.234	130.5
448.455	144.5
448.675	133.5
448.896	146.5
449.117	146.5
449.338	117.5
449.559	139.5
449.779	147.5
450	132.5
450.221	135.5
450.442	129.5
450.662	116.5
450.883	129.5
451.104	127.5
451.324	125.5
451.545	129.5
451.766	115.5
451.986	120.5
452.207	127.5
452.428	115.5
452.648	131.5
452.869	131.5
453.089	111.5
453.31	132.5
453.53	119.5
453.751	115.5
453.971	108.5
454.192	101.5
454.412	129.5
454.633	132.5
454.853	117.5
455.073	109.5
455.294	123.5
455.514	127.5
455.734	109.5
455.955	121.5
456.175	106.5
456.395	122.5
456.616	111.5
456.836	120.5
457.056	129.5
457.276	113.5
457.497	116.5
457.717	102.5
457.937	108.5
458.157	115.5
458.377	116.5
458.598	136.5
458.818	126.5
459.038	128.5
459.258	135.5
459.478	111.5
459.698	113.5
459.918	128.5
460.138	137.5
460.358	125.5
460.578	138.5
460.798	121.5
461.018	131.5
461.238	133.5
461.458	118.5
461.678	124.5
461.898	139.5
462.118	126.5
462.338	124.5
462.558	133.5
462.777	129.5
462.997	144.5
463.217	133.5
463.437	154.5
463.657	127.5
463.876	141.5
464.096	130.5
464.316	145.5
464.536	127.5
464.755	122.5
464.975	134.5
465.195	128.5
465.414	136.5
465.634	114.5
465.854	132.5
466.073	134.5
466.293	128.5
466.512	116.5
466.732	109.5
466.951	124.5
467.171	120.5
467.391	108.5
467.61	109.5
467.829	121.5
468.049	112.5
468.268	105.5
468.488	111.5
468.707	127.5
468.927	119.5
469.146	115.5
469.365	123.5
469.585	116.5
469.804	131.5
470.023	135.5
470.243	127.5
470.462	137.5
470.681	133.5
470.901	132.5
471.12	123.5
471.339	123.5
471.558	131.5
471.777	127.5
471.997	123.5
472.216	125.5
472.435	127.5
472.654	127.5
472.873	123.5
473.092	117.5
473.311	125.5
473.53	123.5
473.749	127.5
473.968	128.5
474.187	143.5
474.406	121.5
474.625	129.5
474.844	120.5
475.063	115.5
475.282	122.5
475.501	117.5
475.72	122.5
475.939	133.5
476.158	112.5
476.377	121.5
476.596	102.5
476.814	125.5
477.033	119.5
477.252	122.5
477.471	113.5
477.69	139.5
477.908	124.5
478.127	129.5
478.346	121.5
478.564	138.5
478.783	132.5
479.002	130.5
479.22	120.5
479.439	142.5
479.658	125.5
479.876	137.5
480.095	136.5
480.313	147.5
480.532	119.5
480.751	126.5
480.969	123.5
481.188	132.5
481.406	131.5
481.624	123.5
481.843	117.5
482.061	123.5
482.28	129.5
482.498	125.5
482.717	131.5
482.935	139.5
483.153	125.5
483.372	119.5
483.59	128.5
483.808	140.5
484.027	140.5
484.245	137.5
484.463	140.5
484.681	135.5
484.9	119.5
485.118	132.5
485.336	145.5
485.554	139.5
485.772	122.5
485.99	138.5
486.209	133.5
486.427	131.5
486.645	133.5
486.863	131.5
487.081	123.5
487.299	131.5
487.517	152.5
487.735	130.5
487.953	132.5
488.171	138.5
488.389	121.5
488.607	158.5
488.825	123.5
489.043	132.5
489.261	135.5
489.479	132.5
489.696	127.5
489.914	129.5
490.132	133.5
490.35	130.5
490.568	153.5
490.786	140.5
491.003	136.5
491.221	142.5
491.439	145.5
491.657	139.5
491.874	145.5
492.092	138.5
492.31	161.5
492.527	147.5
492.745	150.5
492.963	150.5
493.18	153.5
493.398	128.5
493.615	143.5
493.833	151.5
494.05	131.5
494.268	137.5
494.485	146.5
494.703	119.5
494.92	142.5
495.138	147.5
495.355	143.5
495.573	154.5
495.79	140.5
496.008	148.5
496.225	129.5
496.442	148.5
496.66	140.5
496.877	147.5
497.094	145.5
497.312	132.5
497.529	157.5
497.746	137.5
497.963	144.5
498.181	159.5
498.398	144.5
498.615	137.5
498.832	156.5
499.049	149.5
499.267	173.5
499.484	176.5
499.701	169.5
499.918	188.5
500.135	208.5
500.352	207.5
500.569	220.5
500.786	212.5
501.003	208.5
501.22	192.5
501.437	185.5
501.654	161.5
501.871	167.5
502.088	171.5
502.305	173.5
502.522	148.5
502.739	175.5
502.956	162.5
503.172	158.5
503.389	138.5
503.606	139.5
503.823	127.5
504.04	149.5
504.256	137.5
504.473	162.5
504.69	154.5
504.907	159.5
505.123	154.5
505.34	147.5
505.557	148.5
505.773	141.5
505.99	131.5
506.207	125.5
506.423	118.5
506.64	140.5
506.856	128.5
507.073	136.5
507.289	148.5
507.506	139.5
507.722	140.5
507.939	129.5
508.155	140.5
508.372	135.5
508.588	143.5
508.805	133.5
509.021	125.5
509.238	133.5
509.454	131.5
509.67	122.5
509.887	116.5
510.103	131.5
510.319	130.5
510.536	134.5
510.752	167.5
510.968	139.5
511.184	142.5
511.401	135.5
511.617	117.5
511.833	129.5
512.049	116.5
512.265	130.5
512.481	120.5
512.698	107.5
512.914	119.5
513.13	118.5
513.346	118.5
513.562	122.5
513.778	129.5
513.994	131.5
514.21	147.5
514.426	120.5
514.642	143.5
514.858	137.5
515.074	127.5
515.29	149.5
515.506	177.5
515.721	162.5
515.937	131.5
516.153	139.5
516.369	145.5
516.585	141.5
516.801	131.5
517.016	135.5
517.232	130.5
517.448	125.5
517.664	128.5
517.879	165.5
518.095	135.5
518.311	142.5
518.527	152.5
518.742	131.5
518.958	119.5
519.173	137.5
519.389	147.5
519.605	132.5
519.82	137.5
520.036	130.5
520.251	111.5
520.467	121.5
520.682	119.5
520.898	122.5
521.113	123.5
521.329	133.5
521.544	157.5
521.76	139.5
521.975	181.5
522.19	198.5
522.406	133.5
522.621	141.5
522.836	126.5
523.052	108.5
523.267	115.5
523.482	113.5
523.698	129.5
523.913	115.5
524.128	133.5
