Data from 1968.PennyLincolnUp.Lamp.En5.5.200Scan.071719.P1._HRD10591_14-50-29-970.txt Node
Date: Thu Jul 18 14:50:29 EDT 2019
User: cochatt
Spectrometer: HR+D1059
Trigger mode: 1
Integration Time (sec): 1.000000E-1
Scans to average: 1
Electric dark correction enabled: true
Nonlinearity correction enabled: false
Boxcar width: 0
XAxis mode: Wavelengths
Number of Pixels in Spectrum: 2048
>>>>>Begin Spectral Data<<<<<
223.165	-17.75
223.4	-17.75
223.635	-17.75
223.869	-24.75
224.104	-15.75
224.338	4.25
224.573	-18.75
224.808	-18.75
225.042	-4.75
225.277	-0.75
225.511	-10.75
225.746	-0.75
225.98	13.25
226.215	15.25
226.449	14.25
226.683	17.25
226.918	21.25
227.152	27.25
227.387	30.25
227.621	30.25
227.856	37.25
228.09	47.25
228.324	59.25
228.559	58.25
228.793	62.25
229.027	71.25
229.262	51.25
229.496	65.25
229.73	71.25
229.964	71.25
230.199	83.25
230.433	87.25
230.667	74.25
230.901	66.25
231.136	79.25
231.37	73.25
231.604	78.25
231.838	80.25
232.072	89.25
232.306	81.25
232.541	87.25
232.775	74.25
233.009	85.25
233.243	83.25
233.477	89.25
233.711	82.25
233.945	79.25
234.179	92.25
234.413	73.25
234.647	79.25
234.881	85.25
235.115	81.25
235.349	82.25
235.583	85.25
235.817	71.25
236.051	86.25
236.285	76.25
236.519	90.25
236.753	93.25
236.987	95.25
237.221	97.25
237.455	87.25
237.689	78.25
237.922	76.25
238.156	87.25
238.39	77.25
238.624	79.25
238.858	45.25
239.091	79.25
239.325	83.25
239.559	85.25
239.793	75.25
240.027	75.25
240.26	76.25
240.494	80.25
240.728	84.25
240.961	91.25
241.195	91.25
241.429	79.25
241.662	86.25
241.896	85.25
242.13	86.25
242.363	78.25
242.597	65.25
242.83	91.25
243.064	88.25
243.298	71.25
243.531	78.25
243.765	84.25
243.998	87.25
244.232	92.25
244.465	85.25
244.699	85.25
244.932	85.25
245.166	70.25
245.399	85.25
245.633	93.25
245.866	73.25
246.099	92.25
246.333	84.25
246.566	83.25
246.8	86.25
247.033	93.25
247.266	79.25
247.5	85.25
247.733	89.25
247.966	89.25
248.2	68.25
248.433	87.25
248.666	76.25
248.899	89.25
249.133	89.25
249.366	84.25
249.599	95.25
249.832	80.25
250.066	99.25
250.299	101.25
250.532	87.25
250.765	90.25
250.998	89.25
251.231	90.25
251.465	77.25
251.698	81.25
251.931	72.25
252.164	93.25
252.397	99.25
252.63	89.25
252.863	91.25
253.096	93.25
253.329	86.25
253.562	87.25
253.795	99.25
254.028	97.25
254.261	98.25
254.494	87.25
254.727	95.25
254.96	83.25
255.193	82.25
255.426	74.25
255.659	83.25
255.892	86.25
256.124	94.25
256.357	96.25
256.59	88.25
256.823	102.25
257.056	103.25
257.289	94.25
257.521	103.25
257.754	97.25
257.987	85.25
258.22	94.25
258.452	88.25
258.685	90.25
258.918	82.25
259.151	98.25
259.383	99.25
259.616	81.25
259.849	91.25
260.081	98.25
260.314	84.25
260.547	93.25
260.779	93.25
261.012	97.25
261.244	74.25
261.477	92.25
261.71	84.25
261.942	82.25
262.175	98.25
262.407	79.25
262.64	85.25
262.872	100.25
263.105	101.25
263.337	108.25
263.57	94.25
263.802	90.25
264.035	82.25
264.267	87.25
264.499	93.25
264.732	90.25
264.964	90.25
265.197	85.25
265.429	82.25
265.661	92.25
265.894	99.25
266.126	91.25
266.358	109.25
266.591	95.25
266.823	98.25
267.055	84.25
267.287	100.25
267.52	80.25
267.752	84.25
267.984	96.25
268.216	90.25
268.448	91.25
268.681	93.25
268.913	90.25
269.145	82.25
269.377	101.25
269.609	86.25
269.841	100.25
270.073	94.25
270.306	100.25
270.538	90.25
270.77	97.25
271.002	94.25
271.234	97.25
271.466	87.25
271.698	83.25
271.93	97.25
272.162	96.25
272.394	100.25
272.626	87.25
272.858	93.25
273.09	98.25
273.322	101.25
273.553	94.25
273.785	106.25
274.017	94.25
274.249	95.25
274.481	90.25
274.713	92.25
274.945	95.25
275.176	107.25
275.408	109.25
275.64	87.25
275.872	83.25
276.104	93.25
276.335	92.25
276.567	104.25
276.799	91.25
277.031	86.25
277.262	100.25
277.494	94.25
277.726	98.25
277.957	108.25
278.189	99.25
278.421	99.25
278.652	88.25
278.884	101.25
279.115	94.25
279.347	87.25
279.579	104.25
279.81	88.25
280.042	97.25
280.273	107.25
280.505	100.25
280.736	99.25
280.968	107.25
281.199	92.25
281.431	91.25
281.662	88.25
281.894	101.25
282.125	100.25
282.356	99.25
282.588	91.25
282.819	95.25
283.051	116.25
283.282	100.25
283.513	102.25
283.745	102.25
283.976	99.25
284.207	99.25
284.439	92.25
284.67	100.25
284.901	103.25
285.132	85.25
285.364	93.25
285.595	117.25
285.826	101.25
286.057	90.25
286.288	110.25
286.52	86.25
286.751	98.25
286.982	101.25
287.213	111.25
287.444	107.25
287.675	99.25
287.906	93.25
288.138	101.25
288.369	95.25
288.6	113.25
288.831	91.25
289.062	90.25
289.293	100.25
289.524	90.25
289.755	84.25
289.986	85.25
290.217	90.25
290.448	110.25
290.679	92.25
290.91	106.25
291.141	99.25
291.371	105.25
291.602	117.25
291.833	103.25
292.064	104.25
292.295	111.25
292.526	106.25
292.757	94.25
292.987	91.25
293.218	112.25
293.449	97.25
293.68	104.25
293.91	98.25
294.141	102.25
294.372	84.25
294.603	99.25
294.833	105.25
295.064	106.25
295.295	97.25
295.525	107.25
295.756	101.25
295.987	92.25
296.217	110.25
296.448	94.25
296.679	80.25
296.909	94.25
297.14	95.25
297.37	96.25
297.601	105.25
297.831	90.25
298.062	108.25
298.292	100.25
298.523	100.25
298.753	108.25
298.984	96.25
299.214	102.25
299.445	101.25
299.675	103.25
299.905	106.25
300.136	112.25
300.366	105.25
300.597	92.25
300.827	103.25
301.057	93.25
301.288	113.25
301.518	117.25
301.748	93.25
301.979	113.25
302.209	107.25
302.439	106.25
302.669	95.25
302.9	110.25
303.13	93.25
303.36	101.25
303.59	103.25
303.82	104.25
304.051	105.25
304.281	97.25
304.511	107.25
304.741	105.25
304.971	70.25
305.201	101.25
305.431	101.25
305.661	100.25
305.891	107.25
306.121	111.25
306.352	105.25
306.582	94.25
306.812	108.25
307.042	107.25
307.272	94.25
307.502	102.25
307.731	100.25
307.961	117.25
308.191	103.25
308.421	99.25
308.651	99.25
308.881	99.25
309.111	114.25
309.341	101.25
309.571	108.25
309.8	95.25
310.03	122.25
310.26	106.25
310.49	103.25
310.72	122.25
310.949	97.25
311.179	108.25
311.409	101.25
311.639	115.25
311.868	108.25
312.098	109.25
312.328	113.25
312.557	109.25
312.787	108.25
313.017	116.25
313.246	97.25
313.476	102.25
313.706	117.25
313.935	115.25
314.165	105.25
314.394	93.25
314.624	95.25
314.853	109.25
315.083	99.25
315.312	98.25
315.542	96.25
315.771	86.25
316.001	115.25
316.23	97.25
316.46	92.25
316.689	105.25
316.919	103.25
317.148	104.25
317.377	119.25
317.607	113.25
317.836	101.25
318.065	107.25
318.295	109.25
318.524	106.25
318.753	114.25
318.983	101.25
319.212	103.25
319.441	102.25
319.67	108.25
319.9	104.25
320.129	107.25
320.358	98.25
320.587	90.25
320.816	110.25
321.046	99.25
321.275	107.25
321.504	109.25
321.733	97.25
321.962	111.25
322.191	120.25
322.42	109.25
322.649	105.25
322.878	104.25
323.108	116.25
323.337	119.25
323.566	119.25
323.795	128.25
324.024	113.25
324.253	127.25
324.482	125.25
324.71	157.25
324.939	161.25
325.168	137.25
325.397	113.25
325.626	109.25
325.855	107.25
326.084	109.25
326.313	108.25
326.542	110.25
326.77	113.25
326.999	119.25
327.228	122.25
327.457	144.25
327.686	150.25
327.914	135.25
328.143	107.25
328.372	122.25
328.6	105.25
328.829	118.25
329.058	106.25
329.287	109.25
329.515	102.25
329.744	115.25
329.972	103.25
330.201	110.25
330.43	118.25
330.658	118.25
330.887	119.25
331.115	101.25
331.344	119.25
331.572	114.25
331.801	123.25
332.03	106.25
332.258	128.25
332.486	117.25
332.715	100.25
332.943	105.25
333.172	119.25
333.4	121.25
333.629	112.25
333.857	117.25
334.085	117.25
334.314	107.25
334.542	122.25
334.771	126.25
334.999	115.25
335.227	105.25
335.455	121.25
335.684	115.25
335.912	114.25
336.14	126.25
336.369	119.25
336.597	109.25
336.825	101.25
337.053	110.25
337.281	130.25
337.51	115.25
337.738	116.25
337.966	119.25
338.194	122.25
338.422	115.25
338.65	103.25
338.878	107.25
339.106	109.25
339.334	113.25
339.562	110.25
339.79	97.25
340.018	119.25
340.246	107.25
340.474	108.25
340.702	105.25
340.93	106.25
341.158	120.25
341.386	117.25
341.614	118.25
341.842	97.25
342.07	102.25
342.298	107.25
342.526	103.25
342.754	109.25
342.981	115.25
343.209	102.25
343.437	117.25
343.665	117.25
343.893	138.25
344.12	122.25
344.348	125.25
344.576	111.25
344.804	113.25
345.031	105.25
345.259	115.25
345.487	115.25
345.714	114.25
345.942	112.25
346.17	102.25
346.397	113.25
346.625	109.25
346.853	113.25
347.08	107.25
347.308	104.25
347.535	102.25
347.763	108.25
347.99	125.25
348.218	104.25
348.445	99.25
348.673	102.25
348.9	100.25
349.128	109.25
349.355	103.25
349.583	113.25
349.81	105.25
350.037	110.25
350.265	109.25
350.492	102.25
350.72	103.25
350.947	115.25
351.174	100.25
351.402	92.25
351.629	108.25
351.856	101.25
352.083	108.25
352.311	119.25
352.538	104.25
352.765	115.25
352.992	117.25
353.22	119.25
353.447	111.25
353.674	110.25
353.901	109.25
354.128	100.25
354.355	110.25
354.583	103.25
354.81	94.25
355.037	116.25
355.264	104.25
355.491	118.25
355.718	101.25
355.945	97.25
356.172	118.25
356.399	117.25
356.626	107.25
356.853	117.25
357.08	107.25
357.307	115.25
357.534	114.25
357.761	113.25
357.988	107.25
358.215	108.25
358.441	113.25
358.668	116.25
358.895	99.25
359.122	102.25
359.349	120.25
359.576	123.25
359.802	112.25
360.029	106.25
360.256	108.25
360.483	119.25
360.709	105.25
360.936	107.25
361.163	113.25
361.39	106.25
361.616	93.25
361.843	102.25
362.07	95.25
362.296	111.25
362.523	110.25
362.749	108.25
362.976	125.25
363.203	123.25
363.429	103.25
363.656	109.25
363.882	115.25
364.109	111.25
364.335	117.25
364.562	113.25
364.788	106.25
365.015	109.25
365.241	116.25
365.468	113.25
365.694	113.25
365.92	97.25
366.147	100.25
366.373	102.25
366.599	101.25
366.826	101.25
367.052	110.25
367.278	114.25
367.505	110.25
367.731	104.25
367.957	93.25
368.184	104.25
368.41	99.25
368.636	102.25
368.862	111.25
369.089	107.25
369.315	106.25
369.541	109.25
369.767	99.25
369.993	108.25
370.219	107.25
370.445	105.25
370.672	105.25
370.898	118.25
371.124	97.25
371.35	101.25
371.576	107.25
371.802	115.25
372.028	105.25
372.254	105.25
372.48	102.25
372.706	101.25
372.932	110.25
373.158	119.25
373.384	108.25
373.61	102.25
373.835	118.25
374.061	115.25
374.287	106.25
374.513	107.25
374.739	105.25
374.965	118.25
375.191	110.25
375.416	115.25
375.642	117.25
375.868	123.25
376.094	106.25
376.319	113.25
376.545	101.25
376.771	104.25
376.997	103.25
377.222	105.25
377.448	119.25
377.674	130.25
377.899	125.25
378.125	113.25
378.35	108.25
378.576	115.25
378.802	119.25
379.027	108.25
379.253	110.25
379.478	111.25
379.704	110.25
379.929	125.25
380.155	116.25
380.38	106.25
380.606	102.25
380.831	129.25
381.057	108.25
381.282	105.25
381.507	101.25
381.733	108.25
381.958	108.25
382.184	101.25
382.409	108.25
382.634	119.25
382.86	109.25
383.085	120.25
383.31	112.25
383.535	109.25
383.761	124.25
383.986	102.25
384.211	116.25
384.436	121.25
384.662	108.25
384.887	121.25
385.112	118.25
385.337	119.25
385.562	120.25
385.787	123.25
386.013	125.25
386.238	129.25
386.463	126.25
386.688	123.25
386.913	117.25
387.138	108.25
387.363	119.25
387.588	124.25
387.813	118.25
388.038	115.25
388.263	121.25
388.488	119.25
388.713	117.25
388.938	116.25
389.163	125.25
389.387	117.25
389.612	118.25
389.837	100.25
390.062	132.25
390.287	125.25
390.512	123.25
390.736	126.25
390.961	106.25
391.186	114.25
391.411	118.25
391.636	137.25
391.86	108.25
392.085	109.25
392.31	119.25
392.534	116.25
392.759	123.25
392.984	125.25
393.208	123.25
393.433	135.25
393.658	111.25
393.882	125.25
394.107	137.25
394.331	111.25
394.556	109.25
394.78	116.25
395.005	133.25
395.229	114.25
395.454	98.25
395.678	111.25
395.903	121.25
396.127	119.25
396.352	127.25
396.576	133.25
396.801	133.25
397.025	128.25
397.249	124.25
397.474	125.25
397.698	122.25
397.922	125.25
398.147	117.25
398.371	115.25
398.595	113.25
398.82	119.25
399.044	130.25
399.268	133.25
399.492	146.25
399.717	156.25
399.941	136.25
400.165	148.25
400.389	126.25
400.613	125.25
400.837	120.25
401.062	123.25
401.286	121.25
401.51	115.25
401.734	124.25
401.958	134.25
402.182	132.25
402.406	125.25
402.63	124.25
402.854	133.25
403.078	116.25
403.302	137.25
403.526	127.25
403.75	135.25
403.974	141.25
404.198	124.25
404.422	129.25
404.645	129.25
404.869	146.25
405.093	122.25
405.317	140.25
405.541	131.25
405.765	129.25
405.988	141.25
406.212	130.25
406.436	138.25
406.66	136.25
406.883	126.25
407.107	139.25
407.331	137.25
407.555	139.25
407.778	136.25
408.002	149.25
408.226	135.25
408.449	131.25
408.673	132.25
408.896	129.25
409.12	137.25
409.344	136.25
409.567	127.25
409.791	139.25
410.014	119.25
410.238	121.25
410.461	112.25
410.685	129.25
410.908	125.25
411.132	124.25
411.355	129.25
411.578	126.25
411.802	126.25
412.025	121.25
412.249	123.25
412.472	130.25
412.695	113.25
412.919	136.25
413.142	129.25
413.365	127.25
413.589	110.25
413.812	133.25
414.035	125.25
414.258	123.25
414.482	130.25
414.705	117.25
414.928	133.25
415.151	130.25
415.374	127.25
415.597	114.25
415.821	131.25
416.044	127.25
416.267	115.25
416.49	121.25
416.713	130.25
416.936	123.25
417.159	116.25
417.382	135.25
417.605	114.25
417.828	127.25
418.051	125.25
418.274	126.25
418.497	120.25
418.72	124.25
418.943	129.25
419.166	126.25
419.389	119.25
419.611	133.25
419.834	123.25
420.057	127.25
420.28	134.25
420.503	127.25
420.726	121.25
420.948	128.25
421.171	117.25
421.394	122.25
421.617	119.25
421.839	141.25
422.062	124.25
422.285	137.25
422.507	125.25
422.73	138.25
422.953	125.25
423.175	127.25
423.398	117.25
423.621	133.25
423.843	139.25
424.066	119.25
424.288	132.25
424.511	129.25
424.733	125.25
424.956	124.25
425.178	145.25
425.401	138.25
425.623	131.25
425.846	119.25
426.068	128.25
426.291	137.25
426.513	124.25
426.735	130.25
426.958	125.25
427.18	137.25
427.402	160.25
427.625	163.25
427.847	128.25
428.069	141.25
428.292	123.25
428.514	131.25
428.736	123.25
428.958	121.25
429.181	118.25
429.403	120.25
429.625	129.25
429.847	120.25
430.069	132.25
430.292	121.25
430.514	119.25
430.736	124.25
430.958	138.25
431.18	121.25
431.402	118.25
431.624	140.25
431.846	128.25
432.068	124.25
432.29	125.25
432.512	119.25
432.734	123.25
432.956	136.25
433.178	131.25
433.4	116.25
433.622	118.25
433.844	123.25
434.066	129.25
434.287	122.25
434.509	130.25
434.731	119.25
434.953	119.25
435.175	133.25
435.397	129.25
435.618	117.25
435.84	145.25
436.062	147.25
436.284	138.25
436.505	134.25
436.727	122.25
436.949	122.25
437.17	131.25
437.392	125.25
437.614	126.25
437.835	135.25
438.057	137.25
438.278	125.25
438.5	133.25
438.721	130.25
438.943	135.25
439.165	138.25
439.386	123.25
439.608	118.25
439.829	130.25
440.05	134.25
440.272	127.25
440.493	125.25
440.715	119.25
440.936	118.25
441.158	137.25
441.379	127.25
441.6	133.25
441.822	128.25
442.043	133.25
442.264	137.25
442.486	131.25
442.707	132.25
442.928	125.25
443.149	147.25
443.371	130.25
443.592	116.25
443.813	137.25
444.034	128.25
444.255	123.25
444.476	124.25
444.698	132.25
444.919	137.25
445.14	229.25
445.361	171.25
445.582	133.25
445.803	123.25
446.024	133.25
446.245	141.25
446.466	131.25
446.687	126.25
446.908	127.25
447.129	104.25
447.35	137.25
447.571	115.25
447.792	137.25
448.013	118.25
448.234	119.25
448.455	134.25
448.675	127.25
448.896	133.25
449.117	141.25
449.338	132.25
449.559	128.25
449.779	139.25
450	131.25
450.221	123.25
450.442	118.25
450.662	121.25
450.883	127.25
451.104	139.25
451.324	133.25
451.545	117.25
451.766	97.25
451.986	113.25
452.207	116.25
452.428	133.25
452.648	114.25
452.869	115.25
453.089	125.25
453.31	111.25
453.53	108.25
453.751	104.25
453.971	113.25
454.192	113.25
454.412	126.25
454.633	121.25
454.853	119.25
455.073	111.25
455.294	113.25
455.514	119.25
455.734	118.25
455.955	125.25
456.175	113.25
456.395	96.25
456.616	114.25
456.836	99.25
457.056	117.25
457.276	124.25
457.497	116.25
457.717	117.25
457.937	103.25
458.157	115.25
458.377	107.25
458.598	117.25
458.818	125.25
459.038	135.25
459.258	106.25
459.478	121.25
459.698	127.25
459.918	135.25
460.138	132.25
460.358	130.25
460.578	130.25
460.798	130.25
461.018	137.25
461.238	126.25
461.458	124.25
461.678	129.25
461.898	122.25
462.118	129.25
462.338	120.25
462.558	137.25
462.777	138.25
462.997	141.25
463.217	125.25
463.437	142.25
463.657	136.25
463.876	142.25
464.096	129.25
464.316	126.25
464.536	133.25
464.755	138.25
464.975	135.25
465.195	130.25
465.414	126.25
465.634	124.25
465.854	112.25
466.073	114.25
466.293	126.25
466.512	124.25
466.732	117.25
466.951	102.25
467.171	123.25
467.391	125.25
467.61	119.25
467.829	113.25
468.049	120.25
468.268	112.25
468.488	117.25
468.707	121.25
468.927	123.25
469.146	105.25
469.365	119.25
469.585	120.25
469.804	117.25
470.023	133.25
470.243	129.25
470.462	124.25
470.681	119.25
470.901	111.25
471.12	122.25
471.339	122.25
471.558	124.25
471.777	106.25
471.997	134.25
472.216	133.25
472.435	123.25
472.654	129.25
472.873	133.25
473.092	128.25
473.311	115.25
473.53	107.25
473.749	122.25
473.968	127.25
474.187	128.25
474.406	145.25
474.625	131.25
474.844	138.25
475.063	117.25
475.282	109.25
475.501	118.25
475.72	129.25
475.939	117.25
476.158	133.25
476.377	134.25
476.596	125.25
476.814	120.25
477.033	101.25
477.252	120.25
477.471	124.25
477.69	116.25
477.908	121.25
478.127	120.25
478.346	141.25
478.564	126.25
478.783	132.25
479.002	117.25
479.22	122.25
479.439	128.25
479.658	124.25
479.876	131.25
480.095	124.25
480.313	141.25
480.532	138.25
480.751	135.25
480.969	132.25
481.188	133.25
481.406	132.25
481.624	132.25
481.843	110.25
482.061	125.25
482.28	129.25
482.498	125.25
482.717	126.25
482.935	120.25
483.153	115.25
483.372	119.25
483.59	127.25
483.808	136.25
484.027	117.25
484.245	125.25
484.463	140.25
484.681	141.25
484.9	128.25
485.118	124.25
485.336	123.25
485.554	130.25
485.772	131.25
485.99	155.25
486.209	139.25
486.427	126.25
486.645	117.25
486.863	127.25
487.081	133.25
487.299	138.25
487.517	133.25
487.735	133.25
487.953	138.25
488.171	133.25
488.389	132.25
488.607	140.25
488.825	125.25
489.043	116.25
489.261	137.25
489.479	129.25
489.696	126.25
489.914	142.25
490.132	134.25
490.35	136.25
490.568	123.25
490.786	140.25
491.003	137.25
491.221	140.25
491.439	134.25
491.657	149.25
491.874	158.25
492.092	144.25
492.31	153.25
492.527	157.25
492.745	144.25
492.963	141.25
493.18	157.25
493.398	148.25
493.615	142.25
493.833	141.25
494.05	129.25
494.268	143.25
494.485	136.25
494.703	124.25
494.92	144.25
495.138	137.25
495.355	130.25
495.573	146.25
495.79	123.25
496.008	143.25
496.225	145.25
496.442	150.25
496.66	149.25
496.877	131.25
497.094	147.25
497.312	144.25
497.529	147.25
497.746	141.25
497.963	133.25
498.181	139.25
498.398	153.25
498.615	148.25
498.832	165.25
499.049	172.25
499.267	147.25
499.484	164.25
499.701	193.25
499.918	196.25
500.135	196.25
500.352	231.25
500.569	217.25
500.786	202.25
501.003	173.25
501.22	194.25
501.437	187.25
501.654	173.25
501.871	168.25
502.088	157.25
502.305	153.25
502.522	160.25
502.739	149.25
502.956	158.25
503.172	138.25
503.389	141.25
503.606	134.25
503.823	154.25
504.04	145.25
504.256	140.25
504.473	143.25
504.69	151.25
504.907	141.25
505.123	145.25
505.34	141.25
505.557	162.25
505.773	137.25
