Data from 1968.PennyLincolnUp.Lamp.En5.5.200Scan.071719.P1._HRD10591_14-49-42-969.txt Node
Date: Thu Jul 18 14:49:42 EDT 2019
User: cochatt
Spectrometer: HR+D1059
Trigger mode: 1
Integration Time (sec): 1.000000E-1
Scans to average: 1
Electric dark correction enabled: true
Nonlinearity correction enabled: false
Boxcar width: 0
XAxis mode: Wavelengths
Number of Pixels in Spectrum: 2048
>>>>>Begin Spectral Data<<<<<
223.165	-25.44
223.4	-25.44
223.635	-25.44
223.869	-24.44
224.104	-10.44
224.338	-21.44
224.573	-3.44
224.808	0.56
225.042	1.56
225.277	-5.44
225.511	-12.44
225.746	-11.44
225.98	14.56
226.215	5.56
226.449	9.56
226.683	30.56
226.918	19.56
227.152	32.56
227.387	36.56
227.621	41.56
227.856	29.56
228.09	46.56
228.324	51.56
228.559	54.56
228.793	42.56
229.027	73.56
229.262	62.56
229.496	75.56
229.73	61.56
229.964	73.56
230.199	67.56
230.433	88.56
230.667	79.56
230.901	82.56
231.136	87.56
231.37	88.56
231.604	82.56
231.838	93.56
232.072	80.56
232.306	90.56
232.541	80.56
232.775	81.56
233.009	84.56
233.243	91.56
233.477	83.56
233.711	88.56
233.945	71.56
234.179	92.56
234.413	91.56
234.647	87.56
234.881	78.56
235.115	82.56
235.349	78.56
235.583	79.56
235.817	71.56
236.051	73.56
236.285	84.56
236.519	89.56
236.753	84.56
236.987	77.56
237.221	69.56
237.455	83.56
237.689	76.56
237.922	91.56
238.156	75.56
238.39	86.56
238.624	85.56
238.858	91.56
239.091	93.56
239.325	88.56
239.559	77.56
239.793	90.56
240.027	91.56
240.26	72.56
240.494	81.56
240.728	91.56
240.961	75.56
241.195	95.56
241.429	80.56
241.662	77.56
241.896	74.56
242.13	94.56
242.363	84.56
242.597	80.56
242.83	101.56
243.064	79.56
243.298	79.56
243.531	87.56
243.765	84.56
243.998	94.56
244.232	90.56
244.465	84.56
244.699	81.56
244.932	86.56
245.166	96.56
245.399	93.56
245.633	79.56
245.866	81.56
246.099	70.56
246.333	77.56
246.566	89.56
246.8	82.56
247.033	92.56
247.266	84.56
247.5	85.56
247.733	78.56
247.966	80.56
248.2	100.56
248.433	85.56
248.666	80.56
248.899	96.56
249.133	97.56
249.366	96.56
249.599	90.56
249.832	93.56
250.066	80.56
250.299	74.56
250.532	92.56
250.765	80.56
250.998	90.56
251.231	91.56
251.465	70.56
251.698	84.56
251.931	75.56
252.164	99.56
252.397	93.56
252.63	95.56
252.863	88.56
253.096	107.56
253.329	82.56
253.562	73.56
253.795	83.56
254.028	94.56
254.261	86.56
254.494	76.56
254.727	109.56
254.96	86.56
255.193	95.56
255.426	77.56
255.659	81.56
255.892	88.56
256.124	107.56
256.357	104.56
256.59	85.56
256.823	97.56
257.056	72.56
257.289	95.56
257.521	93.56
257.754	87.56
257.987	79.56
258.22	83.56
258.452	69.56
258.685	89.56
258.918	92.56
259.151	97.56
259.383	98.56
259.616	74.56
259.849	98.56
260.081	96.56
260.314	96.56
260.547	90.56
260.779	79.56
261.012	86.56
261.244	86.56
261.477	101.56
261.71	103.56
261.942	89.56
262.175	93.56
262.407	92.56
262.64	102.56
262.872	95.56
263.105	95.56
263.337	79.56
263.57	97.56
263.802	87.56
264.035	87.56
264.267	80.56
264.499	103.56
264.732	85.56
264.964	103.56
265.197	110.56
265.429	95.56
265.661	82.56
265.894	93.56
266.126	81.56
266.358	103.56
266.591	104.56
266.823	81.56
267.055	92.56
267.287	85.56
267.52	89.56
267.752	93.56
267.984	76.56
268.216	79.56
268.448	95.56
268.681	73.56
268.913	106.56
269.145	95.56
269.377	108.56
269.609	85.56
269.841	102.56
270.073	93.56
270.306	91.56
270.538	88.56
270.77	98.56
271.002	96.56
271.234	94.56
271.466	104.56
271.698	104.56
271.93	96.56
272.162	102.56
272.394	104.56
272.626	92.56
272.858	94.56
273.09	100.56
273.322	93.56
273.553	93.56
273.785	103.56
274.017	91.56
274.249	88.56
274.481	101.56
274.713	91.56
274.945	107.56
275.176	88.56
275.408	93.56
275.64	98.56
275.872	87.56
276.104	104.56
276.335	91.56
276.567	101.56
276.799	91.56
277.031	105.56
277.262	105.56
277.494	94.56
277.726	101.56
277.957	92.56
278.189	98.56
278.421	105.56
278.652	98.56
278.884	90.56
279.115	105.56
279.347	89.56
279.579	90.56
279.81	94.56
280.042	104.56
280.273	95.56
280.505	107.56
280.736	111.56
280.968	98.56
281.199	119.56
281.431	105.56
281.662	96.56
281.894	90.56
282.125	81.56
282.356	93.56
282.588	100.56
282.819	106.56
283.051	102.56
283.282	103.56
283.513	111.56
283.745	102.56
283.976	100.56
284.207	111.56
284.439	105.56
284.67	108.56
284.901	102.56
285.132	113.56
285.364	88.56
285.595	103.56
285.826	89.56
286.057	98.56
286.288	90.56
286.52	96.56
286.751	109.56
286.982	94.56
287.213	96.56
287.444	105.56
287.675	91.56
287.906	97.56
288.138	101.56
288.369	95.56
288.6	102.56
288.831	125.56
289.062	107.56
289.293	90.56
289.524	97.56
289.755	111.56
289.986	115.56
290.217	88.56
290.448	107.56
290.679	95.56
290.91	119.56
291.141	99.56
291.371	99.56
291.602	101.56
291.833	88.56
292.064	101.56
292.295	93.56
292.526	115.56
292.757	103.56
292.987	99.56
293.218	97.56
293.449	109.56
293.68	108.56
293.91	110.56
294.141	95.56
294.372	85.56
294.603	103.56
294.833	113.56
295.064	111.56
295.295	96.56
295.525	109.56
295.756	101.56
295.987	101.56
296.217	110.56
296.448	115.56
296.679	117.56
296.909	103.56
297.14	111.56
297.37	102.56
297.601	109.56
297.831	111.56
298.062	104.56
298.292	123.56
298.523	104.56
298.753	93.56
298.984	101.56
299.214	104.56
299.445	121.56
299.675	119.56
299.905	83.56
300.136	88.56
300.366	94.56
300.597	118.56
300.827	95.56
301.057	98.56
301.288	120.56
301.518	119.56
301.748	123.56
301.979	94.56
302.209	95.56
302.439	95.56
302.669	92.56
302.9	100.56
303.13	104.56
303.36	115.56
303.59	106.56
303.82	118.56
304.051	104.56
304.281	105.56
304.511	112.56
304.741	118.56
304.971	98.56
305.201	105.56
305.431	105.56
305.661	110.56
305.891	86.56
306.121	116.56
306.352	108.56
306.582	98.56
306.812	124.56
307.042	99.56
307.272	110.56
307.502	109.56
307.731	109.56
307.961	108.56
308.191	98.56
308.421	105.56
308.651	107.56
308.881	88.56
309.111	127.56
309.341	104.56
309.571	108.56
309.8	102.56
310.03	104.56
310.26	95.56
310.49	104.56
310.72	106.56
310.949	114.56
311.179	107.56
311.409	115.56
311.639	95.56
311.868	103.56
312.098	97.56
312.328	104.56
312.557	111.56
312.787	125.56
313.017	113.56
313.246	100.56
313.476	101.56
313.706	105.56
313.935	112.56
314.165	117.56
314.394	111.56
314.624	104.56
314.853	115.56
315.083	101.56
315.312	109.56
315.542	111.56
315.771	100.56
316.001	117.56
316.23	112.56
316.46	111.56
316.689	102.56
316.919	115.56
317.148	105.56
317.377	131.56
317.607	118.56
317.836	98.56
318.065	102.56
318.295	94.56
318.524	100.56
318.753	102.56
318.983	117.56
319.212	106.56
319.441	110.56
319.67	123.56
319.9	116.56
320.129	104.56
320.358	105.56
320.587	102.56
320.816	128.56
321.046	117.56
321.275	107.56
321.504	116.56
321.733	98.56
321.962	108.56
322.191	116.56
322.42	97.56
322.649	121.56
322.878	108.56
323.108	102.56
323.337	112.56
323.566	106.56
323.795	108.56
324.024	118.56
324.253	105.56
324.482	131.56
324.71	154.56
324.939	165.56
325.168	173.56
325.397	126.56
325.626	112.56
325.855	103.56
326.084	115.56
326.313	103.56
326.542	119.56
326.77	110.56
326.999	123.56
327.228	131.56
327.457	128.56
327.686	176.56
327.914	151.56
328.143	125.56
328.372	120.56
328.6	116.56
328.829	119.56
329.058	123.56
329.287	117.56
329.515	108.56
329.744	115.56
329.972	109.56
330.201	123.56
330.43	116.56
330.658	131.56
330.887	127.56
331.115	119.56
331.344	99.56
331.572	113.56
331.801	128.56
332.03	107.56
332.258	120.56
332.486	115.56
332.715	122.56
332.943	120.56
333.172	123.56
333.4	130.56
333.629	118.56
333.857	113.56
334.085	140.56
334.314	127.56
334.542	112.56
334.771	123.56
334.999	112.56
335.227	119.56
335.455	114.56
335.684	141.56
335.912	126.56
336.14	98.56
336.369	133.56
336.597	117.56
336.825	139.56
337.053	127.56
337.281	126.56
337.51	112.56
337.738	129.56
337.966	119.56
338.194	112.56
338.422	131.56
338.65	116.56
338.878	115.56
339.106	109.56
339.334	104.56
339.562	117.56
339.79	112.56
340.018	115.56
340.246	123.56
340.474	107.56
340.702	119.56
340.93	127.56
341.158	123.56
341.386	99.56
341.614	117.56
341.842	133.56
342.07	105.56
342.298	116.56
342.526	105.56
342.754	111.56
342.981	123.56
343.209	107.56
343.437	127.56
343.665	111.56
343.893	123.56
344.12	117.56
344.348	116.56
344.576	120.56
344.804	110.56
345.031	117.56
345.259	97.56
345.487	108.56
345.714	97.56
345.942	117.56
346.17	121.56
346.397	110.56
346.625	101.56
346.853	97.56
347.08	129.56
347.308	112.56
347.535	115.56
347.763	115.56
347.99	122.56
348.218	115.56
348.445	110.56
348.673	115.56
348.9	123.56
349.128	126.56
349.355	114.56
349.583	117.56
349.81	109.56
350.037	125.56
350.265	117.56
350.492	106.56
350.72	99.56
350.947	120.56
351.174	118.56
351.402	112.56
351.629	111.56
351.856	119.56
352.083	123.56
352.311	107.56
352.538	119.56
352.765	112.56
352.992	119.56
353.22	118.56
353.447	116.56
353.674	110.56
353.901	113.56
354.128	109.56
354.355	108.56
354.583	99.56
354.81	111.56
355.037	109.56
355.264	127.56
355.491	114.56
355.718	106.56
355.945	107.56
356.172	115.56
356.399	101.56
356.626	118.56
356.853	110.56
357.08	119.56
357.307	118.56
357.534	111.56
357.761	121.56
357.988	102.56
358.215	119.56
358.441	97.56
358.668	120.56
358.895	113.56
359.122	123.56
359.349	107.56
359.576	111.56
359.802	96.56
360.029	121.56
360.256	131.56
360.483	116.56
360.709	108.56
360.936	114.56
361.163	117.56
361.39	115.56
361.616	104.56
361.843	100.56
362.07	101.56
362.296	103.56
362.523	120.56
362.749	106.56
362.976	112.56
363.203	109.56
363.429	117.56
363.656	108.56
363.882	119.56
364.109	119.56
364.335	114.56
364.562	95.56
364.788	102.56
365.015	119.56
365.241	115.56
365.468	122.56
365.694	118.56
365.92	109.56
366.147	109.56
366.373	96.56
366.599	103.56
366.826	111.56
367.052	121.56
367.278	103.56
367.505	105.56
367.731	117.56
367.957	117.56
368.184	119.56
368.41	108.56
368.636	119.56
368.862	131.56
369.089	123.56
369.315	108.56
369.541	123.56
369.767	122.56
369.993	112.56
370.219	117.56
370.445	110.56
370.672	111.56
370.898	104.56
371.124	117.56
371.35	109.56
371.576	124.56
371.802	113.56
372.028	117.56
372.254	118.56
372.48	118.56
372.706	117.56
372.932	121.56
373.158	108.56
373.384	111.56
373.61	126.56
373.835	129.56
374.061	125.56
374.287	127.56
374.513	117.56
374.739	127.56
374.965	126.56
375.191	112.56
375.416	103.56
375.642	118.56
375.868	117.56
376.094	126.56
376.319	115.56
376.545	110.56
376.771	127.56
376.997	110.56
377.222	121.56
377.448	113.56
377.674	117.56
377.899	125.56
378.125	109.56
378.35	123.56
378.576	118.56
378.802	116.56
379.027	114.56
379.253	125.56
379.478	125.56
379.704	118.56
379.929	104.56
380.155	126.56
380.38	104.56
380.606	119.56
380.831	122.56
381.057	120.56
381.282	117.56
381.507	123.56
381.733	120.56
381.958	127.56
382.184	121.56
382.409	104.56
382.634	112.56
382.86	93.56
383.085	119.56
383.31	127.56
383.535	111.56
383.761	120.56
383.986	115.56
384.211	127.56
384.436	122.56
384.662	126.56
384.887	130.56
385.112	133.56
385.337	111.56
385.562	101.56
385.787	108.56
386.013	133.56
386.238	132.56
386.463	121.56
386.688	131.56
386.913	120.56
387.138	117.56
387.363	127.56
387.588	130.56
387.813	124.56
388.038	121.56
388.263	121.56
388.488	116.56
388.713	109.56
388.938	116.56
389.163	116.56
389.387	145.56
389.612	127.56
389.837	118.56
390.062	112.56
390.287	121.56
390.512	117.56
390.736	107.56
390.961	113.56
391.186	128.56
391.411	124.56
391.636	135.56
391.86	134.56
392.085	120.56
392.31	113.56
392.534	119.56
392.759	124.56
392.984	134.56
393.208	119.56
393.433	110.56
393.658	135.56
393.882	131.56
394.107	127.56
394.331	124.56
394.556	117.56
394.78	118.56
395.005	127.56
395.229	127.56
395.454	129.56
395.678	128.56
395.903	131.56
396.127	138.56
396.352	109.56
396.576	116.56
396.801	137.56
397.025	126.56
397.249	128.56
397.474	127.56
397.698	139.56
397.922	127.56
398.147	124.56
398.371	125.56
398.595	120.56
398.82	126.56
399.044	110.56
399.268	136.56
399.492	143.56
399.717	149.56
399.941	157.56
400.165	154.56
400.389	144.56
400.613	145.56
400.837	119.56
401.062	115.56
401.286	120.56
401.51	119.56
401.734	136.56
401.958	131.56
402.182	132.56
402.406	131.56
402.63	134.56
402.854	139.56
403.078	125.56
403.302	120.56
403.526	132.56
403.75	146.56
403.974	135.56
404.198	145.56
404.422	127.56
404.645	121.56
404.869	140.56
405.093	128.56
405.317	149.56
405.541	142.56
405.765	140.56
405.988	142.56
406.212	122.56
406.436	135.56
406.66	139.56
406.883	137.56
407.107	129.56
407.331	148.56
407.555	145.56
407.778	135.56
408.002	158.56
408.226	146.56
408.449	146.56
408.673	140.56
408.896	140.56
409.12	140.56
409.344	139.56
409.567	125.56
409.791	119.56
410.014	133.56
410.238	136.56
410.461	135.56
410.685	138.56
410.908	140.56
411.132	139.56
411.355	124.56
411.578	139.56
411.802	130.56
412.025	137.56
412.249	155.56
412.472	144.56
412.695	138.56
412.919	128.56
413.142	121.56
413.365	111.56
413.589	127.56
413.812	124.56
414.035	144.56
414.258	132.56
414.482	130.56
414.705	150.56
414.928	150.56
415.151	145.56
415.374	135.56
415.597	135.56
415.821	136.56
416.044	140.56
416.267	124.56
416.49	107.56
416.713	123.56
416.936	128.56
417.159	139.56
417.382	134.56
417.605	123.56
417.828	135.56
418.051	136.56
418.274	131.56
418.497	138.56
418.72	144.56
418.943	135.56
419.166	124.56
419.389	146.56
419.611	131.56
419.834	125.56
420.057	130.56
420.28	123.56
420.503	129.56
420.726	133.56
420.948	134.56
421.171	126.56
421.394	139.56
421.617	122.56
421.839	130.56
422.062	136.56
422.285	123.56
422.507	138.56
422.73	129.56
422.953	150.56
423.175	129.56
423.398	128.56
423.621	138.56
423.843	139.56
424.066	112.56
424.288	139.56
424.511	127.56
424.733	129.56
424.956	135.56
425.178	141.56
425.401	139.56
425.623	146.56
425.846	130.56
426.068	134.56
426.291	142.56
426.513	124.56
426.735	119.56
426.958	113.56
427.18	133.56
427.402	151.56
427.625	143.56
427.847	131.56
428.069	123.56
428.292	133.56
428.514	132.56
428.736	114.56
428.958	117.56
429.181	124.56
429.403	129.56
429.625	135.56
429.847	121.56
430.069	122.56
430.292	125.56
430.514	128.56
430.736	128.56
430.958	133.56
431.18	138.56
431.402	127.56
431.624	133.56
431.846	118.56
432.068	132.56
432.29	123.56
432.512	129.56
432.734	137.56
432.956	117.56
433.178	119.56
433.4	126.56
433.622	127.56
433.844	125.56
434.066	133.56
434.287	134.56
434.509	141.56
434.731	143.56
434.953	125.56
435.175	141.56
435.397	147.56
435.618	129.56
435.84	139.56
436.062	132.56
436.284	154.56
436.505	137.56
436.727	142.56
436.949	144.56
437.17	138.56
437.392	133.56
437.614	124.56
437.835	141.56
438.057	133.56
438.278	144.56
438.5	129.56
438.721	151.56
438.943	140.56
439.165	127.56
439.386	129.56
439.608	130.56
439.829	147.56
440.05	135.56
440.272	130.56
440.493	143.56
440.715	128.56
440.936	141.56
441.158	120.56
441.379	123.56
441.6	135.56
441.822	140.56
442.043	139.56
442.264	161.56
442.486	148.56
442.707	138.56
442.928	136.56
443.149	136.56
443.371	124.56
443.592	132.56
443.813	139.56
444.034	139.56
444.255	144.56
444.476	124.56
444.698	136.56
444.919	143.56
445.14	244.56
445.361	179.56
445.582	148.56
445.803	128.56
446.024	149.56
446.245	155.56
446.466	136.56
446.687	131.56
446.908	120.56
447.129	145.56
447.35	126.56
447.571	124.56
447.792	121.56
448.013	120.56
448.234	119.56
448.455	125.56
448.675	139.56
448.896	136.56
449.117	141.56
449.338	146.56
449.559	131.56
449.779	135.56
450	132.56
450.221	107.56
450.442	125.56
450.662	134.56
450.883	117.56
451.104	135.56
451.324	127.56
451.545	137.56
451.766	124.56
451.986	123.56
452.207	123.56
452.428	117.56
452.648	134.56
452.869	109.56
453.089	123.56
453.31	119.56
453.53	131.56
453.751	133.56
453.971	107.56
454.192	121.56
454.412	121.56
454.633	113.56
454.853	124.56
455.073	123.56
455.294	127.56
455.514	119.56
455.734	118.56
455.955	117.56
456.175	114.56
456.395	128.56
456.616	116.56
456.836	116.56
457.056	122.56
457.276	115.56
457.497	116.56
457.717	121.56
457.937	123.56
458.157	115.56
458.377	120.56
458.598	122.56
458.818	125.56
459.038	120.56
459.258	139.56
459.478	129.56
459.698	137.56
459.918	123.56
460.138	127.56
460.358	126.56
460.578	127.56
460.798	117.56
461.018	119.56
461.238	132.56
461.458	139.56
461.678	125.56
461.898	133.56
462.118	135.56
462.338	137.56
462.558	126.56
462.777	141.56
462.997	138.56
463.217	128.56
463.437	139.56
463.657	136.56
463.876	132.56
464.096	138.56
464.316	139.56
464.536	136.56
464.755	135.56
464.975	130.56
465.195	130.56
465.414	133.56
465.634	131.56
465.854	124.56
466.073	123.56
466.293	121.56
466.512	123.56
466.732	113.56
466.951	124.56
467.171	116.56
467.391	137.56
467.61	111.56
467.829	139.56
468.049	116.56
468.268	111.56
468.488	115.56
468.707	108.56
468.927	117.56
469.146	110.56
469.365	122.56
469.585	143.56
469.804	129.56
470.023	121.56
470.243	121.56
470.462	121.56
470.681	132.56
470.901	112.56
471.12	100.56
471.339	113.56
471.558	109.56
471.777	126.56
471.997	138.56
472.216	126.56
472.435	120.56
472.654	127.56
472.873	138.56
473.092	106.56
473.311	126.56
473.53	127.56
473.749	131.56
473.968	120.56
474.187	126.56
474.406	135.56
474.625	135.56
474.844	132.56
475.063	113.56
475.282	125.56
475.501	124.56
475.72	127.56
475.939	122.56
476.158	124.56
476.377	125.56
476.596	115.56
476.814	128.56
477.033	139.56
477.252	124.56
477.471	121.56
477.69	129.56
477.908	121.56
478.127	145.56
478.346	126.56
478.564	127.56
478.783	134.56
479.002	138.56
479.22	136.56
479.439	124.56
479.658	120.56
479.876	131.56
480.095	131.56
480.313	149.56
480.532	139.56
480.751	128.56
480.969	135.56
481.188	128.56
481.406	133.56
481.624	127.56
481.843	116.56
482.061	122.56
482.28	113.56
482.498	122.56
482.717	126.56
482.935	129.56
483.153	133.56
483.372	113.56
483.59	131.56
483.808	131.56
484.027	124.56
484.245	136.56
484.463	127.56
484.681	143.56
484.9	126.56
485.118	127.56
485.336	125.56
485.554	137.56
485.772	149.56
485.99	119.56
486.209	128.56
486.427	146.56
486.645	128.56
486.863	136.56
487.081	148.56
487.299	120.56
487.517	137.56
487.735	124.56
487.953	135.56
488.171	137.56
488.389	130.56
488.607	132.56
488.825	143.56
489.043	136.56
489.261	138.56
489.479	133.56
489.696	127.56
489.914	143.56
490.132	137.56
490.35	131.56
490.568	129.56
490.786	147.56
491.003	135.56
491.221	145.56
491.439	142.56
491.657	142.56
491.874	136.56
492.092	151.56
492.31	162.56
492.527	143.56
492.745	147.56
492.963	139.56
493.18	151.56
493.398	131.56
493.615	131.56
493.833	143.56
494.05	139.56
494.268	146.56
494.485	141.56
494.703	144.56
494.92	142.56
495.138	152.56
495.355	149.56
495.573	144.56
495.79	144.56
496.008	149.56
496.225	156.56
496.442	153.56
496.66	168.56
496.877	159.56
497.094	156.56
497.312	140.56
497.529	143.56
497.746	144.56
497.963	154.56
498.181	155.56
498.398	150.56
498.615	169.56
498.832	157.56
499.049	167.56
499.267	152.56
499.484	165.56
499.701	189.56
499.918	169.56
500.135	200.56
500.352	207.56
500.569	209.56
500.786	222.56
501.003	201.56
501.22	190.56
501.437	184.56
501.654	171.56
501.871	175.56
502.088	163.56
502.305	166.56
502.522	163.56
502.739	166.56
502.956	148.56
503.172	148.56
503.389	154.56
503.606	135.56
503.823	159.56
504.04	131.56
504.256	139.56
504.473	139.56
504.69	152.56
504.907	152.56
505.123	154.56
505.34	143.56
505.557	141.56
