Data from 1968.PennyLincolnUp.Lamp.En5.5.200Scan.071719.P1._HRD10591_14-51-51-970.txt Node
Date: Thu Jul 18 14:51:51 EDT 2019
User: cochatt
Spectrometer: HR+D1059
Trigger mode: 1
Integration Time (sec): 1.000000E-1
Scans to average: 1
Electric dark correction enabled: true
Nonlinearity correction enabled: false
Boxcar width: 0
XAxis mode: Wavelengths
Number of Pixels in Spectrum: 2048
>>>>>Begin Spectral Data<<<<<
223.165	-23.88
223.4	-23.88
223.635	-23.88
223.869	-17.88
224.104	-16.88
224.338	-10.88
224.573	-5.88
224.808	-19.88
225.042	-8.88
225.277	-16.88
225.511	0.12
225.746	5.12
225.98	6.12
226.215	8.12
226.449	19.12
226.683	13.12
226.918	35.12
227.152	34.12
227.387	29.12
227.621	43.12
227.856	57.12
228.09	41.12
228.324	47.12
228.559	55.12
228.793	55.12
229.027	77.12
229.262	73.12
229.496	64.12
229.73	81.12
229.964	71.12
230.199	95.12
230.433	79.12
230.667	86.12
230.901	75.12
231.136	83.12
231.37	86.12
231.604	74.12
231.838	80.12
232.072	82.12
232.306	76.12
232.541	79.12
232.775	80.12
233.009	88.12
233.243	80.12
233.477	64.12
233.711	95.12
233.945	77.12
234.179	90.12
234.413	75.12
234.647	89.12
234.881	81.12
235.115	76.12
235.349	81.12
235.583	84.12
235.817	80.12
236.051	85.12
236.285	82.12
236.519	82.12
236.753	94.12
236.987	96.12
237.221	91.12
237.455	86.12
237.689	105.12
237.922	83.12
238.156	86.12
238.39	86.12
238.624	76.12
238.858	75.12
239.091	79.12
239.325	85.12
239.559	78.12
239.793	78.12
240.027	76.12
240.26	75.12
240.494	71.12
240.728	88.12
240.961	89.12
241.195	79.12
241.429	78.12
241.662	69.12
241.896	76.12
242.13	84.12
242.363	79.12
242.597	84.12
242.83	84.12
243.064	93.12
243.298	92.12
243.531	84.12
243.765	87.12
243.998	88.12
244.232	102.12
244.465	99.12
244.699	87.12
244.932	84.12
245.166	79.12
245.399	83.12
245.633	78.12
245.866	88.12
246.099	69.12
246.333	93.12
246.566	86.12
246.8	91.12
247.033	88.12
247.266	80.12
247.5	77.12
247.733	75.12
247.966	80.12
248.2	86.12
248.433	75.12
248.666	95.12
248.899	80.12
249.133	101.12
249.366	86.12
249.599	89.12
249.832	87.12
250.066	79.12
250.299	86.12
250.532	86.12
250.765	87.12
250.998	73.12
251.231	78.12
251.465	82.12
251.698	79.12
251.931	78.12
252.164	80.12
252.397	94.12
252.63	98.12
252.863	89.12
253.096	89.12
253.329	96.12
253.562	84.12
253.795	85.12
254.028	94.12
254.261	90.12
254.494	89.12
254.727	90.12
254.96	109.12
255.193	93.12
255.426	85.12
255.659	101.12
255.892	90.12
256.124	101.12
256.357	83.12
256.59	92.12
256.823	92.12
257.056	86.12
257.289	90.12
257.521	75.12
257.754	92.12
257.987	89.12
258.22	74.12
258.452	95.12
258.685	77.12
258.918	87.12
259.151	71.12
259.383	78.12
259.616	83.12
259.849	83.12
260.081	96.12
260.314	95.12
260.547	110.12
260.779	85.12
261.012	91.12
261.244	100.12
261.477	86.12
261.71	98.12
261.942	90.12
262.175	78.12
262.407	87.12
262.64	86.12
262.872	92.12
263.105	92.12
263.337	96.12
263.57	100.12
263.802	90.12
264.035	93.12
264.267	93.12
264.499	95.12
264.732	87.12
264.964	98.12
265.197	105.12
265.429	102.12
265.661	86.12
265.894	95.12
266.126	107.12
266.358	84.12
266.591	83.12
266.823	85.12
267.055	103.12
267.287	91.12
267.52	94.12
267.752	91.12
267.984	107.12
268.216	90.12
268.448	90.12
268.681	104.12
268.913	96.12
269.145	103.12
269.377	92.12
269.609	93.12
269.841	98.12
270.073	98.12
270.306	105.12
270.538	94.12
270.77	116.12
271.002	105.12
271.234	107.12
271.466	104.12
271.698	81.12
271.93	100.12
272.162	95.12
272.394	107.12
272.626	95.12
272.858	105.12
273.09	100.12
273.322	88.12
273.553	94.12
273.785	98.12
274.017	92.12
274.249	103.12
274.481	93.12
274.713	89.12
274.945	93.12
275.176	90.12
275.408	91.12
275.64	94.12
275.872	78.12
276.104	75.12
276.335	96.12
276.567	96.12
276.799	111.12
277.031	99.12
277.262	99.12
277.494	114.12
277.726	89.12
277.957	105.12
278.189	102.12
278.421	97.12
278.652	91.12
278.884	95.12
279.115	107.12
279.347	96.12
279.579	107.12
279.81	109.12
280.042	101.12
280.273	101.12
280.505	103.12
280.736	80.12
280.968	99.12
281.199	104.12
281.431	122.12
281.662	106.12
281.894	93.12
282.125	86.12
282.356	112.12
282.588	104.12
282.819	90.12
283.051	91.12
283.282	101.12
283.513	108.12
283.745	89.12
283.976	101.12
284.207	95.12
284.439	107.12
284.67	93.12
284.901	103.12
285.132	109.12
285.364	82.12
285.595	95.12
285.826	105.12
286.057	115.12
286.288	106.12
286.52	92.12
286.751	100.12
286.982	118.12
287.213	109.12
287.444	110.12
287.675	105.12
287.906	117.12
288.138	105.12
288.369	102.12
288.6	110.12
288.831	100.12
289.062	118.12
289.293	110.12
289.524	109.12
289.755	104.12
289.986	107.12
290.217	110.12
290.448	96.12
290.679	95.12
290.91	98.12
291.141	100.12
291.371	92.12
291.602	105.12
291.833	99.12
292.064	108.12
292.295	109.12
292.526	106.12
292.757	104.12
292.987	105.12
293.218	102.12
293.449	108.12
293.68	95.12
293.91	114.12
294.141	100.12
294.372	110.12
294.603	92.12
294.833	91.12
295.064	104.12
295.295	91.12
295.525	92.12
295.756	107.12
295.987	116.12
296.217	106.12
296.448	107.12
296.679	101.12
296.909	98.12
297.14	107.12
297.37	107.12
297.601	107.12
297.831	92.12
298.062	108.12
298.292	106.12
298.523	115.12
298.753	93.12
298.984	99.12
299.214	107.12
299.445	103.12
299.675	121.12
299.905	100.12
300.136	95.12
300.366	107.12
300.597	110.12
300.827	95.12
301.057	95.12
301.288	94.12
301.518	105.12
301.748	83.12
301.979	103.12
302.209	97.12
302.439	101.12
302.669	115.12
302.9	99.12
303.13	108.12
303.36	106.12
303.59	103.12
303.82	87.12
304.051	102.12
304.281	120.12
304.511	114.12
304.741	110.12
304.971	110.12
305.201	110.12
305.431	114.12
305.661	116.12
305.891	89.12
306.121	129.12
306.352	103.12
306.582	111.12
306.812	104.12
307.042	92.12
307.272	118.12
307.502	106.12
307.731	110.12
307.961	123.12
308.191	116.12
308.421	114.12
308.651	101.12
308.881	102.12
309.111	102.12
309.341	111.12
309.571	102.12
309.8	120.12
310.03	106.12
310.26	107.12
310.49	110.12
310.72	107.12
310.949	103.12
311.179	109.12
311.409	81.12
311.639	109.12
311.868	98.12
312.098	104.12
312.328	103.12
312.557	106.12
312.787	108.12
313.017	117.12
313.246	115.12
313.476	104.12
313.706	101.12
313.935	110.12
314.165	109.12
314.394	118.12
314.624	116.12
314.853	107.12
315.083	96.12
315.312	119.12
315.542	117.12
315.771	111.12
316.001	104.12
316.23	114.12
316.46	122.12
316.689	98.12
316.919	106.12
317.148	113.12
317.377	123.12
317.607	110.12
317.836	106.12
318.065	120.12
318.295	116.12
318.524	109.12
318.753	116.12
318.983	102.12
319.212	118.12
319.441	118.12
319.67	117.12
319.9	112.12
320.129	111.12
320.358	113.12
320.587	116.12
320.816	120.12
321.046	116.12
321.275	125.12
321.504	100.12
321.733	101.12
321.962	114.12
322.191	112.12
322.42	119.12
322.649	119.12
322.878	109.12
323.108	120.12
323.337	115.12
323.566	116.12
323.795	126.12
324.024	125.12
324.253	119.12
324.482	138.12
324.71	171.12
324.939	175.12
325.168	162.12
325.397	132.12
325.626	113.12
325.855	123.12
326.084	109.12
326.313	122.12
326.542	106.12
326.77	98.12
326.999	114.12
327.228	136.12
327.457	150.12
327.686	164.12
327.914	128.12
328.143	119.12
328.372	123.12
328.6	115.12
328.829	114.12
329.058	95.12
329.287	116.12
329.515	103.12
329.744	106.12
329.972	116.12
330.201	114.12
330.43	119.12
330.658	117.12
330.887	116.12
331.115	119.12
331.344	122.12
331.572	132.12
331.801	124.12
332.03	135.12
332.258	112.12
332.486	116.12
332.715	114.12
332.943	115.12
333.172	106.12
333.4	126.12
333.629	123.12
333.857	132.12
334.085	117.12
334.314	122.12
334.542	120.12
334.771	114.12
334.999	126.12
335.227	115.12
335.455	109.12
335.684	119.12
335.912	124.12
336.14	119.12
336.369	111.12
336.597	127.12
336.825	117.12
337.053	110.12
337.281	123.12
337.51	113.12
337.738	117.12
337.966	125.12
338.194	131.12
338.422	127.12
338.65	110.12
338.878	89.12
339.106	111.12
339.334	99.12
339.562	111.12
339.79	111.12
340.018	114.12
340.246	123.12
340.474	114.12
340.702	114.12
340.93	119.12
341.158	129.12
341.386	95.12
341.614	111.12
341.842	121.12
342.07	123.12
342.298	108.12
342.526	120.12
342.754	110.12
342.981	130.12
343.209	118.12
343.437	123.12
343.665	115.12
343.893	95.12
344.12	121.12
344.348	102.12
344.576	112.12
344.804	120.12
345.031	107.12
345.259	107.12
345.487	112.12
345.714	115.12
345.942	99.12
346.17	130.12
346.397	126.12
346.625	107.12
346.853	111.12
347.08	122.12
347.308	111.12
347.535	109.12
347.763	103.12
347.99	111.12
348.218	118.12
348.445	114.12
348.673	111.12
348.9	114.12
349.128	111.12
349.355	122.12
349.583	109.12
349.81	101.12
350.037	118.12
350.265	119.12
350.492	112.12
350.72	95.12
350.947	117.12
351.174	116.12
351.402	100.12
351.629	96.12
351.856	117.12
352.083	122.12
352.311	114.12
352.538	110.12
352.765	113.12
352.992	103.12
353.22	110.12
353.447	113.12
353.674	109.12
353.901	128.12
354.128	90.12
354.355	107.12
354.583	115.12
354.81	107.12
355.037	112.12
355.264	105.12
355.491	107.12
355.718	102.12
355.945	121.12
356.172	111.12
356.399	98.12
356.626	119.12
356.853	113.12
357.08	119.12
357.307	114.12
357.534	121.12
357.761	108.12
357.988	98.12
358.215	106.12
358.441	113.12
358.668	98.12
358.895	103.12
359.122	93.12
359.349	102.12
359.576	104.12
359.802	111.12
360.029	118.12
360.256	120.12
360.483	101.12
360.709	107.12
360.936	118.12
361.163	110.12
361.39	104.12
361.616	117.12
361.843	99.12
362.07	103.12
362.296	114.12
362.523	123.12
362.749	106.12
362.976	105.12
363.203	111.12
363.429	115.12
363.656	121.12
363.882	114.12
364.109	101.12
364.335	124.12
364.562	95.12
364.788	116.12
365.015	127.12
365.241	117.12
365.468	118.12
365.694	117.12
365.92	122.12
366.147	102.12
366.373	96.12
366.599	105.12
366.826	96.12
367.052	96.12
367.278	124.12
367.505	101.12
367.731	114.12
367.957	114.12
368.184	91.12
368.41	118.12
368.636	118.12
368.862	114.12
369.089	118.12
369.315	101.12
369.541	116.12
369.767	104.12
369.993	120.12
370.219	118.12
370.445	105.12
370.672	109.12
370.898	109.12
371.124	122.12
371.35	111.12
371.576	117.12
371.802	111.12
372.028	103.12
372.254	114.12
372.48	126.12
372.706	132.12
372.932	134.12
373.158	109.12
373.384	108.12
373.61	115.12
373.835	98.12
374.061	100.12
374.287	107.12
374.513	118.12
374.739	107.12
374.965	120.12
375.191	124.12
375.416	123.12
375.642	112.12
375.868	110.12
376.094	121.12
376.319	108.12
376.545	116.12
376.771	106.12
376.997	121.12
377.222	114.12
377.448	114.12
377.674	107.12
377.899	100.12
378.125	118.12
378.35	119.12
378.576	105.12
378.802	109.12
379.027	123.12
379.253	119.12
379.478	108.12
379.704	106.12
379.929	109.12
380.155	111.12
380.38	119.12
380.606	117.12
380.831	111.12
381.057	127.12
381.282	110.12
381.507	107.12
381.733	119.12
381.958	128.12
382.184	108.12
382.409	106.12
382.634	118.12
382.86	102.12
383.085	117.12
383.31	118.12
383.535	114.12
383.761	121.12
383.986	92.12
384.211	106.12
384.436	104.12
384.662	110.12
384.887	104.12
385.112	115.12
385.337	115.12
385.562	125.12
385.787	128.12
386.013	140.12
386.238	118.12
386.463	112.12
386.688	110.12
386.913	109.12
387.138	106.12
387.363	126.12
387.588	124.12
387.813	121.12
388.038	123.12
388.263	113.12
388.488	116.12
388.713	117.12
388.938	116.12
389.163	124.12
389.387	116.12
389.612	118.12
389.837	124.12
390.062	123.12
390.287	114.12
390.512	124.12
390.736	106.12
390.961	120.12
391.186	108.12
391.411	118.12
391.636	119.12
391.86	116.12
392.085	132.12
392.31	127.12
392.534	121.12
392.759	115.12
392.984	112.12
393.208	115.12
393.433	112.12
393.658	126.12
393.882	133.12
394.107	118.12
394.331	120.12
394.556	118.12
394.78	118.12
395.005	126.12
395.229	123.12
395.454	130.12
395.678	114.12
395.903	133.12
396.127	124.12
396.352	128.12
396.576	131.12
396.801	132.12
397.025	122.12
397.249	105.12
397.474	119.12
397.698	115.12
397.922	116.12
398.147	115.12
398.371	122.12
398.595	118.12
398.82	134.12
399.044	142.12
399.268	135.12
399.492	135.12
399.717	158.12
399.941	153.12
400.165	149.12
400.389	129.12
400.613	136.12
400.837	116.12
401.062	127.12
401.286	143.12
401.51	127.12
401.734	118.12
401.958	143.12
402.182	125.12
402.406	125.12
402.63	125.12
402.854	123.12
403.078	136.12
403.302	118.12
403.526	134.12
403.75	123.12
403.974	130.12
404.198	133.12
404.422	121.12
404.645	134.12
404.869	150.12
405.093	144.12
405.317	134.12
405.541	141.12
405.765	136.12
405.988	122.12
406.212	136.12
406.436	133.12
406.66	145.12
406.883	133.12
407.107	130.12
407.331	135.12
407.555	129.12
407.778	138.12
408.002	136.12
408.226	128.12
408.449	147.12
408.673	150.12
408.896	130.12
409.12	154.12
409.344	142.12
409.567	135.12
409.791	134.12
410.014	142.12
410.238	143.12
410.461	132.12
410.685	130.12
410.908	124.12
411.132	122.12
411.355	133.12
411.578	135.12
411.802	129.12
412.025	125.12
412.249	143.12
412.472	128.12
412.695	136.12
412.919	140.12
413.142	134.12
413.365	139.12
413.589	123.12
413.812	123.12
414.035	126.12
414.258	125.12
414.482	127.12
414.705	109.12
414.928	128.12
415.151	124.12
415.374	129.12
415.597	135.12
415.821	134.12
416.044	109.12
416.267	136.12
416.49	123.12
416.713	126.12
416.936	133.12
417.159	126.12
417.382	122.12
417.605	117.12
417.828	127.12
418.051	126.12
418.274	116.12
418.497	137.12
418.72	133.12
418.943	133.12
419.166	132.12
419.389	126.12
419.611	136.12
419.834	135.12
420.057	138.12
420.28	125.12
420.503	117.12
420.726	128.12
420.948	141.12
421.171	133.12
421.394	151.12
421.617	132.12
421.839	146.12
422.062	132.12
422.285	126.12
422.507	130.12
422.73	141.12
422.953	131.12
423.175	146.12
423.398	127.12
423.621	142.12
423.843	150.12
424.066	130.12
424.288	141.12
424.511	140.12
424.733	138.12
424.956	139.12
425.178	123.12
425.401	134.12
425.623	129.12
425.846	128.12
426.068	125.12
426.291	126.12
426.513	144.12
426.735	138.12
426.958	132.12
427.18	135.12
427.402	146.12
427.625	166.12
427.847	134.12
428.069	135.12
428.292	130.12
428.514	121.12
428.736	119.12
428.958	124.12
429.181	112.12
429.403	114.12
429.625	128.12
429.847	133.12
430.069	134.12
430.292	147.12
430.514	125.12
430.736	125.12
430.958	118.12
431.18	117.12
431.402	126.12
431.624	120.12
431.846	122.12
432.068	116.12
432.29	125.12
432.512	129.12
432.734	125.12
432.956	138.12
433.178	129.12
433.4	130.12
433.622	131.12
433.844	126.12
434.066	131.12
434.287	122.12
434.509	123.12
434.731	108.12
434.953	120.12
435.175	135.12
435.397	135.12
435.618	128.12
435.84	145.12
436.062	151.12
436.284	137.12
436.505	148.12
436.727	126.12
436.949	139.12
437.17	135.12
437.392	125.12
437.614	144.12
437.835	111.12
438.057	124.12
438.278	125.12
438.5	148.12
438.721	141.12
438.943	140.12
439.165	130.12
439.386	119.12
439.608	147.12
439.829	130.12
440.05	116.12
440.272	130.12
440.493	129.12
440.715	131.12
440.936	119.12
441.158	124.12
441.379	115.12
441.6	127.12
441.822	126.12
442.043	127.12
442.264	140.12
442.486	134.12
442.707	134.12
442.928	133.12
443.149	124.12
443.371	135.12
443.592	136.12
443.813	140.12
444.034	135.12
444.255	129.12
444.476	141.12
444.698	136.12
444.919	130.12
445.14	264.12
445.361	205.12
445.582	139.12
445.803	149.12
446.024	143.12
446.245	146.12
446.466	132.12
446.687	136.12
446.908	132.12
447.129	119.12
447.35	126.12
447.571	126.12
447.792	121.12
448.013	116.12
448.234	137.12
448.455	140.12
448.675	143.12
448.896	129.12
449.117	128.12
449.338	130.12
449.559	140.12
449.779	134.12
450	141.12
450.221	127.12
450.442	113.12
450.662	119.12
450.883	118.12
451.104	119.12
451.324	135.12
451.545	122.12
451.766	126.12
451.986	130.12
452.207	132.12
452.428	127.12
452.648	113.12
452.869	125.12
453.089	120.12
453.31	119.12
453.53	102.12
453.751	114.12
453.971	122.12
454.192	114.12
454.412	126.12
454.633	115.12
454.853	120.12
455.073	128.12
455.294	125.12
455.514	123.12
455.734	120.12
455.955	130.12
456.175	124.12
456.395	119.12
456.616	128.12
456.836	126.12
457.056	120.12
457.276	115.12
457.497	108.12
457.717	134.12
457.937	114.12
458.157	122.12
458.377	119.12
458.598	122.12
458.818	127.12
459.038	133.12
459.258	125.12
459.478	125.12
459.698	124.12
459.918	132.12
460.138	116.12
460.358	135.12
460.578	137.12
460.798	136.12
461.018	131.12
461.238	117.12
461.458	126.12
461.678	125.12
461.898	136.12
462.118	136.12
462.338	119.12
462.558	134.12
462.777	129.12
462.997	132.12
463.217	155.12
463.437	139.12
463.657	120.12
463.876	130.12
464.096	128.12
464.316	145.12
464.536	134.12
464.755	119.12
464.975	119.12
465.195	127.12
465.414	126.12
465.634	132.12
465.854	140.12
466.073	125.12
466.293	127.12
466.512	131.12
466.732	116.12
466.951	139.12
467.171	124.12
467.391	116.12
467.61	134.12
467.829	122.12
468.049	124.12
468.268	122.12
468.488	127.12
468.707	123.12
468.927	126.12
469.146	123.12
469.365	120.12
469.585	113.12
469.804	118.12
470.023	140.12
470.243	123.12
470.462	120.12
470.681	142.12
470.901	127.12
471.12	131.12
471.339	126.12
471.558	128.12
471.777	128.12
471.997	123.12
472.216	118.12
472.435	118.12
472.654	119.12
472.873	107.12
473.092	113.12
473.311	112.12
473.53	116.12
473.749	114.12
473.968	127.12
474.187	119.12
474.406	136.12
474.625	120.12
474.844	121.12
475.063	126.12
475.282	135.12
475.501	140.12
475.72	127.12
475.939	118.12
476.158	126.12
476.377	117.12
476.596	119.12
476.814	124.12
477.033	136.12
477.252	122.12
477.471	128.12
477.69	133.12
477.908	127.12
478.127	127.12
478.346	132.12
478.564	124.12
478.783	123.12
479.002	127.12
479.22	142.12
479.439	127.12
479.658	142.12
479.876	136.12
480.095	130.12
480.313	134.12
480.532	134.12
480.751	138.12
480.969	114.12
481.188	149.12
481.406	132.12
481.624	128.12
481.843	125.12
482.061	124.12
482.28	125.12
482.498	135.12
482.717	123.12
482.935	135.12
483.153	140.12
483.372	132.12
483.59	130.12
483.808	113.12
484.027	119.12
484.245	125.12
484.463	123.12
484.681	148.12
484.9	122.12
485.118	138.12
485.336	142.12
485.554	125.12
485.772	140.12
485.99	131.12
486.209	133.12
486.427	138.12
486.645	131.12
486.863	141.12
487.081	137.12
487.299	131.12
487.517	147.12
487.735	142.12
487.953	136.12
488.171	140.12
488.389	150.12
488.607	141.12
488.825	143.12
489.043	127.12
489.261	117.12
489.479	136.12
489.696	139.12
489.914	145.12
490.132	143.12
490.35	129.12
490.568	135.12
490.786	147.12
491.003	146.12
491.221	133.12
491.439	142.12
491.657	148.12
491.874	146.12
492.092	144.12
492.31	139.12
492.527	145.12
492.745	144.12
492.963	140.12
493.18	142.12
493.398	150.12
493.615	153.12
493.833	126.12
494.05	162.12
494.268	148.12
494.485	140.12
494.703	130.12
494.92	144.12
495.138	137.12
495.355	134.12
495.573	130.12
495.79	151.12
496.008	133.12
496.225	140.12
496.442	143.12
496.66	158.12
496.877	141.12
497.094	161.12
497.312	138.12
497.529	147.12
497.746	148.12
497.963	143.12
498.181	141.12
498.398	155.12
498.615	155.12
498.832	164.12
499.049	154.12
499.267	174.12
499.484	190.12
499.701	171.12
499.918	176.12
500.135	205.12
500.352	203.12
500.569	206.12
500.786	214.12
501.003	207.12
501.22	196.12
501.437	185.12
501.654	173.12
501.871	150.12
502.088	156.12
502.305	160.12
502.522	168.12
502.739	172.12
502.956	166.12
503.172	143.12
503.389	148.12
503.606	151.12
503.823	143.12
504.04	132.12
504.256	162.12
504.473	148.12
504.69	150.12
504.907	156.12
505.123	151.12
505.34	136.12
