Data from 1968.PennyLincolnUp.Lamp.En5.5.200Scan.071719.P1._HRD10591_14-51-32-969.txt Node
Date: Thu Jul 18 14:51:32 EDT 2019
User: cochatt
Spectrometer: HR+D1059
Trigger mode: 1
Integration Time (sec): 1.000000E-1
Scans to average: 1
Electric dark correction enabled: true
Nonlinearity correction enabled: false
Boxcar width: 0
XAxis mode: Wavelengths
Number of Pixels in Spectrum: 2048
>>>>>Begin Spectral Data<<<<<
223.165	-26.25
223.4	-26.25
223.635	-26.25
223.869	-9.25
224.104	-24.25
224.338	-20.25
224.573	-6.25
224.808	-3.25
225.042	-8.25
225.277	0.75
225.511	2.75
225.746	-9.25
225.98	6.75
226.215	5.75
226.449	3.75
226.683	22.75
226.918	30.75
227.152	33.75
227.387	29.75
227.621	21.75
227.856	39.75
228.09	50.75
228.324	43.75
228.559	47.75
228.793	62.75
229.027	59.75
229.262	62.75
229.496	62.75
229.73	77.75
229.964	70.75
230.199	74.75
230.433	78.75
230.667	86.75
230.901	79.75
231.136	81.75
231.37	73.75
231.604	87.75
231.838	95.75
232.072	90.75
232.306	82.75
232.541	77.75
232.775	68.75
233.009	91.75
233.243	84.75
233.477	106.75
233.711	89.75
233.945	82.75
234.179	87.75
234.413	94.75
234.647	73.75
234.881	78.75
235.115	85.75
235.349	80.75
235.583	89.75
235.817	90.75
236.051	75.75
236.285	73.75
236.519	77.75
236.753	81.75
236.987	89.75
237.221	74.75
237.455	70.75
237.689	78.75
237.922	84.75
238.156	79.75
238.39	98.75
238.624	88.75
238.858	95.75
239.091	74.75
239.325	95.75
239.559	78.75
239.793	85.75
240.027	91.75
240.26	75.75
240.494	83.75
240.728	86.75
240.961	85.75
241.195	79.75
241.429	89.75
241.662	86.75
241.896	81.75
242.13	66.75
242.363	84.75
242.597	83.75
242.83	82.75
243.064	87.75
243.298	84.75
243.531	83.75
243.765	85.75
243.998	81.75
244.232	96.75
244.465	90.75
244.699	71.75
244.932	86.75
245.166	79.75
245.399	91.75
245.633	92.75
245.866	87.75
246.099	80.75
246.333	105.75
246.566	101.75
246.8	77.75
247.033	103.75
247.266	75.75
247.5	97.75
247.733	75.75
247.966	95.75
248.2	85.75
248.433	80.75
248.666	81.75
248.899	103.75
249.133	84.75
249.366	100.75
249.599	92.75
249.832	97.75
250.066	89.75
250.299	74.75
250.532	99.75
250.765	99.75
250.998	80.75
251.231	81.75
251.465	92.75
251.698	103.75
251.931	80.75
252.164	95.75
252.397	89.75
252.63	84.75
252.863	81.75
253.096	99.75
253.329	86.75
253.562	103.75
253.795	83.75
254.028	77.75
254.261	84.75
254.494	83.75
254.727	93.75
254.96	90.75
255.193	92.75
255.426	83.75
255.659	99.75
255.892	87.75
256.124	91.75
256.357	93.75
256.59	94.75
256.823	80.75
257.056	81.75
257.289	83.75
257.521	86.75
257.754	93.75
257.987	93.75
258.22	89.75
258.452	92.75
258.685	75.75
258.918	90.75
259.151	84.75
259.383	83.75
259.616	94.75
259.849	109.75
260.081	93.75
260.314	77.75
260.547	91.75
260.779	96.75
261.012	90.75
261.244	79.75
261.477	87.75
261.71	90.75
261.942	100.75
262.175	76.75
262.407	103.75
262.64	101.75
262.872	108.75
263.105	86.75
263.337	88.75
263.57	96.75
263.802	94.75
264.035	94.75
264.267	91.75
264.499	85.75
264.732	88.75
264.964	100.75
265.197	95.75
265.429	88.75
265.661	88.75
265.894	98.75
266.126	83.75
266.358	108.75
266.591	92.75
266.823	114.75
267.055	92.75
267.287	80.75
267.52	86.75
267.752	90.75
267.984	106.75
268.216	81.75
268.448	107.75
268.681	95.75
268.913	89.75
269.145	92.75
269.377	102.75
269.609	98.75
269.841	100.75
270.073	92.75
270.306	95.75
270.538	101.75
270.77	105.75
271.002	107.75
271.234	107.75
271.466	101.75
271.698	108.75
271.93	99.75
272.162	106.75
272.394	101.75
272.626	101.75
272.858	111.75
273.09	96.75
273.322	99.75
273.553	95.75
273.785	91.75
274.017	99.75
274.249	97.75
274.481	84.75
274.713	99.75
274.945	103.75
275.176	102.75
275.408	92.75
275.64	101.75
275.872	81.75
276.104	98.75
276.335	83.75
276.567	88.75
276.799	99.75
277.031	109.75
277.262	86.75
277.494	108.75
277.726	111.75
277.957	103.75
278.189	96.75
278.421	100.75
278.652	106.75
278.884	94.75
279.115	113.75
279.347	92.75
279.579	104.75
279.81	103.75
280.042	87.75
280.273	110.75
280.505	93.75
280.736	89.75
280.968	119.75
281.199	90.75
281.431	98.75
281.662	92.75
281.894	100.75
282.125	106.75
282.356	110.75
282.588	110.75
282.819	95.75
283.051	94.75
283.282	92.75
283.513	102.75
283.745	114.75
283.976	96.75
284.207	102.75
284.439	103.75
284.67	103.75
284.901	116.75
285.132	94.75
285.364	109.75
285.595	110.75
285.826	100.75
286.057	100.75
286.288	101.75
286.52	99.75
286.751	114.75
286.982	110.75
287.213	106.75
287.444	93.75
287.675	99.75
287.906	115.75
288.138	107.75
288.369	99.75
288.6	94.75
288.831	99.75
289.062	85.75
289.293	105.75
289.524	101.75
289.755	106.75
289.986	102.75
290.217	96.75
290.448	86.75
290.679	106.75
290.91	103.75
291.141	108.75
291.371	102.75
291.602	107.75
291.833	93.75
292.064	97.75
292.295	108.75
292.526	96.75
292.757	83.75
292.987	98.75
293.218	107.75
293.449	110.75
293.68	110.75
293.91	105.75
294.141	92.75
294.372	110.75
294.603	100.75
294.833	96.75
295.064	108.75
295.295	109.75
295.525	109.75
295.756	101.75
295.987	107.75
296.217	112.75
296.448	104.75
296.679	116.75
296.909	109.75
297.14	100.75
297.37	110.75
297.601	102.75
297.831	105.75
298.062	115.75
298.292	98.75
298.523	106.75
298.753	114.75
298.984	114.75
299.214	99.75
299.445	112.75
299.675	84.75
299.905	102.75
300.136	125.75
300.366	108.75
300.597	101.75
300.827	99.75
301.057	114.75
301.288	101.75
301.518	102.75
301.748	99.75
301.979	112.75
302.209	97.75
302.439	105.75
302.669	109.75
302.9	107.75
303.13	107.75
303.36	97.75
303.59	91.75
303.82	95.75
304.051	105.75
304.281	95.75
304.511	112.75
304.741	105.75
304.971	107.75
305.201	107.75
305.431	106.75
305.661	107.75
305.891	109.75
306.121	119.75
306.352	95.75
306.582	107.75
306.812	89.75
307.042	108.75
307.272	108.75
307.502	111.75
307.731	98.75
307.961	109.75
308.191	103.75
308.421	104.75
308.651	106.75
308.881	108.75
309.111	110.75
309.341	107.75
309.571	96.75
309.8	104.75
310.03	102.75
310.26	106.75
310.49	102.75
310.72	106.75
310.949	103.75
311.179	106.75
311.409	107.75
311.639	107.75
311.868	115.75
312.098	104.75
312.328	105.75
312.557	106.75
312.787	123.75
313.017	120.75
313.246	107.75
313.476	134.75
313.706	115.75
313.935	126.75
314.165	111.75
314.394	120.75
314.624	103.75
314.853	108.75
315.083	126.75
315.312	96.75
315.542	101.75
315.771	115.75
316.001	107.75
316.23	114.75
316.46	100.75
316.689	114.75
316.919	120.75
317.148	117.75
317.377	94.75
317.607	124.75
317.836	115.75
318.065	136.75
318.295	104.75
318.524	114.75
318.753	118.75
318.983	100.75
319.212	111.75
319.441	115.75
319.67	108.75
319.9	114.75
320.129	105.75
320.358	116.75
320.587	102.75
320.816	110.75
321.046	105.75
321.275	116.75
321.504	106.75
321.733	106.75
321.962	111.75
322.191	97.75
322.42	125.75
322.649	120.75
322.878	119.75
323.108	130.75
323.337	110.75
323.566	122.75
323.795	126.75
324.024	118.75
324.253	123.75
324.482	127.75
324.71	166.75
324.939	188.75
325.168	172.75
325.397	116.75
325.626	114.75
325.855	116.75
326.084	121.75
326.313	109.75
326.542	119.75
326.77	102.75
326.999	120.75
327.228	131.75
327.457	171.75
327.686	183.75
327.914	142.75
328.143	122.75
328.372	129.75
328.6	116.75
328.829	107.75
329.058	126.75
329.287	124.75
329.515	105.75
329.744	110.75
329.972	115.75
330.201	122.75
330.43	121.75
330.658	123.75
330.887	130.75
331.115	127.75
331.344	107.75
331.572	114.75
331.801	118.75
332.03	115.75
332.258	116.75
332.486	112.75
332.715	118.75
332.943	114.75
333.172	111.75
333.4	136.75
333.629	132.75
333.857	121.75
334.085	122.75
334.314	115.75
334.542	125.75
334.771	131.75
334.999	118.75
335.227	120.75
335.455	125.75
335.684	122.75
335.912	106.75
336.14	114.75
336.369	104.75
336.597	114.75
336.825	108.75
337.053	123.75
337.281	126.75
337.51	117.75
337.738	118.75
337.966	114.75
338.194	119.75
338.422	113.75
338.65	110.75
338.878	101.75
339.106	118.75
339.334	116.75
339.562	107.75
339.79	90.75
340.018	120.75
340.246	122.75
340.474	117.75
340.702	125.75
340.93	118.75
341.158	106.75
341.386	110.75
341.614	114.75
341.842	129.75
342.07	127.75
342.298	119.75
342.526	115.75
342.754	117.75
342.981	123.75
343.209	113.75
343.437	120.75
343.665	119.75
343.893	113.75
344.12	124.75
344.348	112.75
344.576	114.75
344.804	135.75
345.031	123.75
345.259	108.75
345.487	96.75
345.714	121.75
345.942	127.75
346.17	103.75
346.397	114.75
346.625	120.75
346.853	112.75
347.08	109.75
347.308	109.75
347.535	108.75
347.763	125.75
347.99	120.75
348.218	138.75
348.445	98.75
348.673	113.75
348.9	122.75
349.128	103.75
349.355	118.75
349.583	107.75
349.81	120.75
350.037	124.75
350.265	117.75
350.492	118.75
350.72	108.75
350.947	110.75
351.174	103.75
351.402	116.75
351.629	99.75
351.856	104.75
352.083	117.75
352.311	108.75
352.538	114.75
352.765	124.75
352.992	115.75
353.22	126.75
353.447	109.75
353.674	110.75
353.901	106.75
354.128	115.75
354.355	119.75
354.583	107.75
354.81	116.75
355.037	118.75
355.264	106.75
355.491	122.75
355.718	105.75
355.945	110.75
356.172	119.75
356.399	118.75
356.626	110.75
356.853	107.75
357.08	109.75
357.307	111.75
357.534	111.75
357.761	108.75
357.988	122.75
358.215	104.75
358.441	111.75
358.668	107.75
358.895	108.75
359.122	117.75
359.349	114.75
359.576	115.75
359.802	107.75
360.029	107.75
360.256	110.75
360.483	121.75
360.709	111.75
360.936	106.75
361.163	111.75
361.39	110.75
361.616	117.75
361.843	118.75
362.07	110.75
362.296	112.75
362.523	106.75
362.749	106.75
362.976	116.75
363.203	117.75
363.429	110.75
363.656	107.75
363.882	99.75
364.109	115.75
364.335	120.75
364.562	115.75
364.788	119.75
365.015	121.75
365.241	117.75
365.468	123.75
365.694	111.75
365.92	108.75
366.147	122.75
366.373	112.75
366.599	105.75
366.826	116.75
367.052	104.75
367.278	112.75
367.505	104.75
367.731	120.75
367.957	111.75
368.184	114.75
368.41	111.75
368.636	107.75
368.862	112.75
369.089	114.75
369.315	117.75
369.541	108.75
369.767	108.75
369.993	113.75
370.219	105.75
370.445	114.75
370.672	125.75
370.898	116.75
371.124	106.75
371.35	111.75
371.576	96.75
371.802	119.75
372.028	101.75
372.254	108.75
372.48	111.75
372.706	114.75
372.932	109.75
373.158	109.75
373.384	123.75
373.61	123.75
373.835	127.75
374.061	110.75
374.287	110.75
374.513	105.75
374.739	104.75
374.965	104.75
375.191	119.75
375.416	133.75
375.642	112.75
375.868	112.75
376.094	114.75
376.319	108.75
376.545	118.75
376.771	119.75
376.997	115.75
377.222	117.75
377.448	113.75
377.674	120.75
377.899	115.75
378.125	120.75
378.35	110.75
378.576	113.75
378.802	100.75
379.027	120.75
379.253	101.75
379.478	107.75
379.704	106.75
379.929	119.75
380.155	105.75
380.38	114.75
380.606	116.75
380.831	115.75
381.057	118.75
381.282	103.75
381.507	109.75
381.733	110.75
381.958	112.75
382.184	112.75
382.409	118.75
382.634	123.75
382.86	119.75
383.085	123.75
383.31	105.75
383.535	115.75
383.761	122.75
383.986	127.75
384.211	125.75
384.436	116.75
384.662	133.75
384.887	118.75
385.112	127.75
385.337	109.75
385.562	119.75
385.787	119.75
386.013	135.75
386.238	139.75
386.463	116.75
386.688	104.75
386.913	120.75
387.138	118.75
387.363	124.75
387.588	124.75
387.813	117.75
388.038	126.75
388.263	119.75
388.488	111.75
388.713	124.75
388.938	124.75
389.163	116.75
389.387	117.75
389.612	103.75
389.837	123.75
390.062	115.75
390.287	123.75
390.512	130.75
390.736	121.75
390.961	122.75
391.186	133.75
391.411	122.75
391.636	114.75
391.86	117.75
392.085	129.75
392.31	138.75
392.534	117.75
392.759	134.75
392.984	107.75
393.208	106.75
393.433	131.75
393.658	115.75
393.882	114.75
394.107	116.75
394.331	108.75
394.556	114.75
394.78	125.75
395.005	114.75
395.229	110.75
395.454	107.75
395.678	125.75
395.903	130.75
396.127	122.75
396.352	115.75
396.576	109.75
396.801	123.75
397.025	130.75
397.249	114.75
397.474	119.75
397.698	126.75
397.922	126.75
398.147	134.75
398.371	123.75
398.595	128.75
398.82	126.75
399.044	150.75
399.268	132.75
399.492	146.75
399.717	125.75
399.941	144.75
400.165	142.75
400.389	158.75
400.613	127.75
400.837	140.75
401.062	125.75
401.286	123.75
401.51	120.75
401.734	145.75
401.958	143.75
402.182	116.75
402.406	140.75
402.63	126.75
402.854	140.75
403.078	116.75
403.302	128.75
403.526	136.75
403.75	131.75
403.974	136.75
404.198	135.75
404.422	135.75
404.645	127.75
404.869	136.75
405.093	132.75
405.317	135.75
405.541	132.75
405.765	157.75
405.988	148.75
406.212	131.75
406.436	132.75
406.66	147.75
406.883	135.75
407.107	138.75
407.331	145.75
407.555	144.75
407.778	136.75
408.002	131.75
408.226	135.75
408.449	150.75
408.673	141.75
408.896	137.75
409.12	133.75
409.344	128.75
409.567	133.75
409.791	133.75
410.014	122.75
410.238	138.75
410.461	134.75
410.685	149.75
410.908	134.75
411.132	123.75
411.355	142.75
411.578	142.75
411.802	139.75
412.025	133.75
412.249	139.75
412.472	135.75
412.695	139.75
412.919	137.75
413.142	124.75
413.365	120.75
413.589	127.75
413.812	135.75
414.035	138.75
414.258	130.75
414.482	134.75
414.705	130.75
414.928	130.75
415.151	120.75
415.374	116.75
415.597	119.75
415.821	127.75
416.044	122.75
416.267	107.75
416.49	132.75
416.713	131.75
416.936	138.75
417.159	141.75
417.382	127.75
417.605	137.75
417.828	131.75
418.051	130.75
418.274	134.75
418.497	130.75
418.72	125.75
418.943	130.75
419.166	122.75
419.389	144.75
419.611	138.75
419.834	126.75
420.057	125.75
420.28	135.75
420.503	126.75
420.726	138.75
420.948	143.75
421.171	140.75
421.394	140.75
421.617	133.75
421.839	128.75
422.062	137.75
422.285	135.75
422.507	142.75
422.73	139.75
422.953	133.75
423.175	136.75
423.398	143.75
423.621	127.75
423.843	156.75
424.066	145.75
424.288	129.75
424.511	133.75
424.733	137.75
424.956	135.75
425.178	128.75
425.401	128.75
425.623	152.75
425.846	133.75
426.068	127.75
426.291	123.75
426.513	142.75
426.735	143.75
426.958	134.75
427.18	128.75
427.402	142.75
427.625	159.75
427.847	144.75
428.069	130.75
428.292	136.75
428.514	131.75
428.736	139.75
428.958	143.75
429.181	126.75
429.403	130.75
429.625	124.75
429.847	138.75
430.069	143.75
430.292	133.75
430.514	131.75
430.736	127.75
430.958	121.75
431.18	109.75
431.402	120.75
431.624	122.75
431.846	122.75
432.068	131.75
432.29	121.75
432.512	114.75
432.734	123.75
432.956	133.75
433.178	126.75
433.4	116.75
433.622	135.75
433.844	142.75
434.066	119.75
434.287	126.75
434.509	128.75
434.731	148.75
434.953	130.75
435.175	131.75
435.397	130.75
435.618	141.75
435.84	142.75
436.062	143.75
436.284	140.75
436.505	142.75
436.727	131.75
436.949	129.75
437.17	121.75
437.392	128.75
437.614	138.75
437.835	134.75
438.057	136.75
438.278	144.75
438.5	130.75
438.721	158.75
438.943	157.75
439.165	134.75
439.386	128.75
439.608	134.75
439.829	138.75
440.05	134.75
440.272	148.75
440.493	134.75
440.715	128.75
440.936	138.75
441.158	127.75
441.379	132.75
441.6	122.75
441.822	133.75
442.043	136.75
442.264	140.75
442.486	134.75
442.707	132.75
442.928	127.75
443.149	121.75
443.371	140.75
443.592	131.75
443.813	148.75
444.034	146.75
444.255	138.75
444.476	158.75
444.698	140.75
444.919	127.75
445.14	251.75
445.361	189.75
445.582	141.75
445.803	153.75
446.024	133.75
446.245	147.75
446.466	148.75
446.687	147.75
446.908	129.75
447.129	127.75
447.35	134.75
447.571	142.75
447.792	132.75
448.013	138.75
448.234	116.75
448.455	136.75
448.675	140.75
448.896	143.75
449.117	119.75
449.338	121.75
449.559	136.75
449.779	147.75
450	124.75
450.221	127.75
450.442	134.75
450.662	119.75
450.883	137.75
451.104	134.75
451.324	127.75
451.545	119.75
451.766	122.75
451.986	115.75
452.207	119.75
452.428	121.75
452.648	127.75
452.869	147.75
453.089	125.75
453.31	140.75
453.53	116.75
453.751	139.75
453.971	118.75
454.192	131.75
454.412	111.75
454.633	124.75
454.853	120.75
455.073	125.75
455.294	121.75
455.514	140.75
455.734	125.75
455.955	111.75
456.175	100.75
456.395	118.75
456.616	107.75
456.836	107.75
457.056	119.75
457.276	133.75
457.497	118.75
457.717	112.75
457.937	112.75
458.157	100.75
458.377	100.75
458.598	113.75
458.818	116.75
459.038	122.75
459.258	117.75
459.478	122.75
459.698	124.75
459.918	126.75
460.138	125.75
460.358	128.75
460.578	137.75
460.798	122.75
461.018	130.75
461.238	129.75
461.458	139.75
461.678	116.75
461.898	141.75
462.118	117.75
462.338	129.75
462.558	119.75
462.777	135.75
462.997	143.75
463.217	139.75
463.437	139.75
463.657	144.75
463.876	139.75
464.096	128.75
464.316	139.75
464.536	143.75
464.755	148.75
464.975	141.75
465.195	132.75
465.414	139.75
465.634	130.75
465.854	128.75
466.073	122.75
466.293	128.75
466.512	114.75
466.732	131.75
466.951	128.75
467.171	127.75
467.391	120.75
467.61	117.75
467.829	124.75
468.049	131.75
468.268	123.75
468.488	123.75
468.707	127.75
468.927	130.75
469.146	121.75
469.365	114.75
469.585	114.75
469.804	137.75
470.023	128.75
470.243	116.75
470.462	124.75
470.681	131.75
470.901	133.75
471.12	126.75
471.339	124.75
471.558	127.75
471.777	127.75
471.997	124.75
472.216	122.75
472.435	124.75
472.654	130.75
472.873	108.75
473.092	132.75
473.311	112.75
473.53	116.75
473.749	131.75
473.968	132.75
474.187	131.75
474.406	131.75
474.625	125.75
474.844	122.75
475.063	124.75
475.282	128.75
475.501	121.75
475.72	121.75
475.939	108.75
476.158	136.75
476.377	139.75
476.596	136.75
476.814	130.75
477.033	115.75
477.252	128.75
477.471	124.75
477.69	144.75
477.908	139.75
478.127	125.75
478.346	121.75
478.564	128.75
478.783	142.75
479.002	131.75
479.22	134.75
479.439	127.75
479.658	135.75
479.876	127.75
480.095	145.75
480.313	123.75
480.532	136.75
480.751	130.75
480.969	138.75
481.188	142.75
481.406	142.75
481.624	136.75
481.843	132.75
482.061	123.75
482.28	145.75
482.498	138.75
482.717	128.75
482.935	132.75
483.153	119.75
483.372	148.75
483.59	147.75
483.808	142.75
484.027	136.75
484.245	136.75
484.463	142.75
484.681	144.75
484.9	123.75
485.118	125.75
485.336	138.75
485.554	141.75
485.772	128.75
485.99	136.75
486.209	141.75
486.427	134.75
486.645	134.75
486.863	149.75
487.081	148.75
487.299	121.75
487.517	158.75
487.735	147.75
487.953	148.75
488.171	133.75
488.389	146.75
488.607	143.75
488.825	126.75
489.043	142.75
489.261	160.75
489.479	139.75
489.696	137.75
489.914	130.75
490.132	145.75
490.35	132.75
490.568	135.75
490.786	135.75
491.003	135.75
491.221	138.75
491.439	156.75
491.657	162.75
491.874	140.75
492.092	158.75
492.31	157.75
492.527	150.75
492.745	144.75
492.963	160.75
493.18	142.75
493.398	142.75
493.615	160.75
493.833	143.75
494.05	153.75
494.268	139.75
494.485	139.75
494.703	147.75
494.92	152.75
495.138	142.75
495.355	138.75
495.573	146.75
495.79	144.75
496.008	157.75
496.225	139.75
496.442	142.75
496.66	151.75
496.877	136.75
497.094	147.75
497.312	134.75
497.529	142.75
497.746	150.75
497.963	167.75
498.181	150.75
498.398	152.75
498.615	166.75
498.832	143.75
499.049	161.75
499.267	178.75
499.484	184.75
499.701	174.75
499.918	207.75
500.135	205.75
500.352	207.75
500.569	212.75
500.786	230.75
501.003	202.75
501.22	198.75
501.437	200.75
501.654	196.75
501.871	178.75
502.088	154.75
502.305	154.75
502.522	168.75
502.739	160.75
502.956	162.75
503.172	152.75
503.389	161.75
503.606	143.75
503.823	154.75
504.04	146.75
504.256	147.75
504.473	150.75
504.69	146.75
504.907	148.75
505.123	153.75
