Data from 1968.PennyLincolnUp.Lamp.En5.5.200Scan.071719.P1._HRD10591_14-50-52-970.txt Node
Date: Thu Jul 18 14:50:52 EDT 2019
User: cochatt
Spectrometer: HR+D1059
Trigger mode: 1
Integration Time (sec): 1.000000E-1
Scans to average: 1
Electric dark correction enabled: true
Nonlinearity correction enabled: false
Boxcar width: 0
XAxis mode: Wavelengths
Number of Pixels in Spectrum: 2048
>>>>>Begin Spectral Data<<<<<
223.165	-23.44
223.4	-23.44
223.635	-23.44
223.869	-16.44
224.104	-12.44
224.338	-11.44
224.573	-10.44
224.808	-21.44
225.042	-14.44
225.277	6.56
225.511	0.56
225.746	2.56
225.98	8.56
226.215	18.56
226.449	6.56
226.683	12.56
226.918	25.56
227.152	28.56
227.387	37.56
227.621	48.56
227.856	56.56
228.09	48.56
228.324	46.56
228.559	59.56
228.793	58.56
229.027	66.56
229.262	67.56
229.496	71.56
229.73	56.56
229.964	87.56
230.199	82.56
230.433	74.56
230.667	74.56
230.901	84.56
231.136	89.56
231.37	77.56
231.604	81.56
231.838	89.56
232.072	86.56
232.306	101.56
232.541	71.56
232.775	85.56
233.009	96.56
233.243	69.56
233.477	85.56
233.711	82.56
233.945	71.56
234.179	85.56
234.413	92.56
234.647	82.56
234.881	79.56
235.115	84.56
235.349	81.56
235.583	86.56
235.817	78.56
236.051	76.56
236.285	89.56
236.519	84.56
236.753	86.56
236.987	79.56
237.221	90.56
237.455	88.56
237.689	83.56
237.922	79.56
238.156	84.56
238.39	80.56
238.624	69.56
238.858	80.56
239.091	92.56
239.325	76.56
239.559	76.56
239.793	78.56
240.027	92.56
240.26	76.56
240.494	76.56
240.728	90.56
240.961	76.56
241.195	80.56
241.429	78.56
241.662	86.56
241.896	72.56
242.13	82.56
242.363	79.56
242.597	73.56
242.83	80.56
243.064	78.56
243.298	84.56
243.531	77.56
243.765	79.56
243.998	85.56
244.232	91.56
244.465	84.56
244.699	91.56
244.932	74.56
245.166	70.56
245.399	82.56
245.633	90.56
245.866	81.56
246.099	82.56
246.333	97.56
246.566	87.56
246.8	85.56
247.033	86.56
247.266	80.56
247.5	88.56
247.733	73.56
247.966	96.56
248.2	84.56
248.433	93.56
248.666	78.56
248.899	88.56
249.133	82.56
249.366	92.56
249.599	87.56
249.832	96.56
250.066	96.56
250.299	92.56
250.532	93.56
250.765	80.56
250.998	84.56
251.231	92.56
251.465	99.56
251.698	102.56
251.931	93.56
252.164	93.56
252.397	98.56
252.63	86.56
252.863	77.56
253.096	79.56
253.329	86.56
253.562	89.56
253.795	82.56
254.028	88.56
254.261	91.56
254.494	83.56
254.727	92.56
254.96	103.56
255.193	93.56
255.426	73.56
255.659	86.56
255.892	87.56
256.124	86.56
256.357	89.56
256.59	84.56
256.823	91.56
257.056	93.56
257.289	97.56
257.521	94.56
257.754	84.56
257.987	74.56
258.22	77.56
258.452	96.56
258.685	95.56
258.918	96.56
259.151	98.56
259.383	74.56
259.616	89.56
259.849	79.56
260.081	102.56
260.314	110.56
260.547	98.56
260.779	90.56
261.012	96.56
261.244	98.56
261.477	88.56
261.71	88.56
261.942	88.56
262.175	88.56
262.407	92.56
262.64	99.56
262.872	118.56
263.105	84.56
263.337	83.56
263.57	80.56
263.802	99.56
264.035	97.56
264.267	83.56
264.499	94.56
264.732	89.56
264.964	93.56
265.197	105.56
265.429	83.56
265.661	82.56
265.894	85.56
266.126	115.56
266.358	96.56
266.591	83.56
266.823	92.56
267.055	78.56
267.287	97.56
267.52	81.56
267.752	91.56
267.984	95.56
268.216	98.56
268.448	94.56
268.681	93.56
268.913	98.56
269.145	101.56
269.377	87.56
269.609	93.56
269.841	102.56
270.073	101.56
270.306	100.56
270.538	97.56
270.77	102.56
271.002	93.56
271.234	98.56
271.466	109.56
271.698	94.56
271.93	83.56
272.162	91.56
272.394	87.56
272.626	78.56
272.858	112.56
273.09	98.56
273.322	96.56
273.553	106.56
273.785	96.56
274.017	77.56
274.249	96.56
274.481	98.56
274.713	83.56
274.945	102.56
275.176	103.56
275.408	97.56
275.64	96.56
275.872	108.56
276.104	94.56
276.335	110.56
276.567	106.56
276.799	92.56
277.031	102.56
277.262	96.56
277.494	98.56
277.726	105.56
277.957	94.56
278.189	88.56
278.421	100.56
278.652	103.56
278.884	102.56
279.115	107.56
279.347	98.56
279.579	105.56
279.81	91.56
280.042	93.56
280.273	90.56
280.505	94.56
280.736	94.56
280.968	102.56
281.199	93.56
281.431	97.56
281.662	79.56
281.894	94.56
282.125	94.56
282.356	114.56
282.588	116.56
282.819	96.56
283.051	119.56
283.282	110.56
283.513	110.56
283.745	103.56
283.976	101.56
284.207	98.56
284.439	106.56
284.67	104.56
284.901	103.56
285.132	112.56
285.364	100.56
285.595	116.56
285.826	94.56
286.057	113.56
286.288	100.56
286.52	116.56
286.751	101.56
286.982	102.56
287.213	98.56
287.444	91.56
287.675	98.56
287.906	93.56
288.138	112.56
288.369	112.56
288.6	108.56
288.831	106.56
289.062	114.56
289.293	100.56
289.524	109.56
289.755	94.56
289.986	100.56
290.217	97.56
290.448	103.56
290.679	101.56
290.91	114.56
291.141	116.56
291.371	101.56
291.602	101.56
291.833	99.56
292.064	113.56
292.295	112.56
292.526	97.56
292.757	93.56
292.987	104.56
293.218	109.56
293.449	97.56
293.68	97.56
293.91	106.56
294.141	98.56
294.372	108.56
294.603	107.56
294.833	122.56
295.064	106.56
295.295	103.56
295.525	95.56
295.756	104.56
295.987	100.56
296.217	104.56
296.448	103.56
296.679	106.56
296.909	102.56
297.14	98.56
297.37	105.56
297.601	113.56
297.831	97.56
298.062	98.56
298.292	107.56
298.523	109.56
298.753	115.56
298.984	108.56
299.214	115.56
299.445	105.56
299.675	114.56
299.905	92.56
300.136	101.56
300.366	115.56
300.597	97.56
300.827	109.56
301.057	103.56
301.288	124.56
301.518	107.56
301.748	115.56
301.979	96.56
302.209	105.56
302.439	99.56
302.669	100.56
302.9	101.56
303.13	100.56
303.36	109.56
303.59	102.56
303.82	101.56
304.051	109.56
304.281	114.56
304.511	101.56
304.741	98.56
304.971	96.56
305.201	104.56
305.431	101.56
305.661	100.56
305.891	101.56
306.121	105.56
306.352	102.56
306.582	110.56
306.812	111.56
307.042	116.56
307.272	108.56
307.502	114.56
307.731	92.56
307.961	98.56
308.191	130.56
308.421	103.56
308.651	104.56
308.881	105.56
309.111	91.56
309.341	113.56
309.571	115.56
309.8	105.56
310.03	108.56
310.26	123.56
310.49	107.56
310.72	91.56
310.949	114.56
311.179	112.56
311.409	110.56
311.639	118.56
311.868	105.56
312.098	108.56
312.328	98.56
312.557	109.56
312.787	107.56
313.017	99.56
313.246	105.56
313.476	105.56
313.706	102.56
313.935	99.56
314.165	107.56
314.394	109.56
314.624	108.56
314.853	104.56
315.083	112.56
315.312	116.56
315.542	106.56
315.771	116.56
316.001	96.56
316.23	118.56
316.46	109.56
316.689	99.56
316.919	114.56
317.148	114.56
317.377	121.56
317.607	101.56
317.836	112.56
318.065	120.56
318.295	107.56
318.524	89.56
318.753	117.56
318.983	107.56
319.212	110.56
319.441	123.56
319.67	99.56
319.9	107.56
320.129	99.56
320.358	117.56
320.587	109.56
320.816	102.56
321.046	100.56
321.275	104.56
321.504	116.56
321.733	114.56
321.962	125.56
322.191	98.56
322.42	109.56
322.649	102.56
322.878	110.56
323.108	107.56
323.337	108.56
323.566	109.56
323.795	120.56
324.024	120.56
324.253	123.56
324.482	134.56
324.71	150.56
324.939	195.56
325.168	148.56
325.397	135.56
325.626	128.56
325.855	118.56
326.084	112.56
326.313	118.56
326.542	110.56
326.77	106.56
326.999	116.56
327.228	141.56
327.457	147.56
327.686	173.56
327.914	136.56
328.143	128.56
328.372	123.56
328.6	107.56
328.829	116.56
329.058	116.56
329.287	118.56
329.515	120.56
329.744	115.56
329.972	107.56
330.201	118.56
330.43	125.56
330.658	115.56
330.887	108.56
331.115	126.56
331.344	120.56
331.572	111.56
331.801	112.56
332.03	111.56
332.258	115.56
332.486	115.56
332.715	111.56
332.943	99.56
333.172	118.56
333.4	125.56
333.629	119.56
333.857	117.56
334.085	122.56
334.314	109.56
334.542	121.56
334.771	121.56
334.999	126.56
335.227	116.56
335.455	124.56
335.684	121.56
335.912	114.56
336.14	116.56
336.369	93.56
336.597	106.56
336.825	123.56
337.053	114.56
337.281	126.56
337.51	109.56
337.738	128.56
337.966	123.56
338.194	120.56
338.422	107.56
338.65	104.56
338.878	122.56
339.106	105.56
339.334	106.56
339.562	123.56
339.79	106.56
340.018	108.56
340.246	104.56
340.474	108.56
340.702	120.56
340.93	120.56
341.158	96.56
341.386	109.56
341.614	105.56
341.842	118.56
342.07	125.56
342.298	124.56
342.526	117.56
342.754	112.56
342.981	117.56
343.209	116.56
343.437	112.56
343.665	113.56
343.893	105.56
344.12	120.56
344.348	121.56
344.576	120.56
344.804	118.56
345.031	121.56
345.259	121.56
345.487	100.56
345.714	114.56
345.942	92.56
346.17	111.56
346.397	103.56
346.625	105.56
346.853	107.56
347.08	118.56
347.308	99.56
347.535	95.56
347.763	105.56
347.99	100.56
348.218	102.56
348.445	109.56
348.673	103.56
348.9	103.56
349.128	116.56
349.355	112.56
349.583	119.56
349.81	109.56
350.037	114.56
350.265	117.56
350.492	115.56
350.72	123.56
350.947	116.56
351.174	112.56
351.402	106.56
351.629	94.56
351.856	95.56
352.083	114.56
352.311	115.56
352.538	106.56
352.765	111.56
352.992	104.56
353.22	107.56
353.447	104.56
353.674	107.56
353.901	107.56
354.128	117.56
354.355	101.56
354.583	97.56
354.81	108.56
355.037	113.56
355.264	105.56
355.491	96.56
355.718	108.56
355.945	103.56
356.172	112.56
356.399	110.56
356.626	122.56
356.853	105.56
357.08	114.56
357.307	106.56
357.534	114.56
357.761	113.56
357.988	122.56
358.215	102.56
358.441	94.56
358.668	119.56
358.895	120.56
359.122	113.56
359.349	107.56
359.576	113.56
359.802	107.56
360.029	124.56
360.256	120.56
360.483	115.56
360.709	105.56
360.936	97.56
361.163	114.56
361.39	108.56
361.616	108.56
361.843	115.56
362.07	104.56
362.296	114.56
362.523	107.56
362.749	114.56
362.976	108.56
363.203	102.56
363.429	103.56
363.656	114.56
363.882	100.56
364.109	114.56
364.335	116.56
364.562	109.56
364.788	121.56
365.015	107.56
365.241	116.56
365.468	109.56
365.694	103.56
365.92	100.56
366.147	115.56
366.373	125.56
366.599	112.56
366.826	105.56
367.052	110.56
367.278	113.56
367.505	109.56
367.731	124.56
367.957	117.56
368.184	110.56
368.41	120.56
368.636	111.56
368.862	110.56
369.089	107.56
369.315	104.56
369.541	115.56
369.767	115.56
369.993	111.56
370.219	93.56
370.445	114.56
370.672	100.56
370.898	126.56
371.124	121.56
371.35	103.56
371.576	114.56
371.802	118.56
372.028	101.56
372.254	118.56
372.48	112.56
372.706	109.56
372.932	112.56
373.158	132.56
373.384	117.56
373.61	116.56
373.835	102.56
374.061	123.56
374.287	105.56
374.513	103.56
374.739	96.56
374.965	120.56
375.191	123.56
375.416	120.56
375.642	100.56
375.868	115.56
376.094	105.56
376.319	108.56
376.545	126.56
376.771	106.56
376.997	102.56
377.222	99.56
377.448	107.56
377.674	113.56
377.899	109.56
378.125	91.56
378.35	116.56
378.576	106.56
378.802	104.56
379.027	105.56
379.253	98.56
379.478	115.56
379.704	116.56
379.929	123.56
380.155	107.56
380.38	96.56
380.606	116.56
380.831	101.56
381.057	122.56
381.282	116.56
381.507	114.56
381.733	104.56
381.958	108.56
382.184	110.56
382.409	112.56
382.634	96.56
382.86	105.56
383.085	115.56
383.31	122.56
383.535	119.56
383.761	104.56
383.986	117.56
384.211	122.56
384.436	125.56
384.662	115.56
384.887	114.56
385.112	109.56
385.337	93.56
385.562	122.56
385.787	124.56
386.013	122.56
386.238	117.56
386.463	113.56
386.688	128.56
386.913	110.56
387.138	128.56
387.363	129.56
387.588	113.56
387.813	101.56
388.038	107.56
388.263	122.56
388.488	120.56
388.713	114.56
388.938	112.56
389.163	120.56
389.387	121.56
389.612	123.56
389.837	112.56
390.062	133.56
390.287	134.56
390.512	117.56
390.736	130.56
390.961	114.56
391.186	119.56
391.411	120.56
391.636	119.56
391.86	112.56
392.085	109.56
392.31	118.56
392.534	126.56
392.759	131.56
392.984	116.56
393.208	115.56
393.433	111.56
393.658	117.56
393.882	115.56
394.107	119.56
394.331	116.56
394.556	120.56
394.78	122.56
395.005	124.56
395.229	113.56
395.454	134.56
395.678	118.56
395.903	109.56
396.127	123.56
396.352	124.56
396.576	117.56
396.801	128.56
397.025	130.56
397.249	129.56
397.474	118.56
397.698	121.56
397.922	123.56
398.147	135.56
398.371	113.56
398.595	122.56
398.82	124.56
399.044	130.56
399.268	135.56
399.492	137.56
399.717	156.56
399.941	133.56
400.165	149.56
400.389	140.56
400.613	128.56
400.837	131.56
401.062	123.56
401.286	131.56
401.51	127.56
401.734	120.56
401.958	144.56
402.182	142.56
402.406	139.56
402.63	125.56
402.854	138.56
403.078	138.56
403.302	122.56
403.526	124.56
403.75	123.56
403.974	126.56
404.198	138.56
404.422	158.56
404.645	139.56
404.869	109.56
405.093	131.56
405.317	138.56
405.541	119.56
405.765	139.56
405.988	131.56
406.212	136.56
406.436	127.56
406.66	151.56
406.883	142.56
407.107	128.56
407.331	145.56
407.555	134.56
407.778	138.56
408.002	134.56
408.226	140.56
408.449	128.56
408.673	123.56
408.896	125.56
409.12	136.56
409.344	131.56
409.567	122.56
409.791	136.56
410.014	141.56
410.238	126.56
410.461	130.56
410.685	135.56
410.908	141.56
411.132	132.56
411.355	128.56
411.578	128.56
411.802	126.56
412.025	120.56
412.249	118.56
412.472	134.56
412.695	121.56
412.919	125.56
413.142	122.56
413.365	131.56
413.589	122.56
413.812	125.56
414.035	133.56
414.258	123.56
414.482	122.56
414.705	148.56
414.928	125.56
415.151	117.56
415.374	145.56
415.597	124.56
415.821	138.56
416.044	137.56
416.267	135.56
416.49	104.56
416.713	124.56
416.936	126.56
417.159	132.56
417.382	132.56
417.605	128.56
417.828	122.56
418.051	133.56
418.274	125.56
418.497	137.56
418.72	127.56
418.943	121.56
419.166	136.56
419.389	121.56
419.611	130.56
419.834	146.56
420.057	136.56
420.28	131.56
420.503	121.56
420.726	123.56
420.948	142.56
421.171	142.56
421.394	124.56
421.617	120.56
421.839	132.56
422.062	132.56
422.285	122.56
422.507	141.56
422.73	141.56
422.953	145.56
423.175	124.56
423.398	130.56
423.621	138.56
423.843	136.56
424.066	129.56
424.288	132.56
424.511	138.56
424.733	145.56
424.956	128.56
425.178	155.56
425.401	132.56
425.623	143.56
425.846	132.56
426.068	137.56
426.291	125.56
426.513	130.56
426.735	136.56
426.958	142.56
427.18	149.56
427.402	151.56
427.625	150.56
427.847	143.56
428.069	124.56
428.292	126.56
428.514	120.56
428.736	122.56
428.958	119.56
429.181	122.56
429.403	107.56
429.625	135.56
429.847	120.56
430.069	126.56
430.292	132.56
430.514	120.56
430.736	122.56
430.958	135.56
431.18	123.56
431.402	115.56
431.624	129.56
431.846	132.56
432.068	130.56
432.29	120.56
432.512	112.56
432.734	130.56
432.956	132.56
433.178	125.56
433.4	126.56
433.622	133.56
433.844	146.56
434.066	132.56
434.287	93.56
434.509	123.56
434.731	129.56
434.953	132.56
435.175	131.56
435.397	141.56
435.618	123.56
435.84	120.56
436.062	136.56
436.284	142.56
436.505	136.56
436.727	141.56
436.949	133.56
437.17	122.56
437.392	118.56
437.614	131.56
437.835	122.56
438.057	122.56
438.278	145.56
438.5	128.56
438.721	130.56
438.943	140.56
439.165	137.56
439.386	117.56
439.608	142.56
439.829	120.56
440.05	123.56
440.272	148.56
440.493	131.56
440.715	135.56
440.936	141.56
441.158	134.56
441.379	118.56
441.6	123.56
441.822	132.56
442.043	138.56
442.264	151.56
442.486	134.56
442.707	140.56
442.928	145.56
443.149	104.56
443.371	124.56
443.592	138.56
443.813	153.56
444.034	132.56
444.255	148.56
444.476	151.56
444.698	135.56
444.919	142.56
445.14	224.56
445.361	177.56
445.582	122.56
445.803	131.56
446.024	134.56
446.245	150.56
446.466	140.56
446.687	134.56
446.908	129.56
447.129	136.56
447.35	126.56
447.571	120.56
447.792	106.56
448.013	130.56
448.234	124.56
448.455	132.56
448.675	137.56
448.896	141.56
449.117	137.56
449.338	133.56
449.559	130.56
449.779	141.56
450	121.56
450.221	129.56
450.442	135.56
450.662	134.56
450.883	136.56
451.104	124.56
451.324	125.56
451.545	117.56
451.766	119.56
451.986	113.56
452.207	125.56
452.428	114.56
452.648	127.56
452.869	133.56
453.089	115.56
453.31	120.56
453.53	124.56
453.751	125.56
453.971	121.56
454.192	129.56
454.412	114.56
454.633	117.56
454.853	111.56
455.073	120.56
455.294	124.56
455.514	125.56
455.734	115.56
455.955	123.56
456.175	124.56
456.395	115.56
456.616	115.56
456.836	118.56
457.056	128.56
457.276	107.56
457.497	112.56
457.717	117.56
457.937	116.56
458.157	116.56
458.377	115.56
458.598	129.56
458.818	118.56
459.038	117.56
459.258	128.56
459.478	130.56
459.698	131.56
459.918	123.56
460.138	133.56
460.358	122.56
460.578	129.56
460.798	149.56
461.018	140.56
461.238	129.56
461.458	139.56
461.678	140.56
461.898	139.56
462.118	145.56
462.338	134.56
462.558	128.56
462.777	153.56
462.997	130.56
463.217	150.56
463.437	140.56
463.657	129.56
463.876	146.56
464.096	135.56
464.316	136.56
464.536	150.56
464.755	133.56
464.975	126.56
465.195	132.56
465.414	130.56
465.634	126.56
465.854	124.56
466.073	125.56
466.293	135.56
466.512	129.56
466.732	124.56
466.951	122.56
467.171	119.56
467.391	108.56
467.61	105.56
467.829	133.56
468.049	115.56
468.268	124.56
468.488	112.56
468.707	120.56
468.927	137.56
469.146	125.56
469.365	122.56
469.585	132.56
469.804	120.56
470.023	117.56
470.243	117.56
470.462	140.56
470.681	140.56
470.901	139.56
471.12	121.56
471.339	121.56
471.558	125.56
471.777	123.56
471.997	124.56
472.216	125.56
472.435	116.56
472.654	130.56
472.873	128.56
473.092	113.56
473.311	118.56
473.53	128.56
473.749	118.56
473.968	129.56
474.187	124.56
474.406	126.56
474.625	117.56
474.844	136.56
475.063	114.56
475.282	122.56
475.501	118.56
475.72	127.56
475.939	116.56
476.158	125.56
476.377	125.56
476.596	110.56
476.814	136.56
477.033	117.56
477.252	120.56
477.471	137.56
477.69	116.56
477.908	117.56
478.127	135.56
478.346	126.56
478.564	113.56
478.783	133.56
479.002	143.56
479.22	150.56
479.439	137.56
479.658	152.56
479.876	141.56
480.095	133.56
480.313	125.56
480.532	134.56
480.751	131.56
480.969	120.56
481.188	139.56
481.406	131.56
481.624	128.56
481.843	136.56
482.061	120.56
482.28	129.56
482.498	117.56
482.717	137.56
482.935	124.56
483.153	132.56
483.372	129.56
483.59	140.56
483.808	134.56
484.027	120.56
484.245	132.56
484.463	140.56
484.681	133.56
484.9	126.56
485.118	145.56
485.336	128.56
485.554	129.56
485.772	128.56
485.99	127.56
486.209	141.56
486.427	125.56
486.645	123.56
486.863	131.56
487.081	138.56
487.299	134.56
487.517	126.56
487.735	148.56
487.953	141.56
488.171	143.56
488.389	130.56
488.607	157.56
488.825	146.56
489.043	133.56
489.261	126.56
489.479	139.56
489.696	128.56
489.914	124.56
490.132	125.56
490.35	139.56
490.568	152.56
490.786	152.56
491.003	138.56
491.221	144.56
491.439	129.56
491.657	134.56
491.874	151.56
492.092	155.56
492.31	160.56
492.527	145.56
492.745	158.56
492.963	151.56
493.18	142.56
493.398	136.56
493.615	148.56
493.833	146.56
494.05	138.56
494.268	142.56
494.485	131.56
494.703	127.56
494.92	141.56
495.138	147.56
495.355	143.56
495.573	141.56
495.79	146.56
496.008	135.56
496.225	121.56
496.442	162.56
496.66	151.56
496.877	152.56
497.094	161.56
497.312	141.56
497.529	134.56
497.746	133.56
497.963	138.56
498.181	150.56
498.398	143.56
498.615	157.56
498.832	150.56
499.049	160.56
499.267	160.56
499.484	177.56
499.701	161.56
499.918	200.56
500.135	200.56
500.352	214.56
500.569	214.56
500.786	214.56
501.003	193.56
501.22	193.56
501.437	196.56
501.654	174.56
501.871	172.56
502.088	162.56
502.305	156.56
502.522	160.56
502.739	157.56
502.956	153.56
503.172	159.56
503.389	150.56
503.606	155.56
503.823	142.56
504.04	140.56
504.256	146.56
504.473	144.56
504.69	161.56
504.907	169.56
505.123	164.56
505.34	135.56
505.557	132.56
