Data from 1968.PennyLincolnUp.Lamp.En5.5.200Scan.071719.P1._HRD10591_14-50-17-970.txt Node
Date: Thu Jul 18 14:50:17 EDT 2019
User: cochatt
Spectrometer: HR+D1059
Trigger mode: 1
Integration Time (sec): 1.000000E-1
Scans to average: 1
Electric dark correction enabled: true
Nonlinearity correction enabled: false
Boxcar width: 0
XAxis mode: Wavelengths
Number of Pixels in Spectrum: 2048
>>>>>Begin Spectral Data<<<<<
223.165	-3.38
223.4	-3.38
223.635	-3.38
223.869	-20.38
224.104	-16.38
224.338	-22.38
224.573	-13.38
224.808	-9.38
225.042	-5.38
225.277	-14.38
225.511	-12.38
225.746	2.62
225.98	18.62
226.215	6.62
226.449	13.62
226.683	18.62
226.918	21.62
227.152	35.62
227.387	37.62
227.621	42.62
227.856	37.62
228.09	56.62
228.324	49.62
228.559	59.62
228.793	51.62
229.027	68.62
229.262	53.62
229.496	64.62
229.73	63.62
229.964	89.62
230.199	56.62
230.433	66.62
230.667	80.62
230.901	81.62
231.136	70.62
231.37	91.62
231.604	81.62
231.838	99.62
232.072	99.62
232.306	81.62
232.541	91.62
232.775	77.62
233.009	98.62
233.243	65.62
233.477	83.62
233.711	93.62
233.945	93.62
234.179	98.62
234.413	80.62
234.647	80.62
234.881	79.62
235.115	86.62
235.349	60.62
235.583	91.62
235.817	86.62
236.051	81.62
236.285	101.62
236.519	80.62
236.753	73.62
236.987	84.62
237.221	89.62
237.455	81.62
237.689	79.62
237.922	72.62
238.156	67.62
238.39	88.62
238.624	83.62
238.858	83.62
239.091	77.62
239.325	83.62
239.559	74.62
239.793	89.62
240.027	81.62
240.26	68.62
240.494	88.62
240.728	83.62
240.961	84.62
241.195	85.62
241.429	85.62
241.662	82.62
241.896	89.62
242.13	90.62
242.363	85.62
242.597	77.62
242.83	90.62
243.064	84.62
243.298	89.62
243.531	77.62
243.765	84.62
243.998	79.62
244.232	83.62
244.465	100.62
244.699	86.62
244.932	79.62
245.166	79.62
245.399	93.62
245.633	90.62
245.866	97.62
246.099	94.62
246.333	88.62
246.566	86.62
246.8	84.62
247.033	77.62
247.266	80.62
247.5	95.62
247.733	99.62
247.966	94.62
248.2	83.62
248.433	82.62
248.666	81.62
248.899	87.62
249.133	93.62
249.366	84.62
249.599	93.62
249.832	90.62
250.066	92.62
250.299	92.62
250.532	79.62
250.765	75.62
250.998	95.62
251.231	82.62
251.465	99.62
251.698	77.62
251.931	79.62
252.164	90.62
252.397	88.62
252.63	97.62
252.863	99.62
253.096	92.62
253.329	79.62
253.562	83.62
253.795	95.62
254.028	77.62
254.261	91.62
254.494	93.62
254.727	98.62
254.96	87.62
255.193	93.62
255.426	91.62
255.659	89.62
255.892	92.62
256.124	92.62
256.357	95.62
256.59	92.62
256.823	90.62
257.056	109.62
257.289	86.62
257.521	96.62
257.754	98.62
257.987	87.62
258.22	103.62
258.452	90.62
258.685	85.62
258.918	80.62
259.151	99.62
259.383	94.62
259.616	87.62
259.849	93.62
260.081	89.62
260.314	107.62
260.547	109.62
260.779	89.62
261.012	110.62
261.244	83.62
261.477	89.62
261.71	96.62
261.942	90.62
262.175	97.62
262.407	94.62
262.64	88.62
262.872	80.62
263.105	86.62
263.337	110.62
263.57	95.62
263.802	100.62
264.035	98.62
264.267	93.62
264.499	91.62
264.732	88.62
264.964	98.62
265.197	89.62
265.429	102.62
265.661	99.62
265.894	101.62
266.126	96.62
266.358	85.62
266.591	104.62
266.823	102.62
267.055	103.62
267.287	89.62
267.52	100.62
267.752	94.62
267.984	101.62
268.216	92.62
268.448	108.62
268.681	103.62
268.913	83.62
269.145	95.62
269.377	105.62
269.609	110.62
269.841	89.62
270.073	106.62
270.306	98.62
270.538	95.62
270.77	95.62
271.002	90.62
271.234	115.62
271.466	83.62
271.698	104.62
271.93	100.62
272.162	100.62
272.394	106.62
272.626	94.62
272.858	96.62
273.09	87.62
273.322	99.62
273.553	95.62
273.785	96.62
274.017	93.62
274.249	96.62
274.481	104.62
274.713	85.62
274.945	108.62
275.176	110.62
275.408	99.62
275.64	106.62
275.872	89.62
276.104	95.62
276.335	77.62
276.567	92.62
276.799	104.62
277.031	100.62
277.262	97.62
277.494	95.62
277.726	110.62
277.957	101.62
278.189	91.62
278.421	96.62
278.652	85.62
278.884	110.62
279.115	92.62
279.347	91.62
279.579	106.62
279.81	95.62
280.042	94.62
280.273	102.62
280.505	101.62
280.736	98.62
280.968	98.62
281.199	92.62
281.431	98.62
281.662	103.62
281.894	118.62
282.125	93.62
282.356	97.62
282.588	105.62
282.819	103.62
283.051	102.62
283.282	107.62
283.513	87.62
283.745	94.62
283.976	106.62
284.207	94.62
284.439	106.62
284.67	101.62
284.901	103.62
285.132	107.62
285.364	102.62
285.595	109.62
285.826	87.62
286.057	101.62
286.288	95.62
286.52	105.62
286.751	93.62
286.982	102.62
287.213	102.62
287.444	99.62
287.675	119.62
287.906	93.62
288.138	96.62
288.369	103.62
288.6	100.62
288.831	105.62
289.062	96.62
289.293	99.62
289.524	114.62
289.755	108.62
289.986	103.62
290.217	110.62
290.448	104.62
290.679	118.62
290.91	104.62
291.141	95.62
291.371	102.62
291.602	102.62
291.833	103.62
292.064	114.62
292.295	95.62
292.526	93.62
292.757	121.62
292.987	103.62
293.218	93.62
293.449	100.62
293.68	82.62
293.91	98.62
294.141	104.62
294.372	98.62
294.603	91.62
294.833	90.62
295.064	110.62
295.295	97.62
295.525	102.62
295.756	112.62
295.987	103.62
296.217	111.62
296.448	102.62
296.679	108.62
296.909	115.62
297.14	102.62
297.37	92.62
297.601	109.62
297.831	107.62
298.062	103.62
298.292	106.62
298.523	96.62
298.753	104.62
298.984	94.62
299.214	101.62
299.445	113.62
299.675	111.62
299.905	98.62
300.136	116.62
300.366	119.62
300.597	107.62
300.827	131.62
301.057	101.62
301.288	109.62
301.518	106.62
301.748	100.62
301.979	110.62
302.209	117.62
302.439	107.62
302.669	102.62
302.9	110.62
303.13	123.62
303.36	120.62
303.59	114.62
303.82	102.62
304.051	102.62
304.281	108.62
304.511	119.62
304.741	107.62
304.971	105.62
305.201	101.62
305.431	97.62
305.661	114.62
305.891	92.62
306.121	97.62
306.352	107.62
306.582	109.62
306.812	95.62
307.042	101.62
307.272	114.62
307.502	111.62
307.731	116.62
307.961	97.62
308.191	97.62
308.421	81.62
308.651	120.62
308.881	102.62
309.111	99.62
309.341	98.62
309.571	107.62
309.8	106.62
310.03	107.62
310.26	109.62
310.49	109.62
310.72	122.62
310.949	111.62
311.179	96.62
311.409	94.62
311.639	95.62
311.868	99.62
312.098	119.62
312.328	110.62
312.557	119.62
312.787	122.62
313.017	111.62
313.246	119.62
313.476	110.62
313.706	110.62
313.935	121.62
314.165	102.62
314.394	119.62
314.624	113.62
314.853	115.62
315.083	103.62
315.312	107.62
315.542	114.62
315.771	109.62
316.001	108.62
316.23	118.62
316.46	109.62
316.689	115.62
316.919	106.62
317.148	106.62
317.377	103.62
317.607	120.62
317.836	115.62
318.065	103.62
318.295	84.62
318.524	106.62
318.753	107.62
318.983	107.62
319.212	101.62
319.441	107.62
319.67	104.62
319.9	101.62
320.129	103.62
320.358	108.62
320.587	107.62
320.816	88.62
321.046	106.62
321.275	123.62
321.504	110.62
321.733	112.62
321.962	122.62
322.191	122.62
322.42	113.62
322.649	105.62
322.878	114.62
323.108	130.62
323.337	121.62
323.566	91.62
323.795	116.62
324.024	121.62
324.253	123.62
324.482	143.62
324.71	179.62
324.939	184.62
325.168	164.62
325.397	129.62
325.626	122.62
325.855	105.62
326.084	119.62
326.313	103.62
326.542	109.62
326.77	105.62
326.999	133.62
327.228	122.62
327.457	145.62
327.686	161.62
327.914	144.62
328.143	132.62
328.372	123.62
328.6	111.62
328.829	114.62
329.058	118.62
329.287	114.62
329.515	116.62
329.744	144.62
329.972	123.62
330.201	106.62
330.43	103.62
330.658	123.62
330.887	114.62
331.115	131.62
331.344	119.62
331.572	129.62
331.801	118.62
332.03	127.62
332.258	112.62
332.486	126.62
332.715	117.62
332.943	119.62
333.172	111.62
333.4	114.62
333.629	126.62
333.857	119.62
334.085	132.62
334.314	114.62
334.542	117.62
334.771	119.62
334.999	124.62
335.227	125.62
335.455	127.62
335.684	136.62
335.912	120.62
336.14	122.62
336.369	108.62
336.597	126.62
336.825	123.62
337.053	107.62
337.281	116.62
337.51	121.62
337.738	116.62
337.966	121.62
338.194	114.62
338.422	112.62
338.65	121.62
338.878	116.62
339.106	118.62
339.334	102.62
339.562	112.62
339.79	112.62
340.018	112.62
340.246	116.62
340.474	110.62
340.702	109.62
340.93	106.62
341.158	112.62
341.386	118.62
341.614	124.62
341.842	116.62
342.07	101.62
342.298	102.62
342.526	124.62
342.754	119.62
342.981	119.62
343.209	99.62
343.437	122.62
343.665	120.62
343.893	127.62
344.12	111.62
344.348	130.62
344.576	108.62
344.804	124.62
345.031	102.62
345.259	108.62
345.487	108.62
345.714	122.62
345.942	104.62
346.17	118.62
346.397	111.62
346.625	112.62
346.853	89.62
347.08	107.62
347.308	117.62
347.535	115.62
347.763	104.62
347.99	110.62
348.218	103.62
348.445	102.62
348.673	126.62
348.9	112.62
349.128	124.62
349.355	128.62
349.583	110.62
349.81	124.62
350.037	110.62
350.265	118.62
350.492	107.62
350.72	116.62
350.947	113.62
351.174	109.62
351.402	118.62
351.629	116.62
351.856	109.62
352.083	122.62
352.311	122.62
352.538	114.62
352.765	96.62
352.992	114.62
353.22	105.62
353.447	110.62
353.674	109.62
353.901	121.62
354.128	117.62
354.355	112.62
354.583	106.62
354.81	124.62
355.037	121.62
355.264	102.62
355.491	110.62
355.718	106.62
355.945	120.62
356.172	115.62
356.399	116.62
356.626	109.62
356.853	122.62
357.08	108.62
357.307	118.62
357.534	115.62
357.761	106.62
357.988	109.62
358.215	125.62
358.441	117.62
358.668	118.62
358.895	107.62
359.122	116.62
359.349	114.62
359.576	105.62
359.802	115.62
360.029	106.62
360.256	121.62
360.483	108.62
360.709	111.62
360.936	113.62
361.163	118.62
361.39	114.62
361.616	118.62
361.843	109.62
362.07	120.62
362.296	117.62
362.523	103.62
362.749	93.62
362.976	108.62
363.203	112.62
363.429	102.62
363.656	126.62
363.882	119.62
364.109	109.62
364.335	115.62
364.562	127.62
364.788	127.62
365.015	111.62
365.241	108.62
365.468	110.62
365.694	115.62
365.92	107.62
366.147	114.62
366.373	131.62
366.599	123.62
366.826	102.62
367.052	118.62
367.278	105.62
367.505	106.62
367.731	112.62
367.957	124.62
368.184	123.62
368.41	107.62
368.636	126.62
368.862	106.62
369.089	114.62
369.315	86.62
369.541	122.62
369.767	116.62
369.993	123.62
370.219	121.62
370.445	125.62
370.672	104.62
370.898	112.62
371.124	126.62
371.35	111.62
371.576	116.62
371.802	94.62
372.028	107.62
372.254	110.62
372.48	115.62
372.706	119.62
372.932	125.62
373.158	98.62
373.384	116.62
373.61	121.62
373.835	111.62
374.061	104.62
374.287	118.62
374.513	106.62
374.739	112.62
374.965	110.62
375.191	115.62
375.416	118.62
375.642	104.62
375.868	110.62
376.094	105.62
376.319	112.62
376.545	110.62
376.771	120.62
376.997	121.62
377.222	107.62
377.448	118.62
377.674	114.62
377.899	101.62
378.125	110.62
378.35	134.62
378.576	122.62
378.802	103.62
379.027	106.62
379.253	121.62
379.478	109.62
379.704	121.62
379.929	120.62
380.155	103.62
380.38	114.62
380.606	112.62
380.831	105.62
381.057	118.62
381.282	115.62
381.507	107.62
381.733	118.62
381.958	122.62
382.184	116.62
382.409	115.62
382.634	107.62
382.86	126.62
383.085	105.62
383.31	121.62
383.535	123.62
383.761	110.62
383.986	107.62
384.211	129.62
384.436	120.62
384.662	127.62
384.887	128.62
385.112	121.62
385.337	121.62
385.562	128.62
385.787	122.62
386.013	107.62
386.238	118.62
386.463	122.62
386.688	126.62
386.913	134.62
387.138	127.62
387.363	123.62
387.588	118.62
387.813	111.62
388.038	120.62
388.263	120.62
388.488	122.62
388.713	107.62
388.938	114.62
389.163	125.62
389.387	124.62
389.612	131.62
389.837	122.62
390.062	111.62
390.287	120.62
390.512	128.62
390.736	124.62
390.961	118.62
391.186	130.62
391.411	133.62
391.636	125.62
391.86	120.62
392.085	131.62
392.31	122.62
392.534	116.62
392.759	136.62
392.984	119.62
393.208	122.62
393.433	118.62
393.658	124.62
393.882	125.62
394.107	117.62
394.331	119.62
394.556	125.62
394.78	118.62
395.005	115.62
395.229	124.62
395.454	128.62
395.678	125.62
395.903	124.62
396.127	129.62
396.352	125.62
396.576	119.62
396.801	115.62
397.025	125.62
397.249	113.62
397.474	140.62
397.698	126.62
397.922	122.62
398.147	134.62
398.371	126.62
398.595	139.62
398.82	140.62
399.044	131.62
399.268	132.62
399.492	156.62
399.717	161.62
399.941	148.62
400.165	138.62
400.389	138.62
400.613	122.62
400.837	133.62
401.062	132.62
401.286	126.62
401.51	120.62
401.734	133.62
401.958	128.62
402.182	119.62
402.406	130.62
402.63	139.62
402.854	134.62
403.078	139.62
403.302	146.62
403.526	151.62
403.75	162.62
403.974	128.62
404.198	139.62
404.422	137.62
404.645	131.62
404.869	140.62
405.093	134.62
405.317	138.62
405.541	140.62
405.765	129.62
405.988	133.62
406.212	141.62
406.436	137.62
406.66	138.62
406.883	126.62
407.107	142.62
407.331	133.62
407.555	144.62
407.778	143.62
408.002	148.62
408.226	141.62
408.449	146.62
408.673	130.62
408.896	128.62
409.12	139.62
409.344	133.62
409.567	139.62
409.791	127.62
410.014	125.62
410.238	141.62
410.461	130.62
410.685	147.62
410.908	136.62
411.132	150.62
411.355	130.62
411.578	150.62
411.802	128.62
412.025	127.62
412.249	125.62
412.472	128.62
412.695	142.62
412.919	125.62
413.142	134.62
413.365	138.62
413.589	124.62
413.812	128.62
414.035	124.62
414.258	132.62
414.482	124.62
414.705	139.62
414.928	129.62
415.151	136.62
415.374	127.62
415.597	134.62
415.821	122.62
416.044	134.62
416.267	135.62
416.49	139.62
416.713	134.62
416.936	131.62
417.159	132.62
417.382	135.62
417.605	127.62
417.828	134.62
418.051	133.62
418.274	129.62
418.497	128.62
418.72	124.62
418.943	136.62
419.166	136.62
419.389	139.62
419.611	135.62
419.834	121.62
420.057	144.62
420.28	135.62
420.503	135.62
420.726	134.62
420.948	114.62
421.171	125.62
421.394	127.62
421.617	121.62
421.839	136.62
422.062	126.62
422.285	127.62
422.507	119.62
422.73	135.62
422.953	144.62
423.175	134.62
423.398	131.62
423.621	134.62
423.843	142.62
424.066	138.62
424.288	132.62
424.511	143.62
424.733	120.62
424.956	138.62
425.178	145.62
425.401	134.62
425.623	130.62
425.846	119.62
426.068	129.62
426.291	125.62
426.513	127.62
426.735	120.62
426.958	132.62
427.18	138.62
427.402	136.62
427.625	141.62
427.847	134.62
428.069	135.62
428.292	128.62
428.514	139.62
428.736	134.62
428.958	128.62
429.181	136.62
429.403	143.62
429.625	129.62
429.847	122.62
430.069	124.62
430.292	131.62
430.514	130.62
430.736	124.62
430.958	130.62
431.18	124.62
431.402	129.62
431.624	120.62
431.846	125.62
432.068	138.62
432.29	121.62
432.512	134.62
432.734	126.62
432.956	136.62
433.178	132.62
433.4	119.62
433.622	114.62
433.844	131.62
434.066	128.62
434.287	115.62
434.509	124.62
434.731	128.62
434.953	120.62
435.175	123.62
435.397	135.62
435.618	132.62
435.84	145.62
436.062	148.62
436.284	141.62
436.505	139.62
436.727	123.62
436.949	135.62
437.17	139.62
437.392	128.62
437.614	125.62
437.835	125.62
438.057	133.62
438.278	144.62
438.5	124.62
438.721	132.62
438.943	134.62
439.165	153.62
439.386	124.62
439.608	148.62
439.829	132.62
440.05	132.62
440.272	138.62
440.493	139.62
440.715	143.62
440.936	142.62
441.158	126.62
441.379	121.62
441.6	130.62
441.822	155.62
442.043	126.62
442.264	130.62
442.486	122.62
442.707	131.62
442.928	134.62
443.149	133.62
443.371	130.62
443.592	135.62
443.813	139.62
444.034	140.62
444.255	141.62
444.476	132.62
444.698	140.62
444.919	135.62
445.14	279.62
445.361	193.62
445.582	126.62
445.803	129.62
446.024	160.62
446.245	152.62
446.466	123.62
446.687	124.62
446.908	141.62
447.129	131.62
447.35	122.62
447.571	146.62
447.792	119.62
448.013	116.62
448.234	133.62
448.455	126.62
448.675	130.62
448.896	118.62
449.117	122.62
449.338	126.62
449.559	137.62
449.779	161.62
450	138.62
450.221	115.62
450.442	133.62
450.662	126.62
450.883	140.62
451.104	135.62
451.324	135.62
451.545	113.62
451.766	120.62
451.986	122.62
452.207	119.62
452.428	134.62
452.648	124.62
452.869	111.62
453.089	134.62
453.31	126.62
453.53	104.62
453.751	122.62
453.971	122.62
454.192	129.62
454.412	121.62
454.633	110.62
454.853	122.62
455.073	110.62
455.294	121.62
455.514	126.62
455.734	126.62
455.955	115.62
456.175	116.62
456.395	127.62
456.616	113.62
456.836	124.62
457.056	125.62
457.276	116.62
457.497	115.62
457.717	101.62
457.937	121.62
458.157	122.62
458.377	117.62
458.598	119.62
458.818	122.62
459.038	123.62
459.258	144.62
459.478	109.62
459.698	120.62
459.918	130.62
460.138	130.62
460.358	127.62
460.578	120.62
460.798	130.62
461.018	139.62
461.238	141.62
461.458	131.62
461.678	138.62
461.898	143.62
462.118	136.62
462.338	127.62
462.558	132.62
462.777	125.62
462.997	129.62
463.217	146.62
463.437	126.62
463.657	124.62
463.876	135.62
464.096	135.62
464.316	131.62
464.536	133.62
464.755	131.62
464.975	138.62
465.195	142.62
465.414	145.62
465.634	143.62
465.854	128.62
466.073	119.62
466.293	123.62
466.512	116.62
466.732	123.62
466.951	115.62
467.171	128.62
467.391	120.62
467.61	138.62
467.829	134.62
468.049	111.62
468.268	118.62
468.488	113.62
468.707	132.62
468.927	119.62
469.146	114.62
469.365	124.62
469.585	130.62
469.804	122.62
470.023	121.62
470.243	124.62
470.462	136.62
470.681	114.62
470.901	139.62
471.12	110.62
471.339	126.62
471.558	115.62
471.777	110.62
471.997	125.62
472.216	128.62
472.435	125.62
472.654	117.62
472.873	125.62
473.092	137.62
473.311	127.62
473.53	131.62
473.749	126.62
473.968	126.62
474.187	127.62
474.406	134.62
474.625	110.62
474.844	124.62
475.063	132.62
475.282	132.62
475.501	121.62
475.72	122.62
475.939	131.62
476.158	130.62
476.377	130.62
476.596	123.62
476.814	140.62
477.033	143.62
477.252	138.62
477.471	122.62
477.69	140.62
477.908	131.62
478.127	132.62
478.346	134.62
478.564	128.62
478.783	138.62
479.002	139.62
479.22	130.62
479.439	142.62
479.658	140.62
479.876	125.62
480.095	132.62
480.313	149.62
480.532	139.62
480.751	136.62
480.969	133.62
481.188	140.62
481.406	131.62
481.624	127.62
481.843	121.62
482.061	123.62
482.28	125.62
482.498	117.62
482.717	130.62
482.935	126.62
483.153	133.62
483.372	123.62
483.59	126.62
483.808	136.62
484.027	125.62
484.245	125.62
484.463	136.62
484.681	145.62
484.9	145.62
485.118	135.62
485.336	127.62
485.554	138.62
485.772	132.62
485.99	134.62
486.209	125.62
486.427	126.62
486.645	137.62
486.863	128.62
487.081	126.62
487.299	127.62
487.517	137.62
487.735	138.62
487.953	138.62
488.171	142.62
488.389	137.62
488.607	146.62
488.825	127.62
489.043	123.62
489.261	135.62
489.479	134.62
489.696	145.62
489.914	141.62
490.132	148.62
490.35	140.62
490.568	134.62
490.786	151.62
491.003	153.62
491.221	140.62
491.439	162.62
491.657	141.62
491.874	148.62
492.092	145.62
492.31	140.62
492.527	152.62
492.745	143.62
492.963	159.62
493.18	143.62
493.398	132.62
493.615	138.62
493.833	153.62
494.05	136.62
494.268	150.62
494.485	158.62
494.703	156.62
494.92	150.62
495.138	161.62
495.355	149.62
495.573	140.62
495.79	151.62
496.008	144.62
496.225	138.62
496.442	148.62
496.66	128.62
496.877	161.62
497.094	158.62
497.312	151.62
497.529	153.62
497.746	157.62
497.963	152.62
498.181	150.62
498.398	158.62
498.615	163.62
498.832	156.62
499.049	156.62
499.267	151.62
499.484	168.62
499.701	183.62
499.918	178.62
500.135	207.62
500.352	220.62
500.569	226.62
500.786	226.62
501.003	202.62
501.22	188.62
501.437	195.62
501.654	182.62
501.871	170.62
502.088	157.62
502.305	168.62
502.522	163.62
502.739	164.62
502.956	155.62
503.172	140.62
503.389	150.62
503.606	146.62
503.823	152.62
504.04	144.62
504.256	150.62
504.473	154.62
504.69	154.62
504.907	135.62
505.123	145.62
505.34	132.62
