Data from 1968.PennyLincolnUp.Lamp.En5.5.200Scan.071719.P1._HRD10591_14-50-14-969.txt Node
Date: Thu Jul 18 14:50:14 EDT 2019
User: cochatt
Spectrometer: HR+D1059
Trigger mode: 1
Integration Time (sec): 1.000000E-1
Scans to average: 1
Electric dark correction enabled: true
Nonlinearity correction enabled: false
Boxcar width: 0
XAxis mode: Wavelengths
Number of Pixels in Spectrum: 2048
>>>>>Begin Spectral Data<<<<<
223.165	-18.25
223.4	-18.25
223.635	-18.25
223.869	-6.25
224.104	-25.25
224.338	-27.25
224.573	-15.25
224.808	-12.25
225.042	2.75
225.277	-15.25
225.511	-7.25
225.746	-2.25
225.98	13.75
226.215	19.75
226.449	15.75
226.683	22.75
226.918	16.75
227.152	37.75
227.387	41.75
227.621	29.75
227.856	34.75
228.09	58.75
228.324	42.75
228.559	58.75
228.793	41.75
229.027	47.75
229.262	60.75
229.496	58.75
229.73	79.75
229.964	56.75
230.199	80.75
230.433	74.75
230.667	89.75
230.901	72.75
231.136	77.75
231.37	79.75
231.604	79.75
231.838	55.75
232.072	75.75
232.306	86.75
232.541	84.75
232.775	84.75
233.009	84.75
233.243	87.75
233.477	81.75
233.711	81.75
233.945	94.75
234.179	85.75
234.413	81.75
234.647	87.75
234.881	77.75
235.115	68.75
235.349	81.75
235.583	84.75
235.817	93.75
236.051	80.75
236.285	74.75
236.519	81.75
236.753	81.75
236.987	99.75
237.221	94.75
237.455	80.75
237.689	67.75
237.922	88.75
238.156	92.75
238.39	82.75
238.624	74.75
238.858	85.75
239.091	84.75
239.325	84.75
239.559	75.75
239.793	85.75
240.027	80.75
240.26	88.75
240.494	83.75
240.728	86.75
240.961	78.75
241.195	85.75
241.429	62.75
241.662	84.75
241.896	79.75
242.13	78.75
242.363	78.75
242.597	83.75
242.83	70.75
243.064	79.75
243.298	80.75
243.531	72.75
243.765	79.75
243.998	81.75
244.232	81.75
244.465	83.75
244.699	85.75
244.932	88.75
245.166	80.75
245.399	86.75
245.633	87.75
245.866	79.75
246.099	80.75
246.333	79.75
246.566	81.75
246.8	72.75
247.033	62.75
247.266	77.75
247.5	86.75
247.733	78.75
247.966	78.75
248.2	74.75
248.433	83.75
248.666	72.75
248.899	89.75
249.133	83.75
249.366	88.75
249.599	84.75
249.832	86.75
250.066	93.75
250.299	86.75
250.532	90.75
250.765	86.75
250.998	76.75
251.231	78.75
251.465	79.75
251.698	96.75
251.931	78.75
252.164	85.75
252.397	90.75
252.63	96.75
252.863	90.75
253.096	93.75
253.329	95.75
253.562	79.75
253.795	83.75
254.028	99.75
254.261	72.75
254.494	86.75
254.727	99.75
254.96	89.75
255.193	84.75
255.426	90.75
255.659	68.75
255.892	93.75
256.124	90.75
256.357	77.75
256.59	102.75
256.823	83.75
257.056	99.75
257.289	93.75
257.521	88.75
257.754	90.75
257.987	89.75
258.22	89.75
258.452	83.75
258.685	68.75
258.918	93.75
259.151	95.75
259.383	90.75
259.616	77.75
259.849	80.75
260.081	96.75
260.314	79.75
260.547	86.75
260.779	90.75
261.012	93.75
261.244	81.75
261.477	73.75
261.71	96.75
261.942	103.75
262.175	90.75
262.407	87.75
262.64	93.75
262.872	111.75
263.105	96.75
263.337	84.75
263.57	94.75
263.802	87.75
264.035	89.75
264.267	84.75
264.499	99.75
264.732	81.75
264.964	81.75
265.197	99.75
265.429	91.75
265.661	93.75
265.894	96.75
266.126	82.75
266.358	88.75
266.591	102.75
266.823	86.75
267.055	101.75
267.287	90.75
267.52	94.75
267.752	86.75
267.984	93.75
268.216	84.75
268.448	79.75
268.681	94.75
268.913	82.75
269.145	91.75
269.377	89.75
269.609	84.75
269.841	102.75
270.073	102.75
270.306	84.75
270.538	92.75
270.77	91.75
271.002	90.75
271.234	98.75
271.466	87.75
271.698	105.75
271.93	110.75
272.162	102.75
272.394	91.75
272.626	90.75
272.858	110.75
273.09	96.75
273.322	84.75
273.553	93.75
273.785	90.75
274.017	100.75
274.249	101.75
274.481	90.75
274.713	83.75
274.945	92.75
275.176	98.75
275.408	98.75
275.64	105.75
275.872	99.75
276.104	105.75
276.335	87.75
276.567	99.75
276.799	104.75
277.031	116.75
277.262	116.75
277.494	91.75
277.726	92.75
277.957	91.75
278.189	94.75
278.421	101.75
278.652	98.75
278.884	106.75
279.115	113.75
279.347	94.75
279.579	102.75
279.81	90.75
280.042	91.75
280.273	86.75
280.505	96.75
280.736	86.75
280.968	90.75
281.199	101.75
281.431	96.75
281.662	105.75
281.894	110.75
282.125	103.75
282.356	94.75
282.588	101.75
282.819	85.75
283.051	99.75
283.282	106.75
283.513	97.75
283.745	102.75
283.976	110.75
284.207	114.75
284.439	112.75
284.67	97.75
284.901	98.75
285.132	95.75
285.364	85.75
285.595	84.75
285.826	91.75
286.057	103.75
286.288	98.75
286.52	108.75
286.751	99.75
286.982	103.75
287.213	91.75
287.444	105.75
287.675	108.75
287.906	106.75
288.138	100.75
288.369	99.75
288.6	104.75
288.831	95.75
289.062	104.75
289.293	110.75
289.524	100.75
289.755	100.75
289.986	80.75
290.217	106.75
290.448	113.75
290.679	106.75
290.91	99.75
291.141	94.75
291.371	100.75
291.602	108.75
291.833	114.75
292.064	87.75
292.295	112.75
292.526	93.75
292.757	100.75
292.987	116.75
293.218	106.75
293.449	103.75
293.68	93.75
293.91	100.75
294.141	107.75
294.372	109.75
294.603	91.75
294.833	103.75
295.064	99.75
295.295	97.75
295.525	93.75
295.756	94.75
295.987	96.75
296.217	103.75
296.448	96.75
296.679	92.75
296.909	101.75
297.14	112.75
297.37	104.75
297.601	105.75
297.831	97.75
298.062	91.75
298.292	118.75
298.523	89.75
298.753	98.75
298.984	96.75
299.214	114.75
299.445	90.75
299.675	102.75
299.905	85.75
300.136	103.75
300.366	102.75
300.597	92.75
300.827	93.75
301.057	107.75
301.288	107.75
301.518	106.75
301.748	93.75
301.979	108.75
302.209	97.75
302.439	105.75
302.669	110.75
302.9	110.75
303.13	91.75
303.36	102.75
303.59	102.75
303.82	108.75
304.051	101.75
304.281	124.75
304.511	128.75
304.741	100.75
304.971	96.75
305.201	111.75
305.431	93.75
305.661	74.75
305.891	97.75
306.121	115.75
306.352	103.75
306.582	92.75
306.812	98.75
307.042	118.75
307.272	115.75
307.502	105.75
307.731	105.75
307.961	105.75
308.191	100.75
308.421	121.75
308.651	105.75
308.881	112.75
309.111	95.75
309.341	108.75
309.571	97.75
309.8	96.75
310.03	96.75
310.26	101.75
310.49	87.75
310.72	105.75
310.949	102.75
311.179	119.75
311.409	101.75
311.639	102.75
311.868	96.75
312.098	112.75
312.328	100.75
312.557	95.75
312.787	121.75
313.017	106.75
313.246	99.75
313.476	109.75
313.706	102.75
313.935	98.75
314.165	122.75
314.394	103.75
314.624	113.75
314.853	94.75
315.083	105.75
315.312	105.75
315.542	106.75
315.771	97.75
316.001	100.75
316.23	101.75
316.46	103.75
316.689	97.75
316.919	97.75
317.148	91.75
317.377	113.75
317.607	101.75
317.836	97.75
318.065	109.75
318.295	100.75
318.524	110.75
318.753	107.75
318.983	90.75
319.212	89.75
319.441	97.75
319.67	109.75
319.9	112.75
320.129	101.75
320.358	97.75
320.587	97.75
320.816	107.75
321.046	116.75
321.275	97.75
321.504	119.75
321.733	104.75
321.962	112.75
322.191	101.75
322.42	107.75
322.649	120.75
322.878	128.75
323.108	107.75
323.337	108.75
323.566	105.75
323.795	105.75
324.024	113.75
324.253	116.75
324.482	128.75
324.71	152.75
324.939	167.75
325.168	145.75
325.397	109.75
325.626	114.75
325.855	100.75
326.084	102.75
326.313	92.75
326.542	108.75
326.77	118.75
326.999	125.75
327.228	135.75
327.457	148.75
327.686	155.75
327.914	121.75
328.143	116.75
328.372	106.75
328.6	124.75
328.829	118.75
329.058	106.75
329.287	128.75
329.515	112.75
329.744	117.75
329.972	120.75
330.201	107.75
330.43	116.75
330.658	106.75
330.887	115.75
331.115	112.75
331.344	116.75
331.572	125.75
331.801	110.75
332.03	126.75
332.258	120.75
332.486	123.75
332.715	112.75
332.943	112.75
333.172	124.75
333.4	124.75
333.629	120.75
333.857	118.75
334.085	100.75
334.314	97.75
334.542	115.75
334.771	109.75
334.999	113.75
335.227	126.75
335.455	107.75
335.684	120.75
335.912	112.75
336.14	112.75
336.369	99.75
336.597	102.75
336.825	116.75
337.053	108.75
337.281	98.75
337.51	112.75
337.738	118.75
337.966	98.75
338.194	107.75
338.422	115.75
338.65	126.75
338.878	118.75
339.106	104.75
339.334	101.75
339.562	104.75
339.79	122.75
340.018	121.75
340.246	112.75
340.474	110.75
340.702	105.75
340.93	116.75
341.158	110.75
341.386	124.75
341.614	131.75
341.842	108.75
342.07	88.75
342.298	104.75
342.526	107.75
342.754	119.75
342.981	108.75
343.209	118.75
343.437	123.75
343.665	115.75
343.893	113.75
344.12	124.75
344.348	105.75
344.576	116.75
344.804	109.75
345.031	118.75
345.259	96.75
345.487	110.75
345.714	121.75
345.942	122.75
346.17	108.75
346.397	109.75
346.625	108.75
346.853	117.75
347.08	103.75
347.308	105.75
347.535	108.75
347.763	118.75
347.99	112.75
348.218	118.75
348.445	99.75
348.673	100.75
348.9	103.75
349.128	120.75
349.355	112.75
349.583	114.75
349.81	115.75
350.037	97.75
350.265	107.75
350.492	90.75
350.72	120.75
350.947	107.75
351.174	103.75
351.402	105.75
351.629	128.75
351.856	117.75
352.083	97.75
352.311	105.75
352.538	106.75
352.765	98.75
352.992	105.75
353.22	114.75
353.447	112.75
353.674	108.75
353.901	109.75
354.128	109.75
354.355	106.75
354.583	120.75
354.81	101.75
355.037	95.75
355.264	110.75
355.491	97.75
355.718	107.75
355.945	116.75
356.172	110.75
356.399	116.75
356.626	111.75
356.853	125.75
357.08	112.75
357.307	116.75
357.534	124.75
357.761	101.75
357.988	107.75
358.215	94.75
358.441	109.75
358.668	108.75
358.895	108.75
359.122	94.75
359.349	105.75
359.576	107.75
359.802	105.75
360.029	118.75
360.256	107.75
360.483	106.75
360.709	96.75
360.936	119.75
361.163	102.75
361.39	110.75
361.616	109.75
361.843	109.75
362.07	113.75
362.296	107.75
362.523	112.75
362.749	118.75
362.976	112.75
363.203	130.75
363.429	93.75
363.656	109.75
363.882	125.75
364.109	117.75
364.335	102.75
364.562	114.75
364.788	105.75
365.015	112.75
365.241	114.75
365.468	106.75
365.694	112.75
365.92	120.75
366.147	115.75
366.373	89.75
366.599	112.75
366.826	100.75
367.052	100.75
367.278	112.75
367.505	108.75
367.731	118.75
367.957	102.75
368.184	109.75
368.41	105.75
368.636	104.75
368.862	115.75
369.089	116.75
369.315	120.75
369.541	92.75
369.767	117.75
369.993	108.75
370.219	96.75
370.445	117.75
370.672	108.75
370.898	95.75
371.124	100.75
371.35	110.75
371.576	105.75
371.802	108.75
372.028	109.75
372.254	106.75
372.48	103.75
372.706	99.75
372.932	108.75
373.158	122.75
373.384	132.75
373.61	108.75
373.835	103.75
374.061	110.75
374.287	113.75
374.513	105.75
374.739	116.75
374.965	131.75
375.191	119.75
375.416	113.75
375.642	106.75
375.868	108.75
376.094	99.75
376.319	116.75
376.545	103.75
376.771	108.75
376.997	115.75
377.222	106.75
377.448	116.75
377.674	107.75
377.899	104.75
378.125	119.75
378.35	114.75
378.576	113.75
378.802	125.75
379.027	108.75
379.253	109.75
379.478	107.75
379.704	97.75
379.929	119.75
380.155	126.75
380.38	102.75
380.606	121.75
380.831	109.75
381.057	124.75
381.282	104.75
381.507	122.75
381.733	112.75
381.958	122.75
382.184	98.75
382.409	92.75
382.634	121.75
382.86	117.75
383.085	112.75
383.31	119.75
383.535	114.75
383.761	88.75
383.986	121.75
384.211	114.75
384.436	109.75
384.662	110.75
384.887	104.75
385.112	118.75
385.337	110.75
385.562	115.75
385.787	117.75
386.013	120.75
386.238	125.75
386.463	110.75
386.688	123.75
386.913	119.75
387.138	128.75
387.363	124.75
387.588	114.75
387.813	130.75
388.038	117.75
388.263	100.75
388.488	108.75
388.713	107.75
388.938	105.75
389.163	107.75
389.387	116.75
389.612	107.75
389.837	128.75
390.062	112.75
390.287	116.75
390.512	121.75
390.736	117.75
390.961	118.75
391.186	113.75
391.411	117.75
391.636	128.75
391.86	131.75
392.085	116.75
392.31	126.75
392.534	121.75
392.759	107.75
392.984	129.75
393.208	105.75
393.433	115.75
393.658	120.75
393.882	113.75
394.107	117.75
394.331	121.75
394.556	123.75
394.78	130.75
395.005	122.75
395.229	118.75
395.454	118.75
395.678	130.75
395.903	116.75
396.127	121.75
396.352	113.75
396.576	124.75
396.801	109.75
397.025	118.75
397.249	112.75
397.474	127.75
397.698	126.75
397.922	134.75
398.147	115.75
398.371	123.75
398.595	116.75
398.82	116.75
399.044	122.75
399.268	124.75
399.492	146.75
399.717	154.75
399.941	126.75
400.165	149.75
400.389	131.75
400.613	120.75
400.837	134.75
401.062	136.75
401.286	121.75
401.51	118.75
401.734	123.75
401.958	124.75
402.182	125.75
402.406	140.75
402.63	132.75
402.854	125.75
403.078	132.75
403.302	122.75
403.526	133.75
403.75	125.75
403.974	144.75
404.198	123.75
404.422	134.75
404.645	138.75
404.869	131.75
405.093	140.75
405.317	122.75
405.541	134.75
405.765	129.75
405.988	120.75
406.212	129.75
406.436	139.75
406.66	143.75
406.883	133.75
407.107	128.75
407.331	130.75
407.555	139.75
407.778	152.75
408.002	147.75
408.226	142.75
408.449	125.75
408.673	140.75
408.896	147.75
409.12	119.75
409.344	138.75
409.567	137.75
409.791	132.75
410.014	142.75
410.238	123.75
410.461	121.75
410.685	141.75
410.908	133.75
411.132	127.75
411.355	131.75
411.578	125.75
411.802	137.75
412.025	124.75
412.249	152.75
412.472	127.75
412.695	139.75
412.919	146.75
413.142	126.75
413.365	128.75
413.589	130.75
413.812	113.75
414.035	136.75
414.258	134.75
414.482	121.75
414.705	117.75
414.928	125.75
415.151	134.75
415.374	118.75
415.597	120.75
415.821	106.75
416.044	127.75
416.267	118.75
416.49	116.75
416.713	131.75
416.936	125.75
417.159	117.75
417.382	116.75
417.605	129.75
417.828	124.75
418.051	132.75
418.274	110.75
418.497	134.75
418.72	129.75
418.943	126.75
419.166	134.75
419.389	137.75
419.611	129.75
419.834	130.75
420.057	126.75
420.28	124.75
420.503	126.75
420.726	129.75
420.948	129.75
421.171	135.75
421.394	133.75
421.617	132.75
421.839	116.75
422.062	125.75
422.285	122.75
422.507	132.75
422.73	124.75
422.953	124.75
423.175	126.75
423.398	131.75
423.621	116.75
423.843	129.75
424.066	144.75
424.288	116.75
424.511	116.75
424.733	126.75
424.956	125.75
425.178	135.75
425.401	141.75
425.623	139.75
425.846	128.75
426.068	140.75
426.291	126.75
426.513	132.75
426.735	118.75
426.958	123.75
427.18	128.75
427.402	148.75
427.625	124.75
427.847	128.75
428.069	122.75
428.292	130.75
428.514	125.75
428.736	107.75
428.958	113.75
429.181	131.75
429.403	119.75
429.625	128.75
429.847	129.75
430.069	131.75
430.292	135.75
430.514	126.75
430.736	119.75
430.958	120.75
431.18	101.75
431.402	110.75
431.624	132.75
431.846	122.75
432.068	132.75
432.29	122.75
432.512	124.75
432.734	116.75
432.956	127.75
433.178	136.75
433.4	133.75
433.622	109.75
433.844	116.75
434.066	120.75
434.287	130.75
434.509	114.75
434.731	125.75
434.953	128.75
435.175	124.75
435.397	128.75
435.618	122.75
435.84	116.75
436.062	144.75
436.284	120.75
436.505	134.75
436.727	126.75
436.949	128.75
437.17	118.75
437.392	117.75
437.614	127.75
437.835	117.75
438.057	123.75
438.278	123.75
438.5	144.75
438.721	118.75
438.943	130.75
439.165	129.75
439.386	121.75
439.608	135.75
439.829	111.75
440.05	94.75
440.272	142.75
440.493	131.75
440.715	128.75
440.936	132.75
441.158	116.75
441.379	122.75
441.6	132.75
441.822	124.75
442.043	136.75
442.264	142.75
442.486	114.75
442.707	123.75
442.928	122.75
443.149	130.75
443.371	132.75
443.592	136.75
443.813	140.75
444.034	142.75
444.255	132.75
444.476	140.75
444.698	138.75
444.919	142.75
445.14	264.75
445.361	189.75
445.582	132.75
445.803	125.75
446.024	140.75
446.245	145.75
446.466	127.75
446.687	150.75
446.908	121.75
447.129	145.75
447.35	122.75
447.571	125.75
447.792	120.75
448.013	116.75
448.234	126.75
448.455	121.75
448.675	126.75
448.896	128.75
449.117	128.75
449.338	114.75
449.559	120.75
449.779	137.75
450	117.75
450.221	122.75
450.442	118.75
450.662	121.75
450.883	109.75
451.104	117.75
451.324	120.75
451.545	117.75
451.766	111.75
451.986	108.75
452.207	125.75
452.428	118.75
452.648	119.75
452.869	126.75
453.089	118.75
453.31	113.75
453.53	124.75
453.751	126.75
453.971	117.75
454.192	116.75
454.412	117.75
454.633	116.75
454.853	122.75
455.073	114.75
455.294	117.75
455.514	124.75
455.734	115.75
455.955	114.75
456.175	112.75
456.395	115.75
456.616	116.75
456.836	119.75
457.056	115.75
457.276	115.75
457.497	114.75
457.717	95.75
457.937	108.75
458.157	118.75
458.377	118.75
458.598	105.75
458.818	125.75
459.038	124.75
459.258	113.75
459.478	116.75
459.698	110.75
459.918	119.75
460.138	125.75
460.358	123.75
460.578	128.75
460.798	122.75
461.018	126.75
461.238	129.75
461.458	104.75
461.678	120.75
461.898	121.75
462.118	135.75
462.338	124.75
462.558	140.75
462.777	125.75
462.997	139.75
463.217	128.75
463.437	132.75
463.657	133.75
463.876	116.75
464.096	140.75
464.316	124.75
464.536	139.75
464.755	124.75
464.975	120.75
465.195	128.75
465.414	137.75
465.634	130.75
465.854	121.75
466.073	131.75
466.293	112.75
466.512	122.75
466.732	121.75
466.951	122.75
467.171	120.75
467.391	114.75
467.61	128.75
467.829	121.75
468.049	124.75
468.268	130.75
468.488	114.75
468.707	138.75
468.927	116.75
469.146	119.75
469.365	115.75
469.585	130.75
469.804	133.75
470.023	126.75
470.243	116.75
470.462	130.75
470.681	116.75
470.901	129.75
471.12	128.75
471.339	124.75
471.558	129.75
471.777	117.75
471.997	110.75
472.216	120.75
472.435	110.75
472.654	121.75
472.873	113.75
473.092	117.75
473.311	116.75
473.53	118.75
473.749	115.75
473.968	133.75
474.187	114.75
474.406	124.75
474.625	117.75
474.844	130.75
475.063	125.75
475.282	117.75
475.501	89.75
475.72	112.75
475.939	126.75
476.158	112.75
476.377	122.75
476.596	114.75
476.814	117.75
477.033	114.75
477.252	118.75
477.471	106.75
477.69	124.75
477.908	128.75
478.127	126.75
478.346	133.75
478.564	122.75
478.783	127.75
479.002	117.75
479.22	109.75
479.439	127.75
479.658	125.75
479.876	119.75
480.095	132.75
480.313	132.75
480.532	136.75
480.751	150.75
480.969	144.75
481.188	133.75
481.406	116.75
481.624	139.75
481.843	136.75
482.061	109.75
482.28	132.75
482.498	119.75
482.717	122.75
482.935	118.75
483.153	135.75
483.372	135.75
483.59	129.75
483.808	134.75
484.027	132.75
484.245	124.75
484.463	137.75
484.681	144.75
484.9	136.75
485.118	118.75
485.336	135.75
485.554	128.75
485.772	143.75
485.99	128.75
486.209	133.75
486.427	120.75
486.645	122.75
486.863	130.75
487.081	146.75
487.299	110.75
487.517	138.75
487.735	134.75
487.953	127.75
488.171	134.75
488.389	123.75
488.607	140.75
488.825	131.75
489.043	141.75
489.261	128.75
489.479	124.75
489.696	138.75
489.914	133.75
490.132	138.75
490.35	123.75
490.568	125.75
490.786	140.75
491.003	149.75
491.221	147.75
491.439	124.75
491.657	136.75
491.874	146.75
492.092	140.75
492.31	142.75
492.527	156.75
492.745	128.75
492.963	144.75
493.18	140.75
493.398	156.75
493.615	147.75
493.833	149.75
494.05	134.75
494.268	137.75
494.485	142.75
494.703	147.75
494.92	146.75
495.138	148.75
495.355	140.75
495.573	144.75
495.79	144.75
496.008	132.75
496.225	141.75
496.442	131.75
496.66	132.75
496.877	149.75
497.094	150.75
497.312	131.75
497.529	157.75
497.746	137.75
497.963	156.75
498.181	140.75
498.398	155.75
498.615	158.75
498.832	168.75
499.049	142.75
499.267	150.75
499.484	162.75
499.701	178.75
499.918	183.75
500.135	188.75
500.352	204.75
500.569	207.75
500.786	209.75
501.003	195.75
501.22	183.75
501.437	188.75
501.654	176.75
501.871	190.75
502.088	167.75
502.305	164.75
502.522	164.75
502.739	153.75
502.956	146.75
503.172	160.75
503.389	138.75
503.606	154.75
503.823	146.75
504.04	141.75
504.256	141.75
504.473	143.75
504.69	132.75
504.907	125.75
505.123	136.75
505.34	138.75
505.557	133.75
505.773	135.75
505.99	152.75
506.207	124.75
