Data from 1968.PennyLincolnUp.Lamp.En5.5.200Scan.071719.P1._HRD10591_14-51-35-970.txt Node
Date: Thu Jul 18 14:51:35 EDT 2019
User: cochatt
Spectrometer: HR+D1059
Trigger mode: 1
Integration Time (sec): 1.000000E-1
Scans to average: 1
Electric dark correction enabled: true
Nonlinearity correction enabled: false
Boxcar width: 0
XAxis mode: Wavelengths
Number of Pixels in Spectrum: 2048
>>>>>Begin Spectral Data<<<<<
223.165	-13.69
223.4	-13.69
223.635	-13.69
223.869	-6.69
224.104	-17.69
224.338	-18.69
224.573	-9.69
224.808	-17.69
225.042	2.31
225.277	-8.69
225.511	0.31
225.746	16.31
225.98	-3.69
226.215	6.31
226.449	2.31
226.683	16.31
226.918	20.31
227.152	32.31
227.387	35.31
227.621	30.31
227.856	56.31
228.09	49.31
228.324	48.31
228.559	61.31
228.793	64.31
229.027	68.31
229.262	62.31
229.496	69.31
229.73	74.31
229.964	92.31
230.199	84.31
230.433	73.31
230.667	65.31
230.901	84.31
231.136	84.31
231.37	72.31
231.604	88.31
231.838	92.31
232.072	76.31
232.306	91.31
232.541	85.31
232.775	80.31
233.009	77.31
233.243	89.31
233.477	90.31
233.711	87.31
233.945	82.31
234.179	76.31
234.413	88.31
234.647	79.31
234.881	85.31
235.115	85.31
235.349	83.31
235.583	86.31
235.817	78.31
236.051	92.31
236.285	70.31
236.519	85.31
236.753	70.31
236.987	81.31
237.221	82.31
237.455	88.31
237.689	94.31
237.922	82.31
238.156	85.31
238.39	83.31
238.624	84.31
238.858	76.31
239.091	74.31
239.325	83.31
239.559	81.31
239.793	83.31
240.027	79.31
240.26	99.31
240.494	81.31
240.728	94.31
240.961	82.31
241.195	94.31
241.429	104.31
241.662	91.31
241.896	78.31
242.13	86.31
242.363	76.31
242.597	86.31
242.83	86.31
243.064	85.31
243.298	93.31
243.531	81.31
243.765	80.31
243.998	89.31
244.232	96.31
244.465	90.31
244.699	76.31
244.932	87.31
245.166	83.31
245.399	92.31
245.633	99.31
245.866	101.31
246.099	80.31
246.333	87.31
246.566	90.31
246.8	97.31
247.033	75.31
247.266	85.31
247.5	86.31
247.733	100.31
247.966	86.31
248.2	81.31
248.433	87.31
248.666	90.31
248.899	83.31
249.133	100.31
249.366	88.31
249.599	82.31
249.832	79.31
250.066	100.31
250.299	86.31
250.532	100.31
250.765	94.31
250.998	93.31
251.231	95.31
251.465	82.31
251.698	79.31
251.931	99.31
252.164	95.31
252.397	84.31
252.63	86.31
252.863	107.31
253.096	90.31
253.329	91.31
253.562	89.31
253.795	94.31
254.028	99.31
254.261	86.31
254.494	99.31
254.727	89.31
254.96	109.31
255.193	96.31
255.426	107.31
255.659	75.31
255.892	88.31
256.124	95.31
256.357	92.31
256.59	86.31
256.823	92.31
257.056	94.31
257.289	103.31
257.521	83.31
257.754	90.31
257.987	87.31
258.22	94.31
258.452	91.31
258.685	101.31
258.918	108.31
259.151	89.31
259.383	108.31
259.616	86.31
259.849	85.31
260.081	90.31
260.314	98.31
260.547	99.31
260.779	84.31
261.012	88.31
261.244	99.31
261.477	91.31
261.71	103.31
261.942	103.31
262.175	86.31
262.407	103.31
262.64	100.31
262.872	82.31
263.105	96.31
263.337	100.31
263.57	87.31
263.802	96.31
264.035	105.31
264.267	106.31
264.499	101.31
264.732	93.31
264.964	94.31
265.197	92.31
265.429	84.31
265.661	95.31
265.894	81.31
266.126	99.31
266.358	88.31
266.591	102.31
266.823	102.31
267.055	103.31
267.287	97.31
267.52	96.31
267.752	98.31
267.984	101.31
268.216	101.31
268.448	101.31
268.681	100.31
268.913	97.31
269.145	91.31
269.377	97.31
269.609	90.31
269.841	94.31
270.073	99.31
270.306	92.31
270.538	97.31
270.77	98.31
271.002	96.31
271.234	93.31
271.466	91.31
271.698	88.31
271.93	96.31
272.162	104.31
272.394	93.31
272.626	96.31
272.858	95.31
273.09	94.31
273.322	105.31
273.553	107.31
273.785	98.31
274.017	95.31
274.249	88.31
274.481	105.31
274.713	95.31
274.945	99.31
275.176	86.31
275.408	97.31
275.64	99.31
275.872	84.31
276.104	94.31
276.335	96.31
276.567	95.31
276.799	102.31
277.031	90.31
277.262	92.31
277.494	105.31
277.726	104.31
277.957	101.31
278.189	98.31
278.421	101.31
278.652	107.31
278.884	100.31
279.115	102.31
279.347	100.31
279.579	89.31
279.81	94.31
280.042	95.31
280.273	90.31
280.505	105.31
280.736	110.31
280.968	100.31
281.199	103.31
281.431	106.31
281.662	99.31
281.894	119.31
282.125	103.31
282.356	91.31
282.588	109.31
282.819	109.31
283.051	86.31
283.282	91.31
283.513	86.31
283.745	99.31
283.976	89.31
284.207	93.31
284.439	92.31
284.67	98.31
284.901	106.31
285.132	122.31
285.364	86.31
285.595	113.31
285.826	114.31
286.057	100.31
286.288	98.31
286.52	104.31
286.751	90.31
286.982	121.31
287.213	101.31
287.444	96.31
287.675	104.31
287.906	99.31
288.138	101.31
288.369	107.31
288.6	112.31
288.831	93.31
289.062	94.31
289.293	85.31
289.524	102.31
289.755	111.31
289.986	114.31
290.217	110.31
290.448	118.31
290.679	91.31
290.91	98.31
291.141	95.31
291.371	89.31
291.602	113.31
291.833	116.31
292.064	103.31
292.295	109.31
292.526	97.31
292.757	94.31
292.987	113.31
293.218	102.31
293.449	99.31
293.68	97.31
293.91	107.31
294.141	100.31
294.372	100.31
294.603	102.31
294.833	111.31
295.064	104.31
295.295	102.31
295.525	103.31
295.756	110.31
295.987	104.31
296.217	119.31
296.448	112.31
296.679	97.31
296.909	98.31
297.14	103.31
297.37	110.31
297.601	102.31
297.831	108.31
298.062	108.31
298.292	96.31
298.523	96.31
298.753	103.31
298.984	104.31
299.214	104.31
299.445	112.31
299.675	100.31
299.905	92.31
300.136	101.31
300.366	97.31
300.597	84.31
300.827	94.31
301.057	104.31
301.288	106.31
301.518	98.31
301.748	119.31
301.979	108.31
302.209	107.31
302.439	107.31
302.669	106.31
302.9	108.31
303.13	118.31
303.36	106.31
303.59	98.31
303.82	108.31
304.051	104.31
304.281	103.31
304.511	119.31
304.741	117.31
304.971	102.31
305.201	103.31
305.431	105.31
305.661	112.31
305.891	114.31
306.121	108.31
306.352	117.31
306.582	104.31
306.812	96.31
307.042	108.31
307.272	111.31
307.502	98.31
307.731	124.31
307.961	104.31
308.191	105.31
308.421	104.31
308.651	95.31
308.881	107.31
309.111	108.31
309.341	107.31
309.571	110.31
309.8	103.31
310.03	103.31
310.26	104.31
310.49	114.31
310.72	113.31
310.949	117.31
311.179	94.31
311.409	98.31
311.639	118.31
311.868	113.31
312.098	119.31
312.328	118.31
312.557	118.31
312.787	113.31
313.017	95.31
313.246	102.31
313.476	125.31
313.706	113.31
313.935	117.31
314.165	104.31
314.394	93.31
314.624	108.31
314.853	101.31
315.083	121.31
315.312	108.31
315.542	122.31
315.771	110.31
316.001	113.31
316.23	112.31
316.46	127.31
316.689	114.31
316.919	123.31
317.148	113.31
317.377	105.31
317.607	95.31
317.836	111.31
318.065	104.31
318.295	105.31
318.524	109.31
318.753	93.31
318.983	102.31
319.212	109.31
319.441	123.31
319.67	121.31
319.9	114.31
320.129	110.31
320.358	97.31
320.587	96.31
320.816	105.31
321.046	117.31
321.275	108.31
321.504	103.31
321.733	115.31
321.962	119.31
322.191	124.31
322.42	114.31
322.649	121.31
322.878	116.31
323.108	125.31
323.337	103.31
323.566	121.31
323.795	118.31
324.024	128.31
324.253	134.31
324.482	118.31
324.71	160.31
324.939	193.31
325.168	148.31
325.397	132.31
325.626	110.31
325.855	120.31
326.084	103.31
326.313	111.31
326.542	113.31
326.77	120.31
326.999	113.31
327.228	128.31
327.457	162.31
327.686	158.31
327.914	132.31
328.143	116.31
328.372	116.31
328.6	122.31
328.829	128.31
329.058	116.31
329.287	110.31
329.515	127.31
329.744	114.31
329.972	119.31
330.201	120.31
330.43	124.31
330.658	123.31
330.887	122.31
331.115	120.31
331.344	106.31
331.572	114.31
331.801	110.31
332.03	121.31
332.258	118.31
332.486	120.31
332.715	121.31
332.943	117.31
333.172	128.31
333.4	126.31
333.629	118.31
333.857	125.31
334.085	120.31
334.314	129.31
334.542	129.31
334.771	137.31
334.999	112.31
335.227	111.31
335.455	108.31
335.684	116.31
335.912	142.31
336.14	124.31
336.369	97.31
336.597	108.31
336.825	113.31
337.053	110.31
337.281	129.31
337.51	111.31
337.738	134.31
337.966	126.31
338.194	111.31
338.422	129.31
338.65	122.31
338.878	112.31
339.106	122.31
339.334	112.31
339.562	111.31
339.79	110.31
340.018	102.31
340.246	111.31
340.474	120.31
340.702	104.31
340.93	114.31
341.158	116.31
341.386	104.31
341.614	108.31
341.842	124.31
342.07	111.31
342.298	116.31
342.526	117.31
342.754	119.31
342.981	97.31
343.209	114.31
343.437	117.31
343.665	111.31
343.893	128.31
344.12	126.31
344.348	111.31
344.576	115.31
344.804	113.31
345.031	113.31
345.259	104.31
345.487	111.31
345.714	111.31
345.942	117.31
346.17	105.31
346.397	113.31
346.625	106.31
346.853	116.31
347.08	109.31
347.308	102.31
347.535	119.31
347.763	109.31
347.99	113.31
348.218	106.31
348.445	105.31
348.673	119.31
348.9	116.31
349.128	122.31
349.355	117.31
349.583	104.31
349.81	105.31
350.037	111.31
350.265	114.31
350.492	134.31
350.72	110.31
350.947	113.31
351.174	117.31
351.402	127.31
351.629	116.31
351.856	88.31
352.083	100.31
352.311	124.31
352.538	116.31
352.765	120.31
352.992	123.31
353.22	124.31
353.447	107.31
353.674	117.31
353.901	102.31
354.128	107.31
354.355	118.31
354.583	105.31
354.81	109.31
355.037	123.31
355.264	120.31
355.491	125.31
355.718	100.31
355.945	110.31
356.172	108.31
356.399	130.31
356.626	112.31
356.853	116.31
357.08	113.31
357.307	103.31
357.534	106.31
357.761	109.31
357.988	100.31
358.215	122.31
358.441	103.31
358.668	105.31
358.895	120.31
359.122	115.31
359.349	122.31
359.576	111.31
359.802	113.31
360.029	127.31
360.256	113.31
360.483	114.31
360.709	125.31
360.936	118.31
361.163	105.31
361.39	114.31
361.616	98.31
361.843	102.31
362.07	104.31
362.296	100.31
362.523	104.31
362.749	96.31
362.976	110.31
363.203	125.31
363.429	112.31
363.656	110.31
363.882	104.31
364.109	94.31
364.335	122.31
364.562	108.31
364.788	119.31
365.015	105.31
365.241	109.31
365.468	111.31
365.694	104.31
365.92	120.31
366.147	114.31
366.373	102.31
366.599	107.31
366.826	116.31
367.052	106.31
367.278	101.31
367.505	105.31
367.731	101.31
367.957	113.31
368.184	117.31
368.41	114.31
368.636	107.31
368.862	113.31
369.089	118.31
369.315	108.31
369.541	120.31
369.767	110.31
369.993	113.31
370.219	94.31
370.445	110.31
370.672	105.31
370.898	110.31
371.124	120.31
371.35	107.31
371.576	116.31
371.802	126.31
372.028	111.31
372.254	110.31
372.48	109.31
372.706	100.31
372.932	122.31
373.158	120.31
373.384	115.31
373.61	117.31
373.835	133.31
374.061	110.31
374.287	114.31
374.513	127.31
374.739	127.31
374.965	118.31
375.191	118.31
375.416	110.31
375.642	116.31
375.868	113.31
376.094	121.31
376.319	104.31
376.545	117.31
376.771	106.31
376.997	113.31
377.222	117.31
377.448	107.31
377.674	115.31
377.899	106.31
378.125	111.31
378.35	109.31
378.576	109.31
378.802	117.31
379.027	116.31
379.253	113.31
379.478	118.31
379.704	120.31
379.929	113.31
380.155	124.31
380.38	133.31
380.606	116.31
380.831	96.31
381.057	109.31
381.282	105.31
381.507	121.31
381.733	122.31
381.958	122.31
382.184	117.31
382.409	128.31
382.634	122.31
382.86	136.31
383.085	118.31
383.31	117.31
383.535	118.31
383.761	112.31
383.986	127.31
384.211	120.31
384.436	119.31
384.662	134.31
384.887	117.31
385.112	116.31
385.337	128.31
385.562	133.31
385.787	104.31
386.013	139.31
386.238	131.31
386.463	126.31
386.688	116.31
386.913	120.31
387.138	122.31
387.363	107.31
387.588	119.31
387.813	120.31
388.038	118.31
388.263	119.31
388.488	114.31
388.713	114.31
388.938	117.31
389.163	126.31
389.387	120.31
389.612	113.31
389.837	134.31
390.062	106.31
390.287	124.31
390.512	122.31
390.736	121.31
390.961	112.31
391.186	126.31
391.411	126.31
391.636	122.31
391.86	136.31
392.085	135.31
392.31	119.31
392.534	129.31
392.759	113.31
392.984	125.31
393.208	116.31
393.433	116.31
393.658	108.31
393.882	129.31
394.107	117.31
394.331	125.31
394.556	139.31
394.78	117.31
395.005	102.31
395.229	116.31
395.454	130.31
395.678	119.31
395.903	124.31
396.127	110.31
396.352	111.31
396.576	103.31
396.801	108.31
397.025	119.31
397.249	128.31
397.474	138.31
397.698	132.31
397.922	120.31
398.147	122.31
398.371	128.31
398.595	132.31
398.82	140.31
399.044	129.31
399.268	144.31
399.492	133.31
399.717	171.31
399.941	156.31
400.165	142.31
400.389	154.31
400.613	126.31
400.837	123.31
401.062	137.31
401.286	139.31
401.51	130.31
401.734	138.31
401.958	117.31
402.182	129.31
402.406	128.31
402.63	132.31
402.854	128.31
403.078	126.31
403.302	145.31
403.526	136.31
403.75	129.31
403.974	131.31
404.198	139.31
404.422	136.31
404.645	142.31
404.869	131.31
405.093	137.31
405.317	130.31
405.541	155.31
405.765	157.31
405.988	139.31
406.212	134.31
406.436	138.31
406.66	141.31
406.883	142.31
407.107	149.31
407.331	144.31
407.555	146.31
407.778	148.31
408.002	149.31
408.226	149.31
408.449	142.31
408.673	145.31
408.896	144.31
409.12	139.31
409.344	148.31
409.567	126.31
409.791	136.31
410.014	142.31
410.238	120.31
410.461	124.31
410.685	141.31
410.908	124.31
411.132	139.31
411.355	136.31
411.578	130.31
411.802	135.31
412.025	142.31
412.249	122.31
412.472	132.31
412.695	142.31
412.919	133.31
413.142	137.31
413.365	138.31
413.589	136.31
413.812	121.31
414.035	137.31
414.258	134.31
414.482	128.31
414.705	123.31
414.928	127.31
415.151	126.31
415.374	134.31
415.597	128.31
415.821	137.31
416.044	130.31
416.267	138.31
416.49	122.31
416.713	133.31
416.936	128.31
417.159	125.31
417.382	131.31
417.605	132.31
417.828	133.31
418.051	125.31
418.274	137.31
418.497	148.31
418.72	130.31
418.943	131.31
419.166	128.31
419.389	118.31
419.611	134.31
419.834	143.31
420.057	138.31
420.28	130.31
420.503	145.31
420.726	138.31
420.948	132.31
421.171	138.31
421.394	134.31
421.617	136.31
421.839	131.31
422.062	132.31
422.285	145.31
422.507	138.31
422.73	141.31
422.953	111.31
423.175	126.31
423.398	127.31
423.621	127.31
423.843	140.31
424.066	135.31
424.288	140.31
424.511	129.31
424.733	137.31
424.956	152.31
425.178	136.31
425.401	139.31
425.623	112.31
425.846	128.31
426.068	128.31
426.291	130.31
426.513	109.31
426.735	146.31
426.958	139.31
427.18	137.31
427.402	133.31
427.625	133.31
427.847	143.31
428.069	129.31
428.292	124.31
428.514	130.31
428.736	146.31
428.958	136.31
429.181	129.31
429.403	112.31
429.625	112.31
429.847	129.31
430.069	131.31
430.292	142.31
430.514	130.31
430.736	120.31
430.958	144.31
431.18	122.31
431.402	128.31
431.624	132.31
431.846	136.31
432.068	118.31
432.29	130.31
432.512	116.31
432.734	146.31
432.956	133.31
433.178	114.31
433.4	128.31
433.622	122.31
433.844	136.31
434.066	134.31
434.287	132.31
434.509	117.31
434.731	120.31
434.953	140.31
435.175	135.31
435.397	131.31
435.618	141.31
435.84	121.31
436.062	144.31
436.284	142.31
436.505	140.31
436.727	123.31
436.949	110.31
437.17	127.31
437.392	134.31
437.614	135.31
437.835	120.31
438.057	127.31
438.278	132.31
438.5	138.31
438.721	139.31
438.943	132.31
439.165	129.31
439.386	118.31
439.608	139.31
439.829	146.31
440.05	140.31
440.272	140.31
440.493	137.31
440.715	129.31
440.936	124.31
441.158	132.31
441.379	134.31
441.6	135.31
441.822	145.31
442.043	151.31
442.264	152.31
442.486	142.31
442.707	140.31
442.928	140.31
443.149	141.31
443.371	124.31
443.592	128.31
443.813	140.31
444.034	145.31
444.255	141.31
444.476	146.31
444.698	142.31
444.919	154.31
445.14	266.31
445.361	181.31
445.582	138.31
445.803	129.31
446.024	133.31
446.245	148.31
446.466	146.31
446.687	140.31
446.908	129.31
447.129	127.31
447.35	116.31
447.571	132.31
447.792	135.31
448.013	130.31
448.234	140.31
448.455	138.31
448.675	136.31
448.896	149.31
449.117	130.31
449.338	142.31
449.559	134.31
449.779	139.31
450	134.31
450.221	109.31
450.442	128.31
450.662	125.31
450.883	128.31
451.104	134.31
451.324	123.31
451.545	128.31
451.766	130.31
451.986	123.31
452.207	124.31
452.428	110.31
452.648	110.31
452.869	136.31
453.089	131.31
453.31	120.31
453.53	118.31
453.751	118.31
453.971	112.31
454.192	112.31
454.412	126.31
454.633	126.31
454.853	125.31
455.073	121.31
455.294	120.31
455.514	133.31
455.734	130.31
455.955	113.31
456.175	116.31
456.395	118.31
456.616	116.31
456.836	123.31
457.056	115.31
457.276	119.31
457.497	122.31
457.717	131.31
457.937	123.31
458.157	130.31
458.377	123.31
458.598	116.31
458.818	114.31
459.038	140.31
459.258	134.31
459.478	127.31
459.698	128.31
459.918	128.31
460.138	135.31
460.358	124.31
460.578	127.31
460.798	133.31
461.018	146.31
461.238	132.31
461.458	133.31
461.678	130.31
461.898	140.31
462.118	131.31
462.338	132.31
462.558	149.31
462.777	128.31
462.997	128.31
463.217	141.31
463.437	146.31
463.657	145.31
463.876	141.31
464.096	137.31
464.316	146.31
464.536	144.31
464.755	141.31
464.975	119.31
465.195	146.31
465.414	137.31
465.634	136.31
465.854	140.31
466.073	112.31
466.293	129.31
466.512	126.31
466.732	124.31
466.951	104.31
467.171	134.31
467.391	116.31
467.61	122.31
467.829	129.31
468.049	121.31
468.268	124.31
468.488	130.31
468.707	126.31
468.927	128.31
469.146	123.31
469.365	125.31
469.585	136.31
469.804	131.31
470.023	137.31
470.243	133.31
470.462	124.31
470.681	150.31
470.901	125.31
471.12	137.31
471.339	136.31
471.558	141.31
471.777	119.31
471.997	134.31
472.216	121.31
472.435	121.31
472.654	130.31
472.873	121.31
473.092	112.31
473.311	126.31
473.53	110.31
473.749	130.31
473.968	121.31
474.187	136.31
474.406	128.31
474.625	134.31
474.844	125.31
475.063	131.31
475.282	120.31
475.501	108.31
475.72	114.31
475.939	120.31
476.158	120.31
476.377	124.31
476.596	112.31
476.814	132.31
477.033	128.31
477.252	132.31
477.471	136.31
477.69	128.31
477.908	128.31
478.127	131.31
478.346	129.31
478.564	132.31
478.783	145.31
479.002	126.31
479.22	139.31
479.439	123.31
479.658	126.31
479.876	139.31
480.095	143.31
480.313	137.31
480.532	130.31
480.751	120.31
480.969	127.31
481.188	145.31
481.406	138.31
481.624	125.31
481.843	123.31
482.061	119.31
482.28	134.31
482.498	135.31
482.717	117.31
482.935	134.31
483.153	132.31
483.372	128.31
483.59	129.31
483.808	130.31
484.027	138.31
484.245	128.31
484.463	137.31
484.681	128.31
484.9	130.31
485.118	137.31
485.336	142.31
485.554	146.31
485.772	152.31
485.99	132.31
486.209	135.31
486.427	130.31
486.645	133.31
486.863	126.31
487.081	132.31
487.299	135.31
487.517	148.31
487.735	136.31
487.953	129.31
488.171	162.31
488.389	138.31
488.607	126.31
488.825	146.31
489.043	142.31
489.261	134.31
489.479	127.31
489.696	140.31
489.914	152.31
490.132	130.31
490.35	138.31
490.568	140.31
490.786	131.31
491.003	152.31
491.221	152.31
491.439	130.31
491.657	128.31
491.874	138.31
492.092	155.31
492.31	167.31
492.527	150.31
492.745	137.31
492.963	150.31
493.18	150.31
493.398	156.31
493.615	161.31
493.833	156.31
494.05	139.31
494.268	158.31
494.485	159.31
494.703	141.31
494.92	152.31
495.138	129.31
495.355	130.31
495.573	145.31
495.79	155.31
496.008	134.31
496.225	146.31
496.442	133.31
496.66	157.31
496.877	140.31
497.094	153.31
497.312	148.31
497.529	152.31
497.746	141.31
497.963	148.31
498.181	136.31
498.398	145.31
498.615	140.31
498.832	142.31
499.049	158.31
499.267	166.31
499.484	165.31
499.701	196.31
499.918	190.31
500.135	192.31
500.352	219.31
500.569	225.31
500.786	208.31
501.003	219.31
501.22	184.31
501.437	176.31
501.654	171.31
501.871	185.31
502.088	170.31
502.305	161.31
502.522	158.31
502.739	177.31
502.956	154.31
503.172	161.31
503.389	150.31
503.606	135.31
503.823	156.31
504.04	140.31
504.256	150.31
504.473	158.31
504.69	156.31
504.907	162.31
505.123	146.31
505.34	143.31
