Data from 1968.PennyLincolnUp.Lamp.En5.5.200Scan.071719.P1._HRD10591_14-50-16-969.txt Node
Date: Thu Jul 18 14:50:16 EDT 2019
User: cochatt
Spectrometer: HR+D1059
Trigger mode: 1
Integration Time (sec): 1.000000E-1
Scans to average: 1
Electric dark correction enabled: true
Nonlinearity correction enabled: false
Boxcar width: 0
XAxis mode: Wavelengths
Number of Pixels in Spectrum: 2048
>>>>>Begin Spectral Data<<<<<
223.165	-13.88
223.4	-13.88
223.635	-13.88
223.869	-14.88
224.104	-17.88
224.338	-5.88
224.573	-20.88
224.808	-19.88
225.042	-12.88
225.277	2.12
225.511	-15.88
225.746	0.12
225.98	6.12
226.215	10.12
226.449	18.12
226.683	31.12
226.918	24.12
227.152	30.12
227.387	44.12
227.621	48.12
227.856	48.12
228.09	52.12
228.324	66.12
228.559	71.12
228.793	50.12
229.027	62.12
229.262	79.12
229.496	72.12
229.73	73.12
229.964	78.12
230.199	79.12
230.433	91.12
230.667	94.12
230.901	82.12
231.136	84.12
231.37	88.12
231.604	93.12
231.838	88.12
232.072	102.12
232.306	86.12
232.541	91.12
232.775	98.12
233.009	97.12
233.243	81.12
233.477	81.12
233.711	80.12
233.945	84.12
234.179	92.12
234.413	80.12
234.647	86.12
234.881	83.12
235.115	89.12
235.349	77.12
235.583	86.12
235.817	73.12
236.051	88.12
236.285	80.12
236.519	74.12
236.753	93.12
236.987	80.12
237.221	96.12
237.455	91.12
237.689	87.12
237.922	88.12
238.156	87.12
238.39	73.12
238.624	92.12
238.858	84.12
239.091	93.12
239.325	73.12
239.559	71.12
239.793	82.12
240.027	82.12
240.26	76.12
240.494	89.12
240.728	78.12
240.961	72.12
241.195	87.12
241.429	74.12
241.662	80.12
241.896	93.12
242.13	81.12
242.363	83.12
242.597	80.12
242.83	78.12
243.064	100.12
243.298	80.12
243.531	99.12
243.765	78.12
243.998	93.12
244.232	87.12
244.465	78.12
244.699	81.12
244.932	95.12
245.166	94.12
245.399	82.12
245.633	101.12
245.866	70.12
246.099	90.12
246.333	86.12
246.566	82.12
246.8	98.12
247.033	81.12
247.266	91.12
247.5	92.12
247.733	94.12
247.966	84.12
248.2	83.12
248.433	98.12
248.666	80.12
248.899	97.12
249.133	91.12
249.366	83.12
249.599	77.12
249.832	81.12
250.066	104.12
250.299	80.12
250.532	91.12
250.765	83.12
250.998	91.12
251.231	97.12
251.465	94.12
251.698	85.12
251.931	92.12
252.164	100.12
252.397	96.12
252.63	93.12
252.863	94.12
253.096	77.12
253.329	84.12
253.562	94.12
253.795	93.12
254.028	88.12
254.261	84.12
254.494	92.12
254.727	103.12
254.96	92.12
255.193	71.12
255.426	96.12
255.659	101.12
255.892	86.12
256.124	97.12
256.357	102.12
256.59	86.12
256.823	91.12
257.056	91.12
257.289	93.12
257.521	101.12
257.754	106.12
257.987	95.12
258.22	89.12
258.452	90.12
258.685	96.12
258.918	97.12
259.151	89.12
259.383	93.12
259.616	88.12
259.849	80.12
260.081	97.12
260.314	96.12
260.547	95.12
260.779	107.12
261.012	112.12
261.244	94.12
261.477	104.12
261.71	99.12
261.942	85.12
262.175	97.12
262.407	105.12
262.64	108.12
262.872	99.12
263.105	80.12
263.337	87.12
263.57	92.12
263.802	85.12
264.035	94.12
264.267	79.12
264.499	96.12
264.732	96.12
264.964	86.12
265.197	92.12
265.429	107.12
265.661	94.12
265.894	94.12
266.126	93.12
266.358	89.12
266.591	87.12
266.823	89.12
267.055	87.12
267.287	88.12
267.52	89.12
267.752	96.12
267.984	88.12
268.216	97.12
268.448	101.12
268.681	108.12
268.913	87.12
269.145	92.12
269.377	112.12
269.609	95.12
269.841	99.12
270.073	88.12
270.306	96.12
270.538	108.12
270.77	104.12
271.002	101.12
271.234	99.12
271.466	96.12
271.698	105.12
271.93	86.12
272.162	88.12
272.394	100.12
272.626	102.12
272.858	104.12
273.09	102.12
273.322	102.12
273.553	98.12
273.785	104.12
274.017	93.12
274.249	104.12
274.481	96.12
274.713	87.12
274.945	97.12
275.176	102.12
275.408	106.12
275.64	100.12
275.872	85.12
276.104	96.12
276.335	97.12
276.567	92.12
276.799	102.12
277.031	103.12
277.262	102.12
277.494	107.12
277.726	106.12
277.957	113.12
278.189	102.12
278.421	100.12
278.652	103.12
278.884	91.12
279.115	105.12
279.347	108.12
279.579	106.12
279.81	94.12
280.042	101.12
280.273	92.12
280.505	97.12
280.736	101.12
280.968	108.12
281.199	102.12
281.431	108.12
281.662	93.12
281.894	112.12
282.125	128.12
282.356	111.12
282.588	102.12
282.819	104.12
283.051	103.12
283.282	102.12
283.513	107.12
283.745	99.12
283.976	97.12
284.207	126.12
284.439	100.12
284.67	97.12
284.901	113.12
285.132	98.12
285.364	116.12
285.595	106.12
285.826	110.12
286.057	95.12
286.288	99.12
286.52	105.12
286.751	107.12
286.982	98.12
287.213	104.12
287.444	111.12
287.675	108.12
287.906	100.12
288.138	107.12
288.369	117.12
288.6	105.12
288.831	91.12
289.062	92.12
289.293	97.12
289.524	111.12
289.755	112.12
289.986	109.12
290.217	102.12
290.448	118.12
290.679	116.12
290.91	91.12
291.141	99.12
291.371	104.12
291.602	108.12
291.833	106.12
292.064	106.12
292.295	116.12
292.526	102.12
292.757	109.12
292.987	97.12
293.218	109.12
293.449	106.12
293.68	101.12
293.91	95.12
294.141	101.12
294.372	91.12
294.603	109.12
294.833	96.12
295.064	104.12
295.295	113.12
295.525	98.12
295.756	90.12
295.987	104.12
296.217	111.12
296.448	103.12
296.679	102.12
296.909	112.12
297.14	104.12
297.37	111.12
297.601	103.12
297.831	94.12
298.062	111.12
298.292	102.12
298.523	100.12
298.753	108.12
298.984	126.12
299.214	96.12
299.445	120.12
299.675	120.12
299.905	111.12
300.136	124.12
300.366	114.12
300.597	111.12
300.827	111.12
301.057	93.12
301.288	114.12
301.518	114.12
301.748	97.12
301.979	118.12
302.209	104.12
302.439	104.12
302.669	122.12
302.9	102.12
303.13	113.12
303.36	108.12
303.59	113.12
303.82	109.12
304.051	107.12
304.281	116.12
304.511	116.12
304.741	93.12
304.971	107.12
305.201	104.12
305.431	121.12
305.661	115.12
305.891	117.12
306.121	120.12
306.352	107.12
306.582	113.12
306.812	109.12
307.042	112.12
307.272	118.12
307.502	100.12
307.731	109.12
307.961	104.12
308.191	108.12
308.421	96.12
308.651	110.12
308.881	121.12
309.111	105.12
309.341	116.12
309.571	108.12
309.8	120.12
310.03	107.12
310.26	105.12
310.49	117.12
310.72	108.12
310.949	107.12
311.179	107.12
311.409	106.12
311.639	121.12
311.868	125.12
312.098	96.12
312.328	100.12
312.557	114.12
312.787	94.12
313.017	114.12
313.246	104.12
313.476	107.12
313.706	98.12
313.935	115.12
314.165	111.12
314.394	121.12
314.624	110.12
314.853	117.12
315.083	118.12
315.312	108.12
315.542	106.12
315.771	117.12
316.001	118.12
316.23	110.12
316.46	113.12
316.689	118.12
316.919	116.12
317.148	103.12
317.377	107.12
317.607	108.12
317.836	108.12
318.065	114.12
318.295	120.12
318.524	116.12
318.753	109.12
318.983	110.12
319.212	116.12
319.441	101.12
319.67	102.12
319.9	93.12
320.129	112.12
320.358	105.12
320.587	109.12
320.816	101.12
321.046	109.12
321.275	116.12
321.504	106.12
321.733	116.12
321.962	109.12
322.191	112.12
322.42	124.12
322.649	119.12
322.878	125.12
323.108	120.12
323.337	118.12
323.566	107.12
323.795	97.12
324.024	107.12
324.253	118.12
324.482	137.12
324.71	143.12
324.939	183.12
325.168	150.12
325.397	127.12
325.626	119.12
325.855	118.12
326.084	112.12
326.313	118.12
326.542	126.12
326.77	120.12
326.999	117.12
327.228	123.12
327.457	145.12
327.686	159.12
327.914	136.12
328.143	130.12
328.372	129.12
328.6	116.12
328.829	112.12
329.058	121.12
329.287	105.12
329.515	131.12
329.744	118.12
329.972	104.12
330.201	126.12
330.43	130.12
330.658	124.12
330.887	116.12
331.115	113.12
331.344	113.12
331.572	126.12
331.801	121.12
332.03	103.12
332.258	109.12
332.486	107.12
332.715	106.12
332.943	145.12
333.172	124.12
333.4	112.12
333.629	108.12
333.857	127.12
334.085	128.12
334.314	128.12
334.542	136.12
334.771	127.12
334.999	124.12
335.227	122.12
335.455	111.12
335.684	122.12
335.912	121.12
336.14	125.12
336.369	117.12
336.597	111.12
336.825	126.12
337.053	110.12
337.281	104.12
337.51	114.12
337.738	129.12
337.966	122.12
338.194	112.12
338.422	115.12
338.65	127.12
338.878	132.12
339.106	106.12
339.334	115.12
339.562	114.12
339.79	122.12
340.018	117.12
340.246	112.12
340.474	124.12
340.702	119.12
340.93	117.12
341.158	113.12
341.386	116.12
341.614	124.12
341.842	108.12
342.07	126.12
342.298	128.12
342.526	116.12
342.754	104.12
342.981	97.12
343.209	108.12
343.437	102.12
343.665	116.12
343.893	110.12
344.12	125.12
344.348	116.12
344.576	116.12
344.804	108.12
345.031	109.12
345.259	112.12
345.487	116.12
345.714	109.12
345.942	105.12
346.17	126.12
346.397	113.12
346.625	100.12
346.853	116.12
347.08	112.12
347.308	124.12
347.535	117.12
347.763	101.12
347.99	112.12
348.218	105.12
348.445	121.12
348.673	117.12
348.9	114.12
349.128	124.12
349.355	116.12
349.583	103.12
349.81	123.12
350.037	105.12
350.265	99.12
350.492	108.12
350.72	109.12
350.947	107.12
351.174	122.12
351.402	114.12
351.629	101.12
351.856	119.12
352.083	96.12
352.311	112.12
352.538	104.12
352.765	111.12
352.992	102.12
353.22	118.12
353.447	107.12
353.674	110.12
353.901	106.12
354.128	116.12
354.355	120.12
354.583	114.12
354.81	121.12
355.037	116.12
355.264	116.12
355.491	100.12
355.718	105.12
355.945	116.12
356.172	104.12
356.399	118.12
356.626	98.12
356.853	100.12
357.08	107.12
357.307	118.12
357.534	110.12
357.761	95.12
357.988	105.12
358.215	119.12
358.441	105.12
358.668	111.12
358.895	119.12
359.122	105.12
359.349	132.12
359.576	110.12
359.802	100.12
360.029	91.12
360.256	123.12
360.483	120.12
360.709	124.12
360.936	124.12
361.163	130.12
361.39	113.12
361.616	106.12
361.843	116.12
362.07	113.12
362.296	116.12
362.523	116.12
362.749	98.12
362.976	92.12
363.203	116.12
363.429	113.12
363.656	109.12
363.882	107.12
364.109	114.12
364.335	123.12
364.562	107.12
364.788	127.12
365.015	113.12
365.241	110.12
365.468	107.12
365.694	117.12
365.92	113.12
366.147	116.12
366.373	118.12
366.599	113.12
366.826	110.12
367.052	113.12
367.278	127.12
367.505	106.12
367.731	115.12
367.957	101.12
368.184	121.12
368.41	107.12
368.636	108.12
368.862	119.12
369.089	108.12
369.315	114.12
369.541	118.12
369.767	116.12
369.993	109.12
370.219	122.12
370.445	102.12
370.672	113.12
370.898	104.12
371.124	112.12
371.35	121.12
371.576	108.12
371.802	104.12
372.028	121.12
372.254	112.12
372.48	114.12
372.706	112.12
372.932	114.12
373.158	120.12
373.384	114.12
373.61	111.12
373.835	108.12
374.061	120.12
374.287	103.12
374.513	124.12
374.739	129.12
374.965	107.12
375.191	118.12
375.416	118.12
375.642	127.12
375.868	117.12
376.094	110.12
376.319	105.12
376.545	117.12
376.771	129.12
376.997	112.12
377.222	102.12
377.448	107.12
377.674	120.12
377.899	120.12
378.125	99.12
378.35	110.12
378.576	117.12
378.802	114.12
379.027	124.12
379.253	121.12
379.478	118.12
379.704	116.12
379.929	109.12
380.155	91.12
380.38	123.12
380.606	116.12
380.831	121.12
381.057	125.12
381.282	113.12
381.507	101.12
381.733	128.12
381.958	116.12
382.184	106.12
382.409	115.12
382.634	101.12
382.86	128.12
383.085	116.12
383.31	118.12
383.535	121.12
383.761	119.12
383.986	120.12
384.211	119.12
384.436	109.12
384.662	105.12
384.887	107.12
385.112	116.12
385.337	124.12
385.562	122.12
385.787	109.12
386.013	123.12
386.238	131.12
386.463	126.12
386.688	114.12
386.913	124.12
387.138	128.12
387.363	122.12
387.588	134.12
387.813	124.12
388.038	123.12
388.263	119.12
388.488	118.12
388.713	122.12
388.938	120.12
389.163	116.12
389.387	122.12
389.612	111.12
389.837	109.12
390.062	110.12
390.287	116.12
390.512	133.12
390.736	122.12
390.961	126.12
391.186	108.12
391.411	119.12
391.636	121.12
391.86	133.12
392.085	122.12
392.31	132.12
392.534	120.12
392.759	114.12
392.984	132.12
393.208	118.12
393.433	108.12
393.658	104.12
393.882	110.12
394.107	126.12
394.331	124.12
394.556	126.12
394.78	128.12
395.005	130.12
395.229	120.12
395.454	129.12
395.678	130.12
395.903	129.12
396.127	136.12
396.352	125.12
396.576	133.12
396.801	131.12
397.025	128.12
397.249	126.12
397.474	128.12
397.698	120.12
397.922	135.12
398.147	116.12
398.371	123.12
398.595	125.12
398.82	126.12
399.044	145.12
399.268	150.12
399.492	144.12
399.717	151.12
399.941	136.12
400.165	142.12
400.389	141.12
400.613	133.12
400.837	125.12
401.062	139.12
401.286	119.12
401.51	146.12
401.734	146.12
401.958	135.12
402.182	127.12
402.406	129.12
402.63	122.12
402.854	114.12
403.078	126.12
403.302	130.12
403.526	123.12
403.75	140.12
403.974	133.12
404.198	145.12
404.422	142.12
404.645	138.12
404.869	129.12
405.093	132.12
405.317	150.12
405.541	132.12
405.765	149.12
405.988	140.12
406.212	124.12
406.436	131.12
406.66	139.12
406.883	140.12
407.107	136.12
407.331	142.12
407.555	149.12
407.778	144.12
408.002	137.12
408.226	128.12
408.449	134.12
408.673	145.12
408.896	154.12
409.12	132.12
409.344	136.12
409.567	124.12
409.791	131.12
410.014	134.12
410.238	120.12
410.461	125.12
410.685	130.12
410.908	147.12
411.132	150.12
411.355	134.12
411.578	135.12
411.802	128.12
412.025	129.12
412.249	127.12
412.472	132.12
412.695	156.12
412.919	130.12
413.142	123.12
413.365	121.12
413.589	122.12
413.812	122.12
414.035	141.12
414.258	131.12
414.482	130.12
414.705	138.12
414.928	159.12
415.151	150.12
415.374	145.12
415.597	130.12
415.821	127.12
416.044	132.12
416.267	126.12
416.49	132.12
416.713	114.12
416.936	134.12
417.159	136.12
417.382	127.12
417.605	141.12
417.828	118.12
418.051	136.12
418.274	146.12
418.497	124.12
418.72	149.12
418.943	135.12
419.166	130.12
419.389	141.12
419.611	134.12
419.834	138.12
420.057	129.12
420.28	136.12
420.503	126.12
420.726	108.12
420.948	137.12
421.171	124.12
421.394	136.12
421.617	124.12
421.839	121.12
422.062	125.12
422.285	131.12
422.507	136.12
422.73	129.12
422.953	132.12
423.175	134.12
423.398	140.12
423.621	132.12
423.843	139.12
424.066	132.12
424.288	128.12
424.511	132.12
424.733	143.12
424.956	148.12
425.178	142.12
425.401	137.12
425.623	132.12
425.846	128.12
426.068	129.12
426.291	129.12
426.513	125.12
426.735	133.12
426.958	130.12
427.18	146.12
427.402	136.12
427.625	138.12
427.847	133.12
428.069	143.12
428.292	120.12
428.514	130.12
428.736	125.12
428.958	125.12
429.181	126.12
429.403	126.12
429.625	117.12
429.847	129.12
430.069	149.12
430.292	138.12
430.514	132.12
430.736	118.12
430.958	123.12
431.18	132.12
431.402	141.12
431.624	120.12
431.846	136.12
432.068	126.12
432.29	121.12
432.512	139.12
432.734	134.12
432.956	149.12
433.178	137.12
433.4	130.12
433.622	144.12
433.844	132.12
434.066	132.12
434.287	126.12
434.509	126.12
434.731	144.12
434.953	131.12
435.175	134.12
435.397	139.12
435.618	150.12
435.84	144.12
436.062	139.12
436.284	153.12
436.505	129.12
436.727	130.12
436.949	128.12
437.17	132.12
437.392	142.12
437.614	120.12
437.835	127.12
438.057	124.12
438.278	132.12
438.5	125.12
438.721	129.12
438.943	134.12
439.165	138.12
439.386	128.12
439.608	142.12
439.829	128.12
440.05	145.12
440.272	128.12
440.493	144.12
440.715	114.12
440.936	136.12
441.158	112.12
441.379	135.12
441.6	134.12
441.822	137.12
442.043	139.12
442.264	134.12
442.486	157.12
442.707	149.12
442.928	139.12
443.149	133.12
443.371	131.12
443.592	140.12
443.813	148.12
444.034	154.12
444.255	145.12
444.476	146.12
444.698	132.12
444.919	145.12
445.14	266.12
445.361	202.12
445.582	131.12
445.803	138.12
446.024	143.12
446.245	140.12
446.466	139.12
446.687	124.12
446.908	137.12
447.129	128.12
447.35	134.12
447.571	130.12
447.792	126.12
448.013	126.12
448.234	108.12
448.455	128.12
448.675	144.12
448.896	144.12
449.117	141.12
449.338	144.12
449.559	144.12
449.779	128.12
450	122.12
450.221	131.12
450.442	130.12
450.662	139.12
450.883	132.12
451.104	118.12
451.324	120.12
451.545	128.12
451.766	119.12
451.986	121.12
452.207	120.12
452.428	128.12
452.648	128.12
452.869	118.12
453.089	119.12
453.31	121.12
453.53	134.12
453.751	113.12
453.971	119.12
454.192	120.12
454.412	125.12
454.633	120.12
454.853	110.12
455.073	113.12
455.294	133.12
455.514	114.12
455.734	118.12
455.955	119.12
456.175	134.12
456.395	125.12
456.616	118.12
456.836	116.12
457.056	113.12
457.276	122.12
457.497	106.12
457.717	119.12
457.937	112.12
458.157	118.12
458.377	136.12
458.598	125.12
458.818	127.12
459.038	122.12
459.258	118.12
459.478	139.12
459.698	124.12
459.918	121.12
460.138	128.12
460.358	130.12
460.578	122.12
460.798	138.12
461.018	141.12
461.238	137.12
461.458	122.12
461.678	136.12
461.898	138.12
462.118	138.12
462.338	145.12
462.558	124.12
462.777	145.12
462.997	142.12
463.217	149.12
463.437	150.12
463.657	141.12
463.876	135.12
464.096	128.12
464.316	131.12
464.536	140.12
464.755	145.12
464.975	138.12
465.195	141.12
465.414	129.12
465.634	129.12
465.854	127.12
466.073	121.12
466.293	124.12
466.512	131.12
466.732	120.12
466.951	112.12
467.171	124.12
467.391	126.12
467.61	119.12
467.829	120.12
468.049	125.12
468.268	110.12
468.488	128.12
468.707	134.12
468.927	121.12
469.146	114.12
469.365	124.12
469.585	136.12
469.804	118.12
470.023	123.12
470.243	122.12
470.462	113.12
470.681	124.12
470.901	124.12
471.12	122.12
471.339	118.12
471.558	129.12
471.777	132.12
471.997	127.12
472.216	140.12
472.435	136.12
472.654	117.12
472.873	127.12
473.092	134.12
473.311	120.12
473.53	131.12
473.749	132.12
473.968	107.12
474.187	132.12
474.406	140.12
474.625	119.12
474.844	132.12
475.063	120.12
475.282	149.12
475.501	118.12
475.72	132.12
475.939	135.12
476.158	142.12
476.377	116.12
476.596	123.12
476.814	125.12
477.033	114.12
477.252	134.12
477.471	128.12
477.69	144.12
477.908	121.12
478.127	140.12
478.346	138.12
478.564	141.12
478.783	135.12
479.002	118.12
479.22	141.12
479.439	145.12
479.658	139.12
479.876	134.12
480.095	140.12
480.313	140.12
480.532	143.12
480.751	141.12
480.969	132.12
481.188	147.12
481.406	142.12
481.624	140.12
481.843	121.12
482.061	125.12
482.28	136.12
482.498	128.12
482.717	136.12
482.935	129.12
483.153	134.12
483.372	139.12
483.59	125.12
483.808	141.12
484.027	136.12
484.245	139.12
484.463	140.12
484.681	131.12
484.9	126.12
485.118	153.12
485.336	134.12
485.554	133.12
485.772	143.12
485.99	136.12
486.209	136.12
486.427	135.12
486.645	125.12
486.863	140.12
487.081	135.12
487.299	138.12
487.517	129.12
487.735	137.12
487.953	140.12
488.171	137.12
488.389	138.12
488.607	119.12
488.825	139.12
489.043	138.12
489.261	135.12
489.479	145.12
489.696	146.12
489.914	146.12
490.132	134.12
490.35	133.12
490.568	137.12
490.786	144.12
491.003	138.12
491.221	154.12
491.439	165.12
491.657	137.12
491.874	151.12
492.092	143.12
492.31	142.12
492.527	143.12
492.745	148.12
492.963	144.12
493.18	140.12
493.398	141.12
493.615	133.12
493.833	130.12
494.05	136.12
494.268	147.12
494.485	147.12
494.703	144.12
494.92	143.12
495.138	152.12
495.355	150.12
495.573	161.12
495.79	145.12
496.008	149.12
496.225	128.12
496.442	143.12
496.66	153.12
496.877	150.12
497.094	149.12
497.312	130.12
497.529	142.12
497.746	146.12
497.963	147.12
498.181	144.12
498.398	136.12
498.615	161.12
498.832	154.12
499.049	162.12
499.267	178.12
499.484	192.12
499.701	197.12
499.918	195.12
500.135	213.12
500.352	215.12
500.569	207.12
500.786	196.12
501.003	209.12
501.22	207.12
501.437	198.12
501.654	167.12
501.871	174.12
502.088	177.12
502.305	157.12
502.522	173.12
502.739	158.12
502.956	160.12
503.172	136.12
503.389	156.12
503.606	157.12
503.823	132.12
504.04	136.12
504.256	149.12
504.473	146.12
504.69	142.12
504.907	143.12
