Data from 1968.PennyLincolnUp.Lamp.En5.5.200Scan.071719.P1._HRD10591_14-52-03-970.txt Node
Date: Thu Jul 18 14:52:03 EDT 2019
User: cochatt
Spectrometer: HR+D1059
Trigger mode: 1
Integration Time (sec): 1.000000E-1
Scans to average: 1
Electric dark correction enabled: true
Nonlinearity correction enabled: false
Boxcar width: 0
XAxis mode: Wavelengths
Number of Pixels in Spectrum: 2048
>>>>>Begin Spectral Data<<<<<
223.165	-4.81
223.4	-4.81
223.635	-4.81
223.869	-28.81
224.104	-8.81
224.338	-18.81
224.573	-10.81
224.808	10.19
225.042	-6.81
225.277	-18.81
225.511	-5.81
225.746	3.19
225.98	0.19
226.215	17.19
226.449	13.19
226.683	7.19
226.918	24.19
227.152	28.19
227.387	38.19
227.621	38.19
227.856	41.19
228.09	47.19
228.324	49.19
228.559	67.19
228.793	53.19
229.027	66.19
229.262	75.19
229.496	64.19
229.73	65.19
229.964	72.19
230.199	84.19
230.433	73.19
230.667	70.19
230.901	78.19
231.136	87.19
231.37	84.19
231.604	96.19
231.838	89.19
232.072	74.19
232.306	90.19
232.541	92.19
232.775	76.19
233.009	89.19
233.243	76.19
233.477	95.19
233.711	93.19
233.945	76.19
234.179	85.19
234.413	94.19
234.647	93.19
234.881	89.19
235.115	96.19
235.349	77.19
235.583	99.19
235.817	88.19
236.051	73.19
236.285	94.19
236.519	81.19
236.753	100.19
236.987	92.19
237.221	98.19
237.455	86.19
237.689	78.19
237.922	79.19
238.156	79.19
238.39	82.19
238.624	72.19
238.858	79.19
239.091	75.19
239.325	69.19
239.559	73.19
239.793	88.19
240.027	80.19
240.26	79.19
240.494	92.19
240.728	71.19
240.961	91.19
241.195	81.19
241.429	80.19
241.662	77.19
241.896	74.19
242.13	86.19
242.363	77.19
242.597	78.19
242.83	94.19
243.064	82.19
243.298	70.19
243.531	82.19
243.765	98.19
243.998	92.19
244.232	77.19
244.465	88.19
244.699	96.19
244.932	76.19
245.166	89.19
245.399	82.19
245.633	73.19
245.866	80.19
246.099	84.19
246.333	72.19
246.566	94.19
246.8	86.19
247.033	81.19
247.266	93.19
247.5	89.19
247.733	87.19
247.966	80.19
248.2	90.19
248.433	93.19
248.666	81.19
248.899	93.19
249.133	91.19
249.366	82.19
249.599	89.19
249.832	83.19
250.066	102.19
250.299	90.19
250.532	104.19
250.765	92.19
250.998	92.19
251.231	87.19
251.465	85.19
251.698	106.19
251.931	90.19
252.164	84.19
252.397	95.19
252.63	92.19
252.863	78.19
253.096	91.19
253.329	95.19
253.562	93.19
253.795	102.19
254.028	107.19
254.261	81.19
254.494	79.19
254.727	104.19
254.96	95.19
255.193	88.19
255.426	103.19
255.659	98.19
255.892	91.19
256.124	92.19
256.357	93.19
256.59	96.19
256.823	104.19
257.056	93.19
257.289	90.19
257.521	81.19
257.754	94.19
257.987	86.19
258.22	87.19
258.452	101.19
258.685	99.19
258.918	77.19
259.151	77.19
259.383	78.19
259.616	77.19
259.849	96.19
260.081	109.19
260.314	92.19
260.547	92.19
260.779	89.19
261.012	92.19
261.244	93.19
261.477	89.19
261.71	93.19
261.942	92.19
262.175	89.19
262.407	99.19
262.64	93.19
262.872	97.19
263.105	109.19
263.337	88.19
263.57	85.19
263.802	91.19
264.035	94.19
264.267	93.19
264.499	87.19
264.732	93.19
264.964	100.19
265.197	99.19
265.429	91.19
265.661	99.19
265.894	91.19
266.126	88.19
266.358	106.19
266.591	78.19
266.823	90.19
267.055	108.19
267.287	97.19
267.52	100.19
267.752	97.19
267.984	96.19
268.216	108.19
268.448	103.19
268.681	92.19
268.913	108.19
269.145	114.19
269.377	107.19
269.609	103.19
269.841	103.19
270.073	89.19
270.306	105.19
270.538	104.19
270.77	99.19
271.002	122.19
271.234	91.19
271.466	96.19
271.698	97.19
271.93	96.19
272.162	90.19
272.394	111.19
272.626	99.19
272.858	110.19
273.09	82.19
273.322	89.19
273.553	118.19
273.785	96.19
274.017	99.19
274.249	95.19
274.481	99.19
274.713	87.19
274.945	93.19
275.176	96.19
275.408	101.19
275.64	104.19
275.872	91.19
276.104	79.19
276.335	99.19
276.567	90.19
276.799	94.19
277.031	99.19
277.262	105.19
277.494	92.19
277.726	96.19
277.957	92.19
278.189	99.19
278.421	109.19
278.652	111.19
278.884	99.19
279.115	99.19
279.347	110.19
279.579	104.19
279.81	110.19
280.042	86.19
280.273	91.19
280.505	85.19
280.736	102.19
280.968	92.19
281.199	105.19
281.431	102.19
281.662	91.19
281.894	100.19
282.125	96.19
282.356	97.19
282.588	97.19
282.819	107.19
283.051	99.19
283.282	101.19
283.513	96.19
283.745	90.19
283.976	102.19
284.207	90.19
284.439	86.19
284.67	117.19
284.901	108.19
285.132	97.19
285.364	100.19
285.595	107.19
285.826	101.19
286.057	97.19
286.288	105.19
286.52	92.19
286.751	106.19
286.982	102.19
287.213	93.19
287.444	107.19
287.675	104.19
287.906	108.19
288.138	102.19
288.369	82.19
288.6	106.19
288.831	103.19
289.062	105.19
289.293	92.19
289.524	99.19
289.755	91.19
289.986	104.19
290.217	104.19
290.448	105.19
290.679	96.19
290.91	107.19
291.141	104.19
291.371	88.19
291.602	100.19
291.833	110.19
292.064	97.19
292.295	119.19
292.526	108.19
292.757	108.19
292.987	104.19
293.218	88.19
293.449	94.19
293.68	115.19
293.91	99.19
294.141	102.19
294.372	109.19
294.603	107.19
294.833	97.19
295.064	91.19
295.295	101.19
295.525	97.19
295.756	107.19
295.987	92.19
296.217	91.19
296.448	108.19
296.679	94.19
296.909	99.19
297.14	100.19
297.37	103.19
297.601	116.19
297.831	113.19
298.062	127.19
298.292	120.19
298.523	109.19
298.753	103.19
298.984	97.19
299.214	97.19
299.445	97.19
299.675	101.19
299.905	104.19
300.136	98.19
300.366	101.19
300.597	101.19
300.827	123.19
301.057	109.19
301.288	96.19
301.518	97.19
301.748	108.19
301.979	111.19
302.209	109.19
302.439	105.19
302.669	95.19
302.9	101.19
303.13	120.19
303.36	111.19
303.59	98.19
303.82	101.19
304.051	101.19
304.281	100.19
304.511	108.19
304.741	100.19
304.971	100.19
305.201	103.19
305.431	112.19
305.661	112.19
305.891	111.19
306.121	111.19
306.352	109.19
306.582	99.19
306.812	112.19
307.042	98.19
307.272	110.19
307.502	113.19
307.731	107.19
307.961	105.19
308.191	90.19
308.421	107.19
308.651	100.19
308.881	112.19
309.111	112.19
309.341	102.19
309.571	103.19
309.8	112.19
310.03	84.19
310.26	120.19
310.49	117.19
310.72	96.19
310.949	109.19
311.179	111.19
311.409	94.19
311.639	106.19
311.868	108.19
312.098	116.19
312.328	107.19
312.557	109.19
312.787	113.19
313.017	100.19
313.246	117.19
313.476	109.19
313.706	122.19
313.935	111.19
314.165	106.19
314.394	103.19
314.624	108.19
314.853	118.19
315.083	116.19
315.312	116.19
315.542	108.19
315.771	127.19
316.001	115.19
316.23	115.19
316.46	100.19
316.689	99.19
316.919	114.19
317.148	120.19
317.377	110.19
317.607	112.19
317.836	120.19
318.065	123.19
318.295	116.19
318.524	107.19
318.753	115.19
318.983	110.19
319.212	107.19
319.441	102.19
319.67	107.19
319.9	116.19
320.129	120.19
320.358	103.19
320.587	119.19
320.816	112.19
321.046	111.19
321.275	108.19
321.504	125.19
321.733	102.19
321.962	110.19
322.191	101.19
322.42	133.19
322.649	96.19
322.878	111.19
323.108	116.19
323.337	116.19
323.566	117.19
323.795	110.19
324.024	118.19
324.253	133.19
324.482	129.19
324.71	172.19
324.939	187.19
325.168	167.19
325.397	124.19
325.626	129.19
325.855	113.19
326.084	104.19
326.313	114.19
326.542	105.19
326.77	123.19
326.999	127.19
327.228	144.19
327.457	148.19
327.686	152.19
327.914	120.19
328.143	125.19
328.372	113.19
328.6	110.19
328.829	127.19
329.058	113.19
329.287	112.19
329.515	131.19
329.744	115.19
329.972	117.19
330.201	99.19
330.43	106.19
330.658	115.19
330.887	119.19
331.115	115.19
331.344	111.19
331.572	115.19
331.801	119.19
332.03	113.19
332.258	129.19
332.486	105.19
332.715	109.19
332.943	122.19
333.172	107.19
333.4	120.19
333.629	119.19
333.857	117.19
334.085	103.19
334.314	120.19
334.542	97.19
334.771	112.19
334.999	94.19
335.227	122.19
335.455	112.19
335.684	118.19
335.912	98.19
336.14	107.19
336.369	121.19
336.597	108.19
336.825	101.19
337.053	109.19
337.281	118.19
337.51	106.19
337.738	130.19
337.966	118.19
338.194	130.19
338.422	127.19
338.65	127.19
338.878	95.19
339.106	115.19
339.334	100.19
339.562	108.19
339.79	108.19
340.018	103.19
340.246	107.19
340.474	110.19
340.702	101.19
340.93	126.19
341.158	113.19
341.386	112.19
341.614	103.19
341.842	115.19
342.07	121.19
342.298	120.19
342.526	112.19
342.754	115.19
342.981	110.19
343.209	96.19
343.437	111.19
343.665	112.19
343.893	111.19
344.12	119.19
344.348	123.19
344.576	115.19
344.804	105.19
345.031	111.19
345.259	123.19
345.487	93.19
345.714	95.19
345.942	110.19
346.17	120.19
346.397	124.19
346.625	107.19
346.853	109.19
347.08	101.19
347.308	110.19
347.535	126.19
347.763	98.19
347.99	126.19
348.218	116.19
348.445	115.19
348.673	108.19
348.9	118.19
349.128	99.19
349.355	113.19
349.583	110.19
349.81	121.19
350.037	93.19
350.265	95.19
350.492	101.19
350.72	100.19
350.947	116.19
351.174	109.19
351.402	118.19
351.629	110.19
351.856	112.19
352.083	115.19
352.311	112.19
352.538	133.19
352.765	117.19
352.992	126.19
353.22	107.19
353.447	117.19
353.674	113.19
353.901	103.19
354.128	112.19
354.355	124.19
354.583	96.19
354.81	117.19
355.037	94.19
355.264	117.19
355.491	116.19
355.718	105.19
355.945	106.19
356.172	116.19
356.399	111.19
356.626	119.19
356.853	112.19
357.08	105.19
357.307	119.19
357.534	106.19
357.761	118.19
357.988	94.19
358.215	123.19
358.441	121.19
358.668	119.19
358.895	109.19
359.122	115.19
359.349	115.19
359.576	113.19
359.802	94.19
360.029	107.19
360.256	115.19
360.483	111.19
360.709	115.19
360.936	111.19
361.163	108.19
361.39	119.19
361.616	115.19
361.843	104.19
362.07	102.19
362.296	108.19
362.523	104.19
362.749	97.19
362.976	106.19
363.203	125.19
363.429	103.19
363.656	119.19
363.882	111.19
364.109	101.19
364.335	98.19
364.562	105.19
364.788	106.19
365.015	116.19
365.241	104.19
365.468	121.19
365.694	116.19
365.92	110.19
366.147	111.19
366.373	113.19
366.599	107.19
366.826	91.19
367.052	107.19
367.278	113.19
367.505	105.19
367.731	117.19
367.957	100.19
368.184	117.19
368.41	117.19
368.636	110.19
368.862	95.19
369.089	125.19
369.315	111.19
369.541	100.19
369.767	107.19
369.993	109.19
370.219	110.19
370.445	115.19
370.672	107.19
370.898	119.19
371.124	111.19
371.35	117.19
371.576	97.19
371.802	119.19
372.028	109.19
372.254	111.19
372.48	110.19
372.706	122.19
372.932	111.19
373.158	107.19
373.384	119.19
373.61	119.19
373.835	98.19
374.061	121.19
374.287	117.19
374.513	127.19
374.739	120.19
374.965	111.19
375.191	123.19
375.416	105.19
375.642	125.19
375.868	107.19
376.094	112.19
376.319	102.19
376.545	116.19
376.771	116.19
376.997	113.19
377.222	122.19
377.448	114.19
377.674	106.19
377.899	100.19
378.125	111.19
378.35	103.19
378.576	103.19
378.802	115.19
379.027	115.19
379.253	119.19
379.478	106.19
379.704	101.19
379.929	112.19
380.155	115.19
380.38	101.19
380.606	117.19
380.831	112.19
381.057	125.19
381.282	127.19
381.507	116.19
381.733	116.19
381.958	106.19
382.184	101.19
382.409	111.19
382.634	109.19
382.86	117.19
383.085	118.19
383.31	122.19
383.535	111.19
383.761	99.19
383.986	112.19
384.211	109.19
384.436	115.19
384.662	109.19
384.887	112.19
385.112	118.19
385.337	118.19
385.562	116.19
385.787	118.19
386.013	113.19
386.238	127.19
386.463	117.19
386.688	126.19
386.913	113.19
387.138	109.19
387.363	117.19
387.588	118.19
387.813	116.19
388.038	122.19
388.263	119.19
388.488	125.19
388.713	104.19
388.938	120.19
389.163	103.19
389.387	119.19
389.612	117.19
389.837	130.19
390.062	101.19
390.287	122.19
390.512	127.19
390.736	119.19
390.961	133.19
391.186	115.19
391.411	124.19
391.636	125.19
391.86	116.19
392.085	138.19
392.31	128.19
392.534	116.19
392.759	129.19
392.984	127.19
393.208	122.19
393.433	106.19
393.658	120.19
393.882	110.19
394.107	121.19
394.331	127.19
394.556	117.19
394.78	121.19
395.005	119.19
395.229	118.19
395.454	132.19
395.678	125.19
395.903	125.19
396.127	117.19
396.352	135.19
396.576	118.19
396.801	118.19
397.025	106.19
397.249	123.19
397.474	143.19
397.698	118.19
397.922	125.19
398.147	121.19
398.371	123.19
398.595	137.19
398.82	140.19
399.044	131.19
399.268	135.19
399.492	144.19
399.717	137.19
399.941	153.19
400.165	135.19
400.389	142.19
400.613	139.19
400.837	125.19
401.062	120.19
401.286	121.19
401.51	139.19
401.734	129.19
401.958	117.19
402.182	125.19
402.406	134.19
402.63	137.19
402.854	121.19
403.078	127.19
403.302	122.19
403.526	146.19
403.75	133.19
403.974	144.19
404.198	127.19
404.422	131.19
404.645	127.19
404.869	123.19
405.093	120.19
405.317	137.19
405.541	136.19
405.765	138.19
405.988	119.19
406.212	128.19
406.436	142.19
406.66	136.19
406.883	138.19
407.107	145.19
407.331	135.19
407.555	134.19
407.778	124.19
408.002	146.19
408.226	131.19
408.449	140.19
408.673	135.19
408.896	141.19
409.12	135.19
409.344	136.19
409.567	143.19
409.791	149.19
410.014	137.19
410.238	151.19
410.461	129.19
410.685	128.19
410.908	136.19
411.132	143.19
411.355	132.19
411.578	143.19
411.802	149.19
412.025	123.19
412.249	134.19
412.472	136.19
412.695	111.19
412.919	131.19
413.142	121.19
413.365	113.19
413.589	116.19
413.812	139.19
414.035	141.19
414.258	135.19
414.482	127.19
414.705	120.19
414.928	126.19
415.151	124.19
415.374	131.19
415.597	127.19
415.821	125.19
416.044	127.19
416.267	138.19
416.49	133.19
416.713	135.19
416.936	134.19
417.159	124.19
417.382	120.19
417.605	135.19
417.828	131.19
418.051	113.19
418.274	139.19
418.497	137.19
418.72	131.19
418.943	134.19
419.166	137.19
419.389	117.19
419.611	128.19
419.834	143.19
420.057	131.19
420.28	118.19
420.503	141.19
420.726	131.19
420.948	124.19
421.171	129.19
421.394	129.19
421.617	138.19
421.839	121.19
422.062	110.19
422.285	139.19
422.507	133.19
422.73	148.19
422.953	127.19
423.175	138.19
423.398	124.19
423.621	133.19
423.843	129.19
424.066	124.19
424.288	143.19
424.511	142.19
424.733	142.19
424.956	128.19
425.178	131.19
425.401	129.19
425.623	141.19
425.846	137.19
426.068	128.19
426.291	126.19
426.513	131.19
426.735	139.19
426.958	136.19
427.18	118.19
427.402	149.19
427.625	144.19
427.847	136.19
428.069	131.19
428.292	130.19
428.514	125.19
428.736	108.19
428.958	126.19
429.181	118.19
429.403	136.19
429.625	131.19
429.847	135.19
430.069	131.19
430.292	128.19
430.514	111.19
430.736	131.19
430.958	139.19
431.18	126.19
431.402	132.19
431.624	128.19
431.846	115.19
432.068	114.19
432.29	126.19
432.512	112.19
432.734	128.19
432.956	131.19
433.178	124.19
433.4	151.19
433.622	132.19
433.844	115.19
434.066	137.19
434.287	121.19
434.509	119.19
434.731	119.19
434.953	121.19
435.175	126.19
435.397	133.19
435.618	128.19
435.84	127.19
436.062	137.19
436.284	153.19
436.505	146.19
436.727	125.19
436.949	141.19
437.17	123.19
437.392	131.19
437.614	129.19
437.835	117.19
438.057	124.19
438.278	142.19
438.5	127.19
438.721	144.19
438.943	142.19
439.165	128.19
439.386	129.19
439.608	150.19
439.829	127.19
440.05	127.19
440.272	136.19
440.493	136.19
440.715	144.19
440.936	113.19
441.158	119.19
441.379	120.19
441.6	127.19
441.822	139.19
442.043	153.19
442.264	131.19
442.486	135.19
442.707	147.19
442.928	139.19
443.149	136.19
443.371	138.19
443.592	134.19
443.813	137.19
444.034	137.19
444.255	139.19
444.476	144.19
444.698	134.19
444.919	151.19
445.14	261.19
445.361	185.19
445.582	127.19
445.803	150.19
446.024	143.19
446.245	143.19
446.466	134.19
446.687	140.19
446.908	127.19
447.129	142.19
447.35	129.19
447.571	119.19
447.792	127.19
448.013	134.19
448.234	135.19
448.455	134.19
448.675	139.19
448.896	148.19
449.117	127.19
449.338	127.19
449.559	146.19
449.779	156.19
450	122.19
450.221	118.19
450.442	138.19
450.662	121.19
450.883	136.19
451.104	112.19
451.324	127.19
451.545	130.19
451.766	119.19
451.986	107.19
452.207	117.19
452.428	124.19
452.648	128.19
452.869	131.19
453.089	126.19
453.31	132.19
453.53	115.19
453.751	122.19
453.971	109.19
454.192	135.19
454.412	126.19
454.633	116.19
454.853	116.19
455.073	107.19
455.294	113.19
455.514	126.19
455.734	129.19
455.955	110.19
456.175	102.19
456.395	123.19
456.616	133.19
456.836	121.19
457.056	104.19
457.276	124.19
457.497	101.19
457.717	125.19
457.937	120.19
458.157	108.19
458.377	119.19
458.598	121.19
458.818	120.19
459.038	132.19
459.258	128.19
459.478	121.19
459.698	130.19
459.918	132.19
460.138	131.19
460.358	140.19
460.578	135.19
460.798	135.19
461.018	136.19
461.238	133.19
461.458	136.19
461.678	119.19
461.898	125.19
462.118	131.19
462.338	143.19
462.558	129.19
462.777	120.19
462.997	134.19
463.217	147.19
463.437	151.19
463.657	141.19
463.876	137.19
464.096	123.19
464.316	136.19
464.536	123.19
464.755	143.19
464.975	123.19
465.195	141.19
465.414	131.19
465.634	116.19
465.854	109.19
466.073	131.19
466.293	125.19
466.512	131.19
466.732	113.19
466.951	121.19
467.171	136.19
467.391	138.19
467.61	128.19
467.829	131.19
468.049	129.19
468.268	124.19
468.488	110.19
468.707	131.19
468.927	127.19
469.146	123.19
469.365	125.19
469.585	122.19
469.804	127.19
470.023	123.19
470.243	102.19
470.462	121.19
470.681	131.19
470.901	123.19
471.12	103.19
471.339	122.19
471.558	120.19
471.777	130.19
471.997	128.19
472.216	114.19
472.435	121.19
472.654	121.19
472.873	128.19
473.092	129.19
473.311	120.19
473.53	118.19
473.749	127.19
473.968	138.19
474.187	132.19
474.406	122.19
474.625	121.19
474.844	132.19
475.063	116.19
475.282	117.19
475.501	122.19
475.72	128.19
475.939	118.19
476.158	132.19
476.377	123.19
476.596	113.19
476.814	123.19
477.033	121.19
477.252	121.19
477.471	122.19
477.69	123.19
477.908	140.19
478.127	137.19
478.346	118.19
478.564	117.19
478.783	125.19
479.002	127.19
479.22	121.19
479.439	127.19
479.658	136.19
479.876	142.19
480.095	126.19
480.313	125.19
480.532	133.19
480.751	147.19
480.969	128.19
481.188	137.19
481.406	141.19
481.624	132.19
481.843	127.19
482.061	127.19
482.28	137.19
482.498	143.19
482.717	135.19
482.935	144.19
483.153	142.19
483.372	123.19
483.59	136.19
483.808	130.19
484.027	132.19
484.245	123.19
484.463	143.19
484.681	144.19
484.9	132.19
485.118	129.19
485.336	135.19
485.554	132.19
485.772	124.19
485.99	124.19
486.209	138.19
486.427	118.19
486.645	125.19
486.863	142.19
487.081	138.19
487.299	143.19
487.517	137.19
487.735	122.19
487.953	146.19
488.171	149.19
488.389	148.19
488.607	147.19
488.825	142.19
489.043	132.19
489.261	135.19
489.479	141.19
489.696	139.19
489.914	136.19
490.132	133.19
490.35	151.19
490.568	128.19
490.786	137.19
491.003	148.19
491.221	163.19
491.439	141.19
491.657	142.19
491.874	137.19
492.092	138.19
492.31	148.19
492.527	143.19
492.745	155.19
492.963	149.19
493.18	140.19
493.398	143.19
493.615	150.19
493.833	144.19
494.05	135.19
494.268	151.19
494.485	153.19
494.703	144.19
494.92	152.19
495.138	149.19
495.355	146.19
495.573	151.19
495.79	155.19
496.008	138.19
496.225	148.19
496.442	140.19
496.66	149.19
496.877	149.19
497.094	145.19
497.312	136.19
497.529	140.19
497.746	145.19
497.963	152.19
498.181	144.19
498.398	151.19
498.615	151.19
498.832	177.19
499.049	160.19
499.267	166.19
499.484	180.19
499.701	180.19
499.918	185.19
500.135	187.19
500.352	191.19
500.569	221.19
500.786	216.19
501.003	196.19
501.22	176.19
501.437	186.19
501.654	159.19
501.871	157.19
502.088	166.19
502.305	151.19
502.522	154.19
502.739	150.19
502.956	165.19
503.172	151.19
503.389	156.19
503.606	140.19
503.823	151.19
504.04	138.19
504.256	154.19
504.473	146.19
504.69	163.19
504.907	153.19
505.123	158.19
505.34	137.19
505.557	145.19
