Data from 1968.PennyLincolnUp.Lamp.En5.5.200Scan.071719.P1._HRD10591_14-50-26-970.txt Node
Date: Thu Jul 18 14:50:26 EDT 2019
User: cochatt
Spectrometer: HR+D1059
Trigger mode: 1
Integration Time (sec): 1.000000E-1
Scans to average: 1
Electric dark correction enabled: true
Nonlinearity correction enabled: false
Boxcar width: 0
XAxis mode: Wavelengths
Number of Pixels in Spectrum: 2048
>>>>>Begin Spectral Data<<<<<
223.165	-4.19
223.4	-4.19
223.635	-4.19
223.869	-26.19
224.104	-27.19
224.338	-20.19
224.573	-12.19
224.808	-20.19
225.042	-0.19
225.277	-4.19
225.511	-2.19
225.746	13.81
225.98	16.81
226.215	25.81
226.449	21.81
226.683	16.81
226.918	12.81
227.152	8.81
227.387	27.81
227.621	16.81
227.856	42.81
228.09	33.81
228.324	49.81
228.559	59.81
228.793	47.81
229.027	61.81
229.262	55.81
229.496	68.81
229.73	68.81
229.964	67.81
230.199	63.81
230.433	73.81
230.667	93.81
230.901	76.81
231.136	81.81
231.37	77.81
231.604	84.81
231.838	84.81
232.072	76.81
232.306	88.81
232.541	87.81
232.775	83.81
233.009	73.81
233.243	70.81
233.477	71.81
233.711	83.81
233.945	80.81
234.179	91.81
234.413	91.81
234.647	81.81
234.881	82.81
235.115	79.81
235.349	76.81
235.583	90.81
235.817	80.81
236.051	84.81
236.285	81.81
236.519	70.81
236.753	79.81
236.987	78.81
237.221	91.81
237.455	87.81
237.689	65.81
237.922	74.81
238.156	74.81
238.39	77.81
238.624	74.81
238.858	68.81
239.091	71.81
239.325	88.81
239.559	74.81
239.793	70.81
240.027	80.81
240.26	87.81
240.494	83.81
240.728	86.81
240.961	83.81
241.195	64.81
241.429	78.81
241.662	72.81
241.896	82.81
242.13	93.81
242.363	83.81
242.597	82.81
242.83	75.81
243.064	77.81
243.298	85.81
243.531	79.81
243.765	103.81
243.998	86.81
244.232	73.81
244.465	72.81
244.699	80.81
244.932	78.81
245.166	84.81
245.399	83.81
245.633	84.81
245.866	81.81
246.099	92.81
246.333	75.81
246.566	78.81
246.8	83.81
247.033	77.81
247.266	76.81
247.5	78.81
247.733	70.81
247.966	86.81
248.2	85.81
248.433	82.81
248.666	77.81
248.899	72.81
249.133	89.81
249.366	88.81
249.599	92.81
249.832	82.81
250.066	83.81
250.299	95.81
250.532	81.81
250.765	83.81
250.998	94.81
251.231	95.81
251.465	87.81
251.698	70.81
251.931	82.81
252.164	93.81
252.397	104.81
252.63	85.81
252.863	70.81
253.096	92.81
253.329	91.81
253.562	89.81
253.795	89.81
254.028	95.81
254.261	87.81
254.494	80.81
254.727	86.81
254.96	95.81
255.193	92.81
255.426	106.81
255.659	81.81
255.892	90.81
256.124	88.81
256.357	83.81
256.59	102.81
256.823	96.81
257.056	88.81
257.289	86.81
257.521	97.81
257.754	92.81
257.987	80.81
258.22	83.81
258.452	115.81
258.685	85.81
258.918	76.81
259.151	74.81
259.383	98.81
259.616	87.81
259.849	92.81
260.081	85.81
260.314	90.81
260.547	97.81
260.779	84.81
261.012	83.81
261.244	88.81
261.477	91.81
261.71	97.81
261.942	81.81
262.175	103.81
262.407	83.81
262.64	103.81
262.872	99.81
263.105	90.81
263.337	89.81
263.57	75.81
263.802	92.81
264.035	90.81
264.267	92.81
264.499	91.81
264.732	91.81
264.964	91.81
265.197	94.81
265.429	87.81
265.661	81.81
265.894	89.81
266.126	98.81
266.358	84.81
266.591	101.81
266.823	78.81
267.055	90.81
267.287	94.81
267.52	98.81
267.752	96.81
267.984	88.81
268.216	87.81
268.448	82.81
268.681	87.81
268.913	79.81
269.145	86.81
269.377	88.81
269.609	94.81
269.841	86.81
270.073	90.81
270.306	81.81
270.538	96.81
270.77	86.81
271.002	97.81
271.234	93.81
271.466	81.81
271.698	94.81
271.93	111.81
272.162	104.81
272.394	91.81
272.626	94.81
272.858	100.81
273.09	96.81
273.322	93.81
273.553	108.81
273.785	87.81
274.017	95.81
274.249	102.81
274.481	88.81
274.713	86.81
274.945	86.81
275.176	93.81
275.408	101.81
275.64	83.81
275.872	97.81
276.104	81.81
276.335	112.81
276.567	99.81
276.799	89.81
277.031	92.81
277.262	97.81
277.494	76.81
277.726	102.81
277.957	84.81
278.189	103.81
278.421	88.81
278.652	99.81
278.884	93.81
279.115	96.81
279.347	98.81
279.579	96.81
279.81	86.81
280.042	95.81
280.273	93.81
280.505	96.81
280.736	83.81
280.968	104.81
281.199	97.81
281.431	92.81
281.662	107.81
281.894	91.81
282.125	95.81
282.356	103.81
282.588	80.81
282.819	85.81
283.051	101.81
283.282	99.81
283.513	91.81
283.745	85.81
283.976	111.81
284.207	94.81
284.439	92.81
284.67	94.81
284.901	92.81
285.132	99.81
285.364	98.81
285.595	91.81
285.826	88.81
286.057	98.81
286.288	82.81
286.52	106.81
286.751	109.81
286.982	99.81
287.213	92.81
287.444	88.81
287.675	94.81
287.906	100.81
288.138	103.81
288.369	99.81
288.6	101.81
288.831	92.81
289.062	89.81
289.293	89.81
289.524	94.81
289.755	94.81
289.986	93.81
290.217	97.81
290.448	101.81
290.679	97.81
290.91	113.81
291.141	82.81
291.371	112.81
291.602	106.81
291.833	94.81
292.064	77.81
292.295	108.81
292.526	102.81
292.757	106.81
292.987	100.81
293.218	88.81
293.449	110.81
293.68	97.81
293.91	106.81
294.141	101.81
294.372	95.81
294.603	104.81
294.833	112.81
295.064	105.81
295.295	94.81
295.525	91.81
295.756	88.81
295.987	102.81
296.217	95.81
296.448	98.81
296.679	113.81
296.909	98.81
297.14	111.81
297.37	107.81
297.601	111.81
297.831	98.81
298.062	98.81
298.292	95.81
298.523	97.81
298.753	104.81
298.984	99.81
299.214	111.81
299.445	94.81
299.675	105.81
299.905	106.81
300.136	102.81
300.366	108.81
300.597	106.81
300.827	97.81
301.057	107.81
301.288	107.81
301.518	91.81
301.748	103.81
301.979	106.81
302.209	94.81
302.439	99.81
302.669	95.81
302.9	94.81
303.13	100.81
303.36	104.81
303.59	90.81
303.82	100.81
304.051	98.81
304.281	103.81
304.511	98.81
304.741	88.81
304.971	87.81
305.201	94.81
305.431	105.81
305.661	98.81
305.891	99.81
306.121	100.81
306.352	112.81
306.582	101.81
306.812	93.81
307.042	100.81
307.272	94.81
307.502	103.81
307.731	122.81
307.961	97.81
308.191	82.81
308.421	110.81
308.651	102.81
308.881	80.81
309.111	112.81
309.341	97.81
309.571	110.81
309.8	118.81
310.03	104.81
310.26	107.81
310.49	113.81
310.72	103.81
310.949	114.81
311.179	107.81
311.409	101.81
311.639	104.81
311.868	107.81
312.098	99.81
312.328	125.81
312.557	112.81
312.787	96.81
313.017	119.81
313.246	110.81
313.476	94.81
313.706	110.81
313.935	104.81
314.165	96.81
314.394	97.81
314.624	108.81
314.853	103.81
315.083	100.81
315.312	108.81
315.542	106.81
315.771	120.81
316.001	107.81
316.23	100.81
316.46	94.81
316.689	99.81
316.919	104.81
317.148	111.81
317.377	110.81
317.607	99.81
317.836	110.81
318.065	99.81
318.295	97.81
318.524	99.81
318.753	110.81
318.983	96.81
319.212	108.81
319.441	110.81
319.67	99.81
319.9	110.81
320.129	97.81
320.358	98.81
320.587	92.81
320.816	105.81
321.046	85.81
321.275	101.81
321.504	99.81
321.733	99.81
321.962	87.81
322.191	112.81
322.42	109.81
322.649	106.81
322.878	102.81
323.108	107.81
323.337	112.81
323.566	108.81
323.795	100.81
324.024	110.81
324.253	120.81
324.482	117.81
324.71	150.81
324.939	169.81
325.168	140.81
325.397	130.81
325.626	118.81
325.855	105.81
326.084	112.81
326.313	108.81
326.542	100.81
326.77	121.81
326.999	125.81
327.228	132.81
327.457	126.81
327.686	153.81
327.914	124.81
328.143	121.81
328.372	121.81
328.6	115.81
328.829	111.81
329.058	113.81
329.287	117.81
329.515	118.81
329.744	93.81
329.972	93.81
330.201	104.81
330.43	112.81
330.658	117.81
330.887	120.81
331.115	104.81
331.344	116.81
331.572	116.81
331.801	113.81
332.03	118.81
332.258	90.81
332.486	124.81
332.715	112.81
332.943	115.81
333.172	112.81
333.4	117.81
333.629	113.81
333.857	110.81
334.085	119.81
334.314	123.81
334.542	120.81
334.771	132.81
334.999	102.81
335.227	118.81
335.455	118.81
335.684	113.81
335.912	122.81
336.14	120.81
336.369	110.81
336.597	112.81
336.825	123.81
337.053	102.81
337.281	113.81
337.51	88.81
337.738	106.81
337.966	103.81
338.194	127.81
338.422	111.81
338.65	121.81
338.878	112.81
339.106	120.81
339.334	99.81
339.562	96.81
339.79	107.81
340.018	119.81
340.246	104.81
340.474	118.81
340.702	120.81
340.93	108.81
341.158	106.81
341.386	112.81
341.614	110.81
341.842	106.81
342.07	114.81
342.298	124.81
342.526	107.81
342.754	98.81
342.981	118.81
343.209	104.81
343.437	118.81
343.665	110.81
343.893	110.81
344.12	106.81
344.348	119.81
344.576	120.81
344.804	103.81
345.031	105.81
345.259	103.81
345.487	105.81
345.714	103.81
345.942	97.81
346.17	112.81
346.397	116.81
346.625	104.81
346.853	113.81
347.08	112.81
347.308	116.81
347.535	115.81
347.763	104.81
347.99	86.81
348.218	110.81
348.445	91.81
348.673	109.81
348.9	102.81
349.128	108.81
349.355	108.81
349.583	98.81
349.81	106.81
350.037	96.81
350.265	114.81
350.492	97.81
350.72	101.81
350.947	98.81
351.174	118.81
351.402	98.81
351.629	106.81
351.856	104.81
352.083	110.81
352.311	110.81
352.538	107.81
352.765	115.81
352.992	103.81
353.22	113.81
353.447	107.81
353.674	98.81
353.901	109.81
354.128	110.81
354.355	108.81
354.583	112.81
354.81	97.81
355.037	117.81
355.264	94.81
355.491	98.81
355.718	92.81
355.945	102.81
356.172	113.81
356.399	107.81
356.626	106.81
356.853	121.81
357.08	104.81
357.307	97.81
357.534	94.81
357.761	120.81
357.988	90.81
358.215	120.81
358.441	107.81
358.668	107.81
358.895	110.81
359.122	97.81
359.349	100.81
359.576	114.81
359.802	121.81
360.029	101.81
360.256	103.81
360.483	103.81
360.709	102.81
360.936	111.81
361.163	88.81
361.39	103.81
361.616	108.81
361.843	102.81
362.07	103.81
362.296	115.81
362.523	112.81
362.749	105.81
362.976	94.81
363.203	102.81
363.429	102.81
363.656	113.81
363.882	97.81
364.109	117.81
364.335	104.81
364.562	87.81
364.788	104.81
365.015	105.81
365.241	120.81
365.468	110.81
365.694	96.81
365.92	107.81
366.147	106.81
366.373	104.81
366.599	113.81
366.826	101.81
367.052	107.81
367.278	101.81
367.505	105.81
367.731	97.81
367.957	109.81
368.184	113.81
368.41	120.81
368.636	119.81
368.862	116.81
369.089	116.81
369.315	97.81
369.541	113.81
369.767	113.81
369.993	114.81
370.219	87.81
370.445	95.81
370.672	97.81
370.898	106.81
371.124	92.81
371.35	107.81
371.576	115.81
371.802	85.81
372.028	101.81
372.254	98.81
372.48	119.81
372.706	116.81
372.932	102.81
373.158	98.81
373.384	114.81
373.61	100.81
373.835	97.81
374.061	114.81
374.287	107.81
374.513	110.81
374.739	103.81
374.965	115.81
375.191	119.81
375.416	103.81
375.642	115.81
375.868	108.81
376.094	102.81
376.319	105.81
376.545	117.81
376.771	114.81
376.997	95.81
377.222	106.81
377.448	103.81
377.674	127.81
377.899	123.81
378.125	102.81
378.35	110.81
378.576	104.81
378.802	121.81
379.027	116.81
379.253	108.81
379.478	115.81
379.704	102.81
379.929	113.81
380.155	119.81
380.38	97.81
380.606	113.81
380.831	104.81
381.057	109.81
381.282	104.81
381.507	100.81
381.733	121.81
381.958	107.81
382.184	106.81
382.409	100.81
382.634	119.81
382.86	106.81
383.085	107.81
383.31	109.81
383.535	110.81
383.761	110.81
383.986	127.81
384.211	101.81
384.436	104.81
384.662	108.81
384.887	97.81
385.112	121.81
385.337	119.81
385.562	111.81
385.787	111.81
386.013	121.81
386.238	112.81
386.463	113.81
386.688	107.81
386.913	120.81
387.138	119.81
387.363	126.81
387.588	114.81
387.813	106.81
388.038	108.81
388.263	127.81
388.488	114.81
388.713	115.81
388.938	112.81
389.163	116.81
389.387	108.81
389.612	103.81
389.837	103.81
390.062	117.81
390.287	120.81
390.512	112.81
390.736	126.81
390.961	116.81
391.186	126.81
391.411	139.81
391.636	122.81
391.86	107.81
392.085	105.81
392.31	103.81
392.534	111.81
392.759	130.81
392.984	103.81
393.208	123.81
393.433	110.81
393.658	125.81
393.882	114.81
394.107	100.81
394.331	112.81
394.556	126.81
394.78	99.81
395.005	106.81
395.229	106.81
395.454	125.81
395.678	122.81
395.903	123.81
396.127	129.81
396.352	135.81
396.576	114.81
396.801	103.81
397.025	103.81
397.249	94.81
397.474	121.81
397.698	116.81
397.922	124.81
398.147	120.81
398.371	110.81
398.595	121.81
398.82	125.81
399.044	119.81
399.268	131.81
399.492	118.81
399.717	128.81
399.941	131.81
400.165	127.81
400.389	130.81
400.613	137.81
400.837	143.81
401.062	114.81
401.286	122.81
401.51	123.81
401.734	119.81
401.958	124.81
402.182	128.81
402.406	112.81
402.63	106.81
402.854	120.81
403.078	122.81
403.302	121.81
403.526	123.81
403.75	125.81
403.974	125.81
404.198	118.81
404.422	120.81
404.645	126.81
404.869	130.81
405.093	137.81
405.317	128.81
405.541	122.81
405.765	131.81
405.988	123.81
406.212	138.81
406.436	126.81
406.66	125.81
406.883	117.81
407.107	132.81
407.331	128.81
407.555	132.81
407.778	128.81
408.002	127.81
408.226	132.81
408.449	128.81
408.673	130.81
408.896	145.81
409.12	130.81
409.344	126.81
409.567	133.81
409.791	127.81
410.014	121.81
410.238	104.81
410.461	130.81
410.685	115.81
410.908	122.81
411.132	134.81
411.355	129.81
411.578	122.81
411.802	126.81
412.025	134.81
412.249	127.81
412.472	138.81
412.695	128.81
412.919	122.81
413.142	111.81
413.365	125.81
413.589	114.81
413.812	132.81
414.035	115.81
414.258	122.81
414.482	124.81
414.705	121.81
414.928	129.81
415.151	123.81
415.374	123.81
415.597	129.81
415.821	112.81
416.044	117.81
416.267	120.81
416.49	122.81
416.713	127.81
416.936	122.81
417.159	135.81
417.382	132.81
417.605	122.81
417.828	131.81
418.051	124.81
418.274	119.81
418.497	116.81
418.72	125.81
418.943	129.81
419.166	123.81
419.389	123.81
419.611	119.81
419.834	123.81
420.057	119.81
420.28	123.81
420.503	131.81
420.726	124.81
420.948	122.81
421.171	127.81
421.394	126.81
421.617	127.81
421.839	122.81
422.062	124.81
422.285	126.81
422.507	130.81
422.73	132.81
422.953	130.81
423.175	126.81
423.398	109.81
423.621	152.81
423.843	119.81
424.066	126.81
424.288	136.81
424.511	127.81
424.733	137.81
424.956	130.81
425.178	145.81
425.401	136.81
425.623	122.81
425.846	133.81
426.068	119.81
426.291	135.81
426.513	125.81
426.735	122.81
426.958	122.81
427.18	137.81
427.402	132.81
427.625	137.81
427.847	123.81
428.069	133.81
428.292	120.81
428.514	114.81
428.736	125.81
428.958	111.81
429.181	113.81
429.403	118.81
429.625	127.81
429.847	131.81
430.069	127.81
430.292	151.81
430.514	141.81
430.736	127.81
430.958	129.81
431.18	132.81
431.402	127.81
431.624	119.81
431.846	119.81
432.068	126.81
432.29	106.81
432.512	115.81
432.734	122.81
432.956	116.81
433.178	131.81
433.4	123.81
433.622	137.81
433.844	120.81
434.066	142.81
434.287	116.81
434.509	119.81
434.731	116.81
434.953	117.81
435.175	128.81
435.397	128.81
435.618	117.81
435.84	126.81
436.062	151.81
436.284	129.81
436.505	133.81
436.727	115.81
436.949	122.81
437.17	125.81
437.392	114.81
437.614	119.81
437.835	118.81
438.057	140.81
438.278	136.81
438.5	134.81
438.721	121.81
438.943	124.81
439.165	122.81
439.386	117.81
439.608	102.81
439.829	121.81
440.05	112.81
440.272	128.81
440.493	111.81
440.715	120.81
440.936	107.81
441.158	114.81
441.379	127.81
441.6	132.81
441.822	118.81
442.043	129.81
442.264	127.81
442.486	137.81
442.707	118.81
442.928	120.81
443.149	133.81
443.371	114.81
443.592	138.81
443.813	132.81
444.034	136.81
444.255	123.81
444.476	143.81
444.698	135.81
444.919	141.81
445.14	259.81
445.361	195.81
445.582	133.81
445.803	133.81
446.024	137.81
446.245	141.81
446.466	132.81
446.687	128.81
446.908	137.81
447.129	121.81
447.35	126.81
447.571	128.81
447.792	122.81
448.013	129.81
448.234	117.81
448.455	113.81
448.675	123.81
448.896	117.81
449.117	112.81
449.338	130.81
449.559	126.81
449.779	138.81
450	125.81
450.221	122.81
450.442	112.81
450.662	113.81
450.883	124.81
451.104	122.81
451.324	109.81
451.545	114.81
451.766	120.81
451.986	124.81
452.207	111.81
452.428	122.81
452.648	117.81
452.869	115.81
453.089	114.81
453.31	118.81
453.53	115.81
453.751	110.81
453.971	111.81
454.192	106.81
454.412	113.81
454.633	100.81
454.853	115.81
455.073	118.81
455.294	121.81
455.514	139.81
455.734	118.81
455.955	104.81
456.175	97.81
456.395	119.81
456.616	122.81
456.836	114.81
457.056	113.81
457.276	115.81
457.497	107.81
457.717	112.81
457.937	122.81
458.157	103.81
458.377	122.81
458.598	94.81
458.818	122.81
459.038	135.81
459.258	123.81
459.478	128.81
459.698	114.81
459.918	126.81
460.138	119.81
460.358	121.81
460.578	112.81
460.798	127.81
461.018	122.81
461.238	127.81
461.458	119.81
461.678	118.81
461.898	123.81
462.118	141.81
462.338	120.81
462.558	119.81
462.777	130.81
462.997	132.81
463.217	134.81
463.437	139.81
463.657	131.81
463.876	135.81
464.096	123.81
464.316	124.81
464.536	131.81
464.755	110.81
464.975	125.81
465.195	121.81
465.414	132.81
465.634	116.81
465.854	122.81
466.073	116.81
466.293	101.81
466.512	120.81
466.732	130.81
466.951	118.81
467.171	106.81
467.391	120.81
467.61	112.81
467.829	122.81
468.049	128.81
468.268	123.81
468.488	133.81
468.707	112.81
468.927	116.81
469.146	118.81
469.365	108.81
469.585	115.81
469.804	116.81
470.023	111.81
470.243	122.81
470.462	127.81
470.681	118.81
470.901	117.81
471.12	112.81
471.339	124.81
471.558	128.81
471.777	115.81
471.997	123.81
472.216	112.81
472.435	121.81
472.654	128.81
472.873	121.81
473.092	102.81
473.311	109.81
473.53	113.81
473.749	122.81
473.968	112.81
474.187	118.81
474.406	120.81
474.625	128.81
474.844	111.81
475.063	127.81
475.282	126.81
475.501	113.81
475.72	132.81
475.939	130.81
476.158	119.81
476.377	114.81
476.596	130.81
476.814	124.81
477.033	138.81
477.252	120.81
477.471	113.81
477.69	130.81
477.908	128.81
478.127	128.81
478.346	128.81
478.564	138.81
478.783	128.81
479.002	124.81
479.22	124.81
479.439	116.81
479.658	118.81
479.876	130.81
480.095	122.81
480.313	135.81
480.532	131.81
480.751	137.81
480.969	132.81
481.188	119.81
481.406	135.81
481.624	122.81
481.843	122.81
482.061	117.81
482.28	132.81
482.498	113.81
482.717	123.81
482.935	131.81
483.153	127.81
483.372	135.81
483.59	122.81
483.808	122.81
484.027	137.81
484.245	130.81
484.463	135.81
484.681	134.81
484.9	121.81
485.118	122.81
485.336	127.81
485.554	131.81
485.772	117.81
485.99	117.81
486.209	116.81
486.427	127.81
486.645	129.81
486.863	151.81
487.081	125.81
487.299	140.81
487.517	124.81
487.735	138.81
487.953	127.81
488.171	132.81
488.389	141.81
488.607	135.81
488.825	122.81
489.043	121.81
489.261	129.81
489.479	134.81
489.696	138.81
489.914	135.81
490.132	148.81
490.35	138.81
490.568	121.81
490.786	132.81
491.003	136.81
491.221	129.81
491.439	123.81
491.657	130.81
491.874	135.81
492.092	130.81
492.31	127.81
492.527	144.81
492.745	147.81
492.963	140.81
493.18	133.81
493.398	141.81
493.615	133.81
493.833	128.81
494.05	160.81
494.268	139.81
494.485	138.81
494.703	144.81
494.92	139.81
495.138	132.81
495.355	142.81
495.573	140.81
495.79	141.81
496.008	132.81
496.225	133.81
496.442	130.81
496.66	137.81
496.877	138.81
497.094	152.81
497.312	137.81
497.529	133.81
497.746	150.81
497.963	135.81
498.181	142.81
498.398	154.81
498.615	146.81
498.832	159.81
499.049	144.81
499.267	169.81
499.484	162.81
499.701	179.81
499.918	176.81
500.135	197.81
500.352	202.81
500.569	215.81
500.786	211.81
501.003	201.81
501.22	198.81
501.437	186.81
501.654	172.81
501.871	146.81
502.088	151.81
502.305	160.81
502.522	155.81
502.739	140.81
502.956	160.81
503.172	145.81
503.389	153.81
503.606	138.81
503.823	141.81
504.04	149.81
504.256	124.81
504.473	122.81
504.69	132.81
504.907	151.81
505.123	144.81
505.34	123.81
505.557	125.81
505.773	138.81
505.99	123.81
506.207	130.81
506.423	132.81
506.64	115.81
