Data from 1968.PennyLincolnUp.Lamp.En5.5.200Scan.071719.P1._HRD10591_14-50-49-969.txt Node
Date: Thu Jul 18 14:50:49 EDT 2019
User: cochatt
Spectrometer: HR+D1059
Trigger mode: 1
Integration Time (sec): 1.000000E-1
Scans to average: 1
Electric dark correction enabled: true
Nonlinearity correction enabled: false
Boxcar width: 0
XAxis mode: Wavelengths
Number of Pixels in Spectrum: 2048
>>>>>Begin Spectral Data<<<<<
223.165	-19.69
223.4	-19.69
223.635	-19.69
223.869	-22.69
224.104	-20.69
224.338	-3.69
224.573	-7.69
224.808	-17.69
225.042	-8.69
225.277	-12.69
225.511	-0.69
225.746	8.31
225.98	6.31
226.215	9.31
226.449	16.31
226.683	27.31
226.918	19.31
227.152	27.31
227.387	40.31
227.621	46.31
227.856	50.31
228.09	49.31
228.324	52.31
228.559	56.31
228.793	62.31
229.027	62.31
229.262	75.31
229.496	75.31
229.73	69.31
229.964	83.31
230.199	79.31
230.433	77.31
230.667	84.31
230.901	62.31
231.136	74.31
231.37	84.31
231.604	73.31
231.838	79.31
232.072	90.31
232.306	86.31
232.541	78.31
232.775	102.31
233.009	83.31
233.243	83.31
233.477	96.31
233.711	94.31
233.945	89.31
234.179	83.31
234.413	90.31
234.647	70.31
234.881	96.31
235.115	76.31
235.349	84.31
235.583	87.31
235.817	90.31
236.051	86.31
236.285	93.31
236.519	96.31
236.753	98.31
236.987	93.31
237.221	78.31
237.455	100.31
237.689	82.31
237.922	92.31
238.156	93.31
238.39	75.31
238.624	72.31
238.858	91.31
239.091	74.31
239.325	74.31
239.559	68.31
239.793	68.31
240.027	74.31
240.26	77.31
240.494	83.31
240.728	84.31
240.961	69.31
241.195	84.31
241.429	72.31
241.662	70.31
241.896	92.31
242.13	93.31
242.363	85.31
242.597	81.31
242.83	94.31
243.064	79.31
243.298	80.31
243.531	91.31
243.765	83.31
243.998	74.31
244.232	83.31
244.465	93.31
244.699	89.31
244.932	75.31
245.166	79.31
245.399	91.31
245.633	83.31
245.866	90.31
246.099	88.31
246.333	80.31
246.566	80.31
246.8	86.31
247.033	80.31
247.266	89.31
247.5	96.31
247.733	78.31
247.966	78.31
248.2	90.31
248.433	80.31
248.666	81.31
248.899	94.31
249.133	97.31
249.366	88.31
249.599	89.31
249.832	89.31
250.066	97.31
250.299	77.31
250.532	98.31
250.765	84.31
250.998	93.31
251.231	85.31
251.465	89.31
251.698	93.31
251.931	93.31
252.164	88.31
252.397	85.31
252.63	72.31
252.863	94.31
253.096	79.31
253.329	100.31
253.562	97.31
253.795	88.31
254.028	83.31
254.261	98.31
254.494	78.31
254.727	93.31
254.96	87.31
255.193	90.31
255.426	96.31
255.659	100.31
255.892	98.31
256.124	80.31
256.357	99.31
256.59	96.31
256.823	105.31
257.056	99.31
257.289	100.31
257.521	99.31
257.754	89.31
257.987	89.31
258.22	114.31
258.452	76.31
258.685	82.31
258.918	74.31
259.151	92.31
259.383	86.31
259.616	96.31
259.849	94.31
260.081	91.31
260.314	85.31
260.547	84.31
260.779	91.31
261.012	91.31
261.244	101.31
261.477	106.31
261.71	71.31
261.942	103.31
262.175	87.31
262.407	89.31
262.64	87.31
262.872	96.31
263.105	94.31
263.337	103.31
263.57	102.31
263.802	91.31
264.035	93.31
264.267	82.31
264.499	84.31
264.732	102.31
264.964	94.31
265.197	85.31
265.429	105.31
265.661	105.31
265.894	76.31
266.126	81.31
266.358	90.31
266.591	95.31
266.823	96.31
267.055	87.31
267.287	108.31
267.52	94.31
267.752	100.31
267.984	87.31
268.216	79.31
268.448	90.31
268.681	103.31
268.913	99.31
269.145	95.31
269.377	107.31
269.609	94.31
269.841	88.31
270.073	114.31
270.306	91.31
270.538	105.31
270.77	93.31
271.002	100.31
271.234	92.31
271.466	93.31
271.698	99.31
271.93	87.31
272.162	83.31
272.394	91.31
272.626	92.31
272.858	95.31
273.09	95.31
273.322	93.31
273.553	91.31
273.785	88.31
274.017	94.31
274.249	107.31
274.481	92.31
274.713	83.31
274.945	97.31
275.176	90.31
275.408	102.31
275.64	89.31
275.872	94.31
276.104	100.31
276.335	94.31
276.567	81.31
276.799	103.31
277.031	118.31
277.262	110.31
277.494	85.31
277.726	97.31
277.957	94.31
278.189	105.31
278.421	109.31
278.652	99.31
278.884	105.31
279.115	95.31
279.347	101.31
279.579	122.31
279.81	105.31
280.042	100.31
280.273	107.31
280.505	104.31
280.736	107.31
280.968	109.31
281.199	109.31
281.431	90.31
281.662	99.31
281.894	111.31
282.125	94.31
282.356	91.31
282.588	102.31
282.819	96.31
283.051	107.31
283.282	104.31
283.513	111.31
283.745	107.31
283.976	120.31
284.207	96.31
284.439	107.31
284.67	123.31
284.901	98.31
285.132	111.31
285.364	109.31
285.595	97.31
285.826	98.31
286.057	103.31
286.288	110.31
286.52	108.31
286.751	98.31
286.982	90.31
287.213	100.31
287.444	98.31
287.675	107.31
287.906	108.31
288.138	94.31
288.369	102.31
288.6	105.31
288.831	95.31
289.062	101.31
289.293	109.31
289.524	107.31
289.755	109.31
289.986	102.31
290.217	108.31
290.448	102.31
290.679	97.31
290.91	88.31
291.141	97.31
291.371	102.31
291.602	105.31
291.833	107.31
292.064	104.31
292.295	110.31
292.526	103.31
292.757	114.31
292.987	102.31
293.218	97.31
293.449	107.31
293.68	96.31
293.91	97.31
294.141	109.31
294.372	114.31
294.603	98.31
294.833	101.31
295.064	106.31
295.295	90.31
295.525	102.31
295.756	102.31
295.987	100.31
296.217	97.31
296.448	114.31
296.679	112.31
296.909	94.31
297.14	108.31
297.37	100.31
297.601	96.31
297.831	114.31
298.062	94.31
298.292	104.31
298.523	94.31
298.753	98.31
298.984	104.31
299.214	104.31
299.445	91.31
299.675	99.31
299.905	102.31
300.136	104.31
300.366	112.31
300.597	103.31
300.827	97.31
301.057	102.31
301.288	106.31
301.518	101.31
301.748	116.31
301.979	105.31
302.209	109.31
302.439	102.31
302.669	108.31
302.9	101.31
303.13	102.31
303.36	95.31
303.59	116.31
303.82	115.31
304.051	90.31
304.281	99.31
304.511	104.31
304.741	98.31
304.971	100.31
305.201	112.31
305.431	104.31
305.661	118.31
305.891	103.31
306.121	93.31
306.352	113.31
306.582	102.31
306.812	110.31
307.042	109.31
307.272	122.31
307.502	106.31
307.731	103.31
307.961	84.31
308.191	109.31
308.421	118.31
308.651	120.31
308.881	110.31
309.111	109.31
309.341	99.31
309.571	108.31
309.8	110.31
310.03	105.31
310.26	112.31
310.49	116.31
310.72	103.31
310.949	116.31
311.179	110.31
311.409	99.31
311.639	98.31
311.868	125.31
312.098	86.31
312.328	107.31
312.557	117.31
312.787	107.31
313.017	97.31
313.246	106.31
313.476	108.31
313.706	107.31
313.935	118.31
314.165	101.31
314.394	119.31
314.624	112.31
314.853	94.31
315.083	109.31
315.312	101.31
315.542	117.31
315.771	121.31
316.001	127.31
316.23	120.31
316.46	97.31
316.689	101.31
316.919	114.31
317.148	107.31
317.377	116.31
317.607	99.31
317.836	103.31
318.065	102.31
318.295	115.31
318.524	111.31
318.753	111.31
318.983	102.31
319.212	121.31
319.441	98.31
319.67	107.31
319.9	114.31
320.129	110.31
320.358	115.31
320.587	103.31
320.816	92.31
321.046	103.31
321.275	122.31
321.504	118.31
321.733	109.31
321.962	111.31
322.191	110.31
322.42	114.31
322.649	115.31
322.878	116.31
323.108	109.31
323.337	102.31
323.566	108.31
323.795	122.31
324.024	121.31
324.253	109.31
324.482	134.31
324.71	152.31
324.939	194.31
325.168	150.31
325.397	125.31
325.626	122.31
325.855	111.31
326.084	120.31
326.313	121.31
326.542	106.31
326.77	105.31
326.999	118.31
327.228	128.31
327.457	138.31
327.686	153.31
327.914	127.31
328.143	114.31
328.372	120.31
328.6	123.31
328.829	110.31
329.058	113.31
329.287	126.31
329.515	113.31
329.744	111.31
329.972	100.31
330.201	118.31
330.43	133.31
330.658	115.31
330.887	124.31
331.115	115.31
331.344	116.31
331.572	108.31
331.801	118.31
332.03	122.31
332.258	119.31
332.486	120.31
332.715	117.31
332.943	116.31
333.172	124.31
333.4	115.31
333.629	111.31
333.857	128.31
334.085	132.31
334.314	118.31
334.542	102.31
334.771	121.31
334.999	126.31
335.227	134.31
335.455	124.31
335.684	106.31
335.912	110.31
336.14	120.31
336.369	109.31
336.597	119.31
336.825	112.31
337.053	99.31
337.281	124.31
337.51	113.31
337.738	111.31
337.966	108.31
338.194	91.31
338.422	95.31
338.65	125.31
338.878	106.31
339.106	120.31
339.334	113.31
339.562	114.31
339.79	115.31
340.018	114.31
340.246	121.31
340.474	116.31
340.702	128.31
340.93	124.31
341.158	122.31
341.386	120.31
341.614	119.31
341.842	120.31
342.07	115.31
342.298	115.31
342.526	114.31
342.754	108.31
342.981	124.31
343.209	130.31
343.437	107.31
343.665	114.31
343.893	120.31
344.12	123.31
344.348	108.31
344.576	116.31
344.804	108.31
345.031	118.31
345.259	118.31
345.487	124.31
345.714	122.31
345.942	102.31
346.17	91.31
346.397	104.31
346.625	115.31
346.853	95.31
347.08	111.31
347.308	117.31
347.535	114.31
347.763	120.31
347.99	115.31
348.218	121.31
348.445	110.31
348.673	110.31
348.9	104.31
349.128	109.31
349.355	112.31
349.583	115.31
349.81	116.31
350.037	100.31
350.265	115.31
350.492	104.31
350.72	99.31
350.947	120.31
351.174	110.31
351.402	103.31
351.629	110.31
351.856	115.31
352.083	107.31
352.311	114.31
352.538	106.31
352.765	103.31
352.992	128.31
353.22	110.31
353.447	118.31
353.674	119.31
353.901	118.31
354.128	107.31
354.355	108.31
354.583	115.31
354.81	120.31
355.037	123.31
355.264	119.31
355.491	110.31
355.718	128.31
355.945	115.31
356.172	130.31
356.399	124.31
356.626	112.31
356.853	116.31
357.08	116.31
357.307	116.31
357.534	110.31
357.761	107.31
357.988	119.31
358.215	111.31
358.441	108.31
358.668	100.31
358.895	111.31
359.122	108.31
359.349	108.31
359.576	118.31
359.802	95.31
360.029	108.31
360.256	120.31
360.483	122.31
360.709	113.31
360.936	127.31
361.163	119.31
361.39	107.31
361.616	111.31
361.843	99.31
362.07	107.31
362.296	111.31
362.523	118.31
362.749	105.31
362.976	117.31
363.203	117.31
363.429	114.31
363.656	114.31
363.882	101.31
364.109	104.31
364.335	122.31
364.562	112.31
364.788	102.31
365.015	118.31
365.241	105.31
365.468	118.31
365.694	128.31
365.92	118.31
366.147	108.31
366.373	103.31
366.599	95.31
366.826	113.31
367.052	96.31
367.278	106.31
367.505	101.31
367.731	110.31
367.957	120.31
368.184	117.31
368.41	114.31
368.636	116.31
368.862	108.31
369.089	105.31
369.315	108.31
369.541	121.31
369.767	114.31
369.993	112.31
370.219	105.31
370.445	97.31
370.672	112.31
370.898	107.31
371.124	116.31
371.35	130.31
371.576	113.31
371.802	123.31
372.028	122.31
372.254	122.31
372.48	116.31
372.706	116.31
372.932	98.31
373.158	103.31
373.384	116.31
373.61	106.31
373.835	121.31
374.061	102.31
374.287	120.31
374.513	95.31
374.739	99.31
374.965	114.31
375.191	120.31
375.416	117.31
375.642	117.31
375.868	131.31
376.094	110.31
376.319	114.31
376.545	111.31
376.771	114.31
376.997	122.31
377.222	115.31
377.448	114.31
377.674	111.31
377.899	103.31
378.125	119.31
378.35	124.31
378.576	117.31
378.802	122.31
379.027	108.31
379.253	122.31
379.478	100.31
379.704	105.31
379.929	116.31
380.155	118.31
380.38	113.31
380.606	109.31
380.831	124.31
381.057	130.31
381.282	116.31
381.507	110.31
381.733	108.31
381.958	118.31
382.184	111.31
382.409	123.31
382.634	119.31
382.86	106.31
383.085	107.31
383.31	110.31
383.535	117.31
383.761	128.31
383.986	118.31
384.211	108.31
384.436	104.31
384.662	95.31
384.887	110.31
385.112	108.31
385.337	107.31
385.562	118.31
385.787	118.31
386.013	129.31
386.238	115.31
386.463	118.31
386.688	127.31
386.913	128.31
387.138	132.31
387.363	115.31
387.588	126.31
387.813	111.31
388.038	123.31
388.263	108.31
388.488	128.31
388.713	132.31
388.938	115.31
389.163	107.31
389.387	110.31
389.612	128.31
389.837	121.31
390.062	120.31
390.287	114.31
390.512	115.31
390.736	126.31
390.961	108.31
391.186	109.31
391.411	114.31
391.636	113.31
391.86	125.31
392.085	128.31
392.31	127.31
392.534	114.31
392.759	126.31
392.984	124.31
393.208	120.31
393.433	117.31
393.658	127.31
393.882	119.31
394.107	111.31
394.331	113.31
394.556	119.31
394.78	124.31
395.005	122.31
395.229	124.31
395.454	124.31
395.678	142.31
395.903	138.31
396.127	124.31
396.352	130.31
396.576	119.31
396.801	117.31
397.025	126.31
397.249	129.31
397.474	123.31
397.698	125.31
397.922	134.31
398.147	108.31
398.371	126.31
398.595	130.31
398.82	120.31
399.044	130.31
399.268	127.31
399.492	132.31
399.717	138.31
399.941	140.31
400.165	136.31
400.389	140.31
400.613	130.31
400.837	137.31
401.062	126.31
401.286	128.31
401.51	145.31
401.734	138.31
401.958	130.31
402.182	131.31
402.406	132.31
402.63	120.31
402.854	125.31
403.078	131.31
403.302	123.31
403.526	129.31
403.75	136.31
403.974	131.31
404.198	143.31
404.422	131.31
404.645	144.31
404.869	142.31
405.093	142.31
405.317	145.31
405.541	144.31
405.765	139.31
405.988	134.31
406.212	146.31
406.436	125.31
406.66	137.31
406.883	136.31
407.107	146.31
407.331	136.31
407.555	142.31
407.778	160.31
408.002	128.31
408.226	132.31
408.449	135.31
408.673	140.31
408.896	134.31
409.12	134.31
409.344	148.31
409.567	127.31
409.791	136.31
410.014	136.31
410.238	131.31
410.461	136.31
410.685	117.31
410.908	119.31
411.132	139.31
411.355	123.31
411.578	134.31
411.802	130.31
412.025	143.31
412.249	131.31
412.472	122.31
412.695	141.31
412.919	120.31
413.142	134.31
413.365	126.31
413.589	136.31
413.812	118.31
414.035	138.31
414.258	128.31
414.482	128.31
414.705	121.31
414.928	132.31
415.151	116.31
415.374	130.31
415.597	128.31
415.821	135.31
416.044	133.31
416.267	135.31
416.49	132.31
416.713	136.31
416.936	135.31
417.159	132.31
417.382	124.31
417.605	133.31
417.828	118.31
418.051	139.31
418.274	122.31
418.497	119.31
418.72	126.31
418.943	120.31
419.166	122.31
419.389	143.31
419.611	142.31
419.834	123.31
420.057	118.31
420.28	120.31
420.503	120.31
420.726	140.31
420.948	126.31
421.171	130.31
421.394	140.31
421.617	139.31
421.839	134.31
422.062	124.31
422.285	136.31
422.507	139.31
422.73	134.31
422.953	140.31
423.175	124.31
423.398	123.31
423.621	135.31
423.843	128.31
424.066	134.31
424.288	132.31
424.511	136.31
424.733	143.31
424.956	145.31
425.178	144.31
425.401	126.31
425.623	150.31
425.846	151.31
426.068	137.31
426.291	124.31
426.513	119.31
426.735	121.31
426.958	126.31
427.18	139.31
427.402	157.31
427.625	136.31
427.847	145.31
428.069	146.31
428.292	142.31
428.514	137.31
428.736	135.31
428.958	118.31
429.181	140.31
429.403	119.31
429.625	132.31
429.847	121.31
430.069	126.31
430.292	116.31
430.514	136.31
430.736	134.31
430.958	137.31
431.18	132.31
431.402	119.31
431.624	122.31
431.846	126.31
432.068	132.31
432.29	133.31
432.512	134.31
432.734	122.31
432.956	135.31
433.178	123.31
433.4	124.31
433.622	138.31
433.844	125.31
434.066	120.31
434.287	133.31
434.509	125.31
434.731	125.31
434.953	128.31
435.175	119.31
435.397	132.31
435.618	134.31
435.84	125.31
436.062	138.31
436.284	149.31
436.505	128.31
436.727	130.31
436.949	120.31
437.17	117.31
437.392	126.31
437.614	123.31
437.835	130.31
438.057	135.31
438.278	158.31
438.5	159.31
438.721	132.31
438.943	140.31
439.165	118.31
439.386	131.31
439.608	134.31
439.829	146.31
440.05	122.31
440.272	140.31
440.493	122.31
440.715	147.31
440.936	132.31
441.158	139.31
441.379	142.31
441.6	120.31
441.822	138.31
442.043	133.31
442.264	138.31
442.486	140.31
442.707	139.31
442.928	139.31
443.149	132.31
443.371	133.31
443.592	153.31
443.813	151.31
444.034	143.31
444.255	138.31
444.476	126.31
444.698	140.31
444.919	155.31
445.14	224.31
445.361	178.31
445.582	126.31
445.803	134.31
446.024	126.31
446.245	139.31
446.466	151.31
446.687	116.31
446.908	143.31
447.129	138.31
447.35	134.31
447.571	124.31
447.792	130.31
448.013	119.31
448.234	122.31
448.455	135.31
448.675	131.31
448.896	138.31
449.117	120.31
449.338	127.31
449.559	154.31
449.779	155.31
450	142.31
450.221	124.31
450.442	115.31
450.662	132.31
450.883	128.31
451.104	132.31
451.324	137.31
451.545	127.31
451.766	122.31
451.986	125.31
452.207	111.31
452.428	125.31
452.648	126.31
452.869	126.31
453.089	128.31
453.31	124.31
453.53	120.31
453.751	128.31
453.971	119.31
454.192	130.31
454.412	124.31
454.633	122.31
454.853	125.31
455.073	136.31
455.294	121.31
455.514	134.31
455.734	125.31
455.955	130.31
456.175	122.31
456.395	126.31
456.616	115.31
456.836	108.31
457.056	126.31
457.276	124.31
457.497	118.31
457.717	130.31
457.937	125.31
458.157	130.31
458.377	134.31
458.598	131.31
458.818	126.31
459.038	126.31
459.258	129.31
459.478	133.31
459.698	123.31
459.918	118.31
460.138	128.31
460.358	125.31
460.578	131.31
460.798	127.31
461.018	137.31
461.238	121.31
461.458	125.31
461.678	134.31
461.898	130.31
462.118	138.31
462.338	145.31
462.558	137.31
462.777	136.31
462.997	150.31
463.217	156.31
463.437	157.31
463.657	130.31
463.876	143.31
464.096	137.31
464.316	144.31
464.536	144.31
464.755	143.31
464.975	133.31
465.195	117.31
465.414	131.31
465.634	117.31
465.854	125.31
466.073	135.31
466.293	144.31
466.512	136.31
466.732	125.31
466.951	125.31
467.171	125.31
467.391	111.31
467.61	122.31
467.829	124.31
468.049	111.31
468.268	114.31
468.488	130.31
468.707	123.31
468.927	125.31
469.146	125.31
469.365	130.31
469.585	124.31
469.804	135.31
470.023	127.31
470.243	140.31
470.462	121.31
470.681	122.31
470.901	127.31
471.12	121.31
471.339	127.31
471.558	126.31
471.777	127.31
471.997	118.31
472.216	117.31
472.435	130.31
472.654	116.31
472.873	145.31
473.092	134.31
473.311	123.31
473.53	122.31
473.749	127.31
473.968	130.31
474.187	124.31
474.406	126.31
474.625	122.31
474.844	122.31
475.063	109.31
475.282	120.31
475.501	142.31
475.72	126.31
475.939	135.31
476.158	125.31
476.377	125.31
476.596	119.31
476.814	124.31
477.033	124.31
477.252	131.31
477.471	129.31
477.69	140.31
477.908	127.31
478.127	126.31
478.346	141.31
478.564	136.31
478.783	138.31
479.002	130.31
479.22	136.31
479.439	143.31
479.658	128.31
479.876	130.31
480.095	121.31
480.313	124.31
480.532	137.31
480.751	128.31
480.969	130.31
481.188	138.31
481.406	140.31
481.624	128.31
481.843	119.31
482.061	133.31
482.28	124.31
482.498	130.31
482.717	144.31
482.935	132.31
483.153	133.31
483.372	142.31
483.59	136.31
483.808	147.31
484.027	120.31
484.245	124.31
484.463	132.31
484.681	152.31
484.9	138.31
485.118	138.31
485.336	132.31
485.554	132.31
485.772	139.31
485.99	138.31
486.209	133.31
486.427	132.31
486.645	126.31
486.863	122.31
487.081	126.31
487.299	142.31
487.517	134.31
487.735	145.31
487.953	146.31
488.171	148.31
488.389	131.31
488.607	139.31
488.825	131.31
489.043	129.31
489.261	145.31
489.479	122.31
489.696	140.31
489.914	139.31
490.132	141.31
490.35	150.31
490.568	142.31
490.786	146.31
491.003	154.31
491.221	143.31
491.439	154.31
491.657	135.31
491.874	144.31
492.092	148.31
492.31	150.31
492.527	150.31
492.745	151.31
492.963	150.31
493.18	152.31
493.398	147.31
493.615	148.31
493.833	150.31
494.05	142.31
494.268	155.31
494.485	150.31
494.703	142.31
494.92	154.31
495.138	142.31
495.355	144.31
495.573	154.31
495.79	142.31
496.008	140.31
496.225	144.31
496.442	145.31
496.66	136.31
496.877	167.31
497.094	157.31
497.312	146.31
497.529	145.31
497.746	145.31
497.963	158.31
498.181	165.31
498.398	156.31
498.615	153.31
498.832	155.31
499.049	159.31
499.267	161.31
499.484	174.31
499.701	178.31
499.918	190.31
500.135	187.31
500.352	219.31
500.569	220.31
500.786	220.31
501.003	216.31
501.22	204.31
501.437	189.31
501.654	190.31
501.871	177.31
502.088	163.31
502.305	167.31
502.522	171.31
502.739	160.31
502.956	144.31
503.172	142.31
503.389	150.31
503.606	138.31
503.823	157.31
504.04	156.31
504.256	128.31
504.473	139.31
504.69	167.31
504.907	138.31
505.123	136.31
505.34	158.31
