Data from 1968.PennyLincolnUp.Lamp.En5.5.200Scan.071719.P1._HRD10591_14-49-58-970.txt Node
Date: Thu Jul 18 14:49:58 EDT 2019
User: cochatt
Spectrometer: HR+D1059
Trigger mode: 1
Integration Time (sec): 1.000000E-1
Scans to average: 1
Electric dark correction enabled: true
Nonlinearity correction enabled: false
Boxcar width: 0
XAxis mode: Wavelengths
Number of Pixels in Spectrum: 2048
>>>>>Begin Spectral Data<<<<<
223.165	-12.38
223.4	-12.38
223.635	-12.38
223.869	-22.38
224.104	-19.38
224.338	-14.38
224.573	-23.38
224.808	-18.38
225.042	4.62
225.277	-12.38
225.511	-5.38
225.746	11.62
225.98	16.62
226.215	4.62
226.449	9.62
226.683	21.62
226.918	28.62
227.152	30.62
227.387	29.62
227.621	28.62
227.856	50.62
228.09	48.62
228.324	41.62
228.559	59.62
228.793	60.62
229.027	61.62
229.262	58.62
229.496	67.62
229.73	68.62
229.964	75.62
230.199	80.62
230.433	69.62
230.667	81.62
230.901	79.62
231.136	80.62
231.37	74.62
231.604	78.62
231.838	83.62
232.072	83.62
232.306	89.62
232.541	91.62
232.775	89.62
233.009	87.62
233.243	88.62
233.477	85.62
233.711	93.62
233.945	89.62
234.179	98.62
234.413	84.62
234.647	79.62
234.881	81.62
235.115	97.62
235.349	92.62
235.583	73.62
235.817	75.62
236.051	85.62
236.285	87.62
236.519	78.62
236.753	82.62
236.987	74.62
237.221	95.62
237.455	86.62
237.689	71.62
237.922	85.62
238.156	72.62
238.39	84.62
238.624	74.62
238.858	68.62
239.091	68.62
239.325	65.62
239.559	75.62
239.793	86.62
240.027	94.62
240.26	101.62
240.494	78.62
240.728	76.62
240.961	71.62
241.195	75.62
241.429	77.62
241.662	78.62
241.896	67.62
242.13	88.62
242.363	85.62
242.597	68.62
242.83	88.62
243.064	97.62
243.298	83.62
243.531	75.62
243.765	86.62
243.998	76.62
244.232	88.62
244.465	92.62
244.699	80.62
244.932	71.62
245.166	73.62
245.399	77.62
245.633	80.62
245.866	72.62
246.099	78.62
246.333	78.62
246.566	74.62
246.8	81.62
247.033	87.62
247.266	81.62
247.5	77.62
247.733	90.62
247.966	92.62
248.2	77.62
248.433	93.62
248.666	64.62
248.899	84.62
249.133	79.62
249.366	91.62
249.599	77.62
249.832	81.62
250.066	70.62
250.299	77.62
250.532	78.62
250.765	72.62
250.998	93.62
251.231	89.62
251.465	89.62
251.698	84.62
251.931	94.62
252.164	76.62
252.397	93.62
252.63	97.62
252.863	88.62
253.096	90.62
253.329	94.62
253.562	89.62
253.795	99.62
254.028	92.62
254.261	84.62
254.494	97.62
254.727	85.62
254.96	85.62
255.193	90.62
255.426	99.62
255.659	84.62
255.892	75.62
256.124	86.62
256.357	101.62
256.59	94.62
256.823	80.62
257.056	87.62
257.289	83.62
257.521	86.62
257.754	81.62
257.987	87.62
258.22	94.62
258.452	102.62
258.685	83.62
258.918	87.62
259.151	92.62
259.383	98.62
259.616	86.62
259.849	86.62
260.081	90.62
260.314	85.62
260.547	107.62
260.779	76.62
261.012	82.62
261.244	84.62
261.477	92.62
261.71	88.62
261.942	80.62
262.175	76.62
262.407	101.62
262.64	82.62
262.872	89.62
263.105	92.62
263.337	86.62
263.57	82.62
263.802	93.62
264.035	97.62
264.267	101.62
264.499	89.62
264.732	94.62
264.964	102.62
265.197	104.62
265.429	89.62
265.661	101.62
265.894	96.62
266.126	99.62
266.358	101.62
266.591	97.62
266.823	80.62
267.055	100.62
267.287	89.62
267.52	94.62
267.752	94.62
267.984	89.62
268.216	93.62
268.448	108.62
268.681	94.62
268.913	84.62
269.145	92.62
269.377	91.62
269.609	105.62
269.841	88.62
270.073	106.62
270.306	93.62
270.538	102.62
270.77	89.62
271.002	100.62
271.234	94.62
271.466	92.62
271.698	100.62
271.93	88.62
272.162	98.62
272.394	106.62
272.626	96.62
272.858	92.62
273.09	104.62
273.322	91.62
273.553	101.62
273.785	96.62
274.017	101.62
274.249	96.62
274.481	90.62
274.713	95.62
274.945	104.62
275.176	100.62
275.408	91.62
275.64	92.62
275.872	91.62
276.104	86.62
276.335	100.62
276.567	96.62
276.799	101.62
277.031	93.62
277.262	107.62
277.494	108.62
277.726	106.62
277.957	92.62
278.189	97.62
278.421	97.62
278.652	95.62
278.884	98.62
279.115	101.62
279.347	89.62
279.579	82.62
279.81	83.62
280.042	94.62
280.273	91.62
280.505	105.62
280.736	95.62
280.968	106.62
281.199	104.62
281.431	85.62
281.662	89.62
281.894	103.62
282.125	100.62
282.356	101.62
282.588	87.62
282.819	99.62
283.051	110.62
283.282	93.62
283.513	96.62
283.745	98.62
283.976	113.62
284.207	85.62
284.439	118.62
284.67	103.62
284.901	96.62
285.132	97.62
285.364	94.62
285.595	100.62
285.826	114.62
286.057	109.62
286.288	94.62
286.52	108.62
286.751	106.62
286.982	98.62
287.213	112.62
287.444	90.62
287.675	106.62
287.906	112.62
288.138	112.62
288.369	100.62
288.6	106.62
288.831	106.62
289.062	117.62
289.293	95.62
289.524	97.62
289.755	114.62
289.986	100.62
290.217	104.62
290.448	87.62
290.679	81.62
290.91	97.62
291.141	99.62
291.371	105.62
291.602	103.62
291.833	109.62
292.064	108.62
292.295	102.62
292.526	102.62
292.757	98.62
292.987	98.62
293.218	96.62
293.449	105.62
293.68	106.62
293.91	119.62
294.141	93.62
294.372	104.62
294.603	97.62
294.833	87.62
295.064	109.62
295.295	97.62
295.525	99.62
295.756	105.62
295.987	85.62
296.217	101.62
296.448	124.62
296.679	96.62
296.909	82.62
297.14	92.62
297.37	114.62
297.601	105.62
297.831	109.62
298.062	116.62
298.292	108.62
298.523	106.62
298.753	91.62
298.984	103.62
299.214	101.62
299.445	95.62
299.675	96.62
299.905	93.62
300.136	107.62
300.366	89.62
300.597	117.62
300.827	86.62
301.057	103.62
301.288	112.62
301.518	103.62
301.748	113.62
301.979	115.62
302.209	100.62
302.439	105.62
302.669	106.62
302.9	104.62
303.13	101.62
303.36	95.62
303.59	104.62
303.82	100.62
304.051	104.62
304.281	119.62
304.511	102.62
304.741	86.62
304.971	100.62
305.201	118.62
305.431	101.62
305.661	107.62
305.891	99.62
306.121	100.62
306.352	108.62
306.582	96.62
306.812	96.62
307.042	116.62
307.272	102.62
307.502	105.62
307.731	104.62
307.961	119.62
308.191	101.62
308.421	102.62
308.651	121.62
308.881	101.62
309.111	116.62
309.341	96.62
309.571	107.62
309.8	105.62
310.03	104.62
310.26	99.62
310.49	98.62
310.72	120.62
310.949	107.62
311.179	102.62
311.409	103.62
311.639	102.62
311.868	108.62
312.098	98.62
312.328	101.62
312.557	98.62
312.787	109.62
313.017	105.62
313.246	93.62
313.476	115.62
313.706	108.62
313.935	107.62
314.165	105.62
314.394	108.62
314.624	114.62
314.853	104.62
315.083	100.62
315.312	97.62
315.542	115.62
315.771	102.62
316.001	112.62
316.23	113.62
316.46	105.62
316.689	104.62
316.919	99.62
317.148	109.62
317.377	115.62
317.607	124.62
317.836	94.62
318.065	94.62
318.295	124.62
318.524	92.62
318.753	103.62
318.983	108.62
319.212	119.62
319.441	108.62
319.67	111.62
319.9	100.62
320.129	105.62
320.358	80.62
320.587	96.62
320.816	103.62
321.046	125.62
321.275	104.62
321.504	105.62
321.733	99.62
321.962	104.62
322.191	105.62
322.42	116.62
322.649	112.62
322.878	116.62
323.108	120.62
323.337	113.62
323.566	117.62
323.795	122.62
324.024	116.62
324.253	134.62
324.482	125.62
324.71	161.62
324.939	173.62
325.168	165.62
325.397	116.62
325.626	104.62
325.855	118.62
326.084	103.62
326.313	105.62
326.542	106.62
326.77	105.62
326.999	116.62
327.228	125.62
327.457	148.62
327.686	164.62
327.914	152.62
328.143	121.62
328.372	112.62
328.6	105.62
328.829	117.62
329.058	126.62
329.287	122.62
329.515	120.62
329.744	123.62
329.972	114.62
330.201	105.62
330.43	99.62
330.658	114.62
330.887	120.62
331.115	117.62
331.344	110.62
331.572	102.62
331.801	126.62
332.03	114.62
332.258	121.62
332.486	117.62
332.715	103.62
332.943	106.62
333.172	123.62
333.4	119.62
333.629	123.62
333.857	118.62
334.085	106.62
334.314	118.62
334.542	128.62
334.771	129.62
334.999	126.62
335.227	126.62
335.455	115.62
335.684	125.62
335.912	122.62
336.14	108.62
336.369	103.62
336.597	123.62
336.825	112.62
337.053	121.62
337.281	128.62
337.51	117.62
337.738	99.62
337.966	120.62
338.194	120.62
338.422	112.62
338.65	97.62
338.878	114.62
339.106	109.62
339.334	110.62
339.562	93.62
339.79	115.62
340.018	96.62
340.246	116.62
340.474	100.62
340.702	97.62
340.93	115.62
341.158	102.62
341.386	100.62
341.614	110.62
341.842	110.62
342.07	117.62
342.298	118.62
342.526	113.62
342.754	95.62
342.981	117.62
343.209	107.62
343.437	114.62
343.665	111.62
343.893	126.62
344.12	123.62
344.348	113.62
344.576	115.62
344.804	110.62
345.031	123.62
345.259	110.62
345.487	120.62
345.714	111.62
345.942	117.62
346.17	108.62
346.397	124.62
346.625	94.62
346.853	121.62
347.08	117.62
347.308	113.62
347.535	115.62
347.763	132.62
347.99	121.62
348.218	120.62
348.445	119.62
348.673	121.62
348.9	119.62
349.128	122.62
349.355	86.62
349.583	116.62
349.81	119.62
350.037	122.62
350.265	114.62
350.492	102.62
350.72	110.62
350.947	106.62
351.174	109.62
351.402	115.62
351.629	102.62
351.856	106.62
352.083	108.62
352.311	107.62
352.538	114.62
352.765	96.62
352.992	114.62
353.22	92.62
353.447	101.62
353.674	111.62
353.901	121.62
354.128	99.62
354.355	107.62
354.583	112.62
354.81	117.62
355.037	115.62
355.264	106.62
355.491	95.62
355.718	114.62
355.945	106.62
356.172	116.62
356.399	116.62
356.626	109.62
356.853	113.62
357.08	117.62
357.307	111.62
357.534	96.62
357.761	123.62
357.988	128.62
358.215	114.62
358.441	105.62
358.668	106.62
358.895	115.62
359.122	125.62
359.349	113.62
359.576	120.62
359.802	88.62
360.029	118.62
360.256	106.62
360.483	106.62
360.709	109.62
360.936	105.62
361.163	102.62
361.39	105.62
361.616	99.62
361.843	107.62
362.07	108.62
362.296	125.62
362.523	120.62
362.749	109.62
362.976	104.62
363.203	118.62
363.429	109.62
363.656	115.62
363.882	106.62
364.109	112.62
364.335	115.62
364.562	106.62
364.788	108.62
365.015	108.62
365.241	94.62
365.468	116.62
365.694	107.62
365.92	114.62
366.147	98.62
366.373	103.62
366.599	120.62
366.826	90.62
367.052	102.62
367.278	103.62
367.505	112.62
367.731	106.62
367.957	101.62
368.184	107.62
368.41	124.62
368.636	112.62
368.862	104.62
369.089	109.62
369.315	114.62
369.541	107.62
369.767	105.62
369.993	103.62
370.219	117.62
370.445	120.62
370.672	112.62
370.898	100.62
371.124	110.62
371.35	113.62
371.576	102.62
371.802	105.62
372.028	113.62
372.254	121.62
372.48	104.62
372.706	106.62
372.932	118.62
373.158	112.62
373.384	109.62
373.61	116.62
373.835	120.62
374.061	109.62
374.287	128.62
374.513	120.62
374.739	119.62
374.965	132.62
375.191	121.62
375.416	124.62
375.642	105.62
375.868	114.62
376.094	118.62
376.319	105.62
376.545	109.62
376.771	121.62
376.997	121.62
377.222	99.62
377.448	101.62
377.674	112.62
377.899	112.62
378.125	97.62
378.35	112.62
378.576	107.62
378.802	108.62
379.027	116.62
379.253	100.62
379.478	122.62
379.704	99.62
379.929	109.62
380.155	115.62
380.38	103.62
380.606	119.62
380.831	122.62
381.057	123.62
381.282	100.62
381.507	112.62
381.733	115.62
381.958	92.62
382.184	107.62
382.409	105.62
382.634	123.62
382.86	116.62
383.085	115.62
383.31	115.62
383.535	123.62
383.761	110.62
383.986	132.62
384.211	104.62
384.436	128.62
384.662	120.62
384.887	109.62
385.112	92.62
385.337	112.62
385.562	124.62
385.787	118.62
386.013	122.62
386.238	136.62
386.463	118.62
386.688	109.62
386.913	100.62
387.138	125.62
387.363	122.62
387.588	125.62
387.813	119.62
388.038	120.62
388.263	114.62
388.488	121.62
388.713	98.62
388.938	115.62
389.163	115.62
389.387	123.62
389.612	119.62
389.837	104.62
390.062	118.62
390.287	121.62
390.512	126.62
390.736	118.62
390.961	116.62
391.186	119.62
391.411	130.62
391.636	127.62
391.86	113.62
392.085	120.62
392.31	126.62
392.534	132.62
392.759	122.62
392.984	119.62
393.208	122.62
393.433	117.62
393.658	120.62
393.882	122.62
394.107	122.62
394.331	123.62
394.556	115.62
394.78	126.62
395.005	115.62
395.229	98.62
395.454	118.62
395.678	120.62
395.903	128.62
396.127	110.62
396.352	121.62
396.576	118.62
396.801	129.62
397.025	123.62
397.249	116.62
397.474	122.62
397.698	121.62
397.922	127.62
398.147	136.62
398.371	133.62
398.595	122.62
398.82	134.62
399.044	123.62
399.268	138.62
399.492	148.62
399.717	140.62
399.941	146.62
400.165	133.62
400.389	148.62
400.613	148.62
400.837	121.62
401.062	134.62
401.286	112.62
401.51	136.62
401.734	142.62
401.958	123.62
402.182	117.62
402.406	130.62
402.63	129.62
402.854	117.62
403.078	118.62
403.302	129.62
403.526	143.62
403.75	120.62
403.974	126.62
404.198	139.62
404.422	140.62
404.645	116.62
404.869	122.62
405.093	140.62
405.317	123.62
405.541	134.62
405.765	122.62
405.988	139.62
406.212	138.62
406.436	129.62
406.66	134.62
406.883	139.62
407.107	142.62
407.331	137.62
407.555	131.62
407.778	147.62
408.002	140.62
408.226	130.62
408.449	139.62
408.673	140.62
408.896	119.62
409.12	124.62
409.344	123.62
409.567	118.62
409.791	124.62
410.014	136.62
410.238	123.62
410.461	119.62
410.685	125.62
410.908	130.62
411.132	143.62
411.355	120.62
411.578	134.62
411.802	133.62
412.025	134.62
412.249	123.62
412.472	117.62
412.695	134.62
412.919	128.62
413.142	125.62
413.365	123.62
413.589	132.62
413.812	121.62
414.035	122.62
414.258	127.62
414.482	126.62
414.705	140.62
414.928	146.62
415.151	121.62
415.374	134.62
415.597	141.62
415.821	125.62
416.044	118.62
416.267	135.62
416.49	119.62
416.713	133.62
416.936	124.62
417.159	129.62
417.382	125.62
417.605	131.62
417.828	118.62
418.051	122.62
418.274	135.62
418.497	136.62
418.72	122.62
418.943	121.62
419.166	137.62
419.389	126.62
419.611	133.62
419.834	136.62
420.057	126.62
420.28	114.62
420.503	125.62
420.726	132.62
420.948	128.62
421.171	132.62
421.394	143.62
421.617	129.62
421.839	120.62
422.062	134.62
422.285	117.62
422.507	124.62
422.73	138.62
422.953	135.62
423.175	143.62
423.398	122.62
423.621	132.62
423.843	137.62
424.066	123.62
424.288	128.62
424.511	143.62
424.733	123.62
424.956	127.62
425.178	142.62
425.401	137.62
425.623	137.62
425.846	139.62
426.068	126.62
426.291	128.62
426.513	132.62
426.735	130.62
426.958	127.62
427.18	135.62
427.402	141.62
427.625	129.62
427.847	136.62
428.069	126.62
428.292	127.62
428.514	124.62
428.736	136.62
428.958	133.62
429.181	129.62
429.403	121.62
429.625	116.62
429.847	128.62
430.069	146.62
430.292	132.62
430.514	130.62
430.736	120.62
430.958	121.62
431.18	122.62
431.402	125.62
431.624	131.62
431.846	109.62
432.068	116.62
432.29	118.62
432.512	132.62
432.734	120.62
432.956	128.62
433.178	125.62
433.4	120.62
433.622	100.62
433.844	128.62
434.066	127.62
434.287	121.62
434.509	121.62
434.731	139.62
434.953	136.62
435.175	130.62
435.397	126.62
435.618	108.62
435.84	130.62
436.062	136.62
436.284	133.62
436.505	127.62
436.727	133.62
436.949	120.62
437.17	134.62
437.392	126.62
437.614	121.62
437.835	115.62
438.057	124.62
438.278	117.62
438.5	136.62
438.721	144.62
438.943	138.62
439.165	130.62
439.386	118.62
439.608	134.62
439.829	121.62
440.05	122.62
440.272	137.62
440.493	123.62
440.715	134.62
440.936	128.62
441.158	129.62
441.379	146.62
441.6	131.62
441.822	125.62
442.043	140.62
442.264	139.62
442.486	136.62
442.707	125.62
442.928	128.62
443.149	119.62
443.371	130.62
443.592	134.62
443.813	125.62
444.034	147.62
444.255	146.62
444.476	129.62
444.698	136.62
444.919	140.62
445.14	267.62
445.361	198.62
445.582	121.62
445.803	129.62
446.024	149.62
446.245	129.62
446.466	135.62
446.687	137.62
446.908	123.62
447.129	127.62
447.35	131.62
447.571	130.62
447.792	125.62
448.013	115.62
448.234	116.62
448.455	109.62
448.675	137.62
448.896	139.62
449.117	117.62
449.338	132.62
449.559	141.62
449.779	121.62
450	120.62
450.221	117.62
450.442	124.62
450.662	118.62
450.883	112.62
451.104	137.62
451.324	126.62
451.545	125.62
451.766	137.62
451.986	117.62
452.207	122.62
452.428	119.62
452.648	126.62
452.869	122.62
453.089	127.62
453.31	127.62
453.53	108.62
453.751	116.62
453.971	125.62
454.192	116.62
454.412	123.62
454.633	113.62
454.853	92.62
455.073	114.62
455.294	113.62
455.514	131.62
455.734	122.62
455.955	107.62
456.175	124.62
456.395	119.62
456.616	104.62
456.836	128.62
457.056	106.62
457.276	110.62
457.497	119.62
457.717	115.62
457.937	119.62
458.157	117.62
458.377	115.62
458.598	112.62
458.818	121.62
459.038	128.62
459.258	120.62
459.478	122.62
459.698	125.62
459.918	120.62
460.138	111.62
460.358	109.62
460.578	126.62
460.798	126.62
461.018	134.62
461.238	122.62
461.458	123.62
461.678	126.62
461.898	121.62
462.118	114.62
462.338	135.62
462.558	132.62
462.777	136.62
462.997	137.62
463.217	137.62
463.437	146.62
463.657	151.62
463.876	147.62
464.096	136.62
464.316	131.62
464.536	128.62
464.755	131.62
464.975	124.62
465.195	130.62
465.414	117.62
465.634	137.62
465.854	136.62
466.073	124.62
466.293	136.62
466.512	134.62
466.732	113.62
466.951	121.62
467.171	107.62
467.391	121.62
467.61	135.62
467.829	125.62
468.049	122.62
468.268	126.62
468.488	106.62
468.707	123.62
468.927	112.62
469.146	115.62
469.365	125.62
469.585	139.62
469.804	130.62
470.023	122.62
470.243	108.62
470.462	120.62
470.681	123.62
470.901	122.62
471.12	133.62
471.339	128.62
471.558	128.62
471.777	125.62
471.997	128.62
472.216	116.62
472.435	113.62
472.654	118.62
472.873	132.62
473.092	114.62
473.311	114.62
473.53	125.62
473.749	117.62
473.968	116.62
474.187	120.62
474.406	120.62
474.625	121.62
474.844	124.62
475.063	116.62
475.282	116.62
475.501	123.62
475.72	116.62
475.939	122.62
476.158	121.62
476.377	124.62
476.596	109.62
476.814	128.62
477.033	132.62
477.252	132.62
477.471	132.62
477.69	139.62
477.908	122.62
478.127	130.62
478.346	134.62
478.564	132.62
478.783	133.62
479.002	130.62
479.22	126.62
479.439	120.62
479.658	129.62
479.876	132.62
480.095	155.62
480.313	143.62
480.532	136.62
480.751	131.62
480.969	137.62
481.188	139.62
481.406	139.62
481.624	129.62
481.843	134.62
482.061	133.62
482.28	129.62
482.498	122.62
482.717	116.62
482.935	136.62
483.153	126.62
483.372	122.62
483.59	119.62
483.808	125.62
484.027	136.62
484.245	144.62
484.463	141.62
484.681	124.62
484.9	125.62
485.118	138.62
485.336	128.62
485.554	131.62
485.772	131.62
485.99	121.62
486.209	136.62
486.427	123.62
486.645	122.62
486.863	131.62
487.081	122.62
487.299	134.62
487.517	139.62
487.735	132.62
487.953	142.62
488.171	134.62
488.389	128.62
488.607	125.62
488.825	138.62
489.043	140.62
489.261	126.62
489.479	135.62
489.696	140.62
489.914	122.62
490.132	132.62
490.35	129.62
490.568	125.62
490.786	134.62
491.003	144.62
491.221	134.62
491.439	131.62
491.657	134.62
491.874	137.62
492.092	124.62
492.31	150.62
492.527	141.62
492.745	136.62
492.963	143.62
493.18	142.62
493.398	157.62
493.615	142.62
493.833	141.62
494.05	140.62
494.268	137.62
494.485	142.62
494.703	148.62
494.92	128.62
495.138	145.62
495.355	150.62
495.573	134.62
495.79	140.62
496.008	133.62
496.225	142.62
496.442	138.62
496.66	141.62
496.877	151.62
497.094	148.62
497.312	130.62
497.529	138.62
497.746	140.62
497.963	138.62
498.181	153.62
498.398	140.62
498.615	138.62
498.832	160.62
499.049	137.62
499.267	165.62
499.484	180.62
499.701	182.62
499.918	187.62
500.135	194.62
500.352	203.62
500.569	209.62
500.786	208.62
501.003	196.62
501.22	192.62
501.437	176.62
501.654	180.62
501.871	158.62
502.088	174.62
502.305	144.62
502.522	161.62
502.739	158.62
502.956	148.62
503.172	146.62
503.389	140.62
503.606	152.62
503.823	132.62
504.04	152.62
504.256	148.62
504.473	147.62
504.69	155.62
504.907	154.62
505.123	141.62
505.34	150.62
505.557	130.62
505.773	133.62
