Data from 1968.PennyLincolnUp.Lamp.En5.5.200Scan.071719.P1._HRD10591_14-51-44-970.txt Node
Date: Thu Jul 18 14:51:44 EDT 2019
User: cochatt
Spectrometer: HR+D1059
Trigger mode: 1
Integration Time (sec): 1.000000E-1
Scans to average: 1
Electric dark correction enabled: true
Nonlinearity correction enabled: false
Boxcar width: 0
XAxis mode: Wavelengths
Number of Pixels in Spectrum: 2048
>>>>>Begin Spectral Data<<<<<
223.165	-25.38
223.4	-25.38
223.635	-25.38
223.869	-12.38
224.104	-14.38
224.338	1.62
224.573	-16.38
224.808	-18.38
225.042	-14.38
225.277	-1.38
225.511	3.62
225.746	21.62
225.98	5.62
226.215	4.62
226.449	8.62
226.683	14.62
226.918	20.62
227.152	21.62
227.387	30.62
227.621	43.62
227.856	37.62
228.09	39.62
228.324	59.62
228.559	49.62
228.793	41.62
229.027	59.62
229.262	57.62
229.496	70.62
229.73	68.62
229.964	75.62
230.199	78.62
230.433	79.62
230.667	82.62
230.901	77.62
231.136	75.62
231.37	81.62
231.604	93.62
231.838	85.62
232.072	80.62
232.306	79.62
232.541	73.62
232.775	84.62
233.009	95.62
233.243	80.62
233.477	101.62
233.711	93.62
233.945	83.62
234.179	69.62
234.413	87.62
234.647	85.62
234.881	74.62
235.115	96.62
235.349	94.62
235.583	87.62
235.817	96.62
236.051	87.62
236.285	91.62
236.519	83.62
236.753	92.62
236.987	88.62
237.221	84.62
237.455	88.62
237.689	91.62
237.922	76.62
238.156	84.62
238.39	72.62
238.624	80.62
238.858	85.62
239.091	78.62
239.325	70.62
239.559	79.62
239.793	86.62
240.027	88.62
240.26	67.62
240.494	92.62
240.728	93.62
240.961	84.62
241.195	100.62
241.429	83.62
241.662	80.62
241.896	68.62
242.13	88.62
242.363	84.62
242.597	82.62
242.83	84.62
243.064	75.62
243.298	96.62
243.531	82.62
243.765	92.62
243.998	92.62
244.232	73.62
244.465	85.62
244.699	95.62
244.932	81.62
245.166	83.62
245.399	81.62
245.633	90.62
245.866	104.62
246.099	100.62
246.333	74.62
246.566	93.62
246.8	87.62
247.033	80.62
247.266	95.62
247.5	83.62
247.733	84.62
247.966	88.62
248.2	83.62
248.433	91.62
248.666	93.62
248.899	81.62
249.133	82.62
249.366	102.62
249.599	86.62
249.832	83.62
250.066	85.62
250.299	90.62
250.532	91.62
250.765	102.62
250.998	98.62
251.231	89.62
251.465	90.62
251.698	87.62
251.931	91.62
252.164	107.62
252.397	73.62
252.63	89.62
252.863	85.62
253.096	92.62
253.329	92.62
253.562	84.62
253.795	86.62
254.028	98.62
254.261	79.62
254.494	84.62
254.727	93.62
254.96	102.62
255.193	97.62
255.426	75.62
255.659	90.62
255.892	80.62
256.124	87.62
256.357	94.62
256.59	84.62
256.823	89.62
257.056	87.62
257.289	91.62
257.521	80.62
257.754	95.62
257.987	86.62
258.22	84.62
258.452	89.62
258.685	90.62
258.918	90.62
259.151	86.62
259.383	87.62
259.616	109.62
259.849	89.62
260.081	83.62
260.314	93.62
260.547	83.62
260.779	65.62
261.012	93.62
261.244	76.62
261.477	93.62
261.71	88.62
261.942	89.62
262.175	84.62
262.407	87.62
262.64	97.62
262.872	89.62
263.105	90.62
263.337	95.62
263.57	91.62
263.802	105.62
264.035	87.62
264.267	86.62
264.499	88.62
264.732	92.62
264.964	82.62
265.197	89.62
265.429	102.62
265.661	100.62
265.894	94.62
266.126	108.62
266.358	96.62
266.591	91.62
266.823	91.62
267.055	85.62
267.287	84.62
267.52	94.62
267.752	105.62
267.984	104.62
268.216	95.62
268.448	84.62
268.681	93.62
268.913	106.62
269.145	102.62
269.377	113.62
269.609	107.62
269.841	103.62
270.073	91.62
270.306	97.62
270.538	117.62
270.77	94.62
271.002	105.62
271.234	107.62
271.466	103.62
271.698	100.62
271.93	110.62
272.162	93.62
272.394	105.62
272.626	103.62
272.858	85.62
273.09	84.62
273.322	86.62
273.553	98.62
273.785	101.62
274.017	111.62
274.249	105.62
274.481	97.62
274.713	86.62
274.945	89.62
275.176	106.62
275.408	88.62
275.64	93.62
275.872	113.62
276.104	108.62
276.335	108.62
276.567	113.62
276.799	99.62
277.031	94.62
277.262	102.62
277.494	90.62
277.726	93.62
277.957	102.62
278.189	96.62
278.421	98.62
278.652	98.62
278.884	100.62
279.115	114.62
279.347	91.62
279.579	118.62
279.81	97.62
280.042	97.62
280.273	99.62
280.505	102.62
280.736	84.62
280.968	104.62
281.199	94.62
281.431	104.62
281.662	90.62
281.894	92.62
282.125	98.62
282.356	100.62
282.588	113.62
282.819	100.62
283.051	96.62
283.282	104.62
283.513	102.62
283.745	107.62
283.976	101.62
284.207	108.62
284.439	114.62
284.67	94.62
284.901	107.62
285.132	107.62
285.364	108.62
285.595	98.62
285.826	92.62
286.057	98.62
286.288	87.62
286.52	109.62
286.751	100.62
286.982	90.62
287.213	114.62
287.444	105.62
287.675	94.62
287.906	93.62
288.138	91.62
288.369	104.62
288.6	81.62
288.831	102.62
289.062	90.62
289.293	105.62
289.524	85.62
289.755	86.62
289.986	108.62
290.217	101.62
290.448	106.62
290.679	113.62
290.91	92.62
291.141	106.62
291.371	100.62
291.602	94.62
291.833	103.62
292.064	110.62
292.295	108.62
292.526	106.62
292.757	102.62
292.987	90.62
293.218	99.62
293.449	107.62
293.68	110.62
293.91	100.62
294.141	123.62
294.372	102.62
294.603	115.62
294.833	101.62
295.064	99.62
295.295	110.62
295.525	105.62
295.756	86.62
295.987	99.62
296.217	114.62
296.448	91.62
296.679	109.62
296.909	95.62
297.14	110.62
297.37	113.62
297.601	98.62
297.831	102.62
298.062	95.62
298.292	107.62
298.523	105.62
298.753	106.62
298.984	104.62
299.214	100.62
299.445	99.62
299.675	102.62
299.905	108.62
300.136	100.62
300.366	106.62
300.597	99.62
300.827	92.62
301.057	91.62
301.288	109.62
301.518	113.62
301.748	106.62
301.979	98.62
302.209	93.62
302.439	107.62
302.669	118.62
302.9	102.62
303.13	101.62
303.36	92.62
303.59	94.62
303.82	109.62
304.051	95.62
304.281	98.62
304.511	89.62
304.741	99.62
304.971	99.62
305.201	106.62
305.431	108.62
305.661	110.62
305.891	108.62
306.121	110.62
306.352	112.62
306.582	107.62
306.812	97.62
307.042	99.62
307.272	96.62
307.502	103.62
307.731	107.62
307.961	101.62
308.191	104.62
308.421	103.62
308.651	113.62
308.881	101.62
309.111	109.62
309.341	105.62
309.571	116.62
309.8	102.62
310.03	105.62
310.26	115.62
310.49	93.62
310.72	110.62
310.949	114.62
311.179	106.62
311.409	103.62
311.639	100.62
311.868	114.62
312.098	111.62
312.328	99.62
312.557	120.62
312.787	97.62
313.017	117.62
313.246	106.62
313.476	97.62
313.706	101.62
313.935	100.62
314.165	107.62
314.394	105.62
314.624	110.62
314.853	123.62
315.083	103.62
315.312	105.62
315.542	100.62
315.771	95.62
316.001	113.62
316.23	100.62
316.46	110.62
316.689	99.62
316.919	116.62
317.148	111.62
317.377	113.62
317.607	108.62
317.836	102.62
318.065	110.62
318.295	103.62
318.524	85.62
318.753	106.62
318.983	108.62
319.212	116.62
319.441	109.62
319.67	112.62
319.9	108.62
320.129	108.62
320.358	104.62
320.587	94.62
320.816	116.62
321.046	117.62
321.275	104.62
321.504	117.62
321.733	99.62
321.962	102.62
322.191	113.62
322.42	117.62
322.649	120.62
322.878	107.62
323.108	120.62
323.337	126.62
323.566	119.62
323.795	107.62
324.024	110.62
324.253	141.62
324.482	142.62
324.71	163.62
324.939	164.62
325.168	149.62
325.397	109.62
325.626	119.62
325.855	103.62
326.084	117.62
326.313	115.62
326.542	126.62
326.77	121.62
326.999	121.62
327.228	114.62
327.457	141.62
327.686	153.62
327.914	135.62
328.143	136.62
328.372	105.62
328.6	109.62
328.829	110.62
329.058	127.62
329.287	110.62
329.515	125.62
329.744	99.62
329.972	118.62
330.201	108.62
330.43	129.62
330.658	131.62
330.887	120.62
331.115	124.62
331.344	129.62
331.572	115.62
331.801	111.62
332.03	120.62
332.258	118.62
332.486	129.62
332.715	123.62
332.943	121.62
333.172	119.62
333.4	127.62
333.629	127.62
333.857	131.62
334.085	121.62
334.314	115.62
334.542	133.62
334.771	116.62
334.999	111.62
335.227	113.62
335.455	101.62
335.684	122.62
335.912	129.62
336.14	125.62
336.369	86.62
336.597	110.62
336.825	118.62
337.053	121.62
337.281	121.62
337.51	110.62
337.738	113.62
337.966	117.62
338.194	110.62
338.422	123.62
338.65	117.62
338.878	99.62
339.106	114.62
339.334	109.62
339.562	120.62
339.79	104.62
340.018	114.62
340.246	110.62
340.474	101.62
340.702	98.62
340.93	101.62
341.158	99.62
341.386	99.62
341.614	108.62
341.842	93.62
342.07	107.62
342.298	104.62
342.526	100.62
342.754	102.62
342.981	112.62
343.209	111.62
343.437	121.62
343.665	115.62
343.893	117.62
344.12	118.62
344.348	116.62
344.576	110.62
344.804	115.62
345.031	115.62
345.259	101.62
345.487	117.62
345.714	102.62
345.942	113.62
346.17	107.62
346.397	114.62
346.625	103.62
346.853	96.62
347.08	106.62
347.308	125.62
347.535	97.62
347.763	123.62
347.99	108.62
348.218	106.62
348.445	114.62
348.673	115.62
348.9	98.62
349.128	101.62
349.355	120.62
349.583	132.62
349.81	106.62
350.037	97.62
350.265	98.62
350.492	105.62
350.72	107.62
350.947	113.62
351.174	123.62
351.402	108.62
351.629	113.62
351.856	97.62
352.083	101.62
352.311	107.62
352.538	105.62
352.765	125.62
352.992	111.62
353.22	115.62
353.447	120.62
353.674	104.62
353.901	110.62
354.128	102.62
354.355	103.62
354.583	97.62
354.81	113.62
355.037	96.62
355.264	117.62
355.491	112.62
355.718	102.62
355.945	107.62
356.172	118.62
356.399	104.62
356.626	102.62
356.853	105.62
357.08	108.62
357.307	124.62
357.534	114.62
357.761	99.62
357.988	116.62
358.215	106.62
358.441	101.62
358.668	103.62
358.895	103.62
359.122	118.62
359.349	121.62
359.576	119.62
359.802	109.62
360.029	114.62
360.256	98.62
360.483	111.62
360.709	109.62
360.936	130.62
361.163	85.62
361.39	109.62
361.616	110.62
361.843	103.62
362.07	123.62
362.296	102.62
362.523	113.62
362.749	109.62
362.976	97.62
363.203	104.62
363.429	105.62
363.656	106.62
363.882	113.62
364.109	93.62
364.335	111.62
364.562	105.62
364.788	116.62
365.015	103.62
365.241	118.62
365.468	100.62
365.694	108.62
365.92	106.62
366.147	113.62
366.373	112.62
366.599	123.62
366.826	97.62
367.052	108.62
367.278	116.62
367.505	102.62
367.731	108.62
367.957	86.62
368.184	108.62
368.41	120.62
368.636	102.62
368.862	106.62
369.089	119.62
369.315	103.62
369.541	119.62
369.767	104.62
369.993	125.62
370.219	83.62
370.445	104.62
370.672	108.62
370.898	111.62
371.124	103.62
371.35	100.62
371.576	101.62
371.802	109.62
372.028	120.62
372.254	107.62
372.48	92.62
372.706	106.62
372.932	111.62
373.158	110.62
373.384	124.62
373.61	109.62
373.835	126.62
374.061	122.62
374.287	123.62
374.513	130.62
374.739	107.62
374.965	124.62
375.191	113.62
375.416	97.62
375.642	108.62
375.868	115.62
376.094	108.62
376.319	118.62
376.545	103.62
376.771	110.62
376.997	109.62
377.222	107.62
377.448	123.62
377.674	116.62
377.899	107.62
378.125	110.62
378.35	99.62
378.576	97.62
378.802	105.62
379.027	122.62
379.253	103.62
379.478	107.62
379.704	117.62
379.929	108.62
380.155	108.62
380.38	109.62
380.606	101.62
380.831	115.62
381.057	105.62
381.282	107.62
381.507	109.62
381.733	105.62
381.958	119.62
382.184	118.62
382.409	120.62
382.634	117.62
382.86	122.62
383.085	110.62
383.31	110.62
383.535	103.62
383.761	108.62
383.986	116.62
384.211	122.62
384.436	117.62
384.662	118.62
384.887	109.62
385.112	111.62
385.337	109.62
385.562	124.62
385.787	115.62
386.013	109.62
386.238	109.62
386.463	109.62
386.688	110.62
386.913	103.62
387.138	117.62
387.363	108.62
387.588	113.62
387.813	110.62
388.038	111.62
388.263	114.62
388.488	121.62
388.713	127.62
388.938	116.62
389.163	105.62
389.387	117.62
389.612	103.62
389.837	109.62
390.062	119.62
390.287	125.62
390.512	122.62
390.736	121.62
390.961	97.62
391.186	123.62
391.411	111.62
391.636	129.62
391.86	105.62
392.085	125.62
392.31	116.62
392.534	122.62
392.759	126.62
392.984	113.62
393.208	109.62
393.433	111.62
393.658	125.62
393.882	117.62
394.107	103.62
394.331	113.62
394.556	113.62
394.78	107.62
395.005	114.62
395.229	122.62
395.454	141.62
395.678	118.62
395.903	131.62
396.127	111.62
396.352	117.62
396.576	131.62
396.801	127.62
397.025	119.62
397.249	119.62
397.474	112.62
397.698	117.62
397.922	119.62
398.147	131.62
398.371	106.62
398.595	129.62
398.82	131.62
399.044	117.62
399.268	127.62
399.492	134.62
399.717	133.62
399.941	148.62
400.165	143.62
400.389	133.62
400.613	131.62
400.837	136.62
401.062	129.62
401.286	121.62
401.51	130.62
401.734	127.62
401.958	129.62
402.182	135.62
402.406	148.62
402.63	128.62
402.854	119.62
403.078	129.62
403.302	140.62
403.526	122.62
403.75	138.62
403.974	138.62
404.198	128.62
404.422	129.62
404.645	122.62
404.869	120.62
405.093	115.62
405.317	137.62
405.541	126.62
405.765	124.62
405.988	134.62
406.212	131.62
406.436	128.62
406.66	135.62
406.883	137.62
407.107	142.62
407.331	155.62
407.555	148.62
407.778	145.62
408.002	138.62
408.226	127.62
408.449	131.62
408.673	131.62
408.896	120.62
409.12	133.62
409.344	129.62
409.567	130.62
409.791	134.62
410.014	127.62
410.238	104.62
410.461	129.62
410.685	125.62
410.908	133.62
411.132	122.62
411.355	133.62
411.578	122.62
411.802	140.62
412.025	129.62
412.249	127.62
412.472	149.62
412.695	131.62
412.919	132.62
413.142	125.62
413.365	135.62
413.589	124.62
413.812	119.62
414.035	131.62
414.258	133.62
414.482	129.62
414.705	111.62
414.928	147.62
415.151	120.62
415.374	121.62
415.597	128.62
415.821	137.62
416.044	131.62
416.267	127.62
416.49	129.62
416.713	122.62
416.936	129.62
417.159	110.62
417.382	136.62
417.605	143.62
417.828	129.62
418.051	118.62
418.274	114.62
418.497	127.62
418.72	114.62
418.943	122.62
419.166	136.62
419.389	125.62
419.611	137.62
419.834	139.62
420.057	126.62
420.28	128.62
420.503	118.62
420.726	126.62
420.948	133.62
421.171	127.62
421.394	139.62
421.617	130.62
421.839	106.62
422.062	122.62
422.285	131.62
422.507	121.62
422.73	136.62
422.953	132.62
423.175	128.62
423.398	113.62
423.621	125.62
423.843	131.62
424.066	135.62
424.288	122.62
424.511	135.62
424.733	124.62
424.956	131.62
425.178	125.62
425.401	139.62
425.623	129.62
425.846	123.62
426.068	120.62
426.291	114.62
426.513	119.62
426.735	128.62
426.958	121.62
427.18	141.62
427.402	144.62
427.625	148.62
427.847	129.62
428.069	124.62
428.292	140.62
428.514	123.62
428.736	120.62
428.958	129.62
429.181	111.62
429.403	123.62
429.625	121.62
429.847	123.62
430.069	137.62
430.292	149.62
430.514	118.62
430.736	106.62
430.958	126.62
431.18	133.62
431.402	137.62
431.624	128.62
431.846	131.62
432.068	116.62
432.29	129.62
432.512	125.62
432.734	125.62
432.956	130.62
433.178	118.62
433.4	129.62
433.622	141.62
433.844	137.62
434.066	124.62
434.287	119.62
434.509	110.62
434.731	133.62
434.953	124.62
435.175	125.62
435.397	135.62
435.618	121.62
435.84	138.62
436.062	141.62
436.284	133.62
436.505	119.62
436.727	126.62
436.949	128.62
437.17	129.62
437.392	121.62
437.614	121.62
437.835	129.62
438.057	118.62
438.278	126.62
438.5	118.62
438.721	138.62
438.943	138.62
439.165	122.62
439.386	142.62
439.608	125.62
439.829	126.62
440.05	121.62
440.272	132.62
440.493	131.62
440.715	125.62
440.936	133.62
441.158	132.62
441.379	113.62
441.6	123.62
441.822	125.62
442.043	129.62
442.264	132.62
442.486	131.62
442.707	126.62
442.928	121.62
443.149	134.62
443.371	137.62
443.592	128.62
443.813	136.62
444.034	129.62
444.255	137.62
444.476	133.62
444.698	139.62
444.919	153.62
445.14	267.62
445.361	172.62
445.582	131.62
445.803	135.62
446.024	135.62
446.245	133.62
446.466	142.62
446.687	124.62
446.908	128.62
447.129	118.62
447.35	114.62
447.571	122.62
447.792	93.62
448.013	126.62
448.234	147.62
448.455	131.62
448.675	146.62
448.896	133.62
449.117	123.62
449.338	129.62
449.559	138.62
449.779	142.62
450	130.62
450.221	124.62
450.442	114.62
450.662	136.62
450.883	119.62
451.104	125.62
451.324	123.62
451.545	122.62
451.766	117.62
451.986	111.62
452.207	124.62
452.428	119.62
452.648	127.62
452.869	124.62
453.089	108.62
453.31	114.62
453.53	133.62
453.751	114.62
453.971	131.62
454.192	107.62
454.412	127.62
454.633	117.62
454.853	107.62
455.073	105.62
455.294	115.62
455.514	133.62
455.734	124.62
455.955	130.62
456.175	109.62
456.395	116.62
456.616	116.62
456.836	114.62
457.056	113.62
457.276	120.62
457.497	117.62
457.717	122.62
457.937	106.62
458.157	108.62
458.377	116.62
458.598	112.62
458.818	127.62
459.038	129.62
459.258	132.62
459.478	134.62
459.698	133.62
459.918	121.62
460.138	131.62
460.358	125.62
460.578	126.62
460.798	126.62
461.018	122.62
461.238	127.62
461.458	130.62
461.678	127.62
461.898	124.62
462.118	135.62
462.338	140.62
462.558	131.62
462.777	138.62
462.997	123.62
463.217	152.62
463.437	145.62
463.657	136.62
463.876	125.62
464.096	131.62
464.316	139.62
464.536	140.62
464.755	127.62
464.975	125.62
465.195	135.62
465.414	141.62
465.634	128.62
465.854	115.62
466.073	131.62
466.293	116.62
466.512	116.62
466.732	130.62
466.951	117.62
467.171	129.62
467.391	114.62
467.61	114.62
467.829	118.62
468.049	132.62
468.268	128.62
468.488	124.62
468.707	124.62
468.927	109.62
469.146	117.62
469.365	110.62
469.585	121.62
469.804	118.62
470.023	127.62
470.243	120.62
470.462	121.62
470.681	149.62
470.901	132.62
471.12	131.62
471.339	132.62
471.558	117.62
471.777	125.62
471.997	121.62
472.216	124.62
472.435	124.62
472.654	120.62
472.873	120.62
473.092	120.62
473.311	113.62
473.53	117.62
473.749	119.62
473.968	121.62
474.187	125.62
474.406	129.62
474.625	116.62
474.844	113.62
475.063	115.62
475.282	112.62
475.501	119.62
475.72	120.62
475.939	122.62
476.158	129.62
476.377	110.62
476.596	127.62
476.814	113.62
477.033	127.62
477.252	121.62
477.471	133.62
477.69	114.62
477.908	126.62
478.127	129.62
478.346	125.62
478.564	123.62
478.783	131.62
479.002	141.62
479.22	135.62
479.439	126.62
479.658	119.62
479.876	112.62
480.095	129.62
480.313	132.62
480.532	150.62
480.751	155.62
480.969	137.62
481.188	114.62
481.406	136.62
481.624	120.62
481.843	131.62
482.061	125.62
482.28	126.62
482.498	123.62
482.717	127.62
482.935	121.62
483.153	125.62
483.372	127.62
483.59	132.62
483.808	142.62
484.027	134.62
484.245	126.62
484.463	139.62
484.681	149.62
484.9	121.62
485.118	129.62
485.336	138.62
485.554	118.62
485.772	142.62
485.99	131.62
486.209	131.62
486.427	133.62
486.645	129.62
486.863	131.62
487.081	117.62
487.299	139.62
487.517	139.62
487.735	114.62
487.953	145.62
488.171	139.62
488.389	137.62
488.607	134.62
488.825	115.62
489.043	134.62
489.261	128.62
489.479	145.62
489.696	127.62
489.914	129.62
490.132	124.62
490.35	141.62
490.568	131.62
490.786	147.62
491.003	131.62
491.221	125.62
491.439	127.62
491.657	158.62
491.874	146.62
492.092	139.62
492.31	142.62
492.527	149.62
492.745	157.62
492.963	142.62
493.18	139.62
493.398	142.62
493.615	145.62
493.833	145.62
494.05	131.62
494.268	147.62
494.485	139.62
494.703	141.62
494.92	135.62
495.138	137.62
495.355	137.62
495.573	146.62
495.79	150.62
496.008	153.62
496.225	135.62
496.442	141.62
496.66	143.62
496.877	136.62
497.094	159.62
497.312	151.62
497.529	142.62
497.746	155.62
497.963	151.62
498.181	147.62
498.398	137.62
498.615	151.62
498.832	137.62
499.049	144.62
499.267	164.62
499.484	180.62
499.701	184.62
499.918	174.62
500.135	199.62
500.352	199.62
500.569	218.62
500.786	194.62
501.003	198.62
501.22	196.62
501.437	163.62
501.654	169.62
501.871	179.62
502.088	163.62
502.305	173.62
502.522	149.62
502.739	159.62
502.956	156.62
503.172	157.62
503.389	147.62
503.606	141.62
503.823	137.62
504.04	152.62
504.256	139.62
504.473	146.62
504.69	147.62
504.907	161.62
505.123	138.62
505.34	137.62
505.557	133.62
