Data from 1968.PennyLincolnUp.Lamp.En5.5.200Scan.071719.P1._HRD10591_14-52-02-970.txt Node
Date: Thu Jul 18 14:52:02 EDT 2019
User: cochatt
Spectrometer: HR+D1059
Trigger mode: 1
Integration Time (sec): 1.000000E-1
Scans to average: 1
Electric dark correction enabled: true
Nonlinearity correction enabled: false
Boxcar width: 0
XAxis mode: Wavelengths
Number of Pixels in Spectrum: 2048
>>>>>Begin Spectral Data<<<<<
223.165	-10.56
223.4	-10.56
223.635	-10.56
223.869	-18.56
224.104	-12.56
224.338	-15.56
224.573	-18.56
224.808	-26.56
225.042	6.44
225.277	-4.56
225.511	-14.56
225.746	1.44
225.98	0.44
226.215	14.44
226.449	21.44
226.683	21.44
226.918	30.44
227.152	25.44
227.387	47.44
227.621	51.44
227.856	57.44
228.09	44.44
228.324	71.44
228.559	63.44
228.793	62.44
229.027	64.44
229.262	92.44
229.496	67.44
229.73	74.44
229.964	88.44
230.199	80.44
230.433	83.44
230.667	81.44
230.901	88.44
231.136	79.44
231.37	76.44
231.604	79.44
231.838	85.44
232.072	81.44
232.306	85.44
232.541	92.44
232.775	97.44
233.009	73.44
233.243	92.44
233.477	74.44
233.711	97.44
233.945	79.44
234.179	97.44
234.413	93.44
234.647	84.44
234.881	85.44
235.115	94.44
235.349	89.44
235.583	83.44
235.817	87.44
236.051	76.44
236.285	92.44
236.519	88.44
236.753	89.44
236.987	80.44
237.221	83.44
237.455	95.44
237.689	94.44
237.922	90.44
238.156	85.44
238.39	81.44
238.624	83.44
238.858	81.44
239.091	93.44
239.325	84.44
239.559	92.44
239.793	90.44
240.027	89.44
240.26	91.44
240.494	90.44
240.728	81.44
240.961	83.44
241.195	80.44
241.429	83.44
241.662	80.44
241.896	78.44
242.13	76.44
242.363	88.44
242.597	97.44
242.83	91.44
243.064	77.44
243.298	91.44
243.531	87.44
243.765	83.44
243.998	86.44
244.232	72.44
244.465	70.44
244.699	90.44
244.932	82.44
245.166	84.44
245.399	87.44
245.633	86.44
245.866	69.44
246.099	79.44
246.333	71.44
246.566	75.44
246.8	83.44
247.033	71.44
247.266	94.44
247.5	94.44
247.733	96.44
247.966	94.44
248.2	79.44
248.433	82.44
248.666	86.44
248.899	91.44
249.133	92.44
249.366	97.44
249.599	92.44
249.832	102.44
250.066	106.44
250.299	93.44
250.532	94.44
250.765	86.44
250.998	93.44
251.231	87.44
251.465	92.44
251.698	97.44
251.931	99.44
252.164	78.44
252.397	82.44
252.63	97.44
252.863	97.44
253.096	79.44
253.329	69.44
253.562	85.44
253.795	87.44
254.028	87.44
254.261	79.44
254.494	99.44
254.727	92.44
254.96	93.44
255.193	95.44
255.426	108.44
255.659	104.44
255.892	94.44
256.124	90.44
256.357	91.44
256.59	92.44
256.823	85.44
257.056	85.44
257.289	85.44
257.521	90.44
257.754	86.44
257.987	88.44
258.22	98.44
258.452	80.44
258.685	85.44
258.918	96.44
259.151	94.44
259.383	87.44
259.616	86.44
259.849	89.44
260.081	92.44
260.314	91.44
260.547	95.44
260.779	102.44
261.012	105.44
261.244	98.44
261.477	100.44
261.71	88.44
261.942	91.44
262.175	99.44
262.407	99.44
262.64	83.44
262.872	97.44
263.105	99.44
263.337	98.44
263.57	98.44
263.802	95.44
264.035	92.44
264.267	91.44
264.499	103.44
264.732	83.44
264.964	99.44
265.197	90.44
265.429	106.44
265.661	108.44
265.894	106.44
266.126	112.44
266.358	96.44
266.591	91.44
266.823	95.44
267.055	90.44
267.287	92.44
267.52	89.44
267.752	97.44
267.984	78.44
268.216	103.44
268.448	101.44
268.681	93.44
268.913	85.44
269.145	94.44
269.377	100.44
269.609	105.44
269.841	90.44
270.073	100.44
270.306	104.44
270.538	104.44
270.77	102.44
271.002	102.44
271.234	102.44
271.466	100.44
271.698	96.44
271.93	105.44
272.162	101.44
272.394	126.44
272.626	96.44
272.858	94.44
273.09	86.44
273.322	99.44
273.553	105.44
273.785	102.44
274.017	98.44
274.249	100.44
274.481	94.44
274.713	101.44
274.945	98.44
275.176	98.44
275.408	99.44
275.64	106.44
275.872	95.44
276.104	95.44
276.335	92.44
276.567	101.44
276.799	94.44
277.031	91.44
277.262	95.44
277.494	107.44
277.726	109.44
277.957	111.44
278.189	105.44
278.421	109.44
278.652	91.44
278.884	93.44
279.115	116.44
279.347	93.44
279.579	104.44
279.81	112.44
280.042	101.44
280.273	102.44
280.505	96.44
280.736	100.44
280.968	102.44
281.199	100.44
281.431	103.44
281.662	90.44
281.894	102.44
282.125	97.44
282.356	112.44
282.588	109.44
282.819	99.44
283.051	89.44
283.282	94.44
283.513	104.44
283.745	107.44
283.976	99.44
284.207	102.44
284.439	101.44
284.67	103.44
284.901	104.44
285.132	106.44
285.364	101.44
285.595	97.44
285.826	117.44
286.057	105.44
286.288	107.44
286.52	117.44
286.751	100.44
286.982	100.44
287.213	107.44
287.444	106.44
287.675	103.44
287.906	104.44
288.138	94.44
288.369	101.44
288.6	103.44
288.831	105.44
289.062	103.44
289.293	95.44
289.524	94.44
289.755	116.44
289.986	99.44
290.217	106.44
290.448	96.44
290.679	103.44
290.91	94.44
291.141	95.44
291.371	106.44
291.602	87.44
291.833	102.44
292.064	119.44
292.295	83.44
292.526	90.44
292.757	100.44
292.987	93.44
293.218	99.44
293.449	113.44
293.68	109.44
293.91	108.44
294.141	108.44
294.372	96.44
294.603	111.44
294.833	117.44
295.064	91.44
295.295	103.44
295.525	96.44
295.756	105.44
295.987	94.44
296.217	92.44
296.448	122.44
296.679	122.44
296.909	104.44
297.14	107.44
297.37	123.44
297.601	105.44
297.831	113.44
298.062	111.44
298.292	97.44
298.523	109.44
298.753	92.44
298.984	87.44
299.214	92.44
299.445	97.44
299.675	118.44
299.905	99.44
300.136	104.44
300.366	102.44
300.597	97.44
300.827	94.44
301.057	103.44
301.288	95.44
301.518	115.44
301.748	110.44
301.979	100.44
302.209	110.44
302.439	112.44
302.669	103.44
302.9	102.44
303.13	115.44
303.36	110.44
303.59	115.44
303.82	117.44
304.051	95.44
304.281	114.44
304.511	97.44
304.741	104.44
304.971	110.44
305.201	116.44
305.431	103.44
305.661	92.44
305.891	92.44
306.121	107.44
306.352	112.44
306.582	102.44
306.812	111.44
307.042	106.44
307.272	111.44
307.502	90.44
307.731	111.44
307.961	112.44
308.191	108.44
308.421	111.44
308.651	113.44
308.881	104.44
309.111	103.44
309.341	106.44
309.571	105.44
309.8	106.44
310.03	113.44
310.26	105.44
310.49	104.44
310.72	102.44
310.949	116.44
311.179	126.44
311.409	117.44
311.639	117.44
311.868	102.44
312.098	117.44
312.328	127.44
312.557	120.44
312.787	110.44
313.017	117.44
313.246	107.44
313.476	104.44
313.706	106.44
313.935	111.44
314.165	112.44
314.394	97.44
314.624	100.44
314.853	102.44
315.083	106.44
315.312	105.44
315.542	110.44
315.771	109.44
316.001	109.44
316.23	105.44
316.46	104.44
316.689	103.44
316.919	100.44
317.148	109.44
317.377	120.44
317.607	119.44
317.836	102.44
318.065	117.44
318.295	108.44
318.524	115.44
318.753	109.44
318.983	117.44
319.212	107.44
319.441	91.44
319.67	90.44
319.9	109.44
320.129	96.44
320.358	103.44
320.587	103.44
320.816	116.44
321.046	100.44
321.275	112.44
321.504	107.44
321.733	104.44
321.962	113.44
322.191	117.44
322.42	106.44
322.649	99.44
322.878	120.44
323.108	108.44
323.337	123.44
323.566	117.44
323.795	120.44
324.024	126.44
324.253	121.44
324.482	127.44
324.71	145.44
324.939	181.44
325.168	145.44
325.397	131.44
325.626	104.44
325.855	103.44
326.084	116.44
326.313	117.44
326.542	117.44
326.77	129.44
326.999	127.44
327.228	130.44
327.457	157.44
327.686	156.44
327.914	135.44
328.143	119.44
328.372	124.44
328.6	133.44
328.829	116.44
329.058	122.44
329.287	125.44
329.515	105.44
329.744	109.44
329.972	124.44
330.201	112.44
330.43	110.44
330.658	120.44
330.887	123.44
331.115	111.44
331.344	127.44
331.572	120.44
331.801	105.44
332.03	100.44
332.258	115.44
332.486	96.44
332.715	125.44
332.943	123.44
333.172	111.44
333.4	117.44
333.629	111.44
333.857	123.44
334.085	119.44
334.314	121.44
334.542	116.44
334.771	117.44
334.999	111.44
335.227	120.44
335.455	126.44
335.684	131.44
335.912	118.44
336.14	117.44
336.369	107.44
336.597	113.44
336.825	125.44
337.053	103.44
337.281	109.44
337.51	121.44
337.738	117.44
337.966	103.44
338.194	103.44
338.422	119.44
338.65	108.44
338.878	112.44
339.106	109.44
339.334	123.44
339.562	113.44
339.79	110.44
340.018	117.44
340.246	115.44
340.474	107.44
340.702	106.44
340.93	109.44
341.158	119.44
341.386	110.44
341.614	106.44
341.842	99.44
342.07	111.44
342.298	99.44
342.526	103.44
342.754	116.44
342.981	117.44
343.209	117.44
343.437	108.44
343.665	119.44
343.893	115.44
344.12	111.44
344.348	124.44
344.576	121.44
344.804	123.44
345.031	117.44
345.259	101.44
345.487	112.44
345.714	110.44
345.942	105.44
346.17	111.44
346.397	95.44
346.625	102.44
346.853	104.44
347.08	120.44
347.308	106.44
347.535	100.44
347.763	113.44
347.99	110.44
348.218	108.44
348.445	107.44
348.673	106.44
348.9	113.44
349.128	114.44
349.355	125.44
349.583	110.44
349.81	99.44
350.037	107.44
350.265	124.44
350.492	115.44
350.72	110.44
350.947	99.44
351.174	115.44
351.402	123.44
351.629	114.44
351.856	123.44
352.083	106.44
352.311	113.44
352.538	112.44
352.765	115.44
352.992	109.44
353.22	114.44
353.447	123.44
353.674	107.44
353.901	120.44
354.128	108.44
354.355	90.44
354.583	113.44
354.81	109.44
355.037	100.44
355.264	105.44
355.491	115.44
355.718	99.44
355.945	106.44
356.172	111.44
356.399	111.44
356.626	112.44
356.853	108.44
357.08	101.44
357.307	110.44
357.534	97.44
357.761	115.44
357.988	97.44
358.215	107.44
358.441	110.44
358.668	115.44
358.895	115.44
359.122	111.44
359.349	110.44
359.576	115.44
359.802	104.44
360.029	110.44
360.256	117.44
360.483	90.44
360.709	125.44
360.936	123.44
361.163	111.44
361.39	112.44
361.616	120.44
361.843	115.44
362.07	100.44
362.296	117.44
362.523	121.44
362.749	110.44
362.976	116.44
363.203	108.44
363.429	113.44
363.656	124.44
363.882	104.44
364.109	109.44
364.335	105.44
364.562	110.44
364.788	103.44
365.015	118.44
365.241	117.44
365.468	111.44
365.694	117.44
365.92	107.44
366.147	107.44
366.373	104.44
366.599	112.44
366.826	104.44
367.052	104.44
367.278	122.44
367.505	109.44
367.731	113.44
367.957	106.44
368.184	105.44
368.41	112.44
368.636	104.44
368.862	105.44
369.089	124.44
369.315	114.44
369.541	109.44
369.767	123.44
369.993	115.44
370.219	121.44
370.445	112.44
370.672	121.44
370.898	106.44
371.124	108.44
371.35	126.44
371.576	117.44
371.802	116.44
372.028	96.44
372.254	109.44
372.48	102.44
372.706	116.44
372.932	104.44
373.158	117.44
373.384	89.44
373.61	119.44
373.835	113.44
374.061	110.44
374.287	112.44
374.513	118.44
374.739	109.44
374.965	108.44
375.191	106.44
375.416	109.44
375.642	110.44
375.868	119.44
376.094	110.44
376.319	127.44
376.545	121.44
376.771	112.44
376.997	123.44
377.222	103.44
377.448	117.44
377.674	126.44
377.899	130.44
378.125	119.44
378.35	124.44
378.576	105.44
378.802	113.44
379.027	107.44
379.253	111.44
379.478	119.44
379.704	102.44
379.929	107.44
380.155	108.44
380.38	110.44
380.606	108.44
380.831	102.44
381.057	112.44
381.282	109.44
381.507	103.44
381.733	115.44
381.958	113.44
382.184	123.44
382.409	115.44
382.634	111.44
382.86	112.44
383.085	103.44
383.31	119.44
383.535	117.44
383.761	124.44
383.986	123.44
384.211	101.44
384.436	120.44
384.662	111.44
384.887	109.44
385.112	100.44
385.337	125.44
385.562	120.44
385.787	109.44
386.013	135.44
386.238	103.44
386.463	125.44
386.688	120.44
386.913	123.44
387.138	131.44
387.363	116.44
387.588	120.44
387.813	117.44
388.038	118.44
388.263	116.44
388.488	126.44
388.713	116.44
388.938	93.44
389.163	116.44
389.387	112.44
389.612	107.44
389.837	102.44
390.062	107.44
390.287	108.44
390.512	118.44
390.736	102.44
390.961	131.44
391.186	116.44
391.411	121.44
391.636	112.44
391.86	108.44
392.085	115.44
392.31	119.44
392.534	125.44
392.759	125.44
392.984	115.44
393.208	129.44
393.433	113.44
393.658	110.44
393.882	116.44
394.107	111.44
394.331	123.44
394.556	124.44
394.78	108.44
395.005	134.44
395.229	132.44
395.454	117.44
395.678	125.44
395.903	125.44
396.127	117.44
396.352	109.44
396.576	129.44
396.801	117.44
397.025	119.44
397.249	109.44
397.474	129.44
397.698	125.44
397.922	133.44
398.147	121.44
398.371	113.44
398.595	117.44
398.82	125.44
399.044	137.44
399.268	131.44
399.492	137.44
399.717	150.44
399.941	145.44
400.165	137.44
400.389	129.44
400.613	138.44
400.837	142.44
401.062	141.44
401.286	129.44
401.51	139.44
401.734	141.44
401.958	144.44
402.182	123.44
402.406	122.44
402.63	109.44
402.854	126.44
403.078	122.44
403.302	134.44
403.526	130.44
403.75	144.44
403.974	118.44
404.198	137.44
404.422	123.44
404.645	131.44
404.869	130.44
405.093	131.44
405.317	135.44
405.541	158.44
405.765	125.44
405.988	135.44
406.212	131.44
406.436	137.44
406.66	143.44
406.883	133.44
407.107	135.44
407.331	143.44
407.555	158.44
407.778	140.44
408.002	129.44
408.226	136.44
408.449	139.44
408.673	119.44
408.896	135.44
409.12	136.44
409.344	137.44
409.567	129.44
409.791	144.44
410.014	128.44
410.238	135.44
410.461	145.44
410.685	138.44
410.908	131.44
411.132	130.44
411.355	129.44
411.578	140.44
411.802	133.44
412.025	129.44
412.249	126.44
412.472	129.44
412.695	125.44
412.919	127.44
413.142	115.44
413.365	121.44
413.589	139.44
413.812	135.44
414.035	127.44
414.258	124.44
414.482	127.44
414.705	131.44
414.928	151.44
415.151	145.44
415.374	136.44
415.597	123.44
415.821	122.44
416.044	123.44
416.267	130.44
416.49	125.44
416.713	133.44
416.936	133.44
417.159	116.44
417.382	117.44
417.605	138.44
417.828	127.44
418.051	139.44
418.274	135.44
418.497	125.44
418.72	132.44
418.943	145.44
419.166	129.44
419.389	142.44
419.611	138.44
419.834	120.44
420.057	127.44
420.28	126.44
420.503	132.44
420.726	126.44
420.948	135.44
421.171	138.44
421.394	143.44
421.617	134.44
421.839	139.44
422.062	141.44
422.285	115.44
422.507	126.44
422.73	145.44
422.953	125.44
423.175	137.44
423.398	128.44
423.621	123.44
423.843	127.44
424.066	140.44
424.288	133.44
424.511	130.44
424.733	133.44
424.956	123.44
425.178	133.44
425.401	128.44
425.623	157.44
425.846	138.44
426.068	132.44
426.291	136.44
426.513	119.44
426.735	129.44
426.958	129.44
427.18	133.44
427.402	139.44
427.625	149.44
427.847	119.44
428.069	133.44
428.292	138.44
428.514	121.44
428.736	123.44
428.958	124.44
429.181	123.44
429.403	122.44
429.625	131.44
429.847	126.44
430.069	120.44
430.292	134.44
430.514	119.44
430.736	149.44
430.958	131.44
431.18	126.44
431.402	123.44
431.624	138.44
431.846	127.44
432.068	131.44
432.29	136.44
432.512	117.44
432.734	129.44
432.956	131.44
433.178	135.44
433.4	129.44
433.622	136.44
433.844	126.44
434.066	122.44
434.287	121.44
434.509	124.44
434.731	122.44
434.953	112.44
435.175	117.44
435.397	127.44
435.618	135.44
435.84	141.44
436.062	123.44
436.284	141.44
436.505	140.44
436.727	130.44
436.949	130.44
437.17	123.44
437.392	117.44
437.614	128.44
437.835	125.44
438.057	116.44
438.278	140.44
438.5	143.44
438.721	137.44
438.943	142.44
439.165	130.44
439.386	131.44
439.608	127.44
439.829	117.44
440.05	113.44
440.272	131.44
440.493	131.44
440.715	135.44
440.936	133.44
441.158	135.44
441.379	135.44
441.6	139.44
441.822	136.44
442.043	139.44
442.264	140.44
442.486	131.44
442.707	127.44
442.928	129.44
443.149	135.44
443.371	122.44
443.592	145.44
443.813	153.44
444.034	142.44
444.255	147.44
444.476	139.44
444.698	135.44
444.919	131.44
445.14	276.44
445.361	195.44
445.582	132.44
445.803	137.44
446.024	132.44
446.245	155.44
446.466	132.44
446.687	130.44
446.908	133.44
447.129	128.44
447.35	141.44
447.571	127.44
447.792	125.44
448.013	115.44
448.234	119.44
448.455	137.44
448.675	150.44
448.896	146.44
449.117	137.44
449.338	135.44
449.559	133.44
449.779	135.44
450	130.44
450.221	129.44
450.442	115.44
450.662	128.44
450.883	127.44
451.104	133.44
451.324	125.44
451.545	116.44
451.766	131.44
451.986	115.44
452.207	104.44
452.428	117.44
452.648	123.44
452.869	126.44
453.089	125.44
453.31	117.44
453.53	127.44
453.751	117.44
453.971	128.44
454.192	107.44
454.412	119.44
454.633	103.44
454.853	124.44
455.073	119.44
455.294	111.44
455.514	122.44
455.734	122.44
455.955	127.44
456.175	131.44
456.395	117.44
456.616	128.44
456.836	118.44
457.056	131.44
457.276	118.44
457.497	106.44
457.717	117.44
457.937	122.44
458.157	127.44
458.377	133.44
458.598	133.44
458.818	116.44
459.038	127.44
459.258	121.44
459.478	130.44
459.698	125.44
459.918	115.44
460.138	124.44
460.358	128.44
460.578	140.44
460.798	121.44
461.018	136.44
461.238	120.44
461.458	130.44
461.678	132.44
461.898	122.44
462.118	136.44
462.338	135.44
462.558	131.44
462.777	125.44
462.997	122.44
463.217	155.44
463.437	152.44
463.657	120.44
463.876	135.44
464.096	146.44
464.316	139.44
464.536	144.44
464.755	129.44
464.975	135.44
465.195	131.44
465.414	157.44
465.634	137.44
465.854	115.44
466.073	125.44
466.293	136.44
466.512	111.44
466.732	123.44
466.951	115.44
467.171	127.44
467.391	134.44
467.61	127.44
467.829	125.44
468.049	130.44
468.268	123.44
468.488	115.44
468.707	120.44
468.927	113.44
469.146	113.44
469.365	123.44
469.585	128.44
469.804	127.44
470.023	125.44
470.243	118.44
470.462	120.44
470.681	116.44
470.901	123.44
471.12	121.44
471.339	137.44
471.558	119.44
471.777	125.44
471.997	123.44
472.216	132.44
472.435	119.44
472.654	127.44
472.873	130.44
473.092	129.44
473.311	139.44
473.53	125.44
473.749	113.44
473.968	126.44
474.187	129.44
474.406	124.44
474.625	126.44
474.844	123.44
475.063	105.44
475.282	105.44
475.501	111.44
475.72	131.44
475.939	124.44
476.158	125.44
476.377	123.44
476.596	125.44
476.814	137.44
477.033	119.44
477.252	120.44
477.471	132.44
477.69	131.44
477.908	144.44
478.127	141.44
478.346	119.44
478.564	132.44
478.783	148.44
479.002	147.44
479.22	125.44
479.439	130.44
479.658	128.44
479.876	135.44
480.095	143.44
480.313	127.44
480.532	139.44
480.751	136.44
480.969	129.44
481.188	141.44
481.406	128.44
481.624	131.44
481.843	123.44
482.061	132.44
482.28	129.44
482.498	138.44
482.717	135.44
482.935	139.44
483.153	128.44
483.372	129.44
483.59	129.44
483.808	128.44
484.027	129.44
484.245	131.44
484.463	135.44
484.681	122.44
484.9	127.44
485.118	115.44
485.336	128.44
485.554	130.44
485.772	133.44
485.99	138.44
486.209	136.44
486.427	142.44
486.645	136.44
486.863	135.44
487.081	138.44
487.299	120.44
487.517	128.44
487.735	125.44
487.953	134.44
488.171	140.44
488.389	143.44
488.607	129.44
488.825	146.44
489.043	132.44
489.261	141.44
489.479	137.44
489.696	133.44
489.914	113.44
490.132	130.44
490.35	129.44
490.568	131.44
490.786	131.44
491.003	142.44
491.221	124.44
491.439	132.44
491.657	148.44
491.874	155.44
492.092	136.44
492.31	145.44
492.527	146.44
492.745	149.44
492.963	149.44
493.18	136.44
493.398	130.44
493.615	143.44
493.833	138.44
494.05	144.44
494.268	124.44
494.485	135.44
494.703	151.44
494.92	150.44
495.138	142.44
495.355	146.44
495.573	155.44
495.79	140.44
496.008	152.44
496.225	144.44
496.442	151.44
496.66	149.44
496.877	153.44
497.094	147.44
497.312	148.44
497.529	149.44
497.746	148.44
497.963	135.44
498.181	165.44
498.398	144.44
498.615	151.44
498.832	151.44
499.049	172.44
499.267	170.44
499.484	171.44
499.701	180.44
499.918	183.44
500.135	176.44
500.352	201.44
500.569	207.44
500.786	204.44
501.003	202.44
501.22	185.44
501.437	175.44
501.654	193.44
501.871	145.44
502.088	161.44
502.305	154.44
502.522	151.44
502.739	157.44
502.956	137.44
503.172	143.44
503.389	150.44
503.606	140.44
503.823	151.44
504.04	143.44
504.256	154.44
504.473	155.44
504.69	151.44
504.907	143.44
505.123	134.44
505.34	141.44
