Data from 1968.PennyLincolnUp.Lamp.En5.5.200Scan.071719.P1._HRD10591_14-49-12-969.txt Node
Date: Thu Jul 18 14:49:12 EDT 2019
User: cochatt
Spectrometer: HR+D1059
Trigger mode: 1
Integration Time (sec): 1.000000E-1
Scans to average: 1
Electric dark correction enabled: true
Nonlinearity correction enabled: false
Boxcar width: 0
XAxis mode: Wavelengths
Number of Pixels in Spectrum: 2048
>>>>>Begin Spectral Data<<<<<
223.165	-3.38
223.4	-3.38
223.635	-3.38
223.869	-6.38
224.104	-18.38
224.338	-10.38
224.573	-16.38
224.808	-9.38
225.042	-8.38
225.277	-11.38
225.511	-21.38
225.746	3.62
225.98	1.62
226.215	9.62
226.449	6.62
226.683	22.62
226.918	19.62
227.152	41.62
227.387	34.62
227.621	29.62
227.856	41.62
228.09	44.62
228.324	34.62
228.559	57.62
228.793	58.62
229.027	56.62
229.262	65.62
229.496	70.62
229.73	74.62
229.964	65.62
230.199	64.62
230.433	70.62
230.667	90.62
230.901	74.62
231.136	69.62
231.37	76.62
231.604	78.62
231.838	80.62
232.072	73.62
232.306	85.62
232.541	87.62
232.775	91.62
233.009	82.62
233.243	89.62
233.477	89.62
233.711	92.62
233.945	90.62
234.179	86.62
234.413	74.62
234.647	91.62
234.881	83.62
235.115	77.62
235.349	85.62
235.583	78.62
235.817	91.62
236.051	82.62
236.285	77.62
236.519	74.62
236.753	67.62
236.987	90.62
237.221	95.62
237.455	74.62
237.689	92.62
237.922	90.62
238.156	93.62
238.39	66.62
238.624	76.62
238.858	90.62
239.091	74.62
239.325	84.62
239.559	81.62
239.793	75.62
240.027	73.62
240.26	85.62
240.494	81.62
240.728	90.62
240.961	94.62
241.195	83.62
241.429	88.62
241.662	87.62
241.896	78.62
242.13	79.62
242.363	91.62
242.597	75.62
242.83	80.62
243.064	87.62
243.298	78.62
243.531	71.62
243.765	81.62
243.998	79.62
244.232	76.62
244.465	87.62
244.699	88.62
244.932	76.62
245.166	72.62
245.399	83.62
245.633	83.62
245.866	79.62
246.099	84.62
246.333	77.62
246.566	98.62
246.8	94.62
247.033	72.62
247.266	79.62
247.5	79.62
247.733	90.62
247.966	83.62
248.2	78.62
248.433	63.62
248.666	76.62
248.899	88.62
249.133	84.62
249.366	89.62
249.599	90.62
249.832	85.62
250.066	81.62
250.299	83.62
250.532	73.62
250.765	95.62
250.998	81.62
251.231	83.62
251.465	93.62
251.698	97.62
251.931	81.62
252.164	92.62
252.397	91.62
252.63	102.62
252.863	94.62
253.096	87.62
253.329	91.62
253.562	98.62
253.795	86.62
254.028	82.62
254.261	84.62
254.494	78.62
254.727	96.62
254.96	87.62
255.193	85.62
255.426	99.62
255.659	90.62
255.892	90.62
256.124	101.62
256.357	73.62
256.59	92.62
256.823	88.62
257.056	95.62
257.289	89.62
257.521	96.62
257.754	84.62
257.987	84.62
258.22	87.62
258.452	83.62
258.685	93.62
258.918	84.62
259.151	87.62
259.383	87.62
259.616	89.62
259.849	87.62
260.081	87.62
260.314	77.62
260.547	97.62
260.779	89.62
261.012	98.62
261.244	93.62
261.477	102.62
261.71	82.62
261.942	96.62
262.175	85.62
262.407	100.62
262.64	92.62
262.872	96.62
263.105	78.62
263.337	93.62
263.57	90.62
263.802	87.62
264.035	97.62
264.267	93.62
264.499	79.62
264.732	89.62
264.964	93.62
265.197	82.62
265.429	101.62
265.661	92.62
265.894	105.62
266.126	103.62
266.358	97.62
266.591	87.62
266.823	86.62
267.055	98.62
267.287	83.62
267.52	98.62
267.752	95.62
267.984	103.62
268.216	103.62
268.448	97.62
268.681	90.62
268.913	115.62
269.145	96.62
269.377	97.62
269.609	97.62
269.841	97.62
270.073	93.62
270.306	92.62
270.538	107.62
270.77	96.62
271.002	96.62
271.234	94.62
271.466	112.62
271.698	83.62
271.93	90.62
272.162	86.62
272.394	93.62
272.626	91.62
272.858	99.62
273.09	83.62
273.322	95.62
273.553	97.62
273.785	93.62
274.017	89.62
274.249	99.62
274.481	83.62
274.713	85.62
274.945	102.62
275.176	99.62
275.408	108.62
275.64	95.62
275.872	92.62
276.104	85.62
276.335	89.62
276.567	88.62
276.799	105.62
277.031	114.62
277.262	93.62
277.494	103.62
277.726	97.62
277.957	93.62
278.189	103.62
278.421	90.62
278.652	96.62
278.884	93.62
279.115	94.62
279.347	109.62
279.579	111.62
279.81	96.62
280.042	97.62
280.273	105.62
280.505	108.62
280.736	104.62
280.968	99.62
281.199	92.62
281.431	93.62
281.662	99.62
281.894	104.62
282.125	100.62
282.356	100.62
282.588	95.62
282.819	105.62
283.051	84.62
283.282	94.62
283.513	98.62
283.745	88.62
283.976	96.62
284.207	93.62
284.439	105.62
284.67	113.62
284.901	99.62
285.132	95.62
285.364	101.62
285.595	94.62
285.826	98.62
286.057	95.62
286.288	113.62
286.52	97.62
286.751	102.62
286.982	95.62
287.213	109.62
287.444	105.62
287.675	86.62
287.906	105.62
288.138	108.62
288.369	100.62
288.6	94.62
288.831	105.62
289.062	88.62
289.293	101.62
289.524	105.62
289.755	104.62
289.986	98.62
290.217	95.62
290.448	91.62
290.679	103.62
290.91	111.62
291.141	111.62
291.371	110.62
291.602	104.62
291.833	102.62
292.064	105.62
292.295	105.62
292.526	104.62
292.757	107.62
292.987	99.62
293.218	93.62
293.449	98.62
293.68	111.62
293.91	103.62
294.141	108.62
294.372	95.62
294.603	93.62
294.833	96.62
295.064	97.62
295.295	89.62
295.525	104.62
295.756	105.62
295.987	108.62
296.217	105.62
296.448	91.62
296.679	105.62
296.909	97.62
297.14	114.62
297.37	125.62
297.601	87.62
297.831	114.62
298.062	108.62
298.292	103.62
298.523	93.62
298.753	97.62
298.984	117.62
299.214	106.62
299.445	95.62
299.675	93.62
299.905	98.62
300.136	91.62
300.366	101.62
300.597	99.62
300.827	104.62
301.057	99.62
301.288	110.62
301.518	101.62
301.748	97.62
301.979	104.62
302.209	99.62
302.439	105.62
302.669	102.62
302.9	93.62
303.13	117.62
303.36	108.62
303.59	114.62
303.82	121.62
304.051	109.62
304.281	113.62
304.511	99.62
304.741	106.62
304.971	98.62
305.201	102.62
305.431	98.62
305.661	118.62
305.891	106.62
306.121	116.62
306.352	105.62
306.582	96.62
306.812	95.62
307.042	106.62
307.272	96.62
307.502	109.62
307.731	90.62
307.961	106.62
308.191	100.62
308.421	115.62
308.651	101.62
308.881	90.62
309.111	109.62
309.341	113.62
309.571	97.62
309.8	100.62
310.03	119.62
310.26	82.62
310.49	101.62
310.72	107.62
310.949	107.62
311.179	100.62
311.409	101.62
311.639	108.62
311.868	111.62
312.098	88.62
312.328	109.62
312.557	119.62
312.787	114.62
313.017	103.62
313.246	100.62
313.476	94.62
313.706	118.62
313.935	97.62
314.165	104.62
314.394	90.62
314.624	100.62
314.853	109.62
315.083	109.62
315.312	99.62
315.542	90.62
315.771	110.62
316.001	123.62
316.23	100.62
316.46	113.62
316.689	106.62
316.919	98.62
317.148	115.62
317.377	104.62
317.607	106.62
317.836	110.62
318.065	102.62
318.295	107.62
318.524	109.62
318.753	115.62
318.983	111.62
319.212	108.62
319.441	107.62
319.67	106.62
319.9	101.62
320.129	96.62
320.358	96.62
320.587	120.62
320.816	102.62
321.046	114.62
321.275	109.62
321.504	103.62
321.733	107.62
321.962	106.62
322.191	108.62
322.42	115.62
322.649	123.62
322.878	105.62
323.108	129.62
323.337	119.62
323.566	102.62
323.795	107.62
324.024	119.62
324.253	116.62
324.482	133.62
324.71	121.62
324.939	155.62
325.168	133.62
325.397	111.62
325.626	119.62
325.855	125.62
326.084	98.62
326.313	109.62
326.542	110.62
326.77	111.62
326.999	117.62
327.228	131.62
327.457	134.62
327.686	135.62
327.914	119.62
328.143	119.62
328.372	120.62
328.6	106.62
328.829	125.62
329.058	90.62
329.287	119.62
329.515	103.62
329.744	117.62
329.972	123.62
330.201	108.62
330.43	105.62
330.658	108.62
330.887	118.62
331.115	119.62
331.344	103.62
331.572	108.62
331.801	102.62
332.03	104.62
332.258	116.62
332.486	91.62
332.715	86.62
332.943	101.62
333.172	116.62
333.4	115.62
333.629	119.62
333.857	118.62
334.085	112.62
334.314	108.62
334.542	123.62
334.771	110.62
334.999	115.62
335.227	107.62
335.455	102.62
335.684	126.62
335.912	123.62
336.14	106.62
336.369	125.62
336.597	113.62
336.825	121.62
337.053	127.62
337.281	131.62
337.51	124.62
337.738	119.62
337.966	108.62
338.194	115.62
338.422	117.62
338.65	110.62
338.878	127.62
339.106	113.62
339.334	135.62
339.562	106.62
339.79	117.62
340.018	118.62
340.246	116.62
340.474	117.62
340.702	109.62
340.93	106.62
341.158	122.62
341.386	126.62
341.614	106.62
341.842	108.62
342.07	97.62
342.298	116.62
342.526	107.62
342.754	111.62
342.981	118.62
343.209	105.62
343.437	119.62
343.665	115.62
343.893	126.62
344.12	110.62
344.348	125.62
344.576	118.62
344.804	128.62
345.031	113.62
345.259	126.62
345.487	120.62
345.714	120.62
345.942	122.62
346.17	127.62
346.397	109.62
346.625	123.62
346.853	121.62
347.08	104.62
347.308	115.62
347.535	113.62
347.763	116.62
347.99	115.62
348.218	121.62
348.445	117.62
348.673	114.62
348.9	107.62
349.128	112.62
349.355	121.62
349.583	102.62
349.81	108.62
350.037	129.62
350.265	113.62
350.492	113.62
350.72	116.62
350.947	111.62
351.174	102.62
351.402	111.62
351.629	105.62
351.856	111.62
352.083	105.62
352.311	111.62
352.538	106.62
352.765	110.62
352.992	117.62
353.22	122.62
353.447	106.62
353.674	102.62
353.901	113.62
354.128	108.62
354.355	117.62
354.583	110.62
354.81	129.62
355.037	109.62
355.264	106.62
355.491	114.62
355.718	110.62
355.945	114.62
356.172	119.62
356.399	108.62
356.626	113.62
356.853	110.62
357.08	105.62
357.307	112.62
357.534	117.62
357.761	111.62
357.988	106.62
358.215	126.62
358.441	108.62
358.668	94.62
358.895	102.62
359.122	103.62
359.349	105.62
359.576	98.62
359.802	114.62
360.029	122.62
360.256	120.62
360.483	114.62
360.709	101.62
360.936	129.62
361.163	102.62
361.39	111.62
361.616	103.62
361.843	99.62
362.07	123.62
362.296	116.62
362.523	117.62
362.749	124.62
362.976	104.62
363.203	109.62
363.429	97.62
363.656	94.62
363.882	113.62
364.109	110.62
364.335	115.62
364.562	105.62
364.788	107.62
365.015	115.62
365.241	111.62
365.468	113.62
365.694	120.62
365.92	104.62
366.147	109.62
366.373	106.62
366.599	121.62
366.826	111.62
367.052	119.62
367.278	118.62
367.505	116.62
367.731	103.62
367.957	101.62
368.184	104.62
368.41	108.62
368.636	120.62
368.862	109.62
369.089	109.62
369.315	119.62
369.541	117.62
369.767	97.62
369.993	113.62
370.219	109.62
370.445	113.62
370.672	124.62
370.898	118.62
371.124	107.62
371.35	111.62
371.576	119.62
371.802	101.62
372.028	98.62
372.254	95.62
372.48	109.62
372.706	121.62
372.932	105.62
373.158	123.62
373.384	113.62
373.61	117.62
373.835	121.62
374.061	119.62
374.287	114.62
374.513	106.62
374.739	105.62
374.965	124.62
375.191	113.62
375.416	133.62
375.642	108.62
375.868	110.62
376.094	110.62
376.319	106.62
376.545	114.62
376.771	100.62
376.997	103.62
377.222	114.62
377.448	103.62
377.674	123.62
377.899	112.62
378.125	115.62
378.35	113.62
378.576	125.62
378.802	110.62
379.027	116.62
379.253	110.62
379.478	108.62
379.704	122.62
379.929	101.62
380.155	115.62
380.38	111.62
380.606	117.62
380.831	116.62
381.057	105.62
381.282	102.62
381.507	95.62
381.733	125.62
381.958	121.62
382.184	101.62
382.409	125.62
382.634	129.62
382.86	118.62
383.085	113.62
383.31	102.62
383.535	115.62
383.761	101.62
383.986	123.62
384.211	122.62
384.436	132.62
384.662	113.62
384.887	123.62
385.112	125.62
385.337	111.62
385.562	118.62
385.787	124.62
386.013	121.62
386.238	125.62
386.463	119.62
386.688	118.62
386.913	107.62
387.138	122.62
387.363	113.62
387.588	114.62
387.813	94.62
388.038	131.62
388.263	129.62
388.488	115.62
388.713	129.62
388.938	130.62
389.163	125.62
389.387	118.62
389.612	124.62
389.837	114.62
390.062	111.62
390.287	117.62
390.512	126.62
390.736	115.62
390.961	115.62
391.186	130.62
391.411	110.62
391.636	116.62
391.86	116.62
392.085	110.62
392.31	119.62
392.534	114.62
392.759	136.62
392.984	132.62
393.208	127.62
393.433	132.62
393.658	134.62
393.882	107.62
394.107	116.62
394.331	129.62
394.556	125.62
394.78	115.62
395.005	133.62
395.229	133.62
395.454	114.62
395.678	135.62
395.903	126.62
396.127	127.62
396.352	126.62
396.576	121.62
396.801	127.62
397.025	137.62
397.249	129.62
397.474	132.62
397.698	128.62
397.922	131.62
398.147	129.62
398.371	117.62
398.595	133.62
398.82	116.62
399.044	129.62
399.268	137.62
399.492	153.62
399.717	142.62
399.941	153.62
400.165	153.62
400.389	140.62
400.613	125.62
400.837	123.62
401.062	143.62
401.286	127.62
401.51	129.62
401.734	107.62
401.958	137.62
402.182	133.62
402.406	127.62
402.63	118.62
402.854	134.62
403.078	130.62
403.302	143.62
403.526	126.62
403.75	126.62
403.974	121.62
404.198	165.62
404.422	141.62
404.645	131.62
404.869	131.62
405.093	144.62
405.317	127.62
405.541	121.62
405.765	137.62
405.988	141.62
406.212	131.62
406.436	137.62
406.66	134.62
406.883	138.62
407.107	135.62
407.331	138.62
407.555	135.62
407.778	131.62
408.002	131.62
408.226	140.62
408.449	125.62
408.673	141.62
408.896	144.62
409.12	134.62
409.344	139.62
409.567	119.62
409.791	144.62
410.014	151.62
410.238	131.62
410.461	135.62
410.685	137.62
410.908	138.62
411.132	140.62
411.355	133.62
411.578	134.62
411.802	122.62
412.025	127.62
412.249	132.62
412.472	137.62
412.695	129.62
412.919	120.62
413.142	115.62
413.365	126.62
413.589	123.62
413.812	134.62
414.035	125.62
414.258	126.62
414.482	123.62
414.705	124.62
414.928	116.62
415.151	147.62
415.374	118.62
415.597	137.62
415.821	134.62
416.044	125.62
416.267	123.62
416.49	117.62
416.713	125.62
416.936	135.62
417.159	136.62
417.382	122.62
417.605	130.62
417.828	131.62
418.051	130.62
418.274	129.62
418.497	129.62
418.72	133.62
418.943	130.62
419.166	141.62
419.389	124.62
419.611	122.62
419.834	128.62
420.057	135.62
420.28	138.62
420.503	131.62
420.726	143.62
420.948	143.62
421.171	130.62
421.394	131.62
421.617	132.62
421.839	139.62
422.062	131.62
422.285	128.62
422.507	139.62
422.73	145.62
422.953	127.62
423.175	133.62
423.398	139.62
423.621	138.62
423.843	123.62
424.066	125.62
424.288	135.62
424.511	133.62
424.733	127.62
424.956	129.62
425.178	123.62
425.401	131.62
425.623	131.62
425.846	131.62
426.068	124.62
426.291	121.62
426.513	123.62
426.735	123.62
426.958	117.62
427.18	138.62
427.402	137.62
427.625	133.62
427.847	125.62
428.069	134.62
428.292	129.62
428.514	122.62
428.736	113.62
428.958	122.62
429.181	127.62
429.403	113.62
429.625	134.62
429.847	129.62
430.069	133.62
430.292	123.62
430.514	129.62
430.736	116.62
430.958	120.62
431.18	127.62
431.402	120.62
431.624	121.62
431.846	122.62
432.068	125.62
432.29	106.62
432.512	125.62
432.734	120.62
432.956	134.62
433.178	128.62
433.4	105.62
433.622	113.62
433.844	121.62
434.066	117.62
434.287	126.62
434.509	122.62
434.731	138.62
434.953	135.62
435.175	139.62
435.397	152.62
435.618	123.62
435.84	119.62
436.062	132.62
436.284	148.62
436.505	129.62
436.727	143.62
436.949	127.62
437.17	113.62
437.392	134.62
437.614	131.62
437.835	131.62
438.057	115.62
438.278	125.62
438.5	136.62
438.721	138.62
438.943	139.62
439.165	132.62
439.386	124.62
439.608	133.62
439.829	127.62
440.05	147.62
440.272	118.62
440.493	109.62
440.715	140.62
440.936	123.62
441.158	131.62
441.379	124.62
441.6	126.62
441.822	136.62
442.043	132.62
442.264	141.62
442.486	123.62
442.707	137.62
442.928	144.62
443.149	135.62
443.371	146.62
443.592	143.62
443.813	125.62
444.034	138.62
444.255	151.62
444.476	133.62
444.698	143.62
444.919	137.62
445.14	262.62
445.361	179.62
445.582	141.62
445.803	144.62
446.024	137.62
446.245	144.62
446.466	150.62
446.687	130.62
446.908	121.62
447.129	122.62
447.35	139.62
447.571	123.62
447.792	116.62
448.013	129.62
448.234	129.62
448.455	122.62
448.675	119.62
448.896	127.62
449.117	121.62
449.338	123.62
449.559	119.62
449.779	135.62
450	121.62
450.221	135.62
450.442	128.62
450.662	119.62
450.883	126.62
451.104	122.62
451.324	132.62
451.545	107.62
451.766	125.62
451.986	123.62
452.207	114.62
452.428	120.62
452.648	124.62
452.869	126.62
453.089	136.62
453.31	116.62
453.53	106.62
453.751	127.62
453.971	124.62
454.192	117.62
454.412	117.62
454.633	107.62
454.853	115.62
455.073	127.62
455.294	121.62
455.514	133.62
455.734	121.62
455.955	125.62
456.175	120.62
456.395	120.62
456.616	126.62
456.836	122.62
457.056	118.62
457.276	122.62
457.497	118.62
457.717	124.62
457.937	115.62
458.157	123.62
458.377	123.62
458.598	118.62
458.818	123.62
459.038	127.62
459.258	123.62
459.478	125.62
459.698	118.62
459.918	137.62
460.138	127.62
460.358	130.62
460.578	139.62
460.798	133.62
461.018	139.62
461.238	142.62
461.458	128.62
461.678	134.62
461.898	129.62
462.118	134.62
462.338	139.62
462.558	127.62
462.777	130.62
462.997	141.62
463.217	138.62
463.437	123.62
463.657	141.62
463.876	116.62
464.096	139.62
464.316	149.62
464.536	133.62
464.755	128.62
464.975	133.62
465.195	133.62
465.414	136.62
465.634	135.62
465.854	119.62
466.073	127.62
466.293	118.62
466.512	123.62
466.732	117.62
466.951	122.62
467.171	125.62
467.391	118.62
467.61	119.62
467.829	116.62
468.049	132.62
468.268	115.62
468.488	128.62
468.707	122.62
468.927	140.62
469.146	121.62
469.365	129.62
469.585	134.62
469.804	129.62
470.023	126.62
470.243	138.62
470.462	127.62
470.681	135.62
470.901	126.62
471.12	129.62
471.339	121.62
471.558	127.62
471.777	125.62
471.997	115.62
472.216	113.62
472.435	127.62
472.654	132.62
472.873	134.62
473.092	124.62
473.311	112.62
473.53	118.62
473.749	129.62
473.968	127.62
474.187	131.62
474.406	127.62
474.625	121.62
474.844	135.62
475.063	129.62
475.282	123.62
475.501	115.62
475.72	134.62
475.939	123.62
476.158	135.62
476.377	118.62
476.596	124.62
476.814	129.62
477.033	121.62
477.252	134.62
477.471	121.62
477.69	123.62
477.908	141.62
478.127	127.62
478.346	125.62
478.564	137.62
478.783	132.62
479.002	126.62
479.22	140.62
479.439	124.62
479.658	130.62
479.876	134.62
480.095	120.62
480.313	137.62
480.532	150.62
480.751	153.62
480.969	140.62
481.188	156.62
481.406	136.62
481.624	137.62
481.843	125.62
482.061	131.62
482.28	125.62
482.498	122.62
482.717	128.62
482.935	113.62
483.153	139.62
483.372	128.62
483.59	140.62
483.808	124.62
484.027	141.62
484.245	134.62
484.463	137.62
484.681	157.62
484.9	143.62
485.118	143.62
485.336	136.62
485.554	143.62
485.772	139.62
485.99	146.62
486.209	131.62
486.427	135.62
486.645	136.62
486.863	135.62
487.081	140.62
487.299	140.62
487.517	145.62
487.735	132.62
487.953	137.62
488.171	147.62
488.389	143.62
488.607	144.62
488.825	143.62
489.043	144.62
489.261	135.62
489.479	146.62
489.696	148.62
489.914	128.62
490.132	126.62
490.35	148.62
490.568	127.62
490.786	144.62
491.003	131.62
491.221	142.62
491.439	142.62
491.657	141.62
491.874	148.62
492.092	155.62
492.31	145.62
492.527	147.62
492.745	150.62
492.963	152.62
493.18	129.62
493.398	148.62
493.615	150.62
493.833	145.62
494.05	129.62
494.268	146.62
494.485	155.62
494.703	146.62
494.92	157.62
495.138	121.62
495.355	155.62
495.573	145.62
495.79	143.62
496.008	147.62
496.225	133.62
496.442	150.62
496.66	156.62
496.877	153.62
497.094	156.62
497.312	141.62
497.529	129.62
497.746	155.62
497.963	140.62
498.181	170.62
498.398	152.62
498.615	165.62
498.832	156.62
499.049	169.62
499.267	170.62
499.484	175.62
499.701	185.62
499.918	198.62
500.135	179.62
500.352	222.62
500.569	228.62
500.786	217.62
501.003	220.62
501.22	189.62
501.437	177.62
501.654	184.62
501.871	172.62
502.088	160.62
502.305	152.62
502.522	164.62
502.739	149.62
502.956	155.62
503.172	156.62
503.389	147.62
503.606	154.62
503.823	142.62
504.04	158.62
504.256	132.62
504.473	158.62
504.69	147.62
504.907	147.62
505.123	132.62
505.34	149.62
505.557	149.62
505.773	144.62
505.99	139.62
