Data from 1968.PennyLincolnUp.Lamp.En5.5.200Scan.071719.P1._HRD10591_14-52-12-970.txt Node
Date: Thu Jul 18 14:52:12 EDT 2019
User: cochatt
Spectrometer: HR+D1059
Trigger mode: 1
Integration Time (sec): 1.000000E-1
Scans to average: 1
Electric dark correction enabled: true
Nonlinearity correction enabled: false
Boxcar width: 0
XAxis mode: Wavelengths
Number of Pixels in Spectrum: 2048
>>>>>Begin Spectral Data<<<<<
223.165	-21.56
223.4	-21.56
223.635	-21.56
223.869	-15.56
224.104	-5.56
224.338	-25.56
224.573	-22.56
224.808	-7.56
225.042	-8.56
225.277	-15.56
225.511	-11.56
225.746	7.44
225.98	3.44
226.215	18.44
226.449	12.44
226.683	12.44
226.918	44.44
227.152	35.44
227.387	17.44
227.621	38.44
227.856	53.44
228.09	48.44
228.324	40.44
228.559	59.44
228.793	67.44
229.027	69.44
229.262	72.44
229.496	64.44
229.73	62.44
229.964	68.44
230.199	61.44
230.433	75.44
230.667	78.44
230.901	80.44
231.136	87.44
231.37	81.44
231.604	77.44
231.838	103.44
232.072	74.44
232.306	81.44
232.541	63.44
232.775	69.44
233.009	84.44
233.243	76.44
233.477	94.44
233.711	92.44
233.945	80.44
234.179	80.44
234.413	80.44
234.647	86.44
234.881	83.44
235.115	76.44
235.349	92.44
235.583	86.44
235.817	87.44
236.051	91.44
236.285	87.44
236.519	84.44
236.753	61.44
236.987	83.44
237.221	95.44
237.455	94.44
237.689	79.44
237.922	101.44
238.156	85.44
238.39	90.44
238.624	83.44
238.858	92.44
239.091	86.44
239.325	80.44
239.559	68.44
239.793	75.44
240.027	97.44
240.26	86.44
240.494	93.44
240.728	77.44
240.961	85.44
241.195	88.44
241.429	86.44
241.662	68.44
241.896	79.44
242.13	88.44
242.363	99.44
242.597	71.44
242.83	83.44
243.064	78.44
243.298	105.44
243.531	68.44
243.765	86.44
243.998	86.44
244.232	75.44
244.465	84.44
244.699	88.44
244.932	91.44
245.166	89.44
245.399	90.44
245.633	77.44
245.866	76.44
246.099	82.44
246.333	70.44
246.566	80.44
246.8	85.44
247.033	77.44
247.266	82.44
247.5	89.44
247.733	88.44
247.966	86.44
248.2	89.44
248.433	97.44
248.666	86.44
248.899	84.44
249.133	83.44
249.366	93.44
249.599	90.44
249.832	96.44
250.066	93.44
250.299	97.44
250.532	84.44
250.765	86.44
250.998	83.44
251.231	80.44
251.465	77.44
251.698	76.44
251.931	101.44
252.164	93.44
252.397	95.44
252.63	86.44
252.863	104.44
253.096	96.44
253.329	97.44
253.562	87.44
253.795	100.44
254.028	114.44
254.261	86.44
254.494	85.44
254.727	93.44
254.96	97.44
255.193	103.44
255.426	104.44
255.659	106.44
255.892	87.44
256.124	84.44
256.357	98.44
256.59	76.44
256.823	100.44
257.056	94.44
257.289	92.44
257.521	92.44
257.754	67.44
257.987	81.44
258.22	96.44
258.452	94.44
258.685	92.44
258.918	81.44
259.151	92.44
259.383	77.44
259.616	94.44
259.849	68.44
260.081	105.44
260.314	94.44
260.547	89.44
260.779	82.44
261.012	114.44
261.244	99.44
261.477	93.44
261.71	88.44
261.942	103.44
262.175	101.44
262.407	85.44
262.64	98.44
262.872	104.44
263.105	88.44
263.337	92.44
263.57	105.44
263.802	90.44
264.035	92.44
264.267	87.44
264.499	113.44
264.732	93.44
264.964	97.44
265.197	91.44
265.429	105.44
265.661	98.44
265.894	88.44
266.126	98.44
266.358	100.44
266.591	89.44
266.823	101.44
267.055	101.44
267.287	94.44
267.52	101.44
267.752	97.44
267.984	96.44
268.216	88.44
268.448	106.44
268.681	114.44
268.913	96.44
269.145	88.44
269.377	96.44
269.609	82.44
269.841	98.44
270.073	98.44
270.306	101.44
270.538	96.44
270.77	97.44
271.002	107.44
271.234	87.44
271.466	103.44
271.698	105.44
271.93	92.44
272.162	89.44
272.394	103.44
272.626	105.44
272.858	92.44
273.09	100.44
273.322	93.44
273.553	103.44
273.785	114.44
274.017	90.44
274.249	96.44
274.481	105.44
274.713	93.44
274.945	111.44
275.176	104.44
275.408	91.44
275.64	102.44
275.872	103.44
276.104	87.44
276.335	96.44
276.567	106.44
276.799	102.44
277.031	92.44
277.262	103.44
277.494	101.44
277.726	99.44
277.957	92.44
278.189	109.44
278.421	103.44
278.652	96.44
278.884	105.44
279.115	93.44
279.347	98.44
279.579	116.44
279.81	100.44
280.042	107.44
280.273	106.44
280.505	92.44
280.736	93.44
280.968	88.44
281.199	102.44
281.431	116.44
281.662	104.44
281.894	98.44
282.125	108.44
282.356	100.44
282.588	103.44
282.819	98.44
283.051	92.44
283.282	100.44
283.513	100.44
283.745	92.44
283.976	93.44
284.207	100.44
284.439	102.44
284.67	93.44
284.901	92.44
285.132	102.44
285.364	104.44
285.595	96.44
285.826	103.44
286.057	104.44
286.288	92.44
286.52	109.44
286.751	109.44
286.982	101.44
287.213	107.44
287.444	95.44
287.675	103.44
287.906	97.44
288.138	100.44
288.369	91.44
288.6	110.44
288.831	110.44
289.062	95.44
289.293	110.44
289.524	110.44
289.755	103.44
289.986	93.44
290.217	106.44
290.448	111.44
290.679	115.44
290.91	108.44
291.141	92.44
291.371	95.44
291.602	97.44
291.833	125.44
292.064	103.44
292.295	97.44
292.526	97.44
292.757	99.44
292.987	95.44
293.218	109.44
293.449	106.44
293.68	112.44
293.91	110.44
294.141	98.44
294.372	118.44
294.603	113.44
294.833	102.44
295.064	93.44
295.295	122.44
295.525	127.44
295.756	113.44
295.987	92.44
296.217	91.44
296.448	113.44
296.679	100.44
296.909	106.44
297.14	110.44
297.37	113.44
297.601	115.44
297.831	118.44
298.062	113.44
298.292	93.44
298.523	97.44
298.753	92.44
298.984	109.44
299.214	93.44
299.445	106.44
299.675	103.44
299.905	108.44
300.136	105.44
300.366	114.44
300.597	116.44
300.827	103.44
301.057	100.44
301.288	118.44
301.518	101.44
301.748	108.44
301.979	95.44
302.209	101.44
302.439	109.44
302.669	103.44
302.9	105.44
303.13	117.44
303.36	117.44
303.59	97.44
303.82	106.44
304.051	113.44
304.281	102.44
304.511	108.44
304.741	93.44
304.971	105.44
305.201	96.44
305.431	109.44
305.661	120.44
305.891	92.44
306.121	124.44
306.352	101.44
306.582	106.44
306.812	103.44
307.042	94.44
307.272	118.44
307.502	117.44
307.731	119.44
307.961	98.44
308.191	111.44
308.421	98.44
308.651	110.44
308.881	127.44
309.111	116.44
309.341	103.44
309.571	105.44
309.8	127.44
310.03	128.44
310.26	102.44
310.49	94.44
310.72	116.44
310.949	113.44
311.179	113.44
311.409	108.44
311.639	105.44
311.868	117.44
312.098	132.44
312.328	109.44
312.557	110.44
312.787	104.44
313.017	116.44
313.246	109.44
313.476	100.44
313.706	117.44
313.935	119.44
314.165	102.44
314.394	106.44
314.624	122.44
314.853	93.44
315.083	104.44
315.312	110.44
315.542	114.44
315.771	119.44
316.001	127.44
316.23	105.44
316.46	111.44
316.689	102.44
316.919	116.44
317.148	105.44
317.377	116.44
317.607	111.44
317.836	112.44
318.065	111.44
318.295	104.44
318.524	128.44
318.753	124.44
318.983	119.44
319.212	112.44
319.441	104.44
319.67	104.44
319.9	103.44
320.129	120.44
320.358	120.44
320.587	107.44
320.816	111.44
321.046	111.44
321.275	121.44
321.504	108.44
321.733	111.44
321.962	97.44
322.191	106.44
322.42	112.44
322.649	117.44
322.878	112.44
323.108	108.44
323.337	103.44
323.566	106.44
323.795	116.44
324.024	110.44
324.253	128.44
324.482	140.44
324.71	161.44
324.939	194.44
325.168	176.44
325.397	129.44
325.626	118.44
325.855	118.44
326.084	117.44
326.313	126.44
326.542	119.44
326.77	112.44
326.999	129.44
327.228	147.44
327.457	145.44
327.686	179.44
327.914	130.44
328.143	121.44
328.372	124.44
328.6	125.44
328.829	129.44
329.058	126.44
329.287	107.44
329.515	105.44
329.744	119.44
329.972	119.44
330.201	119.44
330.43	116.44
330.658	109.44
330.887	118.44
331.115	118.44
331.344	114.44
331.572	110.44
331.801	117.44
332.03	124.44
332.258	118.44
332.486	110.44
332.715	114.44
332.943	117.44
333.172	110.44
333.4	114.44
333.629	120.44
333.857	123.44
334.085	125.44
334.314	104.44
334.542	114.44
334.771	121.44
334.999	139.44
335.227	132.44
335.455	133.44
335.684	113.44
335.912	126.44
336.14	107.44
336.369	120.44
336.597	110.44
336.825	118.44
337.053	109.44
337.281	116.44
337.51	104.44
337.738	98.44
337.966	101.44
338.194	119.44
338.422	107.44
338.65	120.44
338.878	120.44
339.106	106.44
339.334	98.44
339.562	113.44
339.79	105.44
340.018	111.44
340.246	124.44
340.474	105.44
340.702	115.44
340.93	104.44
341.158	96.44
341.386	109.44
341.614	120.44
341.842	100.44
342.07	118.44
342.298	118.44
342.526	118.44
342.754	109.44
342.981	116.44
343.209	105.44
343.437	102.44
343.665	101.44
343.893	127.44
344.12	113.44
344.348	129.44
344.576	122.44
344.804	111.44
345.031	94.44
345.259	124.44
345.487	112.44
345.714	122.44
345.942	112.44
346.17	103.44
346.397	118.44
346.625	110.44
346.853	121.44
347.08	109.44
347.308	113.44
347.535	126.44
347.763	112.44
347.99	119.44
348.218	116.44
348.445	109.44
348.673	113.44
348.9	102.44
349.128	113.44
349.355	120.44
349.583	118.44
349.81	120.44
350.037	124.44
350.265	103.44
350.492	113.44
350.72	103.44
350.947	98.44
351.174	119.44
351.402	111.44
351.629	119.44
351.856	109.44
352.083	103.44
352.311	123.44
352.538	121.44
352.765	111.44
352.992	111.44
353.22	112.44
353.447	97.44
353.674	111.44
353.901	110.44
354.128	105.44
354.355	104.44
354.583	107.44
354.81	119.44
355.037	111.44
355.264	111.44
355.491	114.44
355.718	107.44
355.945	113.44
356.172	109.44
356.399	102.44
356.626	116.44
356.853	117.44
357.08	115.44
357.307	108.44
357.534	119.44
357.761	98.44
357.988	128.44
358.215	113.44
358.441	106.44
358.668	109.44
358.895	114.44
359.122	130.44
359.349	105.44
359.576	121.44
359.802	104.44
360.029	108.44
360.256	117.44
360.483	110.44
360.709	134.44
360.936	114.44
361.163	123.44
361.39	113.44
361.616	113.44
361.843	102.44
362.07	100.44
362.296	111.44
362.523	104.44
362.749	104.44
362.976	106.44
363.203	122.44
363.429	116.44
363.656	110.44
363.882	95.44
364.109	103.44
364.335	116.44
364.562	114.44
364.788	116.44
365.015	118.44
365.241	117.44
365.468	104.44
365.694	113.44
365.92	117.44
366.147	121.44
366.373	120.44
366.599	122.44
366.826	106.44
367.052	121.44
367.278	121.44
367.505	127.44
367.731	120.44
367.957	120.44
368.184	98.44
368.41	109.44
368.636	96.44
368.862	109.44
369.089	106.44
369.315	122.44
369.541	115.44
369.767	112.44
369.993	124.44
370.219	94.44
370.445	123.44
370.672	124.44
370.898	117.44
371.124	104.44
371.35	119.44
371.576	108.44
371.802	125.44
372.028	109.44
372.254	117.44
372.48	125.44
372.706	123.44
372.932	115.44
373.158	104.44
373.384	107.44
373.61	108.44
373.835	113.44
374.061	120.44
374.287	116.44
374.513	108.44
374.739	126.44
374.965	129.44
375.191	134.44
375.416	118.44
375.642	107.44
375.868	120.44
376.094	112.44
376.319	125.44
376.545	116.44
376.771	113.44
376.997	104.44
377.222	137.44
377.448	121.44
377.674	120.44
377.899	118.44
378.125	117.44
378.35	111.44
378.576	109.44
378.802	107.44
379.027	118.44
379.253	118.44
379.478	123.44
379.704	128.44
379.929	122.44
380.155	110.44
380.38	108.44
380.606	119.44
380.831	124.44
381.057	124.44
381.282	104.44
381.507	120.44
381.733	125.44
381.958	97.44
382.184	112.44
382.409	106.44
382.634	110.44
382.86	130.44
383.085	116.44
383.31	125.44
383.535	120.44
383.761	101.44
383.986	110.44
384.211	122.44
384.436	108.44
384.662	104.44
384.887	129.44
385.112	119.44
385.337	114.44
385.562	128.44
385.787	131.44
386.013	129.44
386.238	121.44
386.463	120.44
386.688	124.44
386.913	130.44
387.138	120.44
387.363	112.44
387.588	111.44
387.813	119.44
388.038	136.44
388.263	112.44
388.488	109.44
388.713	121.44
388.938	117.44
389.163	122.44
389.387	118.44
389.612	120.44
389.837	124.44
390.062	123.44
390.287	121.44
390.512	129.44
390.736	126.44
390.961	107.44
391.186	134.44
391.411	121.44
391.636	119.44
391.86	130.44
392.085	123.44
392.31	124.44
392.534	110.44
392.759	122.44
392.984	116.44
393.208	122.44
393.433	116.44
393.658	111.44
393.882	123.44
394.107	128.44
394.331	124.44
394.556	122.44
394.78	128.44
395.005	128.44
395.229	116.44
395.454	128.44
395.678	128.44
395.903	133.44
396.127	110.44
396.352	126.44
396.576	125.44
396.801	132.44
397.025	117.44
397.249	97.44
397.474	123.44
397.698	128.44
397.922	135.44
398.147	126.44
398.371	127.44
398.595	135.44
398.82	136.44
399.044	128.44
399.268	132.44
399.492	144.44
399.717	147.44
399.941	158.44
400.165	145.44
400.389	144.44
400.613	126.44
400.837	129.44
401.062	131.44
401.286	125.44
401.51	136.44
401.734	143.44
401.958	144.44
402.182	143.44
402.406	132.44
402.63	126.44
402.854	128.44
403.078	125.44
403.302	142.44
403.526	144.44
403.75	144.44
403.974	126.44
404.198	136.44
404.422	143.44
404.645	121.44
404.869	134.44
405.093	139.44
405.317	140.44
405.541	129.44
405.765	123.44
405.988	138.44
406.212	143.44
406.436	132.44
406.66	146.44
406.883	129.44
407.107	136.44
407.331	134.44
407.555	148.44
407.778	154.44
408.002	153.44
408.226	132.44
408.449	140.44
408.673	142.44
408.896	135.44
409.12	137.44
409.344	127.44
409.567	136.44
409.791	133.44
410.014	132.44
410.238	129.44
410.461	125.44
410.685	138.44
410.908	142.44
411.132	132.44
411.355	125.44
411.578	129.44
411.802	138.44
412.025	124.44
412.249	129.44
412.472	130.44
412.695	127.44
412.919	138.44
413.142	134.44
413.365	126.44
413.589	129.44
413.812	141.44
414.035	140.44
414.258	123.44
414.482	117.44
414.705	124.44
414.928	142.44
415.151	127.44
415.374	120.44
415.597	129.44
415.821	136.44
416.044	144.44
416.267	137.44
416.49	126.44
416.713	129.44
416.936	123.44
417.159	120.44
417.382	119.44
417.605	141.44
417.828	145.44
418.051	138.44
418.274	144.44
418.497	137.44
418.72	125.44
418.943	137.44
419.166	132.44
419.389	127.44
419.611	140.44
419.834	132.44
420.057	135.44
420.28	129.44
420.503	133.44
420.726	126.44
420.948	125.44
421.171	129.44
421.394	139.44
421.617	128.44
421.839	136.44
422.062	128.44
422.285	155.44
422.507	127.44
422.73	152.44
422.953	152.44
423.175	142.44
423.398	146.44
423.621	135.44
423.843	133.44
424.066	151.44
424.288	140.44
424.511	145.44
424.733	138.44
424.956	147.44
425.178	136.44
425.401	145.44
425.623	151.44
425.846	146.44
426.068	126.44
426.291	134.44
426.513	126.44
426.735	120.44
426.958	128.44
427.18	135.44
427.402	137.44
427.625	130.44
427.847	129.44
428.069	125.44
428.292	124.44
428.514	122.44
428.736	134.44
428.958	114.44
429.181	122.44
429.403	128.44
429.625	140.44
429.847	119.44
430.069	131.44
430.292	157.44
430.514	128.44
430.736	130.44
430.958	130.44
431.18	140.44
431.402	130.44
431.624	124.44
431.846	143.44
432.068	120.44
432.29	122.44
432.512	127.44
432.734	143.44
432.956	115.44
433.178	122.44
433.4	130.44
433.622	129.44
433.844	139.44
434.066	149.44
434.287	126.44
434.509	127.44
434.731	136.44
434.953	126.44
435.175	129.44
435.397	130.44
435.618	129.44
435.84	139.44
436.062	161.44
436.284	141.44
436.505	136.44
436.727	119.44
436.949	133.44
437.17	123.44
437.392	128.44
437.614	129.44
437.835	113.44
438.057	124.44
438.278	145.44
438.5	123.44
438.721	133.44
438.943	140.44
439.165	133.44
439.386	117.44
439.608	125.44
439.829	122.44
440.05	129.44
440.272	130.44
440.493	133.44
440.715	131.44
440.936	120.44
441.158	151.44
441.379	137.44
441.6	128.44
441.822	130.44
442.043	146.44
442.264	135.44
442.486	138.44
442.707	142.44
442.928	140.44
443.149	125.44
443.371	162.44
443.592	134.44
443.813	155.44
444.034	139.44
444.255	139.44
444.476	131.44
444.698	134.44
444.919	138.44
445.14	266.44
445.361	184.44
445.582	142.44
445.803	144.44
446.024	137.44
446.245	124.44
446.466	148.44
446.687	129.44
446.908	144.44
447.129	123.44
447.35	131.44
447.571	114.44
447.792	144.44
448.013	125.44
448.234	124.44
448.455	129.44
448.675	142.44
448.896	143.44
449.117	137.44
449.338	136.44
449.559	144.44
449.779	152.44
450	136.44
450.221	136.44
450.442	109.44
450.662	128.44
450.883	136.44
451.104	119.44
451.324	112.44
451.545	113.44
451.766	130.44
451.986	116.44
452.207	125.44
452.428	134.44
452.648	133.44
452.869	128.44
453.089	106.44
453.31	112.44
453.53	113.44
453.751	106.44
453.971	118.44
454.192	126.44
454.412	108.44
454.633	121.44
454.853	139.44
455.073	128.44
455.294	125.44
455.514	126.44
455.734	125.44
455.955	118.44
456.175	109.44
456.395	118.44
456.616	111.44
456.836	114.44
457.056	120.44
457.276	117.44
457.497	121.44
457.717	122.44
457.937	122.44
458.157	120.44
458.377	118.44
458.598	125.44
458.818	130.44
459.038	125.44
459.258	121.44
459.478	120.44
459.698	118.44
459.918	114.44
460.138	129.44
460.358	128.44
460.578	111.44
460.798	142.44
461.018	142.44
461.238	142.44
461.458	136.44
461.678	132.44
461.898	128.44
462.118	136.44
462.338	133.44
462.558	135.44
462.777	137.44
462.997	122.44
463.217	134.44
463.437	146.44
463.657	158.44
463.876	136.44
464.096	136.44
464.316	135.44
464.536	139.44
464.755	138.44
464.975	129.44
465.195	152.44
465.414	132.44
465.634	143.44
465.854	132.44
466.073	133.44
466.293	127.44
466.512	125.44
466.732	130.44
466.951	124.44
467.171	128.44
467.391	123.44
467.61	139.44
467.829	128.44
468.049	129.44
468.268	108.44
468.488	136.44
468.707	132.44
468.927	125.44
469.146	143.44
469.365	124.44
469.585	115.44
469.804	122.44
470.023	138.44
470.243	121.44
470.462	136.44
470.681	114.44
470.901	130.44
471.12	121.44
471.339	120.44
471.558	134.44
471.777	110.44
471.997	132.44
472.216	125.44
472.435	139.44
472.654	138.44
472.873	122.44
473.092	125.44
473.311	136.44
473.53	127.44
473.749	125.44
473.968	130.44
474.187	135.44
474.406	143.44
474.625	138.44
474.844	136.44
475.063	117.44
475.282	108.44
475.501	122.44
475.72	130.44
475.939	123.44
476.158	118.44
476.377	120.44
476.596	121.44
476.814	116.44
477.033	124.44
477.252	113.44
477.471	123.44
477.69	132.44
477.908	136.44
478.127	143.44
478.346	122.44
478.564	129.44
478.783	136.44
479.002	146.44
479.22	140.44
479.439	135.44
479.658	124.44
479.876	152.44
480.095	152.44
480.313	143.44
480.532	137.44
480.751	144.44
480.969	150.44
481.188	137.44
481.406	138.44
481.624	124.44
481.843	127.44
482.061	126.44
482.28	142.44
482.498	130.44
482.717	116.44
482.935	134.44
483.153	140.44
483.372	139.44
483.59	135.44
483.808	127.44
484.027	137.44
484.245	133.44
484.463	133.44
484.681	139.44
484.9	127.44
485.118	138.44
485.336	133.44
485.554	128.44
485.772	122.44
485.99	133.44
486.209	125.44
486.427	139.44
486.645	121.44
486.863	130.44
487.081	139.44
487.299	141.44
487.517	137.44
487.735	131.44
487.953	138.44
488.171	141.44
488.389	127.44
488.607	130.44
488.825	138.44
489.043	141.44
489.261	136.44
489.479	128.44
489.696	140.44
489.914	129.44
490.132	143.44
490.35	131.44
490.568	155.44
490.786	140.44
491.003	136.44
491.221	146.44
491.439	135.44
491.657	151.44
491.874	154.44
492.092	155.44
492.31	159.44
492.527	138.44
492.745	159.44
492.963	146.44
493.18	145.44
493.398	132.44
493.615	138.44
493.833	136.44
494.05	136.44
494.268	143.44
494.485	143.44
494.703	150.44
494.92	150.44
495.138	154.44
495.355	145.44
495.573	149.44
495.79	152.44
496.008	151.44
496.225	141.44
496.442	155.44
496.66	145.44
496.877	151.44
497.094	159.44
497.312	156.44
497.529	142.44
497.746	162.44
497.963	140.44
498.181	166.44
498.398	162.44
498.615	158.44
498.832	164.44
499.049	168.44
499.267	157.44
499.484	171.44
499.701	190.44
499.918	189.44
500.135	198.44
500.352	213.44
500.569	209.44
500.786	211.44
501.003	193.44
501.22	202.44
501.437	199.44
501.654	188.44
501.871	156.44
502.088	165.44
502.305	162.44
502.522	154.44
502.739	156.44
502.956	157.44
503.172	146.44
503.389	148.44
503.606	151.44
503.823	146.44
504.04	145.44
504.256	160.44
504.473	144.44
504.69	160.44
504.907	143.44
505.123	144.44
