Data from 1968.PennyLincolnUp.Lamp.En5.5.200Scan.071719.P1._HRD10591_14-49-53-969.txt Node
Date: Thu Jul 18 14:49:53 EDT 2019
User: cochatt
Spectrometer: HR+D1059
Trigger mode: 1
Integration Time (sec): 1.000000E-1
Scans to average: 1
Electric dark correction enabled: true
Nonlinearity correction enabled: false
Boxcar width: 0
XAxis mode: Wavelengths
Number of Pixels in Spectrum: 2048
>>>>>Begin Spectral Data<<<<<
223.165	-19.19
223.4	-19.19
223.635	-19.19
223.869	-20.19
224.104	-26.19
224.338	-22.19
224.573	-10.19
224.808	-18.19
225.042	-10.19
225.277	1.81
225.511	-5.19
225.746	1.81
225.98	-5.19
226.215	24.81
226.449	17.81
226.683	23.81
226.918	38.81
227.152	27.81
227.387	19.81
227.621	39.81
227.856	39.81
228.09	45.81
228.324	52.81
228.559	51.81
228.793	70.81
229.027	69.81
229.262	56.81
229.496	65.81
229.73	68.81
229.964	72.81
230.199	64.81
230.433	84.81
230.667	82.81
230.901	73.81
231.136	94.81
231.37	78.81
231.604	79.81
231.838	98.81
232.072	84.81
232.306	83.81
232.541	81.81
232.775	85.81
233.009	94.81
233.243	85.81
233.477	95.81
233.711	87.81
233.945	95.81
234.179	80.81
234.413	83.81
234.647	89.81
234.881	83.81
235.115	79.81
235.349	73.81
235.583	87.81
235.817	83.81
236.051	84.81
236.285	66.81
236.519	74.81
236.753	69.81
236.987	91.81
237.221	84.81
237.455	77.81
237.689	83.81
237.922	91.81
238.156	77.81
238.39	81.81
238.624	79.81
238.858	73.81
239.091	70.81
239.325	75.81
239.559	89.81
239.793	85.81
240.027	93.81
240.26	85.81
240.494	84.81
240.728	82.81
240.961	87.81
241.195	84.81
241.429	83.81
241.662	77.81
241.896	78.81
242.13	83.81
242.363	84.81
242.597	87.81
242.83	92.81
243.064	78.81
243.298	71.81
243.531	88.81
243.765	86.81
243.998	79.81
244.232	81.81
244.465	78.81
244.699	79.81
244.932	69.81
245.166	82.81
245.399	94.81
245.633	92.81
245.866	94.81
246.099	87.81
246.333	86.81
246.566	75.81
246.8	85.81
247.033	94.81
247.266	82.81
247.5	85.81
247.733	88.81
247.966	95.81
248.2	86.81
248.433	82.81
248.666	78.81
248.899	93.81
249.133	86.81
249.366	95.81
249.599	90.81
249.832	87.81
250.066	97.81
250.299	88.81
250.532	79.81
250.765	89.81
250.998	95.81
251.231	98.81
251.465	89.81
251.698	83.81
251.931	90.81
252.164	89.81
252.397	100.81
252.63	97.81
252.863	97.81
253.096	94.81
253.329	99.81
253.562	96.81
253.795	84.81
254.028	73.81
254.261	92.81
254.494	85.81
254.727	99.81
254.96	86.81
255.193	97.81
255.426	94.81
255.659	81.81
255.892	92.81
256.124	96.81
256.357	75.81
256.59	89.81
256.823	81.81
257.056	93.81
257.289	94.81
257.521	95.81
257.754	92.81
257.987	106.81
258.22	93.81
258.452	92.81
258.685	93.81
258.918	88.81
259.151	86.81
259.383	98.81
259.616	95.81
259.849	93.81
260.081	92.81
260.314	100.81
260.547	94.81
260.779	79.81
261.012	95.81
261.244	86.81
261.477	106.81
261.71	89.81
261.942	100.81
262.175	89.81
262.407	82.81
262.64	78.81
262.872	86.81
263.105	80.81
263.337	101.81
263.57	84.81
263.802	93.81
264.035	106.81
264.267	94.81
264.499	85.81
264.732	83.81
264.964	106.81
265.197	86.81
265.429	89.81
265.661	89.81
265.894	90.81
266.126	87.81
266.358	83.81
266.591	94.81
266.823	91.81
267.055	100.81
267.287	95.81
267.52	95.81
267.752	74.81
267.984	94.81
268.216	91.81
268.448	102.81
268.681	93.81
268.913	87.81
269.145	102.81
269.377	86.81
269.609	86.81
269.841	101.81
270.073	97.81
270.306	100.81
270.538	99.81
270.77	110.81
271.002	93.81
271.234	88.81
271.466	85.81
271.698	74.81
271.93	86.81
272.162	109.81
272.394	100.81
272.626	84.81
272.858	97.81
273.09	94.81
273.322	104.81
273.553	94.81
273.785	109.81
274.017	106.81
274.249	94.81
274.481	94.81
274.713	106.81
274.945	95.81
275.176	110.81
275.408	77.81
275.64	82.81
275.872	97.81
276.104	108.81
276.335	85.81
276.567	92.81
276.799	89.81
277.031	100.81
277.262	92.81
277.494	114.81
277.726	96.81
277.957	87.81
278.189	105.81
278.421	91.81
278.652	88.81
278.884	104.81
279.115	101.81
279.347	95.81
279.579	98.81
279.81	103.81
280.042	98.81
280.273	83.81
280.505	89.81
280.736	91.81
280.968	109.81
281.199	85.81
281.431	101.81
281.662	98.81
281.894	100.81
282.125	93.81
282.356	105.81
282.588	103.81
282.819	107.81
283.051	94.81
283.282	81.81
283.513	100.81
283.745	94.81
283.976	97.81
284.207	102.81
284.439	114.81
284.67	117.81
284.901	83.81
285.132	102.81
285.364	98.81
285.595	84.81
285.826	83.81
286.057	86.81
286.288	103.81
286.52	105.81
286.751	104.81
286.982	111.81
287.213	104.81
287.444	85.81
287.675	102.81
287.906	107.81
288.138	93.81
288.369	106.81
288.6	105.81
288.831	95.81
289.062	107.81
289.293	94.81
289.524	88.81
289.755	105.81
289.986	102.81
290.217	110.81
290.448	97.81
290.679	95.81
290.91	100.81
291.141	93.81
291.371	94.81
291.602	108.81
291.833	104.81
292.064	103.81
292.295	94.81
292.526	89.81
292.757	94.81
292.987	94.81
293.218	115.81
293.449	107.81
293.68	103.81
293.91	102.81
294.141	85.81
294.372	98.81
294.603	94.81
294.833	103.81
295.064	90.81
295.295	98.81
295.525	101.81
295.756	117.81
295.987	95.81
296.217	94.81
296.448	107.81
296.679	98.81
296.909	94.81
297.14	101.81
297.37	93.81
297.601	108.81
297.831	111.81
298.062	98.81
298.292	91.81
298.523	120.81
298.753	99.81
298.984	103.81
299.214	106.81
299.445	91.81
299.675	102.81
299.905	99.81
300.136	101.81
300.366	98.81
300.597	110.81
300.827	95.81
301.057	107.81
301.288	104.81
301.518	106.81
301.748	108.81
301.979	117.81
302.209	102.81
302.439	102.81
302.669	107.81
302.9	100.81
303.13	93.81
303.36	116.81
303.59	100.81
303.82	115.81
304.051	115.81
304.281	99.81
304.511	107.81
304.741	99.81
304.971	115.81
305.201	95.81
305.431	100.81
305.661	117.81
305.891	106.81
306.121	96.81
306.352	104.81
306.582	102.81
306.812	101.81
307.042	122.81
307.272	107.81
307.502	102.81
307.731	108.81
307.961	114.81
308.191	112.81
308.421	116.81
308.651	98.81
308.881	124.81
309.111	115.81
309.341	103.81
309.571	106.81
309.8	116.81
310.03	103.81
310.26	104.81
310.49	105.81
310.72	111.81
310.949	115.81
311.179	115.81
311.409	111.81
311.639	106.81
311.868	121.81
312.098	101.81
312.328	110.81
312.557	113.81
312.787	101.81
313.017	111.81
313.246	117.81
313.476	102.81
313.706	110.81
313.935	106.81
314.165	102.81
314.394	102.81
314.624	130.81
314.853	112.81
315.083	100.81
315.312	125.81
315.542	113.81
315.771	89.81
316.001	98.81
316.23	111.81
316.46	125.81
316.689	116.81
316.919	84.81
317.148	119.81
317.377	108.81
317.607	103.81
317.836	117.81
318.065	111.81
318.295	106.81
318.524	95.81
318.753	99.81
318.983	106.81
319.212	112.81
319.441	115.81
319.67	114.81
319.9	127.81
320.129	111.81
320.358	109.81
320.587	102.81
320.816	114.81
321.046	107.81
321.275	110.81
321.504	117.81
321.733	113.81
321.962	110.81
322.191	103.81
322.42	107.81
322.649	110.81
322.878	115.81
323.108	115.81
323.337	107.81
323.566	109.81
323.795	95.81
324.024	112.81
324.253	119.81
324.482	125.81
324.71	153.81
324.939	186.81
325.168	170.81
325.397	125.81
325.626	106.81
325.855	119.81
326.084	104.81
326.313	109.81
326.542	129.81
326.77	113.81
326.999	130.81
327.228	135.81
327.457	126.81
327.686	148.81
327.914	131.81
328.143	128.81
328.372	116.81
328.6	107.81
328.829	116.81
329.058	115.81
329.287	119.81
329.515	105.81
329.744	120.81
329.972	137.81
330.201	123.81
330.43	113.81
330.658	126.81
330.887	108.81
331.115	105.81
331.344	119.81
331.572	113.81
331.801	117.81
332.03	134.81
332.258	107.81
332.486	121.81
332.715	108.81
332.943	117.81
333.172	115.81
333.4	114.81
333.629	116.81
333.857	124.81
334.085	115.81
334.314	121.81
334.542	107.81
334.771	123.81
334.999	123.81
335.227	115.81
335.455	114.81
335.684	109.81
335.912	116.81
336.14	126.81
336.369	106.81
336.597	115.81
336.825	121.81
337.053	131.81
337.281	128.81
337.51	120.81
337.738	127.81
337.966	108.81
338.194	124.81
338.422	121.81
338.65	117.81
338.878	123.81
339.106	115.81
339.334	119.81
339.562	109.81
339.79	120.81
340.018	114.81
340.246	118.81
340.474	113.81
340.702	104.81
340.93	113.81
341.158	129.81
341.386	106.81
341.614	108.81
341.842	112.81
342.07	105.81
342.298	121.81
342.526	122.81
342.754	113.81
342.981	119.81
343.209	109.81
343.437	109.81
343.665	113.81
343.893	121.81
344.12	113.81
344.348	119.81
344.576	116.81
344.804	118.81
345.031	122.81
345.259	118.81
345.487	114.81
345.714	113.81
345.942	107.81
346.17	113.81
346.397	104.81
346.625	113.81
346.853	101.81
347.08	113.81
347.308	105.81
347.535	107.81
347.763	115.81
347.99	104.81
348.218	113.81
348.445	115.81
348.673	118.81
348.9	122.81
349.128	113.81
349.355	107.81
349.583	121.81
349.81	115.81
350.037	124.81
350.265	117.81
350.492	113.81
350.72	115.81
350.947	117.81
351.174	109.81
351.402	130.81
351.629	122.81
351.856	98.81
352.083	121.81
352.311	102.81
352.538	109.81
352.765	105.81
352.992	103.81
353.22	88.81
353.447	109.81
353.674	104.81
353.901	106.81
354.128	99.81
354.355	105.81
354.583	111.81
354.81	110.81
355.037	118.81
355.264	123.81
355.491	108.81
355.718	115.81
355.945	109.81
356.172	106.81
356.399	115.81
356.626	110.81
356.853	102.81
357.08	112.81
357.307	113.81
357.534	120.81
357.761	107.81
357.988	126.81
358.215	122.81
358.441	105.81
358.668	90.81
358.895	110.81
359.122	95.81
359.349	119.81
359.576	105.81
359.802	124.81
360.029	123.81
360.256	114.81
360.483	115.81
360.709	98.81
360.936	111.81
361.163	122.81
361.39	95.81
361.616	113.81
361.843	110.81
362.07	109.81
362.296	125.81
362.523	98.81
362.749	109.81
362.976	121.81
363.203	117.81
363.429	113.81
363.656	114.81
363.882	105.81
364.109	107.81
364.335	101.81
364.562	116.81
364.788	109.81
365.015	108.81
365.241	115.81
365.468	113.81
365.694	115.81
365.92	116.81
366.147	106.81
366.373	112.81
366.599	105.81
366.826	119.81
367.052	120.81
367.278	108.81
367.505	109.81
367.731	113.81
367.957	103.81
368.184	90.81
368.41	98.81
368.636	105.81
368.862	99.81
369.089	108.81
369.315	114.81
369.541	122.81
369.767	100.81
369.993	106.81
370.219	121.81
370.445	110.81
370.672	109.81
370.898	122.81
371.124	123.81
371.35	129.81
371.576	126.81
371.802	117.81
372.028	120.81
372.254	116.81
372.48	110.81
372.706	110.81
372.932	114.81
373.158	123.81
373.384	110.81
373.61	109.81
373.835	114.81
374.061	113.81
374.287	115.81
374.513	119.81
374.739	132.81
374.965	116.81
375.191	121.81
375.416	126.81
375.642	106.81
375.868	117.81
376.094	117.81
376.319	109.81
376.545	106.81
376.771	104.81
376.997	118.81
377.222	107.81
377.448	107.81
377.674	102.81
377.899	113.81
378.125	113.81
378.35	99.81
378.576	115.81
378.802	116.81
379.027	113.81
379.253	116.81
379.478	118.81
379.704	98.81
379.929	124.81
380.155	114.81
380.38	116.81
380.606	99.81
380.831	108.81
381.057	113.81
381.282	115.81
381.507	115.81
381.733	100.81
381.958	113.81
382.184	115.81
382.409	118.81
382.634	109.81
382.86	119.81
383.085	121.81
383.31	114.81
383.535	137.81
383.761	125.81
383.986	117.81
384.211	114.81
384.436	101.81
384.662	113.81
384.887	111.81
385.112	129.81
385.337	121.81
385.562	124.81
385.787	104.81
386.013	122.81
386.238	124.81
386.463	126.81
386.688	121.81
386.913	117.81
387.138	108.81
387.363	115.81
387.588	120.81
387.813	128.81
388.038	119.81
388.263	111.81
388.488	118.81
388.713	100.81
388.938	110.81
389.163	115.81
389.387	121.81
389.612	106.81
389.837	122.81
390.062	126.81
390.287	126.81
390.512	118.81
390.736	118.81
390.961	105.81
391.186	129.81
391.411	129.81
391.636	118.81
391.86	125.81
392.085	118.81
392.31	127.81
392.534	131.81
392.759	131.81
392.984	124.81
393.208	110.81
393.433	122.81
393.658	131.81
393.882	135.81
394.107	122.81
394.331	122.81
394.556	124.81
394.78	122.81
395.005	128.81
395.229	111.81
395.454	127.81
395.678	126.81
395.903	113.81
396.127	134.81
396.352	123.81
396.576	121.81
396.801	132.81
397.025	127.81
397.249	125.81
397.474	117.81
397.698	125.81
397.922	138.81
398.147	120.81
398.371	124.81
398.595	133.81
398.82	140.81
399.044	130.81
399.268	139.81
399.492	123.81
399.717	154.81
399.941	150.81
400.165	134.81
400.389	141.81
400.613	142.81
400.837	140.81
401.062	138.81
401.286	118.81
401.51	139.81
401.734	131.81
401.958	128.81
402.182	116.81
402.406	123.81
402.63	133.81
402.854	110.81
403.078	129.81
403.302	137.81
403.526	139.81
403.75	130.81
403.974	135.81
404.198	130.81
404.422	124.81
404.645	135.81
404.869	123.81
405.093	124.81
405.317	139.81
405.541	155.81
405.765	138.81
405.988	133.81
406.212	141.81
406.436	156.81
406.66	124.81
406.883	135.81
407.107	144.81
407.331	152.81
407.555	157.81
407.778	154.81
408.002	133.81
408.226	131.81
408.449	129.81
408.673	128.81
408.896	130.81
409.12	146.81
409.344	138.81
409.567	126.81
409.791	139.81
410.014	147.81
410.238	132.81
410.461	131.81
410.685	149.81
410.908	129.81
411.132	133.81
411.355	139.81
411.578	135.81
411.802	122.81
412.025	121.81
412.249	126.81
412.472	129.81
412.695	133.81
412.919	147.81
413.142	129.81
413.365	126.81
413.589	122.81
413.812	126.81
414.035	125.81
414.258	137.81
414.482	122.81
414.705	133.81
414.928	136.81
415.151	124.81
415.374	127.81
415.597	135.81
415.821	115.81
416.044	123.81
416.267	128.81
416.49	135.81
416.713	139.81
416.936	139.81
417.159	123.81
417.382	138.81
417.605	116.81
417.828	104.81
418.051	135.81
418.274	145.81
418.497	122.81
418.72	134.81
418.943	143.81
419.166	142.81
419.389	134.81
419.611	138.81
419.834	139.81
420.057	138.81
420.28	130.81
420.503	125.81
420.726	121.81
420.948	127.81
421.171	133.81
421.394	140.81
421.617	120.81
421.839	139.81
422.062	147.81
422.285	139.81
422.507	147.81
422.73	150.81
422.953	129.81
423.175	115.81
423.398	130.81
423.621	142.81
423.843	131.81
424.066	122.81
424.288	113.81
424.511	155.81
424.733	133.81
424.956	143.81
425.178	133.81
425.401	149.81
425.623	135.81
425.846	138.81
426.068	140.81
426.291	137.81
426.513	135.81
426.735	134.81
426.958	126.81
427.18	135.81
427.402	138.81
427.625	137.81
427.847	152.81
428.069	132.81
428.292	127.81
428.514	127.81
428.736	114.81
428.958	138.81
429.181	133.81
429.403	115.81
429.625	112.81
429.847	119.81
430.069	137.81
430.292	140.81
430.514	111.81
430.736	115.81
430.958	133.81
431.18	123.81
431.402	111.81
431.624	136.81
431.846	127.81
432.068	118.81
432.29	129.81
432.512	125.81
432.734	121.81
432.956	148.81
433.178	126.81
433.4	126.81
433.622	133.81
433.844	134.81
434.066	143.81
434.287	125.81
434.509	133.81
434.731	149.81
434.953	118.81
435.175	120.81
435.397	138.81
435.618	105.81
435.84	155.81
436.062	137.81
436.284	142.81
436.505	125.81
436.727	114.81
436.949	126.81
437.17	117.81
437.392	121.81
437.614	132.81
437.835	123.81
438.057	129.81
438.278	122.81
438.5	141.81
438.721	130.81
438.943	135.81
439.165	129.81
439.386	124.81
439.608	124.81
439.829	134.81
440.05	124.81
440.272	133.81
440.493	137.81
440.715	140.81
440.936	132.81
441.158	141.81
441.379	129.81
441.6	145.81
441.822	146.81
442.043	138.81
442.264	117.81
442.486	130.81
442.707	127.81
442.928	127.81
443.149	143.81
443.371	130.81
443.592	128.81
443.813	141.81
444.034	134.81
444.255	134.81
444.476	132.81
444.698	136.81
444.919	135.81
445.14	298.81
445.361	185.81
445.582	147.81
445.803	134.81
446.024	144.81
446.245	134.81
446.466	133.81
446.687	144.81
446.908	134.81
447.129	120.81
447.35	122.81
447.571	134.81
447.792	122.81
448.013	129.81
448.234	117.81
448.455	115.81
448.675	133.81
448.896	127.81
449.117	119.81
449.338	123.81
449.559	139.81
449.779	129.81
450	131.81
450.221	119.81
450.442	130.81
450.662	127.81
450.883	124.81
451.104	121.81
451.324	110.81
451.545	125.81
451.766	122.81
451.986	115.81
452.207	114.81
452.428	106.81
452.648	125.81
452.869	127.81
453.089	123.81
453.31	124.81
453.53	114.81
453.751	118.81
453.971	118.81
454.192	117.81
454.412	116.81
454.633	117.81
454.853	105.81
455.073	124.81
455.294	133.81
455.514	128.81
455.734	132.81
455.955	115.81
456.175	122.81
456.395	124.81
456.616	110.81
456.836	122.81
457.056	125.81
457.276	122.81
457.497	124.81
457.717	105.81
457.937	113.81
458.157	121.81
458.377	104.81
458.598	105.81
458.818	117.81
459.038	121.81
459.258	124.81
459.478	121.81
459.698	129.81
459.918	123.81
460.138	133.81
460.358	134.81
460.578	127.81
460.798	138.81
461.018	142.81
461.238	126.81
461.458	130.81
461.678	140.81
461.898	133.81
462.118	142.81
462.338	131.81
462.558	151.81
462.777	148.81
462.997	133.81
463.217	152.81
463.437	149.81
463.657	119.81
463.876	131.81
464.096	130.81
464.316	122.81
464.536	129.81
464.755	133.81
464.975	123.81
465.195	137.81
465.414	122.81
465.634	109.81
465.854	114.81
466.073	129.81
466.293	137.81
466.512	132.81
466.732	125.81
466.951	133.81
467.171	139.81
467.391	117.81
467.61	117.81
467.829	129.81
468.049	122.81
468.268	129.81
468.488	129.81
468.707	126.81
468.927	122.81
469.146	125.81
469.365	101.81
469.585	129.81
469.804	115.81
470.023	125.81
470.243	126.81
470.462	122.81
470.681	127.81
470.901	141.81
471.12	129.81
471.339	134.81
471.558	116.81
471.777	133.81
471.997	129.81
472.216	130.81
472.435	116.81
472.654	117.81
472.873	126.81
473.092	127.81
473.311	119.81
473.53	123.81
473.749	137.81
473.968	131.81
474.187	143.81
474.406	129.81
474.625	118.81
474.844	127.81
475.063	120.81
475.282	122.81
475.501	115.81
475.72	129.81
475.939	124.81
476.158	123.81
476.377	119.81
476.596	136.81
476.814	124.81
477.033	119.81
477.252	111.81
477.471	125.81
477.69	135.81
477.908	138.81
478.127	135.81
478.346	127.81
478.564	133.81
478.783	120.81
479.002	126.81
479.22	124.81
479.439	137.81
479.658	135.81
479.876	136.81
480.095	124.81
480.313	133.81
480.532	133.81
480.751	144.81
480.969	133.81
481.188	141.81
481.406	146.81
481.624	117.81
481.843	137.81
482.061	127.81
482.28	135.81
482.498	119.81
482.717	129.81
482.935	126.81
483.153	122.81
483.372	116.81
483.59	137.81
483.808	116.81
484.027	134.81
484.245	144.81
484.463	127.81
484.681	127.81
484.9	130.81
485.118	123.81
485.336	131.81
485.554	131.81
485.772	115.81
485.99	135.81
486.209	147.81
486.427	143.81
486.645	141.81
486.863	135.81
487.081	139.81
487.299	137.81
487.517	132.81
487.735	130.81
487.953	134.81
488.171	135.81
488.389	139.81
488.607	148.81
488.825	135.81
489.043	142.81
489.261	150.81
489.479	127.81
489.696	139.81
489.914	131.81
490.132	133.81
490.35	151.81
490.568	131.81
490.786	140.81
491.003	152.81
491.221	137.81
491.439	138.81
491.657	131.81
491.874	144.81
492.092	126.81
492.31	140.81
492.527	141.81
492.745	141.81
492.963	158.81
493.18	153.81
493.398	149.81
493.615	136.81
493.833	143.81
494.05	161.81
494.268	148.81
494.485	142.81
494.703	142.81
494.92	137.81
495.138	152.81
495.355	135.81
495.573	155.81
495.79	150.81
496.008	134.81
496.225	151.81
496.442	154.81
496.66	157.81
496.877	151.81
497.094	166.81
497.312	161.81
497.529	169.81
497.746	158.81
497.963	149.81
498.181	157.81
498.398	146.81
498.615	160.81
498.832	157.81
499.049	179.81
499.267	189.81
499.484	178.81
499.701	179.81
499.918	183.81
500.135	194.81
500.352	221.81
500.569	215.81
500.786	197.81
501.003	187.81
501.22	194.81
501.437	189.81
501.654	186.81
501.871	171.81
502.088	168.81
502.305	165.81
502.522	132.81
502.739	155.81
502.956	138.81
503.172	155.81
503.389	143.81
503.606	152.81
503.823	143.81
504.04	159.81
504.256	134.81
504.473	143.81
504.69	141.81
504.907	161.81
505.123	137.81
505.34	136.81
505.557	124.81
