Data from 1968.PennyLincolnUp.Lamp.En5.5.200Scan.071719.P1._HRD10591_14-50-13-970.txt Node
Date: Thu Jul 18 14:50:13 EDT 2019
User: cochatt
Spectrometer: HR+D1059
Trigger mode: 1
Integration Time (sec): 1.000000E-1
Scans to average: 1
Electric dark correction enabled: true
Nonlinearity correction enabled: false
Boxcar width: 0
XAxis mode: Wavelengths
Number of Pixels in Spectrum: 2048
>>>>>Begin Spectral Data<<<<<
223.165	-21.69
223.4	-21.69
223.635	-21.69
223.869	-20.69
224.104	-15.69
224.338	-14.69
224.573	-12.69
224.808	-5.69
225.042	0.31
225.277	-19.69
225.511	-4.69
225.746	2.31
225.98	12.31
226.215	7.31
226.449	22.31
226.683	17.31
226.918	23.31
227.152	30.31
227.387	45.31
227.621	29.31
227.856	39.31
228.09	44.31
228.324	46.31
228.559	55.31
228.793	64.31
229.027	68.31
229.262	60.31
229.496	68.31
229.73	79.31
229.964	83.31
230.199	88.31
230.433	89.31
230.667	78.31
230.901	85.31
231.136	97.31
231.37	83.31
231.604	85.31
231.838	73.31
232.072	82.31
232.306	91.31
232.541	99.31
232.775	79.31
233.009	73.31
233.243	79.31
233.477	92.31
233.711	73.31
233.945	83.31
234.179	85.31
234.413	99.31
234.647	83.31
234.881	84.31
235.115	93.31
235.349	93.31
235.583	83.31
235.817	79.31
236.051	84.31
236.285	88.31
236.519	90.31
236.753	93.31
236.987	82.31
237.221	78.31
237.455	87.31
237.689	70.31
237.922	86.31
238.156	70.31
238.39	83.31
238.624	73.31
238.858	74.31
239.091	85.31
239.325	94.31
239.559	82.31
239.793	85.31
240.027	78.31
240.26	83.31
240.494	79.31
240.728	77.31
240.961	79.31
241.195	87.31
241.429	89.31
241.662	83.31
241.896	78.31
242.13	84.31
242.363	84.31
242.597	78.31
242.83	95.31
243.064	86.31
243.298	80.31
243.531	73.31
243.765	85.31
243.998	75.31
244.232	81.31
244.465	104.31
244.699	99.31
244.932	89.31
245.166	70.31
245.399	85.31
245.633	89.31
245.866	81.31
246.099	76.31
246.333	72.31
246.566	75.31
246.8	88.31
247.033	84.31
247.266	80.31
247.5	77.31
247.733	72.31
247.966	77.31
248.2	78.31
248.433	76.31
248.666	94.31
248.899	100.31
249.133	86.31
249.366	103.31
249.599	83.31
249.832	75.31
250.066	98.31
250.299	90.31
250.532	84.31
250.765	77.31
250.998	84.31
251.231	83.31
251.465	85.31
251.698	88.31
251.931	86.31
252.164	91.31
252.397	87.31
252.63	93.31
252.863	89.31
253.096	87.31
253.329	94.31
253.562	94.31
253.795	87.31
254.028	85.31
254.261	98.31
254.494	73.31
254.727	103.31
254.96	93.31
255.193	97.31
255.426	86.31
255.659	92.31
255.892	99.31
256.124	92.31
256.357	85.31
256.59	93.31
256.823	92.31
257.056	91.31
257.289	81.31
257.521	78.31
257.754	69.31
257.987	90.31
258.22	90.31
258.452	93.31
258.685	91.31
258.918	87.31
259.151	91.31
259.383	94.31
259.616	81.31
259.849	91.31
260.081	96.31
260.314	86.31
260.547	85.31
260.779	87.31
261.012	100.31
261.244	99.31
261.477	89.31
261.71	104.31
261.942	92.31
262.175	98.31
262.407	94.31
262.64	98.31
262.872	93.31
263.105	96.31
263.337	101.31
263.57	93.31
263.802	85.31
264.035	101.31
264.267	92.31
264.499	88.31
264.732	80.31
264.964	96.31
265.197	98.31
265.429	100.31
265.661	99.31
265.894	102.31
266.126	86.31
266.358	99.31
266.591	100.31
266.823	94.31
267.055	92.31
267.287	96.31
267.52	101.31
267.752	102.31
267.984	88.31
268.216	87.31
268.448	89.31
268.681	108.31
268.913	102.31
269.145	92.31
269.377	100.31
269.609	102.31
269.841	103.31
270.073	99.31
270.306	96.31
270.538	102.31
270.77	95.31
271.002	102.31
271.234	102.31
271.466	94.31
271.698	107.31
271.93	106.31
272.162	114.31
272.394	100.31
272.626	114.31
272.858	98.31
273.09	106.31
273.322	92.31
273.553	104.31
273.785	107.31
274.017	98.31
274.249	98.31
274.481	101.31
274.713	96.31
274.945	93.31
275.176	96.31
275.408	92.31
275.64	97.31
275.872	90.31
276.104	97.31
276.335	90.31
276.567	100.31
276.799	103.31
277.031	100.31
277.262	101.31
277.494	108.31
277.726	99.31
277.957	100.31
278.189	84.31
278.421	98.31
278.652	92.31
278.884	92.31
279.115	100.31
279.347	91.31
279.579	101.31
279.81	89.31
280.042	104.31
280.273	100.31
280.505	102.31
280.736	102.31
280.968	85.31
281.199	96.31
281.431	98.31
281.662	101.31
281.894	91.31
282.125	90.31
282.356	100.31
282.588	108.31
282.819	96.31
283.051	104.31
283.282	101.31
283.513	114.31
283.745	98.31
283.976	101.31
284.207	102.31
284.439	97.31
284.67	98.31
284.901	96.31
285.132	101.31
285.364	90.31
285.595	106.31
285.826	114.31
286.057	104.31
286.288	95.31
286.52	100.31
286.751	94.31
286.982	104.31
287.213	119.31
287.444	111.31
287.675	96.31
287.906	104.31
288.138	110.31
288.369	115.31
288.6	118.31
288.831	97.31
289.062	117.31
289.293	86.31
289.524	98.31
289.755	106.31
289.986	93.31
290.217	94.31
290.448	105.31
290.679	109.31
290.91	115.31
291.141	106.31
291.371	114.31
291.602	93.31
291.833	95.31
292.064	106.31
292.295	119.31
292.526	107.31
292.757	93.31
292.987	95.31
293.218	94.31
293.449	106.31
293.68	98.31
293.91	104.31
294.141	108.31
294.372	101.31
294.603	102.31
294.833	98.31
295.064	96.31
295.295	109.31
295.525	94.31
295.756	102.31
295.987	114.31
296.217	109.31
296.448	116.31
296.679	109.31
296.909	79.31
297.14	106.31
297.37	99.31
297.601	110.31
297.831	125.31
298.062	118.31
298.292	114.31
298.523	90.31
298.753	104.31
298.984	107.31
299.214	117.31
299.445	108.31
299.675	107.31
299.905	100.31
300.136	98.31
300.366	104.31
300.597	103.31
300.827	102.31
301.057	106.31
301.288	102.31
301.518	97.31
301.748	100.31
301.979	93.31
302.209	101.31
302.439	107.31
302.669	107.31
302.9	105.31
303.13	100.31
303.36	97.31
303.59	104.31
303.82	108.31
304.051	100.31
304.281	109.31
304.511	112.31
304.741	118.31
304.971	102.31
305.201	105.31
305.431	101.31
305.661	101.31
305.891	116.31
306.121	92.31
306.352	89.31
306.582	103.31
306.812	101.31
307.042	104.31
307.272	107.31
307.502	104.31
307.731	106.31
307.961	116.31
308.191	117.31
308.421	127.31
308.651	111.31
308.881	118.31
309.111	114.31
309.341	91.31
309.571	91.31
309.8	118.31
310.03	108.31
310.26	87.31
310.49	117.31
310.72	108.31
310.949	101.31
311.179	105.31
311.409	106.31
311.639	114.31
311.868	109.31
312.098	105.31
312.328	105.31
312.557	107.31
312.787	89.31
313.017	111.31
313.246	92.31
313.476	107.31
313.706	123.31
313.935	95.31
314.165	109.31
314.394	104.31
314.624	116.31
314.853	106.31
315.083	102.31
315.312	101.31
315.542	112.31
315.771	116.31
316.001	111.31
316.23	112.31
316.46	112.31
316.689	106.31
316.919	116.31
317.148	101.31
317.377	104.31
317.607	105.31
317.836	111.31
318.065	110.31
318.295	115.31
318.524	108.31
318.753	116.31
318.983	102.31
319.212	109.31
319.441	116.31
319.67	107.31
319.9	117.31
320.129	93.31
320.358	106.31
320.587	117.31
320.816	120.31
321.046	121.31
321.275	124.31
321.504	116.31
321.733	126.31
321.962	106.31
322.191	107.31
322.42	102.31
322.649	106.31
322.878	107.31
323.108	99.31
323.337	117.31
323.566	109.31
323.795	114.31
324.024	119.31
324.253	134.31
324.482	137.31
324.71	174.31
324.939	172.31
325.168	168.31
325.397	134.31
325.626	134.31
325.855	106.31
326.084	91.31
326.313	117.31
326.542	123.31
326.77	114.31
326.999	118.31
327.228	127.31
327.457	150.31
327.686	164.31
327.914	140.31
328.143	133.31
328.372	117.31
328.6	116.31
328.829	110.31
329.058	112.31
329.287	107.31
329.515	116.31
329.744	118.31
329.972	103.31
330.201	110.31
330.43	112.31
330.658	114.31
330.887	110.31
331.115	126.31
331.344	115.31
331.572	124.31
331.801	115.31
332.03	101.31
332.258	118.31
332.486	122.31
332.715	108.31
332.943	109.31
333.172	122.31
333.4	126.31
333.629	131.31
333.857	124.31
334.085	116.31
334.314	126.31
334.542	125.31
334.771	122.31
334.999	122.31
335.227	106.31
335.455	111.31
335.684	120.31
335.912	107.31
336.14	126.31
336.369	116.31
336.597	110.31
336.825	130.31
337.053	112.31
337.281	111.31
337.51	110.31
337.738	103.31
337.966	110.31
338.194	106.31
338.422	100.31
338.65	104.31
338.878	122.31
339.106	124.31
339.334	129.31
339.562	107.31
339.79	101.31
340.018	107.31
340.246	99.31
340.474	113.31
340.702	109.31
340.93	118.31
341.158	128.31
341.386	104.31
341.614	111.31
341.842	109.31
342.07	115.31
342.298	99.31
342.526	115.31
342.754	120.31
342.981	106.31
343.209	108.31
343.437	131.31
343.665	108.31
343.893	120.31
344.12	113.31
344.348	126.31
344.576	121.31
344.804	118.31
345.031	127.31
345.259	107.31
345.487	122.31
345.714	124.31
345.942	115.31
346.17	116.31
346.397	119.31
346.625	109.31
346.853	109.31
347.08	115.31
347.308	112.31
347.535	104.31
347.763	107.31
347.99	121.31
348.218	112.31
348.445	126.31
348.673	104.31
348.9	103.31
349.128	118.31
349.355	105.31
349.583	97.31
349.81	106.31
350.037	123.31
350.265	118.31
350.492	118.31
350.72	120.31
350.947	115.31
351.174	119.31
351.402	97.31
351.629	105.31
351.856	102.31
352.083	100.31
352.311	110.31
352.538	114.31
352.765	109.31
352.992	109.31
353.22	107.31
353.447	100.31
353.674	111.31
353.901	123.31
354.128	126.31
354.355	106.31
354.583	106.31
354.81	132.31
355.037	118.31
355.264	109.31
355.491	109.31
355.718	110.31
355.945	116.31
356.172	115.31
356.399	105.31
356.626	119.31
356.853	106.31
357.08	124.31
357.307	108.31
357.534	111.31
357.761	120.31
357.988	115.31
358.215	109.31
358.441	112.31
358.668	106.31
358.895	121.31
359.122	106.31
359.349	117.31
359.576	119.31
359.802	128.31
360.029	118.31
360.256	108.31
360.483	114.31
360.709	119.31
360.936	121.31
361.163	104.31
361.39	116.31
361.616	126.31
361.843	105.31
362.07	109.31
362.296	103.31
362.523	89.31
362.749	108.31
362.976	100.31
363.203	106.31
363.429	101.31
363.656	122.31
363.882	97.31
364.109	108.31
364.335	102.31
364.562	125.31
364.788	104.31
365.015	108.31
365.241	99.31
365.468	110.31
365.694	130.31
365.92	112.31
366.147	123.31
366.373	116.31
366.599	119.31
366.826	113.31
367.052	113.31
367.278	100.31
367.505	107.31
367.731	124.31
367.957	115.31
368.184	106.31
368.41	110.31
368.636	105.31
368.862	109.31
369.089	102.31
369.315	109.31
369.541	115.31
369.767	123.31
369.993	116.31
370.219	104.31
370.445	107.31
370.672	118.31
370.898	112.31
371.124	110.31
371.35	107.31
371.576	107.31
371.802	120.31
372.028	116.31
372.254	117.31
372.48	123.31
372.706	125.31
372.932	115.31
373.158	104.31
373.384	114.31
373.61	114.31
373.835	103.31
374.061	110.31
374.287	114.31
374.513	122.31
374.739	115.31
374.965	124.31
375.191	125.31
375.416	115.31
375.642	114.31
375.868	119.31
376.094	106.31
376.319	109.31
376.545	106.31
376.771	106.31
376.997	104.31
377.222	112.31
377.448	116.31
377.674	116.31
377.899	106.31
378.125	118.31
378.35	108.31
378.576	105.31
378.802	111.31
379.027	122.31
379.253	122.31
379.478	104.31
379.704	108.31
379.929	104.31
380.155	102.31
380.38	101.31
380.606	110.31
380.831	117.31
381.057	113.31
381.282	106.31
381.507	115.31
381.733	104.31
381.958	115.31
382.184	100.31
382.409	114.31
382.634	100.31
382.86	108.31
383.085	117.31
383.31	118.31
383.535	117.31
383.761	122.31
383.986	118.31
384.211	123.31
384.436	114.31
384.662	123.31
384.887	117.31
385.112	129.31
385.337	123.31
385.562	123.31
385.787	107.31
386.013	119.31
386.238	121.31
386.463	121.31
386.688	117.31
386.913	132.31
387.138	111.31
387.363	116.31
387.588	117.31
387.813	134.31
388.038	128.31
388.263	97.31
388.488	117.31
388.713	124.31
388.938	105.31
389.163	128.31
389.387	130.31
389.612	108.31
389.837	126.31
390.062	123.31
390.287	100.31
390.512	121.31
390.736	122.31
390.961	107.31
391.186	120.31
391.411	116.31
391.636	120.31
391.86	116.31
392.085	128.31
392.31	115.31
392.534	136.31
392.759	137.31
392.984	116.31
393.208	131.31
393.433	118.31
393.658	115.31
393.882	114.31
394.107	121.31
394.331	117.31
394.556	138.31
394.78	132.31
395.005	131.31
395.229	116.31
395.454	130.31
395.678	132.31
395.903	126.31
396.127	126.31
396.352	118.31
396.576	116.31
396.801	126.31
397.025	131.31
397.249	123.31
397.474	126.31
397.698	131.31
397.922	133.31
398.147	128.31
398.371	139.31
398.595	132.31
398.82	138.31
399.044	119.31
399.268	143.31
399.492	157.31
399.717	155.31
399.941	138.31
400.165	150.31
400.389	140.31
400.613	137.31
400.837	140.31
401.062	131.31
401.286	140.31
401.51	126.31
401.734	126.31
401.958	129.31
402.182	124.31
402.406	138.31
402.63	126.31
402.854	158.31
403.078	141.31
403.302	132.31
403.526	126.31
403.75	140.31
403.974	134.31
404.198	130.31
404.422	139.31
404.645	130.31
404.869	144.31
405.093	132.31
405.317	128.31
405.541	130.31
405.765	128.31
405.988	134.31
406.212	148.31
406.436	147.31
406.66	155.31
406.883	144.31
407.107	159.31
407.331	138.31
407.555	147.31
407.778	143.31
408.002	140.31
408.226	142.31
408.449	139.31
408.673	134.31
408.896	133.31
409.12	145.31
409.344	138.31
409.567	123.31
409.791	130.31
410.014	138.31
410.238	127.31
410.461	130.31
410.685	131.31
410.908	143.31
411.132	137.31
411.355	135.31
411.578	126.31
411.802	146.31
412.025	135.31
412.249	139.31
412.472	137.31
412.695	137.31
412.919	132.31
413.142	132.31
413.365	128.31
413.589	132.31
413.812	128.31
414.035	129.31
414.258	136.31
414.482	130.31
414.705	122.31
414.928	128.31
415.151	135.31
415.374	134.31
415.597	128.31
415.821	126.31
416.044	115.31
416.267	144.31
416.49	131.31
416.713	119.31
416.936	135.31
417.159	122.31
417.382	125.31
417.605	126.31
417.828	127.31
418.051	117.31
418.274	130.31
418.497	126.31
418.72	145.31
418.943	132.31
419.166	127.31
419.389	130.31
419.611	124.31
419.834	126.31
420.057	138.31
420.28	130.31
420.503	126.31
420.726	135.31
420.948	127.31
421.171	120.31
421.394	140.31
421.617	134.31
421.839	128.31
422.062	133.31
422.285	143.31
422.507	133.31
422.73	140.31
422.953	137.31
423.175	123.31
423.398	145.31
423.621	153.31
423.843	124.31
424.066	138.31
424.288	134.31
424.511	132.31
424.733	140.31
424.956	147.31
425.178	137.31
425.401	130.31
425.623	126.31
425.846	123.31
426.068	132.31
426.291	118.31
426.513	142.31
426.735	130.31
426.958	120.31
427.18	126.31
427.402	153.31
427.625	142.31
427.847	145.31
428.069	140.31
428.292	142.31
428.514	127.31
428.736	114.31
428.958	116.31
429.181	125.31
429.403	127.31
429.625	130.31
429.847	118.31
430.069	143.31
430.292	125.31
430.514	123.31
430.736	123.31
430.958	134.31
431.18	122.31
431.402	129.31
431.624	125.31
431.846	121.31
432.068	133.31
432.29	128.31
432.512	123.31
432.734	132.31
432.956	147.31
433.178	133.31
433.4	126.31
433.622	126.31
433.844	149.31
434.066	131.31
434.287	134.31
434.509	138.31
434.731	124.31
434.953	114.31
435.175	123.31
435.397	138.31
435.618	135.31
435.84	134.31
436.062	135.31
436.284	144.31
436.505	139.31
436.727	126.31
436.949	128.31
437.17	133.31
437.392	121.31
437.614	143.31
437.835	135.31
438.057	132.31
438.278	116.31
438.5	125.31
438.721	142.31
438.943	141.31
439.165	133.31
439.386	121.31
439.608	125.31
439.829	128.31
440.05	139.31
440.272	135.31
440.493	112.31
440.715	130.31
440.936	128.31
441.158	136.31
441.379	133.31
441.6	136.31
441.822	127.31
442.043	130.31
442.264	148.31
442.486	127.31
442.707	134.31
442.928	123.31
443.149	130.31
443.371	132.31
443.592	143.31
443.813	155.31
444.034	138.31
444.255	132.31
444.476	144.31
444.698	122.31
444.919	140.31
445.14	254.31
445.361	182.31
445.582	154.31
445.803	148.31
446.024	139.31
446.245	145.31
446.466	137.31
446.687	133.31
446.908	127.31
447.129	126.31
447.35	128.31
447.571	124.31
447.792	112.31
448.013	136.31
448.234	138.31
448.455	118.31
448.675	144.31
448.896	130.31
449.117	139.31
449.338	150.31
449.559	150.31
449.779	135.31
450	130.31
450.221	140.31
450.442	149.31
450.662	140.31
450.883	135.31
451.104	120.31
451.324	114.31
451.545	126.31
451.766	127.31
451.986	122.31
452.207	114.31
452.428	125.31
452.648	127.31
452.869	115.31
453.089	120.31
453.31	124.31
453.53	119.31
453.751	108.31
453.971	126.31
454.192	118.31
454.412	120.31
454.633	137.31
454.853	123.31
455.073	116.31
455.294	127.31
455.514	125.31
455.734	115.31
455.955	129.31
456.175	115.31
456.395	127.31
456.616	105.31
456.836	120.31
457.056	129.31
457.276	123.31
457.497	117.31
457.717	122.31
457.937	129.31
458.157	105.31
458.377	122.31
458.598	123.31
458.818	121.31
459.038	112.31
459.258	130.31
459.478	118.31
459.698	120.31
459.918	118.31
460.138	125.31
460.358	122.31
460.578	147.31
460.798	118.31
461.018	121.31
461.238	132.31
461.458	130.31
461.678	134.31
461.898	134.31
462.118	137.31
462.338	139.31
462.558	141.31
462.777	117.31
462.997	143.31
463.217	135.31
463.437	144.31
463.657	133.31
463.876	146.31
464.096	136.31
464.316	128.31
464.536	130.31
464.755	133.31
464.975	135.31
465.195	126.31
465.414	139.31
465.634	134.31
465.854	128.31
466.073	128.31
466.293	121.31
466.512	115.31
466.732	126.31
466.951	128.31
467.171	133.31
467.391	126.31
467.61	130.31
467.829	130.31
468.049	128.31
468.268	118.31
468.488	118.31
468.707	122.31
468.927	107.31
469.146	116.31
469.365	121.31
469.585	134.31
469.804	119.31
470.023	132.31
470.243	128.31
470.462	116.31
470.681	128.31
470.901	131.31
471.12	114.31
471.339	121.31
471.558	139.31
471.777	117.31
471.997	123.31
472.216	142.31
472.435	118.31
472.654	118.31
472.873	124.31
473.092	119.31
473.311	126.31
473.53	123.31
473.749	122.31
473.968	139.31
474.187	125.31
474.406	127.31
474.625	126.31
474.844	124.31
475.063	117.31
475.282	119.31
475.501	110.31
475.72	128.31
475.939	126.31
476.158	123.31
476.377	118.31
476.596	119.31
476.814	127.31
477.033	124.31
477.252	130.31
477.471	124.31
477.69	135.31
477.908	134.31
478.127	145.31
478.346	136.31
478.564	132.31
478.783	130.31
479.002	123.31
479.22	134.31
479.439	150.31
479.658	123.31
479.876	141.31
480.095	122.31
480.313	147.31
480.532	143.31
480.751	142.31
480.969	126.31
481.188	138.31
481.406	135.31
481.624	128.31
481.843	163.31
482.061	138.31
482.28	124.31
482.498	141.31
482.717	129.31
482.935	131.31
483.153	127.31
483.372	137.31
483.59	136.31
483.808	138.31
484.027	135.31
484.245	134.31
484.463	134.31
484.681	131.31
484.9	125.31
485.118	146.31
485.336	135.31
485.554	122.31
485.772	123.31
485.99	132.31
486.209	135.31
486.427	143.31
486.645	136.31
486.863	134.31
487.081	143.31
487.299	133.31
487.517	130.31
487.735	144.31
487.953	143.31
488.171	134.31
488.389	136.31
488.607	123.31
488.825	134.31
489.043	139.31
489.261	137.31
489.479	133.31
489.696	126.31
489.914	140.31
490.132	148.31
490.35	141.31
490.568	138.31
490.786	154.31
491.003	141.31
491.221	130.31
491.439	136.31
491.657	131.31
491.874	150.31
492.092	145.31
492.31	147.31
492.527	132.31
492.745	165.31
492.963	145.31
493.18	157.31
493.398	150.31
493.615	128.31
493.833	131.31
494.05	114.31
494.268	151.31
494.485	144.31
494.703	164.31
494.92	157.31
495.138	154.31
495.355	139.31
495.573	140.31
495.79	145.31
496.008	142.31
496.225	140.31
496.442	143.31
496.66	139.31
496.877	139.31
497.094	154.31
497.312	148.31
497.529	156.31
497.746	152.31
497.963	145.31
498.181	140.31
498.398	162.31
498.615	150.31
498.832	146.31
499.049	151.31
499.267	178.31
499.484	180.31
499.701	198.31
499.918	185.31
500.135	185.31
500.352	213.31
500.569	205.31
500.786	212.31
501.003	206.31
501.22	192.31
501.437	207.31
501.654	190.31
501.871	171.31
502.088	159.31
502.305	159.31
502.522	144.31
502.739	156.31
502.956	148.31
503.172	151.31
503.389	159.31
503.606	152.31
503.823	143.31
504.04	166.31
504.256	144.31
504.473	144.31
504.69	159.31
504.907	142.31
505.123	146.31
