Data from 1968.PennyLincolnUp.Lamp.En5.5.200Scan.071719.P1._HRD10591_14-51-14-970.txt Node
Date: Thu Jul 18 14:51:14 EDT 2019
User: cochatt
Spectrometer: HR+D1059
Trigger mode: 1
Integration Time (sec): 1.000000E-1
Scans to average: 1
Electric dark correction enabled: true
Nonlinearity correction enabled: false
Boxcar width: 0
XAxis mode: Wavelengths
Number of Pixels in Spectrum: 2048
>>>>>Begin Spectral Data<<<<<
223.165	-20.88
223.4	-20.88
223.635	-20.88
223.869	-20.88
224.104	-19.88
224.338	-13.88
224.573	-19.88
224.808	-12.88
225.042	-7.88
225.277	-11.88
225.511	8.12
225.746	4.12
225.98	11.12
226.215	4.12
226.449	7.12
226.683	33.12
226.918	30.12
227.152	30.12
227.387	41.12
227.621	28.12
227.856	36.12
228.09	37.12
228.324	39.12
228.559	39.12
228.793	57.12
229.027	68.12
229.262	55.12
229.496	72.12
229.73	79.12
229.964	69.12
230.199	84.12
230.433	71.12
230.667	69.12
230.901	70.12
231.136	76.12
231.37	80.12
231.604	93.12
231.838	92.12
232.072	75.12
232.306	79.12
232.541	81.12
232.775	84.12
233.009	90.12
233.243	71.12
233.477	96.12
233.711	82.12
233.945	81.12
234.179	90.12
234.413	88.12
234.647	72.12
234.881	68.12
235.115	90.12
235.349	75.12
235.583	82.12
235.817	69.12
236.051	78.12
236.285	76.12
236.519	71.12
236.753	80.12
236.987	75.12
237.221	80.12
237.455	84.12
237.689	88.12
237.922	83.12
238.156	84.12
238.39	92.12
238.624	72.12
238.858	80.12
239.091	82.12
239.325	84.12
239.559	80.12
239.793	69.12
240.027	88.12
240.26	85.12
240.494	74.12
240.728	76.12
240.961	85.12
241.195	86.12
241.429	92.12
241.662	82.12
241.896	93.12
242.13	77.12
242.363	88.12
242.597	84.12
242.83	76.12
243.064	67.12
243.298	60.12
243.531	74.12
243.765	83.12
243.998	80.12
244.232	70.12
244.465	70.12
244.699	81.12
244.932	80.12
245.166	76.12
245.399	90.12
245.633	85.12
245.866	81.12
246.099	88.12
246.333	86.12
246.566	87.12
246.8	80.12
247.033	75.12
247.266	79.12
247.5	84.12
247.733	82.12
247.966	81.12
248.2	90.12
248.433	103.12
248.666	74.12
248.899	87.12
249.133	84.12
249.366	85.12
249.599	86.12
249.832	93.12
250.066	90.12
250.299	87.12
250.532	74.12
250.765	99.12
250.998	87.12
251.231	86.12
251.465	83.12
251.698	84.12
251.931	109.12
252.164	89.12
252.397	93.12
252.63	97.12
252.863	80.12
253.096	71.12
253.329	86.12
253.562	101.12
253.795	91.12
254.028	92.12
254.261	88.12
254.494	82.12
254.727	87.12
254.96	87.12
255.193	102.12
255.426	88.12
255.659	63.12
255.892	83.12
256.124	83.12
256.357	91.12
256.59	71.12
256.823	100.12
257.056	87.12
257.289	73.12
257.521	77.12
257.754	75.12
257.987	87.12
258.22	99.12
258.452	83.12
258.685	93.12
258.918	85.12
259.151	78.12
259.383	93.12
259.616	97.12
259.849	91.12
260.081	97.12
260.314	86.12
260.547	90.12
260.779	96.12
261.012	75.12
261.244	92.12
261.477	89.12
261.71	95.12
261.942	86.12
262.175	78.12
262.407	101.12
262.64	87.12
262.872	79.12
263.105	86.12
263.337	92.12
263.57	90.12
263.802	95.12
264.035	93.12
264.267	83.12
264.499	96.12
264.732	98.12
264.964	95.12
265.197	85.12
265.429	97.12
265.661	88.12
265.894	84.12
266.126	90.12
266.358	83.12
266.591	100.12
266.823	88.12
267.055	93.12
267.287	103.12
267.52	92.12
267.752	87.12
267.984	87.12
268.216	79.12
268.448	92.12
268.681	83.12
268.913	86.12
269.145	88.12
269.377	104.12
269.609	76.12
269.841	102.12
270.073	91.12
270.306	99.12
270.538	104.12
270.77	106.12
271.002	101.12
271.234	85.12
271.466	89.12
271.698	91.12
271.93	95.12
272.162	90.12
272.394	99.12
272.626	101.12
272.858	90.12
273.09	80.12
273.322	95.12
273.553	87.12
273.785	101.12
274.017	106.12
274.249	94.12
274.481	96.12
274.713	99.12
274.945	98.12
275.176	92.12
275.408	95.12
275.64	105.12
275.872	95.12
276.104	91.12
276.335	96.12
276.567	93.12
276.799	99.12
277.031	93.12
277.262	92.12
277.494	111.12
277.726	107.12
277.957	81.12
278.189	100.12
278.421	94.12
278.652	91.12
278.884	104.12
279.115	98.12
279.347	103.12
279.579	101.12
279.81	102.12
280.042	92.12
280.273	97.12
280.505	103.12
280.736	84.12
280.968	101.12
281.199	104.12
281.431	104.12
281.662	108.12
281.894	81.12
282.125	106.12
282.356	92.12
282.588	95.12
282.819	113.12
283.051	100.12
283.282	84.12
283.513	98.12
283.745	97.12
283.976	106.12
284.207	91.12
284.439	95.12
284.67	99.12
284.901	104.12
285.132	101.12
285.364	99.12
285.595	100.12
285.826	103.12
286.057	95.12
286.288	91.12
286.52	91.12
286.751	97.12
286.982	113.12
287.213	100.12
287.444	92.12
287.675	89.12
287.906	101.12
288.138	88.12
288.369	103.12
288.6	99.12
288.831	100.12
289.062	101.12
289.293	88.12
289.524	89.12
289.755	96.12
289.986	90.12
290.217	99.12
290.448	108.12
290.679	94.12
290.91	99.12
291.141	102.12
291.371	100.12
291.602	109.12
291.833	100.12
292.064	100.12
292.295	115.12
292.526	103.12
292.757	97.12
292.987	116.12
293.218	107.12
293.449	91.12
293.68	105.12
293.91	87.12
294.141	82.12
294.372	104.12
294.603	93.12
294.833	116.12
295.064	105.12
295.295	98.12
295.525	95.12
295.756	100.12
295.987	99.12
296.217	97.12
296.448	92.12
296.679	93.12
296.909	90.12
297.14	108.12
297.37	108.12
297.601	95.12
297.831	90.12
298.062	102.12
298.292	102.12
298.523	91.12
298.753	108.12
298.984	112.12
299.214	96.12
299.445	102.12
299.675	85.12
299.905	99.12
300.136	104.12
300.366	97.12
300.597	89.12
300.827	117.12
301.057	121.12
301.288	107.12
301.518	98.12
301.748	102.12
301.979	101.12
302.209	100.12
302.439	97.12
302.669	109.12
302.9	106.12
303.13	103.12
303.36	112.12
303.59	117.12
303.82	120.12
304.051	104.12
304.281	96.12
304.511	93.12
304.741	98.12
304.971	97.12
305.201	107.12
305.431	95.12
305.661	111.12
305.891	101.12
306.121	104.12
306.352	108.12
306.582	102.12
306.812	95.12
307.042	111.12
307.272	108.12
307.502	103.12
307.731	100.12
307.961	109.12
308.191	104.12
308.421	109.12
308.651	122.12
308.881	118.12
309.111	117.12
309.341	101.12
309.571	93.12
309.8	109.12
310.03	111.12
310.26	113.12
310.49	107.12
310.72	114.12
310.949	102.12
311.179	100.12
311.409	117.12
311.639	101.12
311.868	105.12
312.098	123.12
312.328	87.12
312.557	105.12
312.787	116.12
313.017	104.12
313.246	103.12
313.476	104.12
313.706	106.12
313.935	98.12
314.165	89.12
314.394	98.12
314.624	118.12
314.853	111.12
315.083	111.12
315.312	104.12
315.542	94.12
315.771	99.12
316.001	116.12
316.23	123.12
316.46	105.12
316.689	99.12
316.919	116.12
317.148	115.12
317.377	89.12
317.607	97.12
317.836	112.12
318.065	119.12
318.295	113.12
318.524	100.12
318.753	82.12
318.983	103.12
319.212	105.12
319.441	104.12
319.67	120.12
319.9	103.12
320.129	107.12
320.358	101.12
320.587	110.12
320.816	117.12
321.046	115.12
321.275	104.12
321.504	93.12
321.733	93.12
321.962	104.12
322.191	104.12
322.42	114.12
322.649	111.12
322.878	104.12
323.108	132.12
323.337	115.12
323.566	100.12
323.795	117.12
324.024	135.12
324.253	123.12
324.482	142.12
324.71	144.12
324.939	188.12
325.168	164.12
325.397	111.12
325.626	113.12
325.855	119.12
326.084	100.12
326.313	112.12
326.542	107.12
326.77	121.12
326.999	122.12
327.228	122.12
327.457	151.12
327.686	155.12
327.914	134.12
328.143	115.12
328.372	112.12
328.6	104.12
328.829	119.12
329.058	115.12
329.287	107.12
329.515	118.12
329.744	116.12
329.972	114.12
330.201	118.12
330.43	118.12
330.658	104.12
330.887	117.12
331.115	115.12
331.344	113.12
331.572	111.12
331.801	120.12
332.03	97.12
332.258	124.12
332.486	116.12
332.715	112.12
332.943	116.12
333.172	119.12
333.4	118.12
333.629	108.12
333.857	111.12
334.085	114.12
334.314	124.12
334.542	119.12
334.771	129.12
334.999	131.12
335.227	120.12
335.455	121.12
335.684	114.12
335.912	111.12
336.14	118.12
336.369	116.12
336.597	117.12
336.825	101.12
337.053	102.12
337.281	102.12
337.51	113.12
337.738	119.12
337.966	96.12
338.194	97.12
338.422	119.12
338.65	108.12
338.878	113.12
339.106	108.12
339.334	106.12
339.562	107.12
339.79	115.12
340.018	108.12
340.246	98.12
340.474	97.12
340.702	108.12
340.93	123.12
341.158	106.12
341.386	109.12
341.614	114.12
341.842	122.12
342.07	112.12
342.298	112.12
342.526	112.12
342.754	111.12
342.981	109.12
343.209	110.12
343.437	102.12
343.665	123.12
343.893	99.12
344.12	120.12
344.348	111.12
344.576	111.12
344.804	117.12
345.031	107.12
345.259	111.12
345.487	107.12
345.714	106.12
345.942	95.12
346.17	110.12
346.397	93.12
346.625	107.12
346.853	98.12
347.08	93.12
347.308	113.12
347.535	111.12
347.763	110.12
347.99	119.12
348.218	109.12
348.445	103.12
348.673	116.12
348.9	104.12
349.128	118.12
349.355	109.12
349.583	115.12
349.81	119.12
350.037	120.12
350.265	115.12
350.492	98.12
350.72	98.12
350.947	100.12
351.174	105.12
351.402	106.12
351.629	104.12
351.856	115.12
352.083	117.12
352.311	139.12
352.538	103.12
352.765	102.12
352.992	103.12
353.22	113.12
353.447	120.12
353.674	106.12
353.901	102.12
354.128	107.12
354.355	107.12
354.583	91.12
354.81	106.12
355.037	108.12
355.264	102.12
355.491	100.12
355.718	101.12
355.945	107.12
356.172	113.12
356.399	118.12
356.626	99.12
356.853	106.12
357.08	107.12
357.307	116.12
357.534	103.12
357.761	104.12
357.988	112.12
358.215	81.12
358.441	116.12
358.668	105.12
358.895	111.12
359.122	107.12
359.349	106.12
359.576	116.12
359.802	113.12
360.029	98.12
360.256	108.12
360.483	105.12
360.709	114.12
360.936	107.12
361.163	107.12
361.39	111.12
361.616	97.12
361.843	103.12
362.07	88.12
362.296	112.12
362.523	104.12
362.749	106.12
362.976	105.12
363.203	112.12
363.429	100.12
363.656	104.12
363.882	94.12
364.109	112.12
364.335	102.12
364.562	99.12
364.788	107.12
365.015	90.12
365.241	105.12
365.468	114.12
365.694	109.12
365.92	116.12
366.147	115.12
366.373	105.12
366.599	97.12
366.826	111.12
367.052	108.12
367.278	116.12
367.505	124.12
367.731	113.12
367.957	109.12
368.184	121.12
368.41	114.12
368.636	116.12
368.862	114.12
369.089	112.12
369.315	107.12
369.541	105.12
369.767	97.12
369.993	99.12
370.219	118.12
370.445	103.12
370.672	116.12
370.898	111.12
371.124	96.12
371.35	101.12
371.576	112.12
371.802	118.12
372.028	112.12
372.254	95.12
372.48	112.12
372.706	98.12
372.932	119.12
373.158	105.12
373.384	125.12
373.61	99.12
373.835	111.12
374.061	123.12
374.287	116.12
374.513	112.12
374.739	123.12
374.965	124.12
375.191	106.12
375.416	119.12
375.642	107.12
375.868	122.12
376.094	109.12
376.319	121.12
376.545	102.12
376.771	100.12
376.997	102.12
377.222	110.12
377.448	130.12
377.674	115.12
377.899	104.12
378.125	106.12
378.35	110.12
378.576	98.12
378.802	103.12
379.027	114.12
379.253	117.12
379.478	106.12
379.704	106.12
379.929	106.12
380.155	108.12
380.38	111.12
380.606	115.12
380.831	112.12
381.057	127.12
381.282	109.12
381.507	121.12
381.733	112.12
381.958	118.12
382.184	105.12
382.409	119.12
382.634	120.12
382.86	121.12
383.085	125.12
383.31	116.12
383.535	120.12
383.761	109.12
383.986	116.12
384.211	108.12
384.436	97.12
384.662	106.12
384.887	117.12
385.112	123.12
385.337	111.12
385.562	113.12
385.787	116.12
386.013	108.12
386.238	113.12
386.463	124.12
386.688	108.12
386.913	106.12
387.138	116.12
387.363	107.12
387.588	117.12
387.813	120.12
388.038	115.12
388.263	129.12
388.488	123.12
388.713	127.12
388.938	124.12
389.163	123.12
389.387	108.12
389.612	107.12
389.837	114.12
390.062	129.12
390.287	120.12
390.512	119.12
390.736	97.12
390.961	116.12
391.186	111.12
391.411	116.12
391.636	121.12
391.86	123.12
392.085	114.12
392.31	124.12
392.534	119.12
392.759	105.12
392.984	127.12
393.208	111.12
393.433	119.12
393.658	122.12
393.882	106.12
394.107	127.12
394.331	95.12
394.556	95.12
394.78	119.12
395.005	115.12
395.229	125.12
395.454	125.12
395.678	116.12
395.903	112.12
396.127	123.12
396.352	116.12
396.576	118.12
396.801	120.12
397.025	116.12
397.249	124.12
397.474	119.12
397.698	119.12
397.922	108.12
398.147	122.12
398.371	111.12
398.595	119.12
398.82	132.12
399.044	126.12
399.268	127.12
399.492	137.12
399.717	150.12
399.941	141.12
400.165	143.12
400.389	142.12
400.613	127.12
400.837	132.12
401.062	124.12
401.286	119.12
401.51	137.12
401.734	132.12
401.958	132.12
402.182	106.12
402.406	118.12
402.63	131.12
402.854	121.12
403.078	131.12
403.302	111.12
403.526	136.12
403.75	129.12
403.974	147.12
404.198	148.12
404.422	117.12
404.645	113.12
404.869	130.12
405.093	133.12
405.317	135.12
405.541	140.12
405.765	128.12
405.988	124.12
406.212	121.12
406.436	133.12
406.66	147.12
406.883	136.12
407.107	125.12
407.331	123.12
407.555	148.12
407.778	141.12
408.002	144.12
408.226	140.12
408.449	128.12
408.673	138.12
408.896	127.12
409.12	133.12
409.344	115.12
409.567	130.12
409.791	114.12
410.014	116.12
410.238	129.12
410.461	120.12
410.685	127.12
410.908	134.12
411.132	134.12
411.355	116.12
411.578	127.12
411.802	117.12
412.025	135.12
412.249	129.12
412.472	124.12
412.695	123.12
412.919	117.12
413.142	127.12
413.365	125.12
413.589	113.12
413.812	113.12
414.035	124.12
414.258	141.12
414.482	134.12
414.705	120.12
414.928	133.12
415.151	122.12
415.374	125.12
415.597	108.12
415.821	115.12
416.044	129.12
416.267	133.12
416.49	132.12
416.713	114.12
416.936	129.12
417.159	122.12
417.382	115.12
417.605	121.12
417.828	127.12
418.051	127.12
418.274	124.12
418.497	127.12
418.72	127.12
418.943	122.12
419.166	124.12
419.389	125.12
419.611	125.12
419.834	122.12
420.057	113.12
420.28	117.12
420.503	125.12
420.726	121.12
420.948	129.12
421.171	143.12
421.394	121.12
421.617	107.12
421.839	143.12
422.062	114.12
422.285	125.12
422.507	134.12
422.73	133.12
422.953	135.12
423.175	125.12
423.398	124.12
423.621	113.12
423.843	120.12
424.066	138.12
424.288	133.12
424.511	117.12
424.733	138.12
424.956	135.12
425.178	140.12
425.401	118.12
425.623	134.12
425.846	136.12
426.068	129.12
426.291	131.12
426.513	131.12
426.735	135.12
426.958	138.12
427.18	137.12
427.402	143.12
427.625	133.12
427.847	132.12
428.069	135.12
428.292	124.12
428.514	137.12
428.736	122.12
428.958	125.12
429.181	126.12
429.403	119.12
429.625	109.12
429.847	121.12
430.069	117.12
430.292	132.12
430.514	113.12
430.736	123.12
430.958	121.12
431.18	124.12
431.402	130.12
431.624	125.12
431.846	118.12
432.068	114.12
432.29	120.12
432.512	141.12
432.734	112.12
432.956	121.12
433.178	133.12
433.4	115.12
433.622	120.12
433.844	137.12
434.066	135.12
434.287	122.12
434.509	119.12
434.731	112.12
434.953	133.12
435.175	116.12
435.397	106.12
435.618	129.12
435.84	117.12
436.062	136.12
436.284	135.12
436.505	144.12
436.727	123.12
436.949	137.12
437.17	126.12
437.392	130.12
437.614	141.12
437.835	126.12
438.057	140.12
438.278	128.12
438.5	144.12
438.721	139.12
438.943	130.12
439.165	132.12
439.386	131.12
439.608	123.12
439.829	123.12
440.05	144.12
440.272	127.12
440.493	135.12
440.715	131.12
440.936	121.12
441.158	128.12
441.379	115.12
441.6	122.12
441.822	136.12
442.043	127.12
442.264	152.12
442.486	132.12
442.707	138.12
442.928	117.12
443.149	137.12
443.371	125.12
443.592	141.12
443.813	132.12
444.034	141.12
444.255	142.12
444.476	129.12
444.698	138.12
444.919	132.12
445.14	201.12
445.361	179.12
445.582	145.12
445.803	140.12
446.024	149.12
446.245	141.12
446.466	145.12
446.687	124.12
446.908	120.12
447.129	131.12
447.35	123.12
447.571	132.12
447.792	132.12
448.013	117.12
448.234	118.12
448.455	133.12
448.675	143.12
448.896	140.12
449.117	132.12
449.338	114.12
449.559	133.12
449.779	150.12
450	143.12
450.221	135.12
450.442	113.12
450.662	122.12
450.883	117.12
451.104	124.12
451.324	123.12
451.545	109.12
451.766	99.12
451.986	121.12
452.207	106.12
452.428	113.12
452.648	127.12
452.869	127.12
453.089	127.12
453.31	106.12
453.53	101.12
453.751	100.12
453.971	130.12
454.192	117.12
454.412	123.12
454.633	105.12
454.853	113.12
455.073	116.12
455.294	116.12
455.514	120.12
455.734	124.12
455.955	135.12
456.175	112.12
456.395	118.12
456.616	123.12
456.836	109.12
457.056	111.12
457.276	121.12
457.497	113.12
457.717	107.12
457.937	119.12
458.157	117.12
458.377	119.12
458.598	124.12
458.818	122.12
459.038	141.12
459.258	134.12
459.478	123.12
459.698	116.12
459.918	127.12
460.138	126.12
460.358	126.12
460.578	120.12
460.798	129.12
461.018	131.12
461.238	128.12
461.458	129.12
461.678	137.12
461.898	141.12
462.118	130.12
462.338	123.12
462.558	126.12
462.777	117.12
462.997	142.12
463.217	132.12
463.437	130.12
463.657	133.12
463.876	137.12
464.096	127.12
464.316	128.12
464.536	132.12
464.755	133.12
464.975	130.12
465.195	133.12
465.414	149.12
465.634	121.12
465.854	122.12
466.073	111.12
466.293	129.12
466.512	119.12
466.732	120.12
466.951	122.12
467.171	121.12
467.391	124.12
467.61	105.12
467.829	111.12
468.049	113.12
468.268	101.12
468.488	122.12
468.707	119.12
468.927	120.12
469.146	123.12
469.365	135.12
469.585	107.12
469.804	129.12
470.023	125.12
470.243	122.12
470.462	119.12
470.681	121.12
470.901	120.12
471.12	122.12
471.339	139.12
471.558	121.12
471.777	120.12
471.997	122.12
472.216	120.12
472.435	122.12
472.654	119.12
472.873	111.12
473.092	126.12
473.311	119.12
473.53	119.12
473.749	124.12
473.968	126.12
474.187	122.12
474.406	140.12
474.625	129.12
474.844	121.12
475.063	109.12
475.282	121.12
475.501	131.12
475.72	129.12
475.939	121.12
476.158	110.12
476.377	123.12
476.596	123.12
476.814	118.12
477.033	117.12
477.252	136.12
477.471	111.12
477.69	128.12
477.908	132.12
478.127	122.12
478.346	133.12
478.564	128.12
478.783	126.12
479.002	133.12
479.22	131.12
479.439	144.12
479.658	124.12
479.876	129.12
480.095	121.12
480.313	131.12
480.532	128.12
480.751	135.12
480.969	125.12
481.188	128.12
481.406	140.12
481.624	128.12
481.843	110.12
482.061	105.12
482.28	129.12
482.498	119.12
482.717	122.12
482.935	120.12
483.153	131.12
483.372	109.12
483.59	119.12
483.808	121.12
484.027	132.12
484.245	124.12
484.463	133.12
484.681	132.12
484.9	141.12
485.118	130.12
485.336	127.12
485.554	123.12
485.772	123.12
485.99	135.12
486.209	131.12
486.427	133.12
486.645	137.12
486.863	139.12
487.081	119.12
487.299	133.12
487.517	148.12
487.735	131.12
487.953	137.12
488.171	139.12
488.389	127.12
488.607	148.12
488.825	141.12
489.043	134.12
489.261	122.12
489.479	133.12
489.696	141.12
489.914	120.12
490.132	127.12
490.35	138.12
490.568	140.12
490.786	136.12
491.003	138.12
491.221	141.12
491.439	144.12
491.657	132.12
491.874	127.12
492.092	131.12
492.31	129.12
492.527	146.12
492.745	136.12
492.963	162.12
493.18	141.12
493.398	154.12
493.615	157.12
493.833	136.12
494.05	135.12
494.268	138.12
494.485	140.12
494.703	137.12
494.92	145.12
495.138	132.12
495.355	141.12
495.573	161.12
495.79	143.12
496.008	140.12
496.225	139.12
496.442	135.12
496.66	144.12
496.877	149.12
497.094	136.12
497.312	140.12
497.529	140.12
497.746	163.12
497.963	160.12
498.181	143.12
498.398	142.12
498.615	162.12
498.832	154.12
499.049	151.12
499.267	153.12
499.484	177.12
499.701	184.12
499.918	178.12
500.135	193.12
500.352	211.12
500.569	185.12
500.786	215.12
501.003	209.12
501.22	195.12
501.437	178.12
501.654	160.12
501.871	181.12
502.088	164.12
502.305	155.12
502.522	159.12
502.739	140.12
502.956	151.12
503.172	149.12
503.389	155.12
503.606	146.12
503.823	142.12
504.04	150.12
504.256	155.12
504.473	137.12
504.69	147.12
504.907	138.12
505.123	131.12
505.34	145.12
505.557	135.12
505.773	140.12
505.99	133.12
