Data from 1968.PennyLincolnUp.Lamp.En5.5.200Scan.071719.P1._HRD10591_14-51-10-970.txt Node
Date: Thu Jul 18 14:51:10 EDT 2019
User: cochatt
Spectrometer: HR+D1059
Trigger mode: 1
Integration Time (sec): 1.000000E-1
Scans to average: 1
Electric dark correction enabled: true
Nonlinearity correction enabled: false
Boxcar width: 0
XAxis mode: Wavelengths
Number of Pixels in Spectrum: 2048
>>>>>Begin Spectral Data<<<<<
223.165	-22.38
223.4	-22.38
223.635	-22.38
223.869	-19.38
224.104	-18.38
224.338	-28.38
224.573	-9.38
224.808	-14.38
225.042	-8.38
225.277	9.62
225.511	8.62
225.746	9.62
225.98	-4.38
226.215	11.62
226.449	20.62
226.683	18.62
226.918	24.62
227.152	21.62
227.387	19.62
227.621	28.62
227.856	38.62
228.09	37.62
228.324	54.62
228.559	60.62
228.793	57.62
229.027	60.62
229.262	78.62
229.496	61.62
229.73	76.62
229.964	92.62
230.199	81.62
230.433	78.62
230.667	84.62
230.901	93.62
231.136	73.62
231.37	76.62
231.604	92.62
231.838	86.62
232.072	83.62
232.306	74.62
232.541	96.62
232.775	82.62
233.009	77.62
233.243	75.62
233.477	78.62
233.711	77.62
233.945	92.62
234.179	78.62
234.413	73.62
234.647	71.62
234.881	75.62
235.115	92.62
235.349	74.62
235.583	81.62
235.817	60.62
236.051	82.62
236.285	78.62
236.519	84.62
236.753	73.62
236.987	90.62
237.221	77.62
237.455	82.62
237.689	83.62
237.922	92.62
238.156	88.62
238.39	80.62
238.624	77.62
238.858	87.62
239.091	83.62
239.325	86.62
239.559	82.62
239.793	70.62
240.027	93.62
240.26	85.62
240.494	86.62
240.728	86.62
240.961	97.62
241.195	73.62
241.429	92.62
241.662	75.62
241.896	69.62
242.13	80.62
242.363	84.62
242.597	85.62
242.83	83.62
243.064	72.62
243.298	81.62
243.531	77.62
243.765	82.62
243.998	70.62
244.232	84.62
244.465	82.62
244.699	95.62
244.932	90.62
245.166	83.62
245.399	89.62
245.633	94.62
245.866	80.62
246.099	71.62
246.333	78.62
246.566	86.62
246.8	96.62
247.033	76.62
247.266	88.62
247.5	74.62
247.733	85.62
247.966	81.62
248.2	88.62
248.433	82.62
248.666	90.62
248.899	78.62
249.133	67.62
249.366	88.62
249.599	76.62
249.832	74.62
250.066	90.62
250.299	96.62
250.532	97.62
250.765	78.62
250.998	101.62
251.231	91.62
251.465	80.62
251.698	88.62
251.931	87.62
252.164	82.62
252.397	100.62
252.63	91.62
252.863	81.62
253.096	99.62
253.329	96.62
253.562	87.62
253.795	80.62
254.028	85.62
254.261	84.62
254.494	82.62
254.727	103.62
254.96	100.62
255.193	85.62
255.426	94.62
255.659	86.62
255.892	97.62
256.124	97.62
256.357	83.62
256.59	98.62
256.823	86.62
257.056	81.62
257.289	99.62
257.521	92.62
257.754	84.62
257.987	92.62
258.22	93.62
258.452	84.62
258.685	100.62
258.918	96.62
259.151	86.62
259.383	95.62
259.616	84.62
259.849	101.62
260.081	76.62
260.314	87.62
260.547	82.62
260.779	101.62
261.012	90.62
261.244	91.62
261.477	89.62
261.71	99.62
261.942	97.62
262.175	95.62
262.407	90.62
262.64	93.62
262.872	86.62
263.105	90.62
263.337	90.62
263.57	80.62
263.802	90.62
264.035	105.62
264.267	104.62
264.499	115.62
264.732	101.62
264.964	94.62
265.197	95.62
265.429	91.62
265.661	94.62
265.894	89.62
266.126	102.62
266.358	78.62
266.591	87.62
266.823	85.62
267.055	97.62
267.287	85.62
267.52	75.62
267.752	88.62
267.984	100.62
268.216	97.62
268.448	107.62
268.681	89.62
268.913	89.62
269.145	96.62
269.377	98.62
269.609	91.62
269.841	96.62
270.073	90.62
270.306	91.62
270.538	99.62
270.77	93.62
271.002	93.62
271.234	91.62
271.466	106.62
271.698	90.62
271.93	92.62
272.162	93.62
272.394	90.62
272.626	82.62
272.858	92.62
273.09	112.62
273.322	115.62
273.553	98.62
273.785	103.62
274.017	100.62
274.249	96.62
274.481	92.62
274.713	82.62
274.945	97.62
275.176	105.62
275.408	100.62
275.64	89.62
275.872	91.62
276.104	105.62
276.335	102.62
276.567	107.62
276.799	85.62
277.031	99.62
277.262	98.62
277.494	98.62
277.726	99.62
277.957	115.62
278.189	109.62
278.421	90.62
278.652	98.62
278.884	110.62
279.115	98.62
279.347	101.62
279.579	99.62
279.81	108.62
280.042	102.62
280.273	92.62
280.505	94.62
280.736	99.62
280.968	86.62
281.199	94.62
281.431	97.62
281.662	122.62
281.894	100.62
282.125	89.62
282.356	100.62
282.588	106.62
282.819	96.62
283.051	93.62
283.282	107.62
283.513	73.62
283.745	88.62
283.976	102.62
284.207	109.62
284.439	112.62
284.67	96.62
284.901	86.62
285.132	98.62
285.364	97.62
285.595	111.62
285.826	114.62
286.057	96.62
286.288	92.62
286.52	99.62
286.751	94.62
286.982	93.62
287.213	95.62
287.444	100.62
287.675	92.62
287.906	94.62
288.138	108.62
288.369	101.62
288.6	111.62
288.831	97.62
289.062	108.62
289.293	107.62
289.524	90.62
289.755	111.62
289.986	107.62
290.217	99.62
290.448	108.62
290.679	82.62
290.91	96.62
291.141	97.62
291.371	96.62
291.602	98.62
291.833	109.62
292.064	116.62
292.295	96.62
292.526	98.62
292.757	103.62
292.987	102.62
293.218	109.62
293.449	95.62
293.68	109.62
293.91	107.62
294.141	101.62
294.372	105.62
294.603	100.62
294.833	92.62
295.064	100.62
295.295	92.62
295.525	94.62
295.756	103.62
295.987	104.62
296.217	100.62
296.448	110.62
296.679	97.62
296.909	84.62
297.14	97.62
297.37	117.62
297.601	102.62
297.831	93.62
298.062	89.62
298.292	95.62
298.523	106.62
298.753	115.62
298.984	103.62
299.214	110.62
299.445	114.62
299.675	97.62
299.905	104.62
300.136	103.62
300.366	94.62
300.597	110.62
300.827	98.62
301.057	107.62
301.288	118.62
301.518	89.62
301.748	104.62
301.979	109.62
302.209	109.62
302.439	102.62
302.669	95.62
302.9	122.62
303.13	114.62
303.36	106.62
303.59	113.62
303.82	112.62
304.051	120.62
304.281	107.62
304.511	100.62
304.741	91.62
304.971	96.62
305.201	103.62
305.431	93.62
305.661	96.62
305.891	108.62
306.121	100.62
306.352	111.62
306.582	108.62
306.812	100.62
307.042	95.62
307.272	94.62
307.502	93.62
307.731	100.62
307.961	106.62
308.191	108.62
308.421	101.62
308.651	110.62
308.881	107.62
309.111	86.62
309.341	108.62
309.571	96.62
309.8	114.62
310.03	103.62
310.26	114.62
310.49	99.62
310.72	80.62
310.949	108.62
311.179	98.62
311.409	105.62
311.639	110.62
311.868	117.62
312.098	102.62
312.328	118.62
312.557	100.62
312.787	104.62
313.017	106.62
313.246	113.62
313.476	127.62
313.706	95.62
313.935	116.62
314.165	96.62
314.394	109.62
314.624	107.62
314.853	98.62
315.083	98.62
315.312	103.62
315.542	107.62
315.771	121.62
316.001	100.62
316.23	114.62
316.46	109.62
316.689	118.62
316.919	116.62
317.148	108.62
317.377	104.62
317.607	110.62
317.836	93.62
318.065	108.62
318.295	96.62
318.524	102.62
318.753	105.62
318.983	97.62
319.212	107.62
319.441	106.62
319.67	123.62
319.9	108.62
320.129	101.62
320.358	109.62
320.587	116.62
320.816	113.62
321.046	120.62
321.275	110.62
321.504	105.62
321.733	113.62
321.962	109.62
322.191	110.62
322.42	99.62
322.649	105.62
322.878	119.62
323.108	101.62
323.337	104.62
323.566	112.62
323.795	106.62
324.024	130.62
324.253	117.62
324.482	137.62
324.71	172.62
324.939	180.62
325.168	177.62
325.397	130.62
325.626	124.62
325.855	96.62
326.084	112.62
326.313	106.62
326.542	117.62
326.77	120.62
326.999	136.62
327.228	143.62
327.457	151.62
327.686	161.62
327.914	134.62
328.143	134.62
328.372	112.62
328.6	114.62
328.829	118.62
329.058	112.62
329.287	121.62
329.515	126.62
329.744	112.62
329.972	138.62
330.201	117.62
330.43	108.62
330.658	128.62
330.887	110.62
331.115	115.62
331.344	94.62
331.572	119.62
331.801	113.62
332.03	125.62
332.258	103.62
332.486	113.62
332.715	121.62
332.943	123.62
333.172	115.62
333.4	125.62
333.629	109.62
333.857	132.62
334.085	109.62
334.314	115.62
334.542	105.62
334.771	130.62
334.999	119.62
335.227	131.62
335.455	113.62
335.684	118.62
335.912	122.62
336.14	121.62
336.369	120.62
336.597	122.62
336.825	110.62
337.053	115.62
337.281	115.62
337.51	101.62
337.738	119.62
337.966	112.62
338.194	124.62
338.422	109.62
338.65	119.62
338.878	118.62
339.106	121.62
339.334	115.62
339.562	115.62
339.79	109.62
340.018	116.62
340.246	107.62
340.474	107.62
340.702	121.62
340.93	105.62
341.158	109.62
341.386	119.62
341.614	94.62
341.842	117.62
342.07	120.62
342.298	108.62
342.526	98.62
342.754	104.62
342.981	124.62
343.209	101.62
343.437	106.62
343.665	113.62
343.893	118.62
344.12	104.62
344.348	109.62
344.576	118.62
344.804	109.62
345.031	116.62
345.259	114.62
345.487	117.62
345.714	104.62
345.942	110.62
346.17	113.62
346.397	105.62
346.625	108.62
346.853	108.62
347.08	115.62
347.308	115.62
347.535	107.62
347.763	115.62
347.99	110.62
348.218	116.62
348.445	117.62
348.673	100.62
348.9	114.62
349.128	115.62
349.355	102.62
349.583	118.62
349.81	109.62
350.037	118.62
350.265	114.62
350.492	110.62
350.72	110.62
350.947	114.62
351.174	118.62
351.402	102.62
351.629	99.62
351.856	96.62
352.083	106.62
352.311	118.62
352.538	114.62
352.765	119.62
352.992	140.62
353.22	104.62
353.447	108.62
353.674	123.62
353.901	109.62
354.128	122.62
354.355	106.62
354.583	106.62
354.81	125.62
355.037	105.62
355.264	101.62
355.491	101.62
355.718	115.62
355.945	93.62
356.172	108.62
356.399	107.62
356.626	116.62
356.853	100.62
357.08	104.62
357.307	104.62
357.534	107.62
357.761	101.62
357.988	106.62
358.215	106.62
358.441	97.62
358.668	120.62
358.895	109.62
359.122	105.62
359.349	109.62
359.576	108.62
359.802	121.62
360.029	105.62
360.256	114.62
360.483	103.62
360.709	109.62
360.936	114.62
361.163	122.62
361.39	119.62
361.616	115.62
361.843	104.62
362.07	111.62
362.296	109.62
362.523	105.62
362.749	114.62
362.976	115.62
363.203	114.62
363.429	101.62
363.656	108.62
363.882	112.62
364.109	106.62
364.335	112.62
364.562	105.62
364.788	116.62
365.015	112.62
365.241	114.62
365.468	113.62
365.694	112.62
365.92	89.62
366.147	118.62
366.373	108.62
366.599	114.62
366.826	102.62
367.052	105.62
367.278	112.62
367.505	120.62
367.731	119.62
367.957	119.62
368.184	117.62
368.41	115.62
368.636	107.62
368.862	132.62
369.089	117.62
369.315	124.62
369.541	112.62
369.767	116.62
369.993	120.62
370.219	122.62
370.445	129.62
370.672	110.62
370.898	111.62
371.124	118.62
371.35	104.62
371.576	108.62
371.802	93.62
372.028	119.62
372.254	103.62
372.48	118.62
372.706	115.62
372.932	119.62
373.158	120.62
373.384	108.62
373.61	107.62
373.835	113.62
374.061	101.62
374.287	118.62
374.513	116.62
374.739	113.62
374.965	109.62
375.191	116.62
375.416	121.62
375.642	125.62
375.868	104.62
376.094	117.62
376.319	109.62
376.545	110.62
376.771	106.62
376.997	106.62
377.222	116.62
377.448	116.62
377.674	122.62
377.899	109.62
378.125	105.62
378.35	106.62
378.576	92.62
378.802	117.62
379.027	104.62
379.253	109.62
379.478	118.62
379.704	102.62
379.929	118.62
380.155	104.62
380.38	118.62
380.606	107.62
380.831	121.62
381.057	121.62
381.282	118.62
381.507	114.62
381.733	112.62
381.958	107.62
382.184	117.62
382.409	121.62
382.634	117.62
382.86	117.62
383.085	99.62
383.31	122.62
383.535	122.62
383.761	122.62
383.986	128.62
384.211	112.62
384.436	117.62
384.662	123.62
384.887	128.62
385.112	116.62
385.337	116.62
385.562	127.62
385.787	112.62
386.013	123.62
386.238	120.62
386.463	127.62
386.688	122.62
386.913	101.62
387.138	106.62
387.363	124.62
387.588	111.62
387.813	120.62
388.038	113.62
388.263	123.62
388.488	124.62
388.713	122.62
388.938	117.62
389.163	117.62
389.387	121.62
389.612	120.62
389.837	122.62
390.062	118.62
390.287	118.62
390.512	120.62
390.736	115.62
390.961	127.62
391.186	121.62
391.411	128.62
391.636	127.62
391.86	132.62
392.085	118.62
392.31	114.62
392.534	117.62
392.759	122.62
392.984	121.62
393.208	110.62
393.433	130.62
393.658	100.62
393.882	112.62
394.107	106.62
394.331	124.62
394.556	122.62
394.78	97.62
395.005	112.62
395.229	109.62
395.454	136.62
395.678	120.62
395.903	119.62
396.127	125.62
396.352	126.62
396.576	119.62
396.801	124.62
397.025	125.62
397.249	122.62
397.474	123.62
397.698	117.62
397.922	124.62
398.147	123.62
398.371	108.62
398.595	123.62
398.82	122.62
399.044	123.62
399.268	136.62
399.492	133.62
399.717	136.62
399.941	140.62
400.165	141.62
400.389	139.62
400.613	143.62
400.837	118.62
401.062	129.62
401.286	130.62
401.51	134.62
401.734	123.62
401.958	122.62
402.182	126.62
402.406	131.62
402.63	132.62
402.854	125.62
403.078	132.62
403.302	137.62
403.526	135.62
403.75	134.62
403.974	122.62
404.198	146.62
404.422	124.62
404.645	141.62
404.869	140.62
405.093	130.62
405.317	138.62
405.541	123.62
405.765	149.62
405.988	127.62
406.212	129.62
406.436	138.62
406.66	139.62
406.883	136.62
407.107	141.62
407.331	143.62
407.555	145.62
407.778	152.62
408.002	148.62
408.226	145.62
408.449	128.62
408.673	134.62
408.896	153.62
409.12	141.62
409.344	127.62
409.567	149.62
409.791	129.62
410.014	125.62
410.238	133.62
410.461	123.62
410.685	122.62
410.908	126.62
411.132	136.62
411.355	140.62
411.578	141.62
411.802	134.62
412.025	133.62
412.249	140.62
412.472	124.62
412.695	137.62
412.919	116.62
413.142	134.62
413.365	142.62
413.589	125.62
413.812	137.62
414.035	118.62
414.258	122.62
414.482	127.62
414.705	141.62
414.928	129.62
415.151	120.62
415.374	124.62
415.597	122.62
415.821	119.62
416.044	121.62
416.267	125.62
416.49	136.62
416.713	121.62
416.936	128.62
417.159	143.62
417.382	127.62
417.605	133.62
417.828	130.62
418.051	126.62
418.274	119.62
418.497	133.62
418.72	136.62
418.943	128.62
419.166	131.62
419.389	136.62
419.611	143.62
419.834	135.62
420.057	123.62
420.28	137.62
420.503	124.62
420.726	139.62
420.948	147.62
421.171	123.62
421.394	138.62
421.617	137.62
421.839	117.62
422.062	128.62
422.285	117.62
422.507	133.62
422.73	131.62
422.953	113.62
423.175	129.62
423.398	142.62
423.621	138.62
423.843	132.62
424.066	125.62
424.288	130.62
424.511	143.62
424.733	138.62
424.956	142.62
425.178	147.62
425.401	136.62
425.623	148.62
425.846	135.62
426.068	133.62
426.291	133.62
426.513	122.62
426.735	127.62
426.958	137.62
427.18	132.62
427.402	138.62
427.625	145.62
427.847	138.62
428.069	136.62
428.292	129.62
428.514	137.62
428.736	124.62
428.958	118.62
429.181	135.62
429.403	131.62
429.625	114.62
429.847	136.62
430.069	140.62
430.292	139.62
430.514	110.62
430.736	128.62
430.958	122.62
431.18	124.62
431.402	105.62
431.624	121.62
431.846	118.62
432.068	131.62
432.29	131.62
432.512	130.62
432.734	133.62
432.956	132.62
433.178	126.62
433.4	115.62
433.622	120.62
433.844	134.62
434.066	117.62
434.287	115.62
434.509	123.62
434.731	126.62
434.953	132.62
435.175	136.62
435.397	146.62
435.618	136.62
435.84	130.62
436.062	145.62
436.284	138.62
436.505	123.62
436.727	128.62
436.949	119.62
437.17	114.62
437.392	130.62
437.614	127.62
437.835	129.62
438.057	136.62
438.278	127.62
438.5	132.62
438.721	140.62
438.943	148.62
439.165	137.62
439.386	148.62
439.608	133.62
439.829	116.62
440.05	140.62
440.272	134.62
440.493	145.62
440.715	135.62
440.936	121.62
441.158	132.62
441.379	136.62
441.6	134.62
441.822	130.62
442.043	126.62
442.264	136.62
442.486	143.62
442.707	125.62
442.928	134.62
443.149	124.62
443.371	153.62
443.592	136.62
443.813	135.62
444.034	156.62
444.255	144.62
444.476	135.62
444.698	123.62
444.919	137.62
445.14	205.62
445.361	163.62
445.582	134.62
445.803	134.62
446.024	125.62
446.245	147.62
446.466	142.62
446.687	132.62
446.908	124.62
447.129	123.62
447.35	121.62
447.571	122.62
447.792	132.62
448.013	128.62
448.234	134.62
448.455	129.62
448.675	132.62
448.896	144.62
449.117	125.62
449.338	119.62
449.559	132.62
449.779	142.62
450	126.62
450.221	121.62
450.442	137.62
450.662	128.62
450.883	124.62
451.104	136.62
451.324	128.62
451.545	124.62
451.766	100.62
451.986	132.62
452.207	125.62
452.428	123.62
452.648	134.62
452.869	116.62
453.089	136.62
453.31	124.62
453.53	137.62
453.751	128.62
453.971	123.62
454.192	121.62
454.412	117.62
454.633	113.62
454.853	112.62
455.073	113.62
455.294	119.62
455.514	106.62
455.734	126.62
455.955	100.62
456.175	111.62
456.395	130.62
456.616	112.62
456.836	116.62
457.056	110.62
457.276	106.62
457.497	105.62
457.717	117.62
457.937	101.62
458.157	116.62
458.377	115.62
458.598	115.62
458.818	130.62
459.038	134.62
459.258	120.62
459.478	120.62
459.698	130.62
459.918	128.62
460.138	129.62
460.358	132.62
460.578	140.62
460.798	132.62
461.018	113.62
461.238	123.62
461.458	133.62
461.678	130.62
461.898	135.62
462.118	132.62
462.338	130.62
462.558	130.62
462.777	133.62
462.997	131.62
463.217	133.62
463.437	123.62
463.657	127.62
463.876	133.62
464.096	129.62
464.316	139.62
464.536	139.62
464.755	132.62
464.975	122.62
465.195	137.62
465.414	128.62
465.634	121.62
465.854	120.62
466.073	125.62
466.293	110.62
466.512	123.62
466.732	116.62
466.951	108.62
467.171	124.62
467.391	122.62
467.61	131.62
467.829	123.62
468.049	123.62
468.268	126.62
468.488	137.62
468.707	127.62
468.927	126.62
469.146	122.62
469.365	132.62
469.585	120.62
469.804	127.62
470.023	112.62
470.243	124.62
470.462	130.62
470.681	139.62
470.901	136.62
471.12	109.62
471.339	130.62
471.558	131.62
471.777	104.62
471.997	116.62
472.216	110.62
472.435	119.62
472.654	118.62
472.873	130.62
473.092	125.62
473.311	110.62
473.53	127.62
473.749	118.62
473.968	128.62
474.187	123.62
474.406	124.62
474.625	128.62
474.844	120.62
475.063	123.62
475.282	116.62
475.501	102.62
475.72	113.62
475.939	124.62
476.158	126.62
476.377	136.62
476.596	116.62
476.814	104.62
477.033	120.62
477.252	126.62
477.471	124.62
477.69	130.62
477.908	123.62
478.127	123.62
478.346	130.62
478.564	130.62
478.783	134.62
479.002	128.62
479.22	132.62
479.439	124.62
479.658	137.62
479.876	139.62
480.095	139.62
480.313	133.62
480.532	133.62
480.751	142.62
480.969	151.62
481.188	132.62
481.406	136.62
481.624	116.62
481.843	122.62
482.061	122.62
482.28	145.62
482.498	132.62
482.717	152.62
482.935	116.62
483.153	133.62
483.372	147.62
483.59	130.62
483.808	117.62
484.027	127.62
484.245	118.62
484.463	130.62
484.681	133.62
484.9	116.62
485.118	137.62
485.336	148.62
485.554	130.62
485.772	147.62
485.99	130.62
486.209	140.62
486.427	138.62
486.645	138.62
486.863	138.62
487.081	128.62
487.299	128.62
487.517	139.62
487.735	147.62
487.953	141.62
488.171	140.62
488.389	156.62
488.607	145.62
488.825	131.62
489.043	141.62
489.261	128.62
489.479	122.62
489.696	131.62
489.914	135.62
490.132	148.62
490.35	138.62
490.568	138.62
490.786	148.62
491.003	147.62
491.221	135.62
491.439	128.62
491.657	142.62
491.874	148.62
492.092	149.62
492.31	139.62
492.527	137.62
492.745	132.62
492.963	144.62
493.18	139.62
493.398	148.62
493.615	153.62
493.833	144.62
494.05	153.62
494.268	149.62
494.485	142.62
494.703	150.62
494.92	144.62
495.138	155.62
495.355	135.62
495.573	144.62
495.79	146.62
496.008	142.62
496.225	143.62
496.442	126.62
496.66	161.62
496.877	145.62
497.094	151.62
497.312	135.62
497.529	149.62
497.746	156.62
497.963	154.62
498.181	156.62
498.398	178.62
498.615	155.62
498.832	157.62
499.049	170.62
499.267	159.62
499.484	178.62
499.701	163.62
499.918	199.62
500.135	195.62
500.352	215.62
500.569	230.62
500.786	217.62
501.003	220.62
501.22	189.62
501.437	200.62
501.654	184.62
501.871	177.62
502.088	168.62
502.305	169.62
502.522	167.62
502.739	158.62
502.956	158.62
503.172	163.62
503.389	161.62
503.606	165.62
503.823	141.62
504.04	151.62
504.256	143.62
504.473	149.62
504.69	152.62
504.907	149.62
505.123	139.62
505.34	135.62
505.557	148.62
505.773	163.62
