Data from 1968.PennyLincolnUp.Lamp.En5.5.200Scan.071719.P1._HRD10591_14-52-14-970.txt Node
Date: Thu Jul 18 14:52:14 EDT 2019
User: cochatt
Spectrometer: HR+D1059
Trigger mode: 1
Integration Time (sec): 1.000000E-1
Scans to average: 1
Electric dark correction enabled: true
Nonlinearity correction enabled: false
Boxcar width: 0
XAxis mode: Wavelengths
Number of Pixels in Spectrum: 2048
>>>>>Begin Spectral Data<<<<<
223.165	-11.56
223.4	-11.56
223.635	-11.56
223.869	-11.56
224.104	-24.56
224.338	-3.56
224.573	-12.56
224.808	-19.56
225.042	-14.56
225.277	-16.56
225.511	-17.56
225.746	-1.56
225.98	10.44
226.215	3.44
226.449	20.44
226.683	31.44
226.918	33.44
227.152	34.44
227.387	40.44
227.621	38.44
227.856	38.44
228.09	38.44
228.324	55.44
228.559	51.44
228.793	67.44
229.027	65.44
229.262	70.44
229.496	72.44
229.73	64.44
229.964	67.44
230.199	72.44
230.433	88.44
230.667	83.44
230.901	76.44
231.136	74.44
231.37	77.44
231.604	93.44
231.838	90.44
232.072	90.44
232.306	78.44
232.541	81.44
232.775	85.44
233.009	87.44
233.243	87.44
233.477	62.44
233.711	83.44
233.945	89.44
234.179	95.44
234.413	92.44
234.647	79.44
234.881	99.44
235.115	87.44
235.349	63.44
235.583	85.44
235.817	66.44
236.051	80.44
236.285	89.44
236.519	84.44
236.753	89.44
236.987	86.44
237.221	74.44
237.455	70.44
237.689	90.44
237.922	68.44
238.156	74.44
238.39	95.44
238.624	81.44
238.858	82.44
239.091	85.44
239.325	70.44
239.559	63.44
239.793	71.44
240.027	82.44
240.26	83.44
240.494	87.44
240.728	78.44
240.961	86.44
241.195	84.44
241.429	70.44
241.662	70.44
241.896	70.44
242.13	94.44
242.363	86.44
242.597	78.44
242.83	85.44
243.064	65.44
243.298	87.44
243.531	84.44
243.765	73.44
243.998	73.44
244.232	87.44
244.465	75.44
244.699	74.44
244.932	69.44
245.166	85.44
245.399	96.44
245.633	83.44
245.866	79.44
246.099	93.44
246.333	88.44
246.566	85.44
246.8	84.44
247.033	98.44
247.266	93.44
247.5	78.44
247.733	99.44
247.966	88.44
248.2	92.44
248.433	90.44
248.666	85.44
248.899	80.44
249.133	79.44
249.366	86.44
249.599	96.44
249.832	72.44
250.066	99.44
250.299	89.44
250.532	94.44
250.765	82.44
250.998	84.44
251.231	85.44
251.465	101.44
251.698	97.44
251.931	92.44
252.164	88.44
252.397	77.44
252.63	97.44
252.863	79.44
253.096	77.44
253.329	92.44
253.562	92.44
253.795	84.44
254.028	96.44
254.261	92.44
254.494	85.44
254.727	102.44
254.96	93.44
255.193	92.44
255.426	83.44
255.659	106.44
255.892	89.44
256.124	77.44
256.357	88.44
256.59	91.44
256.823	81.44
257.056	90.44
257.289	77.44
257.521	90.44
257.754	83.44
257.987	75.44
258.22	83.44
258.452	83.44
258.685	85.44
258.918	83.44
259.151	101.44
259.383	86.44
259.616	106.44
259.849	94.44
260.081	98.44
260.314	86.44
260.547	77.44
260.779	92.44
261.012	101.44
261.244	90.44
261.477	93.44
261.71	82.44
261.942	81.44
262.175	87.44
262.407	91.44
262.64	87.44
262.872	92.44
263.105	78.44
263.337	90.44
263.57	109.44
263.802	80.44
264.035	105.44
264.267	100.44
264.499	88.44
264.732	89.44
264.964	90.44
265.197	92.44
265.429	91.44
265.661	87.44
265.894	98.44
266.126	76.44
266.358	98.44
266.591	89.44
266.823	91.44
267.055	94.44
267.287	94.44
267.52	91.44
267.752	97.44
267.984	95.44
268.216	87.44
268.448	90.44
268.681	97.44
268.913	94.44
269.145	104.44
269.377	94.44
269.609	101.44
269.841	99.44
270.073	86.44
270.306	91.44
270.538	95.44
270.77	94.44
271.002	92.44
271.234	93.44
271.466	102.44
271.698	93.44
271.93	93.44
272.162	89.44
272.394	84.44
272.626	87.44
272.858	111.44
273.09	93.44
273.322	99.44
273.553	93.44
273.785	101.44
274.017	91.44
274.249	98.44
274.481	99.44
274.713	95.44
274.945	100.44
275.176	113.44
275.408	100.44
275.64	83.44
275.872	85.44
276.104	98.44
276.335	99.44
276.567	77.44
276.799	80.44
277.031	87.44
277.262	101.44
277.494	102.44
277.726	92.44
277.957	110.44
278.189	93.44
278.421	99.44
278.652	108.44
278.884	92.44
279.115	105.44
279.347	97.44
279.579	99.44
279.81	99.44
280.042	95.44
280.273	95.44
280.505	103.44
280.736	94.44
280.968	108.44
281.199	94.44
281.431	109.44
281.662	100.44
281.894	102.44
282.125	109.44
282.356	84.44
282.588	108.44
282.819	86.44
283.051	101.44
283.282	102.44
283.513	101.44
283.745	99.44
283.976	103.44
284.207	87.44
284.439	105.44
284.67	103.44
284.901	92.44
285.132	91.44
285.364	93.44
285.595	98.44
285.826	91.44
286.057	114.44
286.288	102.44
286.52	93.44
286.751	100.44
286.982	100.44
287.213	86.44
287.444	95.44
287.675	101.44
287.906	114.44
288.138	107.44
288.369	98.44
288.6	99.44
288.831	100.44
289.062	97.44
289.293	97.44
289.524	103.44
289.755	96.44
289.986	93.44
290.217	88.44
290.448	84.44
290.679	100.44
290.91	105.44
291.141	93.44
291.371	106.44
291.602	90.44
291.833	94.44
292.064	97.44
292.295	114.44
292.526	105.44
292.757	105.44
292.987	93.44
293.218	89.44
293.449	92.44
293.68	100.44
293.91	94.44
294.141	86.44
294.372	98.44
294.603	107.44
294.833	108.44
295.064	90.44
295.295	95.44
295.525	105.44
295.756	113.44
295.987	120.44
296.217	85.44
296.448	97.44
296.679	93.44
296.909	106.44
297.14	100.44
297.37	110.44
297.601	88.44
297.831	106.44
298.062	118.44
298.292	97.44
298.523	109.44
298.753	98.44
298.984	99.44
299.214	108.44
299.445	94.44
299.675	103.44
299.905	105.44
300.136	115.44
300.366	115.44
300.597	110.44
300.827	104.44
301.057	97.44
301.288	113.44
301.518	93.44
301.748	101.44
301.979	89.44
302.209	128.44
302.439	100.44
302.669	115.44
302.9	99.44
303.13	102.44
303.36	92.44
303.59	99.44
303.82	96.44
304.051	124.44
304.281	84.44
304.511	93.44
304.741	106.44
304.971	113.44
305.201	100.44
305.431	116.44
305.661	106.44
305.891	106.44
306.121	108.44
306.352	87.44
306.582	99.44
306.812	115.44
307.042	84.44
307.272	93.44
307.502	95.44
307.731	107.44
307.961	100.44
308.191	119.44
308.421	113.44
308.651	117.44
308.881	102.44
309.111	105.44
309.341	117.44
309.571	117.44
309.8	97.44
310.03	110.44
310.26	95.44
310.49	108.44
310.72	106.44
310.949	90.44
311.179	104.44
311.409	104.44
311.639	113.44
311.868	103.44
312.098	105.44
312.328	101.44
312.557	99.44
312.787	121.44
313.017	101.44
313.246	113.44
313.476	103.44
313.706	99.44
313.935	110.44
314.165	108.44
314.394	105.44
314.624	110.44
314.853	108.44
315.083	111.44
315.312	107.44
315.542	105.44
315.771	106.44
316.001	107.44
316.23	105.44
316.46	103.44
316.689	108.44
316.919	114.44
317.148	110.44
317.377	129.44
317.607	101.44
317.836	107.44
318.065	106.44
318.295	103.44
318.524	92.44
318.753	108.44
318.983	102.44
319.212	109.44
319.441	99.44
319.67	90.44
319.9	97.44
320.129	97.44
320.358	107.44
320.587	116.44
320.816	114.44
321.046	102.44
321.275	110.44
321.504	95.44
321.733	110.44
321.962	102.44
322.191	115.44
322.42	105.44
322.649	100.44
322.878	97.44
323.108	104.44
323.337	123.44
323.566	114.44
323.795	117.44
324.024	113.44
324.253	117.44
324.482	141.44
324.71	153.44
324.939	196.44
325.168	159.44
325.397	133.44
325.626	99.44
325.855	121.44
326.084	113.44
326.313	109.44
326.542	104.44
326.77	101.44
326.999	121.44
327.228	133.44
327.457	154.44
327.686	157.44
327.914	134.44
328.143	114.44
328.372	118.44
328.6	132.44
328.829	105.44
329.058	118.44
329.287	125.44
329.515	110.44
329.744	117.44
329.972	121.44
330.201	111.44
330.43	113.44
330.658	135.44
330.887	125.44
331.115	124.44
331.344	107.44
331.572	121.44
331.801	114.44
332.03	103.44
332.258	106.44
332.486	109.44
332.715	121.44
332.943	131.44
333.172	111.44
333.4	96.44
333.629	113.44
333.857	125.44
334.085	107.44
334.314	123.44
334.542	95.44
334.771	113.44
334.999	118.44
335.227	117.44
335.455	107.44
335.684	106.44
335.912	118.44
336.14	125.44
336.369	114.44
336.597	117.44
336.825	105.44
337.053	113.44
337.281	114.44
337.51	110.44
337.738	119.44
337.966	105.44
338.194	111.44
338.422	117.44
338.65	115.44
338.878	96.44
339.106	114.44
339.334	119.44
339.562	103.44
339.79	109.44
340.018	111.44
340.246	106.44
340.474	94.44
340.702	120.44
340.93	121.44
341.158	111.44
341.386	113.44
341.614	110.44
341.842	116.44
342.07	111.44
342.298	116.44
342.526	109.44
342.754	124.44
342.981	111.44
343.209	106.44
343.437	110.44
343.665	111.44
343.893	119.44
344.12	121.44
344.348	109.44
344.576	123.44
344.804	105.44
345.031	122.44
345.259	111.44
345.487	111.44
345.714	109.44
345.942	105.44
346.17	110.44
346.397	106.44
346.625	110.44
346.853	102.44
347.08	117.44
347.308	105.44
347.535	101.44
347.763	87.44
347.99	99.44
348.218	102.44
348.445	110.44
348.673	117.44
348.9	113.44
349.128	110.44
349.355	109.44
349.583	104.44
349.81	116.44
350.037	113.44
350.265	97.44
350.492	98.44
350.72	105.44
350.947	121.44
351.174	113.44
351.402	106.44
351.629	112.44
351.856	107.44
352.083	119.44
352.311	90.44
352.538	100.44
352.765	99.44
352.992	103.44
353.22	118.44
353.447	116.44
353.674	119.44
353.901	104.44
354.128	104.44
354.355	113.44
354.583	108.44
354.81	100.44
355.037	103.44
355.264	97.44
355.491	108.44
355.718	104.44
355.945	126.44
356.172	107.44
356.399	104.44
356.626	103.44
356.853	117.44
357.08	101.44
357.307	109.44
357.534	111.44
357.761	98.44
357.988	118.44
358.215	95.44
358.441	107.44
358.668	110.44
358.895	102.44
359.122	105.44
359.349	107.44
359.576	112.44
359.802	102.44
360.029	89.44
360.256	111.44
360.483	125.44
360.709	117.44
360.936	117.44
361.163	106.44
361.39	116.44
361.616	109.44
361.843	99.44
362.07	125.44
362.296	106.44
362.523	101.44
362.749	94.44
362.976	114.44
363.203	103.44
363.429	108.44
363.656	103.44
363.882	110.44
364.109	114.44
364.335	107.44
364.562	93.44
364.788	105.44
365.015	110.44
365.241	111.44
365.468	123.44
365.694	112.44
365.92	110.44
366.147	114.44
366.373	89.44
366.599	105.44
366.826	102.44
367.052	119.44
367.278	101.44
367.505	125.44
367.731	115.44
367.957	127.44
368.184	107.44
368.41	116.44
368.636	99.44
368.862	108.44
369.089	110.44
369.315	116.44
369.541	114.44
369.767	97.44
369.993	125.44
370.219	107.44
370.445	117.44
370.672	117.44
370.898	110.44
371.124	100.44
371.35	89.44
371.576	110.44
371.802	107.44
372.028	118.44
372.254	110.44
372.48	110.44
372.706	129.44
372.932	111.44
373.158	116.44
373.384	94.44
373.61	124.44
373.835	103.44
374.061	107.44
374.287	110.44
374.513	110.44
374.739	105.44
374.965	115.44
375.191	115.44
375.416	116.44
375.642	124.44
375.868	99.44
376.094	115.44
376.319	103.44
376.545	110.44
376.771	100.44
376.997	102.44
377.222	116.44
377.448	110.44
377.674	110.44
377.899	109.44
378.125	125.44
378.35	107.44
378.576	97.44
378.802	121.44
379.027	121.44
379.253	118.44
379.478	116.44
379.704	104.44
379.929	126.44
380.155	123.44
380.38	122.44
380.606	123.44
380.831	99.44
381.057	119.44
381.282	118.44
381.507	114.44
381.733	113.44
381.958	108.44
382.184	115.44
382.409	118.44
382.634	122.44
382.86	117.44
383.085	101.44
383.31	108.44
383.535	101.44
383.761	109.44
383.986	121.44
384.211	119.44
384.436	111.44
384.662	116.44
384.887	121.44
385.112	119.44
385.337	106.44
385.562	109.44
385.787	133.44
386.013	121.44
386.238	110.44
386.463	109.44
386.688	118.44
386.913	102.44
387.138	111.44
387.363	111.44
387.588	117.44
387.813	117.44
388.038	120.44
388.263	122.44
388.488	111.44
388.713	109.44
388.938	117.44
389.163	115.44
389.387	111.44
389.612	116.44
389.837	125.44
390.062	117.44
390.287	103.44
390.512	122.44
390.736	109.44
390.961	105.44
391.186	113.44
391.411	106.44
391.636	110.44
391.86	113.44
392.085	117.44
392.31	114.44
392.534	119.44
392.759	122.44
392.984	123.44
393.208	127.44
393.433	114.44
393.658	106.44
393.882	129.44
394.107	127.44
394.331	125.44
394.556	127.44
394.78	117.44
395.005	115.44
395.229	122.44
395.454	130.44
395.678	119.44
395.903	135.44
396.127	124.44
396.352	106.44
396.576	121.44
396.801	116.44
397.025	100.44
397.249	119.44
397.474	122.44
397.698	116.44
397.922	137.44
398.147	126.44
398.371	121.44
398.595	123.44
398.82	125.44
399.044	125.44
399.268	134.44
399.492	139.44
399.717	130.44
399.941	138.44
400.165	147.44
400.389	133.44
400.613	126.44
400.837	135.44
401.062	129.44
401.286	119.44
401.51	126.44
401.734	117.44
401.958	125.44
402.182	133.44
402.406	131.44
402.63	129.44
402.854	136.44
403.078	125.44
403.302	133.44
403.526	141.44
403.75	130.44
403.974	132.44
404.198	131.44
404.422	126.44
404.645	125.44
404.869	135.44
405.093	146.44
405.317	124.44
405.541	142.44
405.765	147.44
405.988	133.44
406.212	126.44
406.436	131.44
406.66	143.44
406.883	123.44
407.107	128.44
407.331	125.44
407.555	135.44
407.778	127.44
408.002	125.44
408.226	143.44
408.449	133.44
408.673	129.44
408.896	140.44
409.12	128.44
409.344	135.44
409.567	132.44
409.791	126.44
410.014	130.44
410.238	121.44
410.461	118.44
410.685	115.44
410.908	135.44
411.132	138.44
411.355	141.44
411.578	123.44
411.802	120.44
412.025	135.44
412.249	129.44
412.472	133.44
412.695	135.44
412.919	135.44
413.142	132.44
413.365	140.44
413.589	129.44
413.812	120.44
414.035	127.44
414.258	125.44
414.482	130.44
414.705	133.44
414.928	142.44
415.151	120.44
415.374	122.44
415.597	114.44
415.821	138.44
416.044	136.44
416.267	126.44
416.49	117.44
416.713	124.44
416.936	136.44
417.159	129.44
417.382	118.44
417.605	119.44
417.828	116.44
418.051	135.44
418.274	122.44
418.497	130.44
418.72	134.44
418.943	127.44
419.166	133.44
419.389	128.44
419.611	132.44
419.834	134.44
420.057	128.44
420.28	136.44
420.503	129.44
420.726	125.44
420.948	122.44
421.171	135.44
421.394	127.44
421.617	122.44
421.839	143.44
422.062	132.44
422.285	128.44
422.507	124.44
422.73	128.44
422.953	134.44
423.175	141.44
423.398	140.44
423.621	121.44
423.843	125.44
424.066	132.44
424.288	131.44
424.511	127.44
424.733	136.44
424.956	153.44
425.178	141.44
425.401	125.44
425.623	131.44
425.846	127.44
426.068	124.44
426.291	121.44
426.513	120.44
426.735	120.44
426.958	142.44
427.18	122.44
427.402	129.44
427.625	143.44
427.847	131.44
428.069	131.44
428.292	136.44
428.514	134.44
428.736	124.44
428.958	116.44
429.181	122.44
429.403	126.44
429.625	137.44
429.847	99.44
430.069	119.44
430.292	143.44
430.514	117.44
430.736	128.44
430.958	112.44
431.18	134.44
431.402	107.44
431.624	121.44
431.846	119.44
432.068	129.44
432.29	121.44
432.512	122.44
432.734	115.44
432.956	129.44
433.178	142.44
433.4	127.44
433.622	116.44
433.844	133.44
434.066	127.44
434.287	122.44
434.509	128.44
434.731	126.44
434.953	132.44
435.175	127.44
435.397	122.44
435.618	143.44
435.84	128.44
436.062	139.44
436.284	155.44
436.505	127.44
436.727	135.44
436.949	121.44
437.17	129.44
437.392	118.44
437.614	135.44
437.835	114.44
438.057	127.44
438.278	132.44
438.5	134.44
438.721	147.44
438.943	139.44
439.165	131.44
439.386	131.44
439.608	143.44
439.829	130.44
440.05	115.44
440.272	118.44
440.493	121.44
440.715	117.44
440.936	134.44
441.158	124.44
441.379	127.44
441.6	149.44
441.822	127.44
442.043	144.44
442.264	145.44
442.486	135.44
442.707	116.44
442.928	136.44
443.149	145.44
443.371	153.44
443.592	144.44
443.813	140.44
444.034	145.44
444.255	137.44
444.476	122.44
444.698	143.44
444.919	143.44
445.14	225.44
445.361	150.44
445.582	121.44
445.803	126.44
446.024	139.44
446.245	138.44
446.466	137.44
446.687	141.44
446.908	135.44
447.129	132.44
447.35	118.44
447.571	125.44
447.792	135.44
448.013	124.44
448.234	116.44
448.455	129.44
448.675	135.44
448.896	129.44
449.117	132.44
449.338	123.44
449.559	139.44
449.779	149.44
450	138.44
450.221	137.44
450.442	111.44
450.662	127.44
450.883	115.44
451.104	123.44
451.324	106.44
451.545	119.44
451.766	121.44
451.986	108.44
452.207	127.44
452.428	113.44
452.648	131.44
452.869	120.44
453.089	115.44
453.31	121.44
453.53	125.44
453.751	109.44
453.971	124.44
454.192	116.44
454.412	124.44
454.633	117.44
454.853	124.44
455.073	122.44
455.294	121.44
455.514	139.44
455.734	123.44
455.955	118.44
456.175	120.44
456.395	118.44
456.616	110.44
456.836	126.44
457.056	119.44
457.276	133.44
457.497	116.44
457.717	115.44
457.937	114.44
458.157	118.44
458.377	113.44
458.598	106.44
458.818	115.44
459.038	123.44
459.258	122.44
459.478	117.44
459.698	133.44
459.918	130.44
460.138	118.44
460.358	122.44
460.578	116.44
460.798	115.44
461.018	118.44
461.238	122.44
461.458	108.44
461.678	129.44
461.898	139.44
462.118	123.44
462.338	130.44
462.558	132.44
462.777	127.44
462.997	132.44
463.217	135.44
463.437	133.44
463.657	141.44
463.876	128.44
464.096	117.44
464.316	129.44
464.536	146.44
464.755	125.44
464.975	126.44
465.195	127.44
465.414	136.44
465.634	125.44
465.854	126.44
466.073	126.44
466.293	113.44
466.512	125.44
466.732	110.44
466.951	123.44
467.171	103.44
467.391	118.44
467.61	129.44
467.829	125.44
468.049	142.44
468.268	127.44
468.488	115.44
468.707	128.44
468.927	127.44
469.146	129.44
469.365	129.44
469.585	121.44
469.804	125.44
470.023	121.44
470.243	128.44
470.462	114.44
470.681	122.44
470.901	137.44
471.12	116.44
471.339	120.44
471.558	125.44
471.777	127.44
471.997	123.44
472.216	117.44
472.435	129.44
472.654	109.44
472.873	136.44
473.092	106.44
473.311	110.44
473.53	105.44
473.749	115.44
473.968	129.44
474.187	119.44
474.406	123.44
474.625	129.44
474.844	139.44
475.063	128.44
475.282	113.44
475.501	130.44
475.72	133.44
475.939	124.44
476.158	130.44
476.377	124.44
476.596	122.44
476.814	121.44
477.033	125.44
477.252	108.44
477.471	109.44
477.69	123.44
477.908	131.44
478.127	136.44
478.346	131.44
478.564	125.44
478.783	115.44
479.002	134.44
479.22	123.44
479.439	140.44
479.658	131.44
479.876	134.44
480.095	132.44
480.313	138.44
480.532	127.44
480.751	135.44
480.969	130.44
481.188	152.44
481.406	132.44
481.624	149.44
481.843	119.44
482.061	127.44
482.28	125.44
482.498	126.44
482.717	124.44
482.935	125.44
483.153	138.44
483.372	136.44
483.59	132.44
483.808	120.44
484.027	131.44
484.245	130.44
484.463	131.44
484.681	108.44
484.9	122.44
485.118	131.44
485.336	127.44
485.554	127.44
485.772	136.44
485.99	128.44
486.209	126.44
486.427	131.44
486.645	121.44
486.863	134.44
487.081	128.44
487.299	122.44
487.517	128.44
487.735	130.44
487.953	136.44
488.171	142.44
488.389	130.44
488.607	134.44
488.825	138.44
489.043	120.44
489.261	146.44
489.479	129.44
489.696	121.44
489.914	134.44
490.132	125.44
490.35	139.44
490.568	159.44
490.786	147.44
491.003	131.44
491.221	129.44
491.439	157.44
491.657	154.44
491.874	160.44
492.092	154.44
492.31	150.44
492.527	150.44
492.745	150.44
492.963	155.44
493.18	143.44
493.398	127.44
493.615	145.44
493.833	139.44
494.05	143.44
494.268	141.44
494.485	152.44
494.703	125.44
494.92	147.44
495.138	151.44
495.355	143.44
495.573	158.44
495.79	141.44
496.008	141.44
496.225	129.44
496.442	147.44
496.66	141.44
496.877	153.44
497.094	138.44
497.312	143.44
497.529	153.44
497.746	137.44
497.963	169.44
498.181	149.44
498.398	153.44
498.615	150.44
498.832	152.44
499.049	147.44
499.267	163.44
499.484	165.44
499.701	177.44
499.918	160.44
500.135	177.44
500.352	199.44
500.569	185.44
500.786	224.44
501.003	193.44
501.22	194.44
501.437	177.44
501.654	168.44
501.871	167.44
502.088	141.44
502.305	166.44
502.522	157.44
502.739	150.44
502.956	169.44
503.172	149.44
503.389	136.44
503.606	136.44
503.823	142.44
504.04	146.44
504.256	142.44
504.473	143.44
504.69	153.44
504.907	155.44
505.123	143.44
505.34	132.44
505.557	154.44
505.773	141.44
505.99	129.44
