Data from 1968.PennyLincolnUp.Lamp.En5.5.200Scan.071719.P1._HRD10591_14-49-23-969.txt Node
Date: Thu Jul 18 14:49:23 EDT 2019
User: cochatt
Spectrometer: HR+D1059
Trigger mode: 1
Integration Time (sec): 1.000000E-1
Scans to average: 1
Electric dark correction enabled: true
Nonlinearity correction enabled: false
Boxcar width: 0
XAxis mode: Wavelengths
Number of Pixels in Spectrum: 2048
>>>>>Begin Spectral Data<<<<<
223.165	-7.56
223.4	-7.56
223.635	-7.56
223.869	-23.56
224.104	-9.56
224.338	-19.56
224.573	-11.56
224.808	-13.56
225.042	-18.56
225.277	8.44
225.511	0.44
225.746	5.44
225.98	15.44
226.215	6.44
226.449	8.44
226.683	15.44
226.918	19.44
227.152	24.44
227.387	24.44
227.621	28.44
227.856	42.44
228.09	52.44
228.324	52.44
228.559	57.44
228.793	56.44
229.027	53.44
229.262	60.44
229.496	71.44
229.73	72.44
229.964	75.44
230.199	67.44
230.433	71.44
230.667	81.44
230.901	83.44
231.136	83.44
231.37	88.44
231.604	65.44
231.838	86.44
232.072	76.44
232.306	85.44
232.541	86.44
232.775	95.44
233.009	78.44
233.243	88.44
233.477	95.44
233.711	85.44
233.945	94.44
234.179	77.44
234.413	73.44
234.647	83.44
234.881	75.44
235.115	82.44
235.349	71.44
235.583	68.44
235.817	89.44
236.051	78.44
236.285	84.44
236.519	92.44
236.753	74.44
236.987	84.44
237.221	82.44
237.455	98.44
237.689	85.44
237.922	88.44
238.156	70.44
238.39	70.44
238.624	78.44
238.858	98.44
239.091	77.44
239.325	90.44
239.559	78.44
239.793	86.44
240.027	88.44
240.26	72.44
240.494	92.44
240.728	72.44
240.961	74.44
241.195	63.44
241.429	73.44
241.662	61.44
241.896	85.44
242.13	85.44
242.363	69.44
242.597	77.44
242.83	66.44
243.064	72.44
243.298	87.44
243.531	70.44
243.765	86.44
243.998	102.44
244.232	79.44
244.465	72.44
244.699	75.44
244.932	74.44
245.166	84.44
245.399	80.44
245.633	87.44
245.866	84.44
246.099	84.44
246.333	86.44
246.566	84.44
246.8	70.44
247.033	83.44
247.266	83.44
247.5	77.44
247.733	76.44
247.966	72.44
248.2	86.44
248.433	87.44
248.666	88.44
248.899	84.44
249.133	84.44
249.366	90.44
249.599	99.44
249.832	77.44
250.066	86.44
250.299	77.44
250.532	78.44
250.765	89.44
250.998	79.44
251.231	96.44
251.465	89.44
251.698	88.44
251.931	84.44
252.164	86.44
252.397	82.44
252.63	81.44
252.863	80.44
253.096	75.44
253.329	88.44
253.562	66.44
253.795	88.44
254.028	84.44
254.261	96.44
254.494	83.44
254.727	110.44
254.96	96.44
255.193	84.44
255.426	90.44
255.659	86.44
255.892	80.44
256.124	84.44
256.357	80.44
256.59	89.44
256.823	93.44
257.056	82.44
257.289	84.44
257.521	100.44
257.754	97.44
257.987	86.44
258.22	84.44
258.452	99.44
258.685	82.44
258.918	88.44
259.151	93.44
259.383	99.44
259.616	88.44
259.849	77.44
260.081	91.44
260.314	89.44
260.547	79.44
260.779	106.44
261.012	86.44
261.244	77.44
261.477	88.44
261.71	76.44
261.942	96.44
262.175	92.44
262.407	86.44
262.64	60.44
262.872	84.44
263.105	87.44
263.337	96.44
263.57	96.44
263.802	96.44
264.035	74.44
264.267	97.44
264.499	85.44
264.732	81.44
264.964	87.44
265.197	84.44
265.429	102.44
265.661	89.44
265.894	94.44
266.126	101.44
266.358	88.44
266.591	80.44
266.823	99.44
267.055	82.44
267.287	99.44
267.52	83.44
267.752	78.44
267.984	77.44
268.216	91.44
268.448	82.44
268.681	84.44
268.913	91.44
269.145	85.44
269.377	97.44
269.609	80.44
269.841	101.44
270.073	82.44
270.306	93.44
270.538	82.44
270.77	90.44
271.002	109.44
271.234	100.44
271.466	97.44
271.698	86.44
271.93	93.44
272.162	93.44
272.394	109.44
272.626	105.44
272.858	94.44
273.09	86.44
273.322	85.44
273.553	96.44
273.785	79.44
274.017	93.44
274.249	101.44
274.481	77.44
274.713	91.44
274.945	99.44
275.176	82.44
275.408	103.44
275.64	96.44
275.872	84.44
276.104	94.44
276.335	99.44
276.567	100.44
276.799	78.44
277.031	107.44
277.262	92.44
277.494	89.44
277.726	99.44
277.957	77.44
278.189	93.44
278.421	76.44
278.652	101.44
278.884	107.44
279.115	106.44
279.347	102.44
279.579	88.44
279.81	99.44
280.042	79.44
280.273	94.44
280.505	100.44
280.736	108.44
280.968	91.44
281.199	89.44
281.431	101.44
281.662	92.44
281.894	94.44
282.125	98.44
282.356	103.44
282.588	104.44
282.819	94.44
283.051	94.44
283.282	95.44
283.513	103.44
283.745	95.44
283.976	101.44
284.207	103.44
284.439	94.44
284.67	92.44
284.901	105.44
285.132	97.44
285.364	108.44
285.595	106.44
285.826	100.44
286.057	114.44
286.288	105.44
286.52	107.44
286.751	100.44
286.982	103.44
287.213	91.44
287.444	104.44
287.675	93.44
287.906	113.44
288.138	116.44
288.369	93.44
288.6	119.44
288.831	96.44
289.062	100.44
289.293	108.44
289.524	91.44
289.755	92.44
289.986	114.44
290.217	108.44
290.448	104.44
290.679	112.44
290.91	107.44
291.141	100.44
291.371	100.44
291.602	96.44
291.833	102.44
292.064	96.44
292.295	89.44
292.526	89.44
292.757	96.44
292.987	94.44
293.218	102.44
293.449	119.44
293.68	100.44
293.91	92.44
294.141	94.44
294.372	89.44
294.603	80.44
294.833	101.44
295.064	94.44
295.295	104.44
295.525	96.44
295.756	96.44
295.987	109.44
296.217	101.44
296.448	109.44
296.679	93.44
296.909	109.44
297.14	99.44
297.37	103.44
297.601	106.44
297.831	99.44
298.062	103.44
298.292	98.44
298.523	94.44
298.753	100.44
298.984	107.44
299.214	116.44
299.445	90.44
299.675	100.44
299.905	99.44
300.136	95.44
300.366	102.44
300.597	98.44
300.827	102.44
301.057	105.44
301.288	106.44
301.518	103.44
301.748	103.44
301.979	107.44
302.209	103.44
302.439	93.44
302.669	104.44
302.9	103.44
303.13	113.44
303.36	122.44
303.59	88.44
303.82	95.44
304.051	108.44
304.281	98.44
304.511	102.44
304.741	111.44
304.971	85.44
305.201	88.44
305.431	112.44
305.661	109.44
305.891	113.44
306.121	119.44
306.352	110.44
306.582	123.44
306.812	91.44
307.042	113.44
307.272	102.44
307.502	101.44
307.731	105.44
307.961	99.44
308.191	96.44
308.421	110.44
308.651	106.44
308.881	110.44
309.111	106.44
309.341	103.44
309.571	100.44
309.8	103.44
310.03	97.44
310.26	100.44
310.49	110.44
310.72	100.44
310.949	110.44
311.179	98.44
311.409	109.44
311.639	100.44
311.868	108.44
312.098	97.44
312.328	96.44
312.557	106.44
312.787	95.44
313.017	92.44
313.246	100.44
313.476	98.44
313.706	107.44
313.935	118.44
314.165	101.44
314.394	108.44
314.624	97.44
314.853	94.44
315.083	98.44
315.312	105.44
315.542	95.44
315.771	109.44
316.001	106.44
316.23	94.44
316.46	114.44
316.689	114.44
316.919	104.44
317.148	98.44
317.377	114.44
317.607	122.44
317.836	107.44
318.065	91.44
318.295	103.44
318.524	97.44
318.753	105.44
318.983	100.44
319.212	101.44
319.441	108.44
319.67	116.44
319.9	107.44
320.129	93.44
320.358	112.44
320.587	112.44
320.816	108.44
321.046	122.44
321.275	106.44
321.504	101.44
321.733	109.44
321.962	102.44
322.191	108.44
322.42	106.44
322.649	113.44
322.878	103.44
323.108	102.44
323.337	105.44
323.566	110.44
323.795	113.44
324.024	108.44
324.253	109.44
324.482	134.44
324.71	134.44
324.939	168.44
325.168	135.44
325.397	118.44
325.626	107.44
325.855	101.44
326.084	116.44
326.313	116.44
326.542	101.44
326.77	113.44
326.999	101.44
327.228	124.44
327.457	124.44
327.686	118.44
327.914	122.44
328.143	108.44
328.372	109.44
328.6	117.44
328.829	86.44
329.058	90.44
329.287	101.44
329.515	99.44
329.744	104.44
329.972	116.44
330.201	114.44
330.43	114.44
330.658	107.44
330.887	106.44
331.115	120.44
331.344	116.44
331.572	119.44
331.801	101.44
332.03	108.44
332.258	107.44
332.486	96.44
332.715	106.44
332.943	106.44
333.172	111.44
333.4	116.44
333.629	123.44
333.857	117.44
334.085	130.44
334.314	126.44
334.542	118.44
334.771	116.44
334.999	116.44
335.227	118.44
335.455	125.44
335.684	112.44
335.912	112.44
336.14	107.44
336.369	104.44
336.597	103.44
336.825	122.44
337.053	104.44
337.281	98.44
337.51	116.44
337.738	98.44
337.966	104.44
338.194	112.44
338.422	108.44
338.65	116.44
338.878	113.44
339.106	122.44
339.334	118.44
339.562	109.44
339.79	107.44
340.018	114.44
340.246	114.44
340.474	102.44
340.702	122.44
340.93	109.44
341.158	118.44
341.386	111.44
341.614	113.44
341.842	105.44
342.07	103.44
342.298	101.44
342.526	109.44
342.754	113.44
342.981	114.44
343.209	107.44
343.437	106.44
343.665	112.44
343.893	128.44
344.12	118.44
344.348	109.44
344.576	101.44
344.804	103.44
345.031	102.44
345.259	123.44
345.487	110.44
345.714	112.44
345.942	105.44
346.17	101.44
346.397	96.44
346.625	112.44
346.853	107.44
347.08	117.44
347.308	112.44
347.535	104.44
347.763	99.44
347.99	101.44
348.218	101.44
348.445	111.44
348.673	113.44
348.9	106.44
349.128	118.44
349.355	109.44
349.583	109.44
349.81	117.44
350.037	104.44
350.265	107.44
350.492	107.44
350.72	101.44
350.947	97.44
351.174	109.44
351.402	119.44
351.629	121.44
351.856	91.44
352.083	114.44
352.311	122.44
352.538	101.44
352.765	112.44
352.992	115.44
353.22	102.44
353.447	97.44
353.674	101.44
353.901	114.44
354.128	106.44
354.355	120.44
354.583	105.44
354.81	105.44
355.037	108.44
355.264	118.44
355.491	109.44
355.718	110.44
355.945	122.44
356.172	116.44
356.399	115.44
356.626	106.44
356.853	112.44
357.08	101.44
357.307	117.44
357.534	93.44
357.761	105.44
357.988	116.44
358.215	99.44
358.441	100.44
358.668	105.44
358.895	109.44
359.122	105.44
359.349	109.44
359.576	126.44
359.802	109.44
360.029	103.44
360.256	97.44
360.483	116.44
360.709	106.44
360.936	104.44
361.163	110.44
361.39	120.44
361.616	108.44
361.843	104.44
362.07	96.44
362.296	114.44
362.523	101.44
362.749	96.44
362.976	120.44
363.203	116.44
363.429	107.44
363.656	106.44
363.882	98.44
364.109	123.44
364.335	110.44
364.562	112.44
364.788	118.44
365.015	96.44
365.241	101.44
365.468	123.44
365.694	100.44
365.92	124.44
366.147	106.44
366.373	88.44
366.599	110.44
366.826	115.44
367.052	94.44
367.278	111.44
367.505	118.44
367.731	125.44
367.957	97.44
368.184	112.44
368.41	114.44
368.636	112.44
368.862	125.44
369.089	83.44
369.315	116.44
369.541	117.44
369.767	105.44
369.993	105.44
370.219	102.44
370.445	111.44
370.672	104.44
370.898	100.44
371.124	106.44
371.35	106.44
371.576	106.44
371.802	103.44
372.028	112.44
372.254	112.44
372.48	110.44
372.706	107.44
372.932	105.44
373.158	106.44
373.384	112.44
373.61	105.44
373.835	123.44
374.061	114.44
374.287	116.44
374.513	110.44
374.739	118.44
374.965	115.44
375.191	100.44
375.416	112.44
375.642	106.44
375.868	112.44
376.094	108.44
376.319	105.44
376.545	104.44
376.771	116.44
376.997	102.44
377.222	115.44
377.448	110.44
377.674	112.44
377.899	106.44
378.125	116.44
378.35	109.44
378.576	112.44
378.802	117.44
379.027	107.44
379.253	113.44
379.478	98.44
379.704	100.44
379.929	113.44
380.155	112.44
380.38	104.44
380.606	112.44
380.831	101.44
381.057	122.44
381.282	108.44
381.507	99.44
381.733	114.44
381.958	100.44
382.184	92.44
382.409	110.44
382.634	107.44
382.86	107.44
383.085	102.44
383.31	107.44
383.535	118.44
383.761	105.44
383.986	95.44
384.211	109.44
384.436	124.44
384.662	118.44
384.887	125.44
385.112	100.44
385.337	120.44
385.562	113.44
385.787	119.44
386.013	121.44
386.238	124.44
386.463	123.44
386.688	121.44
386.913	114.44
387.138	116.44
387.363	119.44
387.588	100.44
387.813	108.44
388.038	112.44
388.263	116.44
388.488	104.44
388.713	112.44
388.938	120.44
389.163	130.44
389.387	119.44
389.612	106.44
389.837	116.44
390.062	110.44
390.287	122.44
390.512	112.44
390.736	121.44
390.961	112.44
391.186	106.44
391.411	112.44
391.636	112.44
391.86	114.44
392.085	132.44
392.31	119.44
392.534	116.44
392.759	118.44
392.984	117.44
393.208	119.44
393.433	112.44
393.658	102.44
393.882	113.44
394.107	133.44
394.331	129.44
394.556	92.44
394.78	120.44
395.005	113.44
395.229	120.44
395.454	136.44
395.678	112.44
395.903	130.44
396.127	116.44
396.352	123.44
396.576	112.44
396.801	120.44
397.025	114.44
397.249	125.44
397.474	132.44
397.698	125.44
397.922	128.44
398.147	116.44
398.371	123.44
398.595	118.44
398.82	126.44
399.044	126.44
399.268	145.44
399.492	129.44
399.717	139.44
399.941	130.44
400.165	139.44
400.389	135.44
400.613	134.44
400.837	134.44
401.062	127.44
401.286	123.44
401.51	122.44
401.734	134.44
401.958	128.44
402.182	135.44
402.406	123.44
402.63	124.44
402.854	128.44
403.078	122.44
403.302	131.44
403.526	137.44
403.75	132.44
403.974	124.44
404.198	118.44
404.422	121.44
404.645	140.44
404.869	136.44
405.093	133.44
405.317	133.44
405.541	118.44
405.765	128.44
405.988	119.44
406.212	133.44
406.436	133.44
406.66	128.44
406.883	121.44
407.107	118.44
407.331	131.44
407.555	145.44
407.778	148.44
408.002	145.44
408.226	146.44
408.449	132.44
408.673	128.44
408.896	152.44
409.12	124.44
409.344	108.44
409.567	124.44
409.791	133.44
410.014	145.44
410.238	134.44
410.461	130.44
410.685	136.44
410.908	136.44
411.132	125.44
411.355	146.44
411.578	130.44
411.802	120.44
412.025	138.44
412.249	130.44
412.472	125.44
412.695	122.44
412.919	124.44
413.142	128.44
413.365	130.44
413.589	126.44
413.812	130.44
414.035	122.44
414.258	126.44
414.482	137.44
414.705	131.44
414.928	131.44
415.151	136.44
415.374	123.44
415.597	144.44
415.821	119.44
416.044	124.44
416.267	120.44
416.49	131.44
416.713	132.44
416.936	118.44
417.159	133.44
417.382	119.44
417.605	120.44
417.828	154.44
418.051	123.44
418.274	131.44
418.497	116.44
418.72	120.44
418.943	138.44
419.166	123.44
419.389	132.44
419.611	126.44
419.834	127.44
420.057	126.44
420.28	129.44
420.503	127.44
420.726	121.44
420.948	132.44
421.171	134.44
421.394	128.44
421.617	132.44
421.839	111.44
422.062	116.44
422.285	129.44
422.507	140.44
422.73	130.44
422.953	133.44
423.175	121.44
423.398	124.44
423.621	130.44
423.843	132.44
424.066	131.44
424.288	124.44
424.511	129.44
424.733	138.44
424.956	132.44
425.178	134.44
425.401	139.44
425.623	146.44
425.846	124.44
426.068	134.44
426.291	129.44
426.513	125.44
426.735	138.44
426.958	117.44
427.18	131.44
427.402	146.44
427.625	148.44
427.847	131.44
428.069	124.44
428.292	113.44
428.514	132.44
428.736	109.44
428.958	121.44
429.181	124.44
429.403	130.44
429.625	118.44
429.847	116.44
430.069	125.44
430.292	130.44
430.514	114.44
430.736	126.44
430.958	116.44
431.18	112.44
431.402	112.44
431.624	100.44
431.846	134.44
432.068	121.44
432.29	118.44
432.512	120.44
432.734	120.44
432.956	131.44
433.178	133.44
433.4	115.44
433.622	135.44
433.844	129.44
434.066	118.44
434.287	116.44
434.509	128.44
434.731	127.44
434.953	128.44
435.175	129.44
435.397	148.44
435.618	142.44
435.84	120.44
436.062	133.44
436.284	131.44
436.505	110.44
436.727	133.44
436.949	114.44
437.17	123.44
437.392	124.44
437.614	123.44
437.835	120.44
438.057	120.44
438.278	127.44
438.5	114.44
438.721	128.44
438.943	133.44
439.165	125.44
439.386	124.44
439.608	121.44
439.829	130.44
440.05	137.44
440.272	134.44
440.493	127.44
440.715	128.44
440.936	119.44
441.158	123.44
441.379	125.44
441.6	123.44
441.822	116.44
442.043	122.44
442.264	120.44
442.486	130.44
442.707	132.44
442.928	113.44
443.149	110.44
443.371	134.44
443.592	128.44
443.813	146.44
444.034	132.44
444.255	126.44
444.476	130.44
444.698	128.44
444.919	129.44
445.14	268.44
445.361	191.44
445.582	140.44
445.803	152.44
446.024	138.44
446.245	137.44
446.466	131.44
446.687	129.44
446.908	120.44
447.129	132.44
447.35	119.44
447.571	117.44
447.792	112.44
448.013	141.44
448.234	124.44
448.455	128.44
448.675	125.44
448.896	118.44
449.117	127.44
449.338	124.44
449.559	130.44
449.779	130.44
450	137.44
450.221	119.44
450.442	121.44
450.662	114.44
450.883	123.44
451.104	122.44
451.324	104.44
451.545	104.44
451.766	128.44
451.986	122.44
452.207	124.44
452.428	116.44
452.648	116.44
452.869	104.44
453.089	118.44
453.31	112.44
453.53	115.44
453.751	113.44
453.971	114.44
454.192	121.44
454.412	100.44
454.633	112.44
454.853	116.44
455.073	110.44
455.294	120.44
455.514	118.44
455.734	123.44
455.955	115.44
456.175	122.44
456.395	118.44
456.616	116.44
456.836	112.44
457.056	108.44
457.276	125.44
457.497	107.44
457.717	118.44
457.937	105.44
458.157	112.44
458.377	112.44
458.598	117.44
458.818	119.44
459.038	131.44
459.258	116.44
459.478	114.44
459.698	111.44
459.918	116.44
460.138	123.44
460.358	125.44
460.578	116.44
460.798	130.44
461.018	131.44
461.238	121.44
461.458	100.44
461.678	122.44
461.898	132.44
462.118	124.44
462.338	137.44
462.558	142.44
462.777	136.44
462.997	133.44
463.217	127.44
463.437	146.44
463.657	125.44
463.876	135.44
464.096	121.44
464.316	131.44
464.536	129.44
464.755	141.44
464.975	128.44
465.195	149.44
465.414	130.44
465.634	118.44
465.854	113.44
466.073	122.44
466.293	121.44
466.512	111.44
466.732	124.44
466.951	120.44
467.171	109.44
467.391	124.44
467.61	113.44
467.829	128.44
468.049	124.44
468.268	115.44
468.488	118.44
468.707	120.44
468.927	127.44
469.146	115.44
469.365	122.44
469.585	113.44
469.804	129.44
470.023	130.44
470.243	109.44
470.462	127.44
470.681	122.44
470.901	122.44
471.12	112.44
471.339	109.44
471.558	134.44
471.777	124.44
471.997	128.44
472.216	125.44
472.435	116.44
472.654	122.44
472.873	125.44
473.092	103.44
473.311	113.44
473.53	126.44
473.749	125.44
473.968	118.44
474.187	129.44
474.406	131.44
474.625	117.44
474.844	123.44
475.063	127.44
475.282	132.44
475.501	127.44
475.72	131.44
475.939	112.44
476.158	125.44
476.377	111.44
476.596	122.44
476.814	111.44
477.033	125.44
477.252	130.44
477.471	118.44
477.69	124.44
477.908	121.44
478.127	120.44
478.346	114.44
478.564	116.44
478.783	107.44
479.002	121.44
479.22	126.44
479.439	153.44
479.658	128.44
479.876	134.44
480.095	126.44
480.313	135.44
480.532	139.44
480.751	132.44
480.969	122.44
481.188	127.44
481.406	107.44
481.624	117.44
481.843	112.44
482.061	122.44
482.28	141.44
482.498	134.44
482.717	128.44
482.935	124.44
483.153	118.44
483.372	117.44
483.59	113.44
483.808	133.44
484.027	129.44
484.245	113.44
484.463	126.44
484.681	139.44
484.9	131.44
485.118	130.44
485.336	136.44
485.554	139.44
485.772	124.44
485.99	129.44
486.209	128.44
486.427	137.44
486.645	134.44
486.863	128.44
487.081	132.44
487.299	135.44
487.517	133.44
487.735	127.44
487.953	142.44
488.171	136.44
488.389	138.44
488.607	131.44
488.825	153.44
489.043	144.44
489.261	124.44
489.479	138.44
489.696	124.44
489.914	138.44
490.132	136.44
490.35	133.44
490.568	125.44
490.786	149.44
491.003	132.44
491.221	128.44
491.439	131.44
491.657	139.44
491.874	138.44
492.092	153.44
492.31	126.44
492.527	143.44
492.745	131.44
492.963	144.44
493.18	133.44
493.398	159.44
493.615	125.44
493.833	133.44
494.05	146.44
494.268	141.44
494.485	142.44
494.703	135.44
494.92	138.44
495.138	142.44
495.355	126.44
495.573	140.44
495.79	142.44
496.008	144.44
496.225	136.44
496.442	118.44
496.66	156.44
496.877	141.44
497.094	137.44
497.312	146.44
497.529	144.44
497.746	140.44
497.963	144.44
498.181	133.44
498.398	146.44
498.615	160.44
498.832	151.44
499.049	166.44
499.267	164.44
499.484	158.44
499.701	168.44
499.918	172.44
500.135	190.44
500.352	203.44
500.569	211.44
500.786	209.44
501.003	196.44
501.22	173.44
501.437	178.44
501.654	167.44
501.871	173.44
502.088	156.44
502.305	163.44
502.522	158.44
502.739	162.44
502.956	148.44
503.172	143.44
503.389	155.44
503.606	155.44
503.823	136.44
504.04	139.44
504.256	128.44
504.473	152.44
504.69	157.44
504.907	151.44
505.123	142.44
505.34	154.44
505.557	134.44
505.773	139.44
505.99	123.44
506.207	135.44
