Data from 1968.PennyLincolnUp.Lamp.En5.5.200Scan.071719.P1._HRD10591_14-51-26-969.txt Node
Date: Thu Jul 18 14:51:26 EDT 2019
User: cochatt
Spectrometer: HR+D1059
Trigger mode: 1
Integration Time (sec): 1.000000E-1
Scans to average: 1
Electric dark correction enabled: true
Nonlinearity correction enabled: false
Boxcar width: 0
XAxis mode: Wavelengths
Number of Pixels in Spectrum: 2048
>>>>>Begin Spectral Data<<<<<
223.165	-9.75
223.4	-9.75
223.635	-9.75
223.869	-10.75
224.104	-20.75
224.338	-18.75
224.573	-8.75
224.808	-6.75
225.042	-0.75
225.277	-7.75
225.511	2.25
225.746	2.25
225.98	-12.75
226.215	3.25
226.449	7.25
226.683	18.25
226.918	22.25
227.152	41.25
227.387	36.25
227.621	38.25
227.856	31.25
228.09	48.25
228.324	40.25
228.559	52.25
228.793	62.25
229.027	63.25
229.262	58.25
229.496	51.25
229.73	72.25
229.964	73.25
230.199	91.25
230.433	71.25
230.667	78.25
230.901	68.25
231.136	75.25
231.37	77.25
231.604	88.25
231.838	91.25
232.072	69.25
232.306	81.25
232.541	81.25
232.775	77.25
233.009	83.25
233.243	93.25
233.477	76.25
233.711	79.25
233.945	102.25
234.179	89.25
234.413	76.25
234.647	78.25
234.881	97.25
235.115	93.25
235.349	84.25
235.583	87.25
235.817	62.25
236.051	71.25
236.285	82.25
236.519	75.25
236.753	80.25
236.987	81.25
237.221	68.25
237.455	83.25
237.689	75.25
237.922	77.25
238.156	79.25
238.39	62.25
238.624	80.25
238.858	78.25
239.091	81.25
239.325	88.25
239.559	78.25
239.793	74.25
240.027	84.25
240.26	87.25
240.494	79.25
240.728	71.25
240.961	83.25
241.195	73.25
241.429	80.25
241.662	74.25
241.896	84.25
242.13	73.25
242.363	80.25
242.597	67.25
242.83	73.25
243.064	83.25
243.298	84.25
243.531	79.25
243.765	82.25
243.998	80.25
244.232	77.25
244.465	77.25
244.699	85.25
244.932	91.25
245.166	85.25
245.399	81.25
245.633	100.25
245.866	90.25
246.099	88.25
246.333	75.25
246.566	78.25
246.8	76.25
247.033	96.25
247.266	82.25
247.5	85.25
247.733	92.25
247.966	79.25
248.2	99.25
248.433	90.25
248.666	77.25
248.899	87.25
249.133	82.25
249.366	89.25
249.599	82.25
249.832	84.25
250.066	88.25
250.299	87.25
250.532	91.25
250.765	86.25
250.998	93.25
251.231	85.25
251.465	84.25
251.698	83.25
251.931	89.25
252.164	77.25
252.397	81.25
252.63	92.25
252.863	83.25
253.096	86.25
253.329	84.25
253.562	95.25
253.795	98.25
254.028	92.25
254.261	93.25
254.494	87.25
254.727	90.25
254.96	100.25
255.193	103.25
255.426	93.25
255.659	94.25
255.892	102.25
256.124	92.25
256.357	77.25
256.59	91.25
256.823	88.25
257.056	81.25
257.289	92.25
257.521	77.25
257.754	86.25
257.987	101.25
258.22	90.25
258.452	93.25
258.685	92.25
258.918	83.25
259.151	93.25
259.383	101.25
259.616	93.25
259.849	85.25
260.081	99.25
260.314	91.25
260.547	106.25
260.779	95.25
261.012	93.25
261.244	79.25
261.477	105.25
261.71	100.25
261.942	88.25
262.175	86.25
262.407	83.25
262.64	86.25
262.872	94.25
263.105	95.25
263.337	98.25
263.57	93.25
263.802	87.25
264.035	93.25
264.267	93.25
264.499	93.25
264.732	98.25
264.964	91.25
265.197	88.25
265.429	107.25
265.661	88.25
265.894	84.25
266.126	103.25
266.358	91.25
266.591	92.25
266.823	99.25
267.055	99.25
267.287	100.25
267.52	81.25
267.752	99.25
267.984	78.25
268.216	99.25
268.448	85.25
268.681	95.25
268.913	98.25
269.145	100.25
269.377	87.25
269.609	92.25
269.841	101.25
270.073	114.25
270.306	98.25
270.538	78.25
270.77	90.25
271.002	96.25
271.234	86.25
271.466	81.25
271.698	99.25
271.93	90.25
272.162	100.25
272.394	97.25
272.626	108.25
272.858	99.25
273.09	96.25
273.322	94.25
273.553	104.25
273.785	89.25
274.017	94.25
274.249	97.25
274.481	93.25
274.713	87.25
274.945	101.25
275.176	89.25
275.408	89.25
275.64	98.25
275.872	101.25
276.104	96.25
276.335	101.25
276.567	99.25
276.799	96.25
277.031	100.25
277.262	103.25
277.494	102.25
277.726	103.25
277.957	91.25
278.189	93.25
278.421	101.25
278.652	94.25
278.884	99.25
279.115	92.25
279.347	86.25
279.579	112.25
279.81	100.25
280.042	98.25
280.273	105.25
280.505	96.25
280.736	105.25
280.968	110.25
281.199	105.25
281.431	86.25
281.662	90.25
281.894	98.25
282.125	100.25
282.356	90.25
282.588	71.25
282.819	88.25
283.051	99.25
283.282	102.25
283.513	103.25
283.745	100.25
283.976	99.25
284.207	92.25
284.439	97.25
284.67	101.25
284.901	108.25
285.132	102.25
285.364	105.25
285.595	97.25
285.826	101.25
286.057	90.25
286.288	106.25
286.52	92.25
286.751	106.25
286.982	94.25
287.213	102.25
287.444	108.25
287.675	91.25
287.906	92.25
288.138	112.25
288.369	112.25
288.6	110.25
288.831	98.25
289.062	94.25
289.293	108.25
289.524	112.25
289.755	100.25
289.986	95.25
290.217	110.25
290.448	95.25
290.679	106.25
290.91	96.25
291.141	96.25
291.371	106.25
291.602	91.25
291.833	87.25
292.064	116.25
292.295	105.25
292.526	96.25
292.757	87.25
292.987	104.25
293.218	106.25
293.449	114.25
293.68	99.25
293.91	96.25
294.141	98.25
294.372	101.25
294.603	99.25
294.833	100.25
295.064	104.25
295.295	105.25
295.525	96.25
295.756	99.25
295.987	98.25
296.217	96.25
296.448	98.25
296.679	101.25
296.909	101.25
297.14	110.25
297.37	115.25
297.601	113.25
297.831	89.25
298.062	105.25
298.292	100.25
298.523	89.25
298.753	102.25
298.984	93.25
299.214	102.25
299.445	99.25
299.675	92.25
299.905	104.25
300.136	103.25
300.366	104.25
300.597	106.25
300.827	113.25
301.057	113.25
301.288	112.25
301.518	103.25
301.748	105.25
301.979	102.25
302.209	101.25
302.439	101.25
302.669	108.25
302.9	87.25
303.13	117.25
303.36	104.25
303.59	103.25
303.82	97.25
304.051	112.25
304.281	94.25
304.511	101.25
304.741	96.25
304.971	102.25
305.201	107.25
305.431	119.25
305.661	112.25
305.891	105.25
306.121	106.25
306.352	93.25
306.582	104.25
306.812	103.25
307.042	101.25
307.272	106.25
307.502	108.25
307.731	98.25
307.961	116.25
308.191	108.25
308.421	94.25
308.651	101.25
308.881	102.25
309.111	95.25
309.341	86.25
309.571	108.25
309.8	101.25
310.03	112.25
310.26	110.25
310.49	111.25
310.72	120.25
310.949	106.25
311.179	112.25
311.409	101.25
311.639	90.25
311.868	98.25
312.098	102.25
312.328	111.25
312.557	103.25
312.787	108.25
313.017	104.25
313.246	96.25
313.476	104.25
313.706	105.25
313.935	108.25
314.165	125.25
314.394	103.25
314.624	114.25
314.853	124.25
315.083	109.25
315.312	109.25
315.542	101.25
315.771	109.25
316.001	103.25
316.23	109.25
316.46	99.25
316.689	116.25
316.919	121.25
317.148	104.25
317.377	100.25
317.607	114.25
317.836	117.25
318.065	110.25
318.295	108.25
318.524	97.25
318.753	92.25
318.983	114.25
319.212	109.25
319.441	102.25
319.67	106.25
319.9	106.25
320.129	104.25
320.358	116.25
320.587	120.25
320.816	107.25
321.046	103.25
321.275	116.25
321.504	107.25
321.733	114.25
321.962	105.25
322.191	113.25
322.42	119.25
322.649	118.25
322.878	115.25
323.108	110.25
323.337	108.25
323.566	104.25
323.795	119.25
324.024	121.25
324.253	129.25
324.482	156.25
324.71	161.25
324.939	173.25
325.168	165.25
325.397	147.25
325.626	111.25
325.855	102.25
326.084	123.25
326.313	104.25
326.542	101.25
326.77	117.25
326.999	114.25
327.228	152.25
327.457	157.25
327.686	145.25
327.914	126.25
328.143	123.25
328.372	121.25
328.6	122.25
328.829	110.25
329.058	121.25
329.287	125.25
329.515	115.25
329.744	112.25
329.972	109.25
330.201	105.25
330.43	100.25
330.658	118.25
330.887	116.25
331.115	110.25
331.344	123.25
331.572	137.25
331.801	120.25
332.03	113.25
332.258	128.25
332.486	118.25
332.715	118.25
332.943	124.25
333.172	116.25
333.4	107.25
333.629	129.25
333.857	124.25
334.085	116.25
334.314	105.25
334.542	119.25
334.771	121.25
334.999	136.25
335.227	125.25
335.455	116.25
335.684	111.25
335.912	122.25
336.14	116.25
336.369	105.25
336.597	108.25
336.825	100.25
337.053	108.25
337.281	115.25
337.51	110.25
337.738	121.25
337.966	100.25
338.194	120.25
338.422	118.25
338.65	120.25
338.878	113.25
339.106	109.25
339.334	112.25
339.562	112.25
339.79	107.25
340.018	105.25
340.246	122.25
340.474	104.25
340.702	108.25
340.93	121.25
341.158	100.25
341.386	110.25
341.614	90.25
341.842	101.25
342.07	120.25
342.298	130.25
342.526	128.25
342.754	103.25
342.981	99.25
343.209	102.25
343.437	111.25
343.665	101.25
343.893	122.25
344.12	125.25
344.348	113.25
344.576	114.25
344.804	107.25
345.031	102.25
345.259	120.25
345.487	123.25
345.714	105.25
345.942	102.25
346.17	117.25
346.397	112.25
346.625	115.25
346.853	116.25
347.08	110.25
347.308	93.25
347.535	114.25
347.763	96.25
347.99	107.25
348.218	105.25
348.445	121.25
348.673	109.25
348.9	122.25
349.128	123.25
349.355	115.25
349.583	105.25
349.81	120.25
350.037	102.25
350.265	102.25
350.492	115.25
350.72	101.25
350.947	92.25
351.174	103.25
351.402	100.25
351.629	112.25
351.856	101.25
352.083	96.25
352.311	105.25
352.538	108.25
352.765	91.25
352.992	114.25
353.22	130.25
353.447	100.25
353.674	104.25
353.901	101.25
354.128	105.25
354.355	104.25
354.583	123.25
354.81	100.25
355.037	101.25
355.264	116.25
355.491	104.25
355.718	105.25
355.945	122.25
356.172	112.25
356.399	104.25
356.626	96.25
356.853	117.25
357.08	107.25
357.307	109.25
357.534	100.25
357.761	111.25
357.988	124.25
358.215	99.25
358.441	120.25
358.668	110.25
358.895	111.25
359.122	101.25
359.349	114.25
359.576	111.25
359.802	106.25
360.029	111.25
360.256	106.25
360.483	101.25
360.709	116.25
360.936	114.25
361.163	106.25
361.39	93.25
361.616	106.25
361.843	112.25
362.07	115.25
362.296	114.25
362.523	117.25
362.749	119.25
362.976	117.25
363.203	108.25
363.429	112.25
363.656	113.25
363.882	101.25
364.109	112.25
364.335	103.25
364.562	98.25
364.788	106.25
365.015	112.25
365.241	102.25
365.468	115.25
365.694	109.25
365.92	94.25
366.147	101.25
366.373	98.25
366.599	117.25
366.826	113.25
367.052	113.25
367.278	104.25
367.505	106.25
367.731	114.25
367.957	110.25
368.184	100.25
368.41	106.25
368.636	108.25
368.862	108.25
369.089	100.25
369.315	104.25
369.541	117.25
369.767	116.25
369.993	104.25
370.219	128.25
370.445	112.25
370.672	126.25
370.898	93.25
371.124	110.25
371.35	106.25
371.576	112.25
371.802	120.25
372.028	107.25
372.254	112.25
372.48	131.25
372.706	98.25
372.932	119.25
373.158	115.25
373.384	110.25
373.61	114.25
373.835	106.25
374.061	118.25
374.287	122.25
374.513	109.25
374.739	114.25
374.965	114.25
375.191	108.25
375.416	116.25
375.642	117.25
375.868	113.25
376.094	107.25
376.319	109.25
376.545	96.25
376.771	108.25
376.997	115.25
377.222	103.25
377.448	101.25
377.674	105.25
377.899	113.25
378.125	97.25
378.35	101.25
378.576	107.25
378.802	121.25
379.027	117.25
379.253	115.25
379.478	116.25
379.704	108.25
379.929	113.25
380.155	120.25
380.38	113.25
380.606	115.25
380.831	119.25
381.057	109.25
381.282	104.25
381.507	105.25
381.733	102.25
381.958	107.25
382.184	103.25
382.409	112.25
382.634	130.25
382.86	101.25
383.085	106.25
383.31	112.25
383.535	104.25
383.761	118.25
383.986	104.25
384.211	109.25
384.436	116.25
384.662	124.25
384.887	115.25
385.112	112.25
385.337	124.25
385.562	125.25
385.787	125.25
386.013	113.25
386.238	114.25
386.463	117.25
386.688	120.25
386.913	108.25
387.138	115.25
387.363	108.25
387.588	126.25
387.813	129.25
388.038	130.25
388.263	104.25
388.488	101.25
388.713	128.25
388.938	106.25
389.163	123.25
389.387	130.25
389.612	130.25
389.837	113.25
390.062	114.25
390.287	128.25
390.512	115.25
390.736	124.25
390.961	120.25
391.186	109.25
391.411	116.25
391.636	120.25
391.86	131.25
392.085	126.25
392.31	113.25
392.534	128.25
392.759	116.25
392.984	118.25
393.208	117.25
393.433	132.25
393.658	114.25
393.882	118.25
394.107	112.25
394.331	113.25
394.556	120.25
394.78	119.25
395.005	112.25
395.229	117.25
395.454	116.25
395.678	131.25
395.903	116.25
396.127	128.25
396.352	118.25
396.576	120.25
396.801	115.25
397.025	119.25
397.249	116.25
397.474	130.25
397.698	117.25
397.922	124.25
398.147	115.25
398.371	109.25
398.595	124.25
398.82	108.25
399.044	129.25
399.268	124.25
399.492	123.25
399.717	148.25
399.941	129.25
400.165	146.25
400.389	137.25
400.613	136.25
400.837	117.25
401.062	117.25
401.286	107.25
401.51	116.25
401.734	128.25
401.958	106.25
402.182	136.25
402.406	125.25
402.63	124.25
402.854	130.25
403.078	132.25
403.302	123.25
403.526	123.25
403.75	130.25
403.974	124.25
404.198	137.25
404.422	136.25
404.645	132.25
404.869	124.25
405.093	128.25
405.317	141.25
405.541	126.25
405.765	132.25
405.988	139.25
406.212	126.25
406.436	145.25
406.66	149.25
406.883	132.25
407.107	133.25
407.331	147.25
407.555	143.25
407.778	129.25
408.002	127.25
408.226	142.25
408.449	131.25
408.673	123.25
408.896	144.25
409.12	135.25
409.344	128.25
409.567	146.25
409.791	136.25
410.014	133.25
410.238	123.25
410.461	109.25
410.685	124.25
410.908	129.25
411.132	126.25
411.355	118.25
411.578	135.25
411.802	109.25
412.025	130.25
412.249	122.25
412.472	133.25
412.695	122.25
412.919	140.25
413.142	128.25
413.365	127.25
413.589	124.25
413.812	120.25
414.035	136.25
414.258	124.25
414.482	131.25
414.705	121.25
414.928	142.25
415.151	128.25
415.374	125.25
415.597	124.25
415.821	128.25
416.044	136.25
416.267	120.25
416.49	125.25
416.713	129.25
416.936	124.25
417.159	121.25
417.382	114.25
417.605	122.25
417.828	126.25
418.051	123.25
418.274	123.25
418.497	150.25
418.72	132.25
418.943	118.25
419.166	129.25
419.389	113.25
419.611	124.25
419.834	142.25
420.057	145.25
420.28	140.25
420.503	126.25
420.726	125.25
420.948	126.25
421.171	123.25
421.394	141.25
421.617	133.25
421.839	113.25
422.062	132.25
422.285	129.25
422.507	128.25
422.73	130.25
422.953	128.25
423.175	118.25
423.398	132.25
423.621	128.25
423.843	130.25
424.066	140.25
424.288	144.25
424.511	133.25
424.733	132.25
424.956	135.25
425.178	143.25
425.401	134.25
425.623	138.25
425.846	116.25
426.068	128.25
426.291	124.25
426.513	123.25
426.735	134.25
426.958	122.25
427.18	152.25
427.402	141.25
427.625	155.25
427.847	141.25
428.069	140.25
428.292	130.25
428.514	135.25
428.736	113.25
428.958	122.25
429.181	122.25
429.403	138.25
429.625	142.25
429.847	120.25
430.069	118.25
430.292	123.25
430.514	129.25
430.736	119.25
430.958	126.25
431.18	112.25
431.402	119.25
431.624	125.25
431.846	109.25
432.068	126.25
432.29	115.25
432.512	113.25
432.734	116.25
432.956	124.25
433.178	128.25
433.4	130.25
433.622	133.25
433.844	123.25
434.066	127.25
434.287	123.25
434.509	113.25
434.731	112.25
434.953	128.25
435.175	129.25
435.397	118.25
435.618	132.25
435.84	140.25
436.062	145.25
436.284	138.25
436.505	139.25
436.727	126.25
436.949	114.25
437.17	116.25
437.392	125.25
437.614	121.25
437.835	118.25
438.057	122.25
438.278	141.25
438.5	120.25
438.721	120.25
438.943	125.25
439.165	123.25
439.386	125.25
439.608	156.25
439.829	130.25
440.05	130.25
440.272	136.25
440.493	128.25
440.715	119.25
440.936	121.25
441.158	135.25
441.379	121.25
441.6	137.25
441.822	120.25
442.043	126.25
442.264	135.25
442.486	132.25
442.707	135.25
442.928	152.25
443.149	141.25
443.371	132.25
443.592	146.25
443.813	140.25
444.034	155.25
444.255	144.25
444.476	133.25
444.698	150.25
444.919	142.25
445.14	214.25
445.361	172.25
445.582	136.25
445.803	133.25
446.024	142.25
446.245	148.25
446.466	142.25
446.687	123.25
446.908	134.25
447.129	122.25
447.35	118.25
447.571	129.25
447.792	133.25
448.013	122.25
448.234	125.25
448.455	136.25
448.675	124.25
448.896	134.25
449.117	132.25
449.338	124.25
449.559	125.25
449.779	148.25
450	106.25
450.221	112.25
450.442	134.25
450.662	116.25
450.883	124.25
451.104	114.25
451.324	123.25
451.545	118.25
451.766	118.25
451.986	105.25
452.207	116.25
452.428	116.25
452.648	126.25
452.869	127.25
453.089	102.25
453.31	109.25
453.53	132.25
453.751	106.25
453.971	128.25
454.192	121.25
454.412	119.25
454.633	125.25
454.853	113.25
455.073	124.25
455.294	117.25
455.514	122.25
455.734	107.25
455.955	125.25
456.175	114.25
456.395	125.25
456.616	124.25
456.836	120.25
457.056	109.25
457.276	122.25
457.497	109.25
457.717	114.25
457.937	126.25
458.157	115.25
458.377	128.25
458.598	112.25
458.818	124.25
459.038	115.25
459.258	130.25
459.478	126.25
459.698	121.25
459.918	123.25
460.138	119.25
460.358	129.25
460.578	124.25
460.798	124.25
461.018	141.25
461.238	124.25
461.458	128.25
461.678	132.25
461.898	131.25
462.118	138.25
462.338	119.25
462.558	134.25
462.777	139.25
462.997	146.25
463.217	136.25
463.437	133.25
463.657	128.25
463.876	141.25
464.096	141.25
464.316	134.25
464.536	136.25
464.755	139.25
464.975	124.25
465.195	131.25
465.414	134.25
465.634	117.25
465.854	124.25
466.073	119.25
466.293	133.25
466.512	124.25
466.732	118.25
466.951	120.25
467.171	108.25
467.391	127.25
467.61	106.25
467.829	121.25
468.049	121.25
468.268	118.25
468.488	113.25
468.707	108.25
468.927	116.25
469.146	124.25
469.365	123.25
469.585	113.25
469.804	117.25
470.023	116.25
470.243	118.25
470.462	143.25
470.681	132.25
470.901	135.25
471.12	121.25
471.339	120.25
471.558	125.25
471.777	119.25
471.997	127.25
472.216	127.25
472.435	108.25
472.654	126.25
472.873	136.25
473.092	123.25
473.311	113.25
473.53	121.25
473.749	137.25
473.968	126.25
474.187	123.25
474.406	133.25
474.625	128.25
474.844	108.25
475.063	114.25
475.282	116.25
475.501	130.25
475.72	123.25
475.939	122.25
476.158	128.25
476.377	123.25
476.596	128.25
476.814	132.25
477.033	119.25
477.252	118.25
477.471	122.25
477.69	130.25
477.908	125.25
478.127	140.25
478.346	124.25
478.564	131.25
478.783	136.25
479.002	126.25
479.22	140.25
479.439	117.25
479.658	120.25
479.876	130.25
480.095	138.25
480.313	126.25
480.532	133.25
480.751	140.25
480.969	126.25
481.188	137.25
481.406	146.25
481.624	139.25
481.843	123.25
482.061	145.25
482.28	128.25
482.498	125.25
482.717	126.25
482.935	112.25
483.153	133.25
483.372	128.25
483.59	118.25
483.808	140.25
484.027	121.25
484.245	141.25
484.463	127.25
484.681	142.25
484.9	114.25
485.118	141.25
485.336	132.25
485.554	133.25
485.772	130.25
485.99	133.25
486.209	139.25
486.427	131.25
486.645	123.25
486.863	145.25
487.081	117.25
487.299	137.25
487.517	130.25
487.735	135.25
487.953	123.25
488.171	133.25
488.389	124.25
488.607	132.25
488.825	129.25
489.043	115.25
489.261	136.25
489.479	133.25
489.696	138.25
489.914	128.25
490.132	129.25
490.35	134.25
490.568	141.25
490.786	150.25
491.003	131.25
491.221	145.25
491.439	148.25
491.657	140.25
491.874	141.25
492.092	139.25
492.31	133.25
492.527	138.25
492.745	148.25
492.963	152.25
493.18	138.25
493.398	144.25
493.615	143.25
493.833	139.25
494.05	148.25
494.268	141.25
494.485	156.25
494.703	140.25
494.92	153.25
495.138	142.25
495.355	159.25
495.573	148.25
495.79	149.25
496.008	152.25
496.225	136.25
496.442	146.25
496.66	152.25
496.877	137.25
497.094	154.25
497.312	151.25
497.529	141.25
497.746	154.25
497.963	141.25
498.181	178.25
498.398	144.25
498.615	135.25
498.832	149.25
499.049	155.25
499.267	164.25
499.484	167.25
499.701	178.25
499.918	187.25
500.135	182.25
500.352	215.25
500.569	202.25
500.786	211.25
501.003	212.25
501.22	188.25
501.437	182.25
501.654	188.25
501.871	172.25
502.088	165.25
502.305	172.25
502.522	172.25
502.739	149.25
502.956	157.25
503.172	155.25
503.389	140.25
503.606	164.25
503.823	148.25
504.04	149.25
504.256	143.25
504.473	153.25
504.69	148.25
504.907	145.25
505.123	140.25
505.34	147.25
505.557	144.25
505.773	130.25
