Data from 1968.PennyLincolnUp.Lamp.En5.5.200Scan.071719.P1._HRD10591_14-50-27-969.txt Node
Date: Thu Jul 18 14:50:27 EDT 2019
User: cochatt
Spectrometer: HR+D1059
Trigger mode: 1
Integration Time (sec): 1.000000E-1
Scans to average: 1
Electric dark correction enabled: true
Nonlinearity correction enabled: false
Boxcar width: 0
XAxis mode: Wavelengths
Number of Pixels in Spectrum: 2048
>>>>>Begin Spectral Data<<<<<
223.165	-16.19
223.4	-16.19
223.635	-16.19
223.869	-21.19
224.104	-24.19
224.338	-15.19
224.573	-17.19
224.808	-19.19
225.042	-0.19
225.277	-4.19
225.511	6.81
225.746	5.81
225.98	2.81
226.215	5.81
226.449	28.81
226.683	37.81
226.918	17.81
227.152	11.81
227.387	31.81
227.621	39.81
227.856	55.81
228.09	55.81
228.324	64.81
228.559	64.81
228.793	53.81
229.027	69.81
229.262	62.81
229.496	77.81
229.73	67.81
229.964	72.81
230.199	89.81
230.433	89.81
230.667	76.81
230.901	74.81
231.136	86.81
231.37	89.81
231.604	83.81
231.838	105.81
232.072	79.81
232.306	94.81
232.541	77.81
232.775	80.81
233.009	88.81
233.243	82.81
233.477	81.81
233.711	94.81
233.945	88.81
234.179	89.81
234.413	74.81
234.647	89.81
234.881	81.81
235.115	89.81
235.349	92.81
235.583	88.81
235.817	81.81
236.051	74.81
236.285	87.81
236.519	84.81
236.753	82.81
236.987	80.81
237.221	75.81
237.455	102.81
237.689	85.81
237.922	98.81
238.156	78.81
238.39	90.81
238.624	83.81
238.858	91.81
239.091	80.81
239.325	73.81
239.559	90.81
239.793	79.81
240.027	81.81
240.26	74.81
240.494	97.81
240.728	95.81
240.961	95.81
241.195	84.81
241.429	90.81
241.662	78.81
241.896	86.81
242.13	96.81
242.363	96.81
242.597	82.81
242.83	111.81
243.064	78.81
243.298	84.81
243.531	84.81
243.765	82.81
243.998	90.81
244.232	96.81
244.465	88.81
244.699	92.81
244.932	92.81
245.166	65.81
245.399	80.81
245.633	91.81
245.866	89.81
246.099	93.81
246.333	84.81
246.566	84.81
246.8	82.81
247.033	86.81
247.266	90.81
247.5	91.81
247.733	85.81
247.966	94.81
248.2	70.81
248.433	83.81
248.666	86.81
248.899	95.81
249.133	91.81
249.366	91.81
249.599	85.81
249.832	99.81
250.066	84.81
250.299	78.81
250.532	71.81
250.765	92.81
250.998	86.81
251.231	87.81
251.465	84.81
251.698	90.81
251.931	91.81
252.164	82.81
252.397	104.81
252.63	83.81
252.863	83.81
253.096	82.81
253.329	87.81
253.562	73.81
253.795	96.81
254.028	99.81
254.261	97.81
254.494	102.81
254.727	89.81
254.96	92.81
255.193	92.81
255.426	82.81
255.659	85.81
255.892	89.81
256.124	103.81
256.357	99.81
256.59	90.81
256.823	92.81
257.056	86.81
257.289	106.81
257.521	75.81
257.754	90.81
257.987	99.81
258.22	91.81
258.452	77.81
258.685	92.81
258.918	106.81
259.151	88.81
259.383	94.81
259.616	106.81
259.849	101.81
260.081	94.81
260.314	94.81
260.547	101.81
260.779	103.81
261.012	104.81
261.244	101.81
261.477	104.81
261.71	83.81
261.942	90.81
262.175	90.81
262.407	85.81
262.64	89.81
262.872	113.81
263.105	87.81
263.337	101.81
263.57	99.81
263.802	102.81
264.035	98.81
264.267	94.81
264.499	99.81
264.732	97.81
264.964	96.81
265.197	91.81
265.429	82.81
265.661	96.81
265.894	91.81
266.126	100.81
266.358	97.81
266.591	101.81
266.823	94.81
267.055	92.81
267.287	91.81
267.52	97.81
267.752	84.81
267.984	106.81
268.216	83.81
268.448	96.81
268.681	86.81
268.913	115.81
269.145	94.81
269.377	100.81
269.609	105.81
269.841	111.81
270.073	109.81
270.306	104.81
270.538	119.81
270.77	87.81
271.002	94.81
271.234	96.81
271.466	96.81
271.698	101.81
271.93	105.81
272.162	108.81
272.394	106.81
272.626	111.81
272.858	95.81
273.09	110.81
273.322	104.81
273.553	87.81
273.785	97.81
274.017	85.81
274.249	89.81
274.481	102.81
274.713	92.81
274.945	114.81
275.176	107.81
275.408	96.81
275.64	96.81
275.872	79.81
276.104	93.81
276.335	105.81
276.567	88.81
276.799	92.81
277.031	94.81
277.262	104.81
277.494	103.81
277.726	102.81
277.957	112.81
278.189	101.81
278.421	101.81
278.652	107.81
278.884	91.81
279.115	109.81
279.347	103.81
279.579	105.81
279.81	93.81
280.042	111.81
280.273	89.81
280.505	114.81
280.736	82.81
280.968	91.81
281.199	99.81
281.431	108.81
281.662	109.81
281.894	112.81
282.125	89.81
282.356	109.81
282.588	107.81
282.819	87.81
283.051	111.81
283.282	98.81
283.513	109.81
283.745	103.81
283.976	98.81
284.207	103.81
284.439	97.81
284.67	119.81
284.901	105.81
285.132	113.81
285.364	109.81
285.595	108.81
285.826	109.81
286.057	110.81
286.288	117.81
286.52	114.81
286.751	108.81
286.982	102.81
287.213	110.81
287.444	98.81
287.675	99.81
287.906	111.81
288.138	104.81
288.369	119.81
288.6	103.81
288.831	104.81
289.062	108.81
289.293	107.81
289.524	95.81
289.755	100.81
289.986	99.81
290.217	99.81
290.448	107.81
290.679	102.81
290.91	105.81
291.141	112.81
291.371	113.81
291.602	111.81
291.833	92.81
292.064	112.81
292.295	119.81
292.526	112.81
292.757	111.81
292.987	98.81
293.218	106.81
293.449	93.81
293.68	114.81
293.91	110.81
294.141	120.81
294.372	105.81
294.603	97.81
294.833	108.81
295.064	119.81
295.295	110.81
295.525	117.81
295.756	119.81
295.987	113.81
296.217	101.81
296.448	105.81
296.679	101.81
296.909	113.81
297.14	110.81
297.37	106.81
297.601	94.81
297.831	111.81
298.062	92.81
298.292	107.81
298.523	101.81
298.753	104.81
298.984	95.81
299.214	104.81
299.445	117.81
299.675	111.81
299.905	117.81
300.136	111.81
300.366	102.81
300.597	108.81
300.827	121.81
301.057	111.81
301.288	110.81
301.518	106.81
301.748	110.81
301.979	102.81
302.209	99.81
302.439	106.81
302.669	110.81
302.9	120.81
303.13	114.81
303.36	117.81
303.59	111.81
303.82	120.81
304.051	116.81
304.281	95.81
304.511	112.81
304.741	105.81
304.971	104.81
305.201	94.81
305.431	99.81
305.661	119.81
305.891	97.81
306.121	117.81
306.352	107.81
306.582	109.81
306.812	99.81
307.042	110.81
307.272	124.81
307.502	107.81
307.731	107.81
307.961	112.81
308.191	113.81
308.421	130.81
308.651	120.81
308.881	108.81
309.111	108.81
309.341	104.81
309.571	115.81
309.8	123.81
310.03	103.81
310.26	121.81
310.49	104.81
310.72	109.81
310.949	105.81
311.179	105.81
311.409	111.81
311.639	122.81
311.868	107.81
312.098	114.81
312.328	107.81
312.557	115.81
312.787	114.81
313.017	118.81
313.246	110.81
313.476	113.81
313.706	131.81
313.935	107.81
314.165	116.81
314.394	123.81
314.624	115.81
314.853	110.81
315.083	107.81
315.312	122.81
315.542	120.81
315.771	123.81
316.001	97.81
316.23	110.81
316.46	107.81
316.689	111.81
316.919	120.81
317.148	129.81
317.377	103.81
317.607	118.81
317.836	117.81
318.065	127.81
318.295	116.81
318.524	104.81
318.753	93.81
318.983	109.81
319.212	102.81
319.441	103.81
319.67	108.81
319.9	124.81
320.129	116.81
320.358	104.81
320.587	105.81
320.816	118.81
321.046	110.81
321.275	124.81
321.504	110.81
321.733	107.81
321.962	115.81
322.191	111.81
322.42	96.81
322.649	95.81
322.878	125.81
323.108	106.81
323.337	113.81
323.566	123.81
323.795	112.81
324.024	109.81
324.253	124.81
324.482	123.81
324.71	150.81
324.939	172.81
325.168	131.81
325.397	113.81
325.626	115.81
325.855	116.81
326.084	118.81
326.313	117.81
326.542	122.81
326.77	126.81
326.999	128.81
327.228	118.81
327.457	153.81
327.686	143.81
327.914	145.81
328.143	128.81
328.372	114.81
328.6	117.81
328.829	121.81
329.058	109.81
329.287	120.81
329.515	125.81
329.744	112.81
329.972	105.81
330.201	118.81
330.43	112.81
330.658	125.81
330.887	113.81
331.115	117.81
331.344	127.81
331.572	133.81
331.801	127.81
332.03	107.81
332.258	127.81
332.486	113.81
332.715	131.81
332.943	117.81
333.172	139.81
333.4	117.81
333.629	127.81
333.857	127.81
334.085	105.81
334.314	125.81
334.542	131.81
334.771	128.81
334.999	126.81
335.227	118.81
335.455	121.81
335.684	123.81
335.912	112.81
336.14	113.81
336.369	125.81
336.597	121.81
336.825	101.81
337.053	125.81
337.281	123.81
337.51	102.81
337.738	118.81
337.966	121.81
338.194	105.81
338.422	108.81
338.65	122.81
338.878	129.81
339.106	112.81
339.334	117.81
339.562	107.81
339.79	115.81
340.018	107.81
340.246	104.81
340.474	107.81
340.702	105.81
340.93	119.81
341.158	119.81
341.386	122.81
341.614	114.81
341.842	111.81
342.07	121.81
342.298	111.81
342.526	121.81
342.754	100.81
342.981	121.81
343.209	122.81
343.437	115.81
343.665	110.81
343.893	119.81
344.12	127.81
344.348	130.81
344.576	123.81
344.804	112.81
345.031	122.81
345.259	121.81
345.487	111.81
345.714	121.81
345.942	121.81
346.17	117.81
346.397	105.81
346.625	105.81
346.853	112.81
347.08	119.81
347.308	108.81
347.535	111.81
347.763	118.81
347.99	120.81
348.218	118.81
348.445	125.81
348.673	118.81
348.9	117.81
349.128	120.81
349.355	120.81
349.583	120.81
349.81	134.81
350.037	105.81
350.265	115.81
350.492	129.81
350.72	111.81
350.947	122.81
351.174	111.81
351.402	125.81
351.629	117.81
351.856	106.81
352.083	103.81
352.311	115.81
352.538	112.81
352.765	112.81
352.992	96.81
353.22	110.81
353.447	118.81
353.674	128.81
353.901	103.81
354.128	123.81
354.355	107.81
354.583	133.81
354.81	113.81
355.037	114.81
355.264	123.81
355.491	112.81
355.718	111.81
355.945	119.81
356.172	109.81
356.399	104.81
356.626	114.81
356.853	119.81
357.08	105.81
357.307	86.81
357.534	114.81
357.761	101.81
357.988	104.81
358.215	114.81
358.441	118.81
358.668	111.81
358.895	121.81
359.122	99.81
359.349	116.81
359.576	123.81
359.802	108.81
360.029	114.81
360.256	116.81
360.483	113.81
360.709	107.81
360.936	129.81
361.163	120.81
361.39	102.81
361.616	112.81
361.843	112.81
362.07	120.81
362.296	118.81
362.523	114.81
362.749	98.81
362.976	122.81
363.203	109.81
363.429	119.81
363.656	107.81
363.882	110.81
364.109	117.81
364.335	104.81
364.562	115.81
364.788	123.81
365.015	110.81
365.241	126.81
365.468	127.81
365.694	110.81
365.92	121.81
366.147	108.81
366.373	108.81
366.599	122.81
366.826	117.81
367.052	104.81
367.278	117.81
367.505	111.81
367.731	121.81
367.957	101.81
368.184	104.81
368.41	119.81
368.636	105.81
368.862	105.81
369.089	96.81
369.315	110.81
369.541	109.81
369.767	114.81
369.993	112.81
370.219	121.81
370.445	97.81
370.672	111.81
370.898	105.81
371.124	125.81
371.35	109.81
371.576	108.81
371.802	115.81
372.028	106.81
372.254	101.81
372.48	106.81
372.706	91.81
372.932	111.81
373.158	121.81
373.384	116.81
373.61	117.81
373.835	121.81
374.061	112.81
374.287	122.81
374.513	110.81
374.739	119.81
374.965	118.81
375.191	111.81
375.416	121.81
375.642	119.81
375.868	114.81
376.094	118.81
376.319	114.81
376.545	114.81
376.771	129.81
376.997	122.81
377.222	112.81
377.448	119.81
377.674	112.81
377.899	104.81
378.125	116.81
378.35	121.81
378.576	97.81
378.802	104.81
379.027	120.81
379.253	121.81
379.478	111.81
379.704	120.81
379.929	109.81
380.155	112.81
380.38	117.81
380.606	115.81
380.831	106.81
381.057	106.81
381.282	99.81
381.507	109.81
381.733	119.81
381.958	115.81
382.184	112.81
382.409	95.81
382.634	109.81
382.86	126.81
383.085	125.81
383.31	109.81
383.535	120.81
383.761	111.81
383.986	128.81
384.211	119.81
384.436	127.81
384.662	114.81
384.887	119.81
385.112	114.81
385.337	123.81
385.562	126.81
385.787	117.81
386.013	112.81
386.238	119.81
386.463	117.81
386.688	128.81
386.913	131.81
387.138	124.81
387.363	112.81
387.588	126.81
387.813	124.81
388.038	118.81
388.263	119.81
388.488	106.81
388.713	125.81
388.938	105.81
389.163	121.81
389.387	126.81
389.612	135.81
389.837	116.81
390.062	119.81
390.287	120.81
390.512	122.81
390.736	102.81
390.961	123.81
391.186	133.81
391.411	127.81
391.636	130.81
391.86	113.81
392.085	122.81
392.31	129.81
392.534	130.81
392.759	127.81
392.984	125.81
393.208	121.81
393.433	116.81
393.658	125.81
393.882	133.81
394.107	120.81
394.331	120.81
394.556	119.81
394.78	118.81
395.005	122.81
395.229	125.81
395.454	126.81
395.678	128.81
395.903	117.81
396.127	120.81
396.352	137.81
396.576	118.81
396.801	135.81
397.025	128.81
397.249	123.81
397.474	134.81
397.698	126.81
397.922	127.81
398.147	129.81
398.371	135.81
398.595	133.81
398.82	131.81
399.044	116.81
399.268	123.81
399.492	141.81
399.717	136.81
399.941	153.81
400.165	135.81
400.389	127.81
400.613	135.81
400.837	134.81
401.062	122.81
401.286	133.81
401.51	140.81
401.734	121.81
401.958	126.81
402.182	123.81
402.406	129.81
402.63	127.81
402.854	124.81
403.078	127.81
403.302	128.81
403.526	134.81
403.75	124.81
403.974	132.81
404.198	122.81
404.422	135.81
404.645	138.81
404.869	121.81
405.093	130.81
405.317	148.81
405.541	147.81
405.765	137.81
405.988	125.81
406.212	145.81
406.436	136.81
406.66	142.81
406.883	133.81
407.107	140.81
407.331	133.81
407.555	156.81
407.778	145.81
408.002	141.81
408.226	128.81
408.449	138.81
408.673	131.81
408.896	125.81
409.12	130.81
409.344	131.81
409.567	125.81
409.791	139.81
410.014	125.81
410.238	120.81
410.461	135.81
410.685	137.81
410.908	125.81
411.132	141.81
411.355	127.81
411.578	138.81
411.802	148.81
412.025	130.81
412.249	133.81
412.472	153.81
412.695	142.81
412.919	136.81
413.142	158.81
413.365	125.81
413.589	147.81
413.812	133.81
414.035	134.81
414.258	117.81
414.482	124.81
414.705	118.81
414.928	113.81
415.151	119.81
415.374	123.81
415.597	135.81
415.821	133.81
416.044	124.81
416.267	137.81
416.49	123.81
416.713	139.81
416.936	111.81
417.159	107.81
417.382	127.81
417.605	126.81
417.828	134.81
418.051	125.81
418.274	139.81
418.497	123.81
418.72	128.81
418.943	123.81
419.166	122.81
419.389	127.81
419.611	137.81
419.834	127.81
420.057	141.81
420.28	129.81
420.503	138.81
420.726	137.81
420.948	137.81
421.171	131.81
421.394	128.81
421.617	114.81
421.839	131.81
422.062	139.81
422.285	117.81
422.507	151.81
422.73	130.81
422.953	130.81
423.175	134.81
423.398	136.81
423.621	119.81
423.843	132.81
424.066	138.81
424.288	137.81
424.511	140.81
424.733	133.81
424.956	119.81
425.178	145.81
425.401	132.81
425.623	138.81
425.846	143.81
426.068	133.81
426.291	128.81
426.513	139.81
426.735	127.81
426.958	141.81
427.18	144.81
427.402	129.81
427.625	130.81
427.847	154.81
428.069	153.81
428.292	132.81
428.514	135.81
428.736	125.81
428.958	131.81
429.181	128.81
429.403	127.81
429.625	107.81
429.847	131.81
430.069	130.81
430.292	130.81
430.514	120.81
430.736	125.81
430.958	138.81
431.18	125.81
431.402	121.81
431.624	124.81
431.846	128.81
432.068	128.81
432.29	134.81
432.512	119.81
432.734	126.81
432.956	129.81
433.178	128.81
433.4	129.81
433.622	121.81
433.844	128.81
434.066	129.81
434.287	125.81
434.509	141.81
434.731	119.81
434.953	129.81
435.175	140.81
435.397	127.81
435.618	129.81
435.84	122.81
436.062	127.81
436.284	137.81
436.505	127.81
436.727	130.81
436.949	124.81
437.17	128.81
437.392	144.81
437.614	107.81
437.835	133.81
438.057	121.81
438.278	144.81
438.5	140.81
438.721	131.81
438.943	137.81
439.165	130.81
439.386	126.81
439.608	123.81
439.829	135.81
440.05	130.81
440.272	127.81
440.493	131.81
440.715	155.81
440.936	138.81
441.158	133.81
441.379	123.81
441.6	117.81
441.822	133.81
442.043	138.81
442.264	145.81
442.486	140.81
442.707	149.81
442.928	149.81
443.149	138.81
443.371	137.81
443.592	135.81
443.813	143.81
444.034	134.81
444.255	145.81
444.476	139.81
444.698	137.81
444.919	142.81
445.14	274.81
445.361	209.81
445.582	142.81
445.803	135.81
446.024	138.81
446.245	157.81
446.466	133.81
446.687	122.81
446.908	130.81
447.129	130.81
447.35	127.81
447.571	135.81
447.792	131.81
448.013	130.81
448.234	125.81
448.455	117.81
448.675	136.81
448.896	135.81
449.117	126.81
449.338	127.81
449.559	144.81
449.779	151.81
450	127.81
450.221	127.81
450.442	128.81
450.662	129.81
450.883	125.81
451.104	129.81
451.324	121.81
451.545	128.81
451.766	114.81
451.986	119.81
452.207	111.81
452.428	122.81
452.648	110.81
452.869	107.81
453.089	126.81
453.31	141.81
453.53	111.81
453.751	117.81
453.971	103.81
454.192	126.81
454.412	119.81
454.633	121.81
454.853	118.81
455.073	124.81
455.294	118.81
455.514	121.81
455.734	131.81
455.955	126.81
456.175	130.81
456.395	135.81
456.616	127.81
456.836	128.81
457.056	106.81
457.276	105.81
457.497	110.81
457.717	125.81
457.937	112.81
458.157	97.81
458.377	121.81
458.598	123.81
458.818	112.81
459.038	122.81
459.258	118.81
459.478	137.81
459.698	129.81
459.918	135.81
460.138	137.81
460.358	129.81
460.578	135.81
460.798	116.81
461.018	130.81
461.238	133.81
461.458	130.81
461.678	117.81
461.898	129.81
462.118	127.81
462.338	140.81
462.558	140.81
462.777	135.81
462.997	137.81
463.217	130.81
463.437	139.81
463.657	147.81
463.876	129.81
464.096	139.81
464.316	138.81
464.536	150.81
464.755	135.81
464.975	129.81
465.195	124.81
465.414	135.81
465.634	133.81
465.854	125.81
466.073	130.81
466.293	121.81
466.512	132.81
466.732	140.81
466.951	126.81
467.171	109.81
467.391	138.81
467.61	119.81
467.829	127.81
468.049	110.81
468.268	107.81
468.488	121.81
468.707	124.81
468.927	117.81
469.146	122.81
469.365	127.81
469.585	133.81
469.804	131.81
470.023	126.81
470.243	129.81
470.462	129.81
470.681	129.81
470.901	132.81
471.12	129.81
471.339	135.81
471.558	138.81
471.777	121.81
471.997	135.81
472.216	125.81
472.435	144.81
472.654	126.81
472.873	121.81
473.092	117.81
473.311	112.81
473.53	128.81
473.749	119.81
473.968	129.81
474.187	131.81
474.406	113.81
474.625	127.81
474.844	114.81
475.063	133.81
475.282	123.81
475.501	107.81
475.72	121.81
475.939	121.81
476.158	118.81
476.377	124.81
476.596	138.81
476.814	114.81
477.033	135.81
477.252	118.81
477.471	121.81
477.69	124.81
477.908	131.81
478.127	131.81
478.346	139.81
478.564	130.81
478.783	131.81
479.002	129.81
479.22	136.81
479.439	134.81
479.658	132.81
479.876	139.81
480.095	117.81
480.313	129.81
480.532	129.81
480.751	131.81
480.969	139.81
481.188	122.81
481.406	145.81
481.624	145.81
481.843	128.81
482.061	119.81
482.28	129.81
482.498	137.81
482.717	125.81
482.935	129.81
483.153	125.81
483.372	117.81
483.59	126.81
483.808	142.81
484.027	128.81
484.245	112.81
484.463	129.81
484.681	149.81
484.9	131.81
485.118	131.81
485.336	131.81
485.554	132.81
485.772	115.81
485.99	127.81
486.209	145.81
486.427	131.81
486.645	129.81
486.863	132.81
487.081	143.81
487.299	144.81
487.517	129.81
487.735	138.81
487.953	134.81
488.171	139.81
488.389	140.81
488.607	146.81
488.825	143.81
489.043	147.81
489.261	136.81
489.479	129.81
489.696	135.81
489.914	142.81
490.132	138.81
490.35	135.81
490.568	131.81
490.786	132.81
491.003	129.81
491.221	141.81
491.439	150.81
491.657	144.81
491.874	159.81
492.092	135.81
492.31	165.81
492.527	141.81
492.745	160.81
492.963	151.81
493.18	140.81
493.398	147.81
493.615	151.81
493.833	135.81
494.05	141.81
494.268	130.81
494.485	143.81
494.703	154.81
494.92	140.81
495.138	150.81
495.355	145.81
495.573	151.81
495.79	148.81
496.008	142.81
496.225	159.81
496.442	143.81
496.66	143.81
496.877	160.81
497.094	155.81
497.312	141.81
497.529	148.81
497.746	133.81
497.963	139.81
498.181	158.81
498.398	146.81
498.615	168.81
498.832	169.81
499.049	148.81
499.267	176.81
499.484	176.81
499.701	186.81
499.918	186.81
500.135	189.81
500.352	220.81
500.569	206.81
500.786	204.81
501.003	203.81
501.22	191.81
501.437	183.81
501.654	188.81
501.871	161.81
502.088	159.81
502.305	167.81
502.522	173.81
502.739	155.81
502.956	133.81
503.172	139.81
503.389	159.81
503.606	134.81
503.823	140.81
504.04	167.81
504.256	151.81
504.473	155.81
504.69	150.81
504.907	151.81
