Data from 1968.PennyLincolnUp.Lamp.En5.5.200Scan.071719.P1._HRD10591_14-49-52-970.txt Node
Date: Thu Jul 18 14:49:52 EDT 2019
User: cochatt
Spectrometer: HR+D1059
Trigger mode: 1
Integration Time (sec): 1.000000E-1
Scans to average: 1
Electric dark correction enabled: true
Nonlinearity correction enabled: false
Boxcar width: 0
XAxis mode: Wavelengths
Number of Pixels in Spectrum: 2048
>>>>>Begin Spectral Data<<<<<
223.165	-10.5
223.4	-10.5
223.635	-10.5
223.869	-22.5
224.104	-30.5
224.338	-9.5
224.573	-8.5
224.808	-16.5
225.042	0.5
225.277	4.5
225.511	-12.5
225.746	-11.5
225.98	0.5
226.215	2.5
226.449	26.5
226.683	25.5
226.918	26.5
227.152	35.5
227.387	37.5
227.621	29.5
227.856	46.5
228.09	42.5
228.324	53.5
228.559	59.5
228.793	42.5
229.027	73.5
229.262	77.5
229.496	70.5
229.73	72.5
229.964	60.5
230.199	70.5
230.433	69.5
230.667	80.5
230.901	76.5
231.136	74.5
231.37	75.5
231.604	89.5
231.838	86.5
232.072	85.5
232.306	86.5
232.541	74.5
232.775	71.5
233.009	82.5
233.243	78.5
233.477	97.5
233.711	92.5
233.945	72.5
234.179	86.5
234.413	90.5
234.647	93.5
234.881	80.5
235.115	87.5
235.349	85.5
235.583	79.5
235.817	69.5
236.051	70.5
236.285	69.5
236.519	77.5
236.753	92.5
236.987	75.5
237.221	85.5
237.455	86.5
237.689	88.5
237.922	85.5
238.156	83.5
238.39	89.5
238.624	78.5
238.858	79.5
239.091	84.5
239.325	79.5
239.559	75.5
239.793	80.5
240.027	88.5
240.26	72.5
240.494	78.5
240.728	80.5
240.961	82.5
241.195	84.5
241.429	78.5
241.662	72.5
241.896	86.5
242.13	66.5
242.363	94.5
242.597	76.5
242.83	84.5
243.064	84.5
243.298	71.5
243.531	85.5
243.765	88.5
243.998	78.5
244.232	80.5
244.465	73.5
244.699	89.5
244.932	84.5
245.166	86.5
245.399	95.5
245.633	75.5
245.866	80.5
246.099	92.5
246.333	79.5
246.566	84.5
246.8	72.5
247.033	86.5
247.266	73.5
247.5	91.5
247.733	94.5
247.966	78.5
248.2	76.5
248.433	93.5
248.666	70.5
248.899	86.5
249.133	87.5
249.366	97.5
249.599	75.5
249.832	83.5
250.066	90.5
250.299	94.5
250.532	86.5
250.765	95.5
250.998	90.5
251.231	81.5
251.465	100.5
251.698	109.5
251.931	96.5
252.164	102.5
252.397	102.5
252.63	103.5
252.863	81.5
253.096	97.5
253.329	80.5
253.562	74.5
253.795	78.5
254.028	88.5
254.261	80.5
254.494	84.5
254.727	85.5
254.96	94.5
255.193	85.5
255.426	75.5
255.659	95.5
255.892	88.5
256.124	102.5
256.357	87.5
256.59	86.5
256.823	91.5
257.056	71.5
257.289	96.5
257.521	93.5
257.754	75.5
257.987	94.5
258.22	91.5
258.452	94.5
258.685	99.5
258.918	80.5
259.151	94.5
259.383	104.5
259.616	95.5
259.849	81.5
260.081	98.5
260.314	93.5
260.547	94.5
260.779	77.5
261.012	82.5
261.244	84.5
261.477	99.5
261.71	96.5
261.942	92.5
262.175	92.5
262.407	94.5
262.64	98.5
262.872	100.5
263.105	88.5
263.337	98.5
263.57	94.5
263.802	93.5
264.035	103.5
264.267	89.5
264.499	93.5
264.732	84.5
264.964	88.5
265.197	90.5
265.429	88.5
265.661	83.5
265.894	92.5
266.126	102.5
266.358	91.5
266.591	87.5
266.823	95.5
267.055	99.5
267.287	102.5
267.52	91.5
267.752	92.5
267.984	98.5
268.216	98.5
268.448	100.5
268.681	105.5
268.913	101.5
269.145	99.5
269.377	96.5
269.609	98.5
269.841	97.5
270.073	91.5
270.306	88.5
270.538	101.5
270.77	86.5
271.002	91.5
271.234	107.5
271.466	98.5
271.698	92.5
271.93	92.5
272.162	89.5
272.394	104.5
272.626	94.5
272.858	93.5
273.09	92.5
273.322	81.5
273.553	110.5
273.785	117.5
274.017	94.5
274.249	104.5
274.481	104.5
274.713	86.5
274.945	99.5
275.176	98.5
275.408	104.5
275.64	100.5
275.872	86.5
276.104	106.5
276.335	101.5
276.567	89.5
276.799	94.5
277.031	99.5
277.262	90.5
277.494	99.5
277.726	102.5
277.957	94.5
278.189	95.5
278.421	94.5
278.652	92.5
278.884	90.5
279.115	101.5
279.347	102.5
279.579	110.5
279.81	100.5
280.042	104.5
280.273	95.5
280.505	95.5
280.736	91.5
280.968	88.5
281.199	106.5
281.431	88.5
281.662	94.5
281.894	100.5
282.125	91.5
282.356	97.5
282.588	88.5
282.819	90.5
283.051	108.5
283.282	109.5
283.513	94.5
283.745	110.5
283.976	68.5
284.207	103.5
284.439	90.5
284.67	108.5
284.901	99.5
285.132	87.5
285.364	90.5
285.595	103.5
285.826	119.5
286.057	109.5
286.288	106.5
286.52	112.5
286.751	116.5
286.982	95.5
287.213	95.5
287.444	103.5
287.675	85.5
287.906	97.5
288.138	107.5
288.369	96.5
288.6	94.5
288.831	99.5
289.062	83.5
289.293	102.5
289.524	107.5
289.755	92.5
289.986	93.5
290.217	90.5
290.448	93.5
290.679	103.5
290.91	94.5
291.141	84.5
291.371	104.5
291.602	99.5
291.833	83.5
292.064	109.5
292.295	103.5
292.526	89.5
292.757	103.5
292.987	104.5
293.218	92.5
293.449	89.5
293.68	93.5
293.91	99.5
294.141	93.5
294.372	101.5
294.603	104.5
294.833	100.5
295.064	99.5
295.295	121.5
295.525	103.5
295.756	105.5
295.987	114.5
296.217	102.5
296.448	103.5
296.679	118.5
296.909	101.5
297.14	96.5
297.37	89.5
297.601	112.5
297.831	98.5
298.062	106.5
298.292	91.5
298.523	98.5
298.753	97.5
298.984	108.5
299.214	111.5
299.445	103.5
299.675	91.5
299.905	111.5
300.136	87.5
300.366	118.5
300.597	101.5
300.827	114.5
301.057	102.5
301.288	121.5
301.518	107.5
301.748	100.5
301.979	103.5
302.209	115.5
302.439	118.5
302.669	98.5
302.9	115.5
303.13	102.5
303.36	120.5
303.59	109.5
303.82	106.5
304.051	87.5
304.281	103.5
304.511	115.5
304.741	120.5
304.971	111.5
305.201	114.5
305.431	106.5
305.661	104.5
305.891	115.5
306.121	95.5
306.352	101.5
306.582	102.5
306.812	109.5
307.042	118.5
307.272	104.5
307.502	107.5
307.731	95.5
307.961	100.5
308.191	100.5
308.421	95.5
308.651	107.5
308.881	108.5
309.111	111.5
309.341	99.5
309.571	104.5
309.8	102.5
310.03	97.5
310.26	92.5
310.49	107.5
310.72	98.5
310.949	102.5
311.179	100.5
311.409	98.5
311.639	101.5
311.868	120.5
312.098	111.5
312.328	112.5
312.557	118.5
312.787	110.5
313.017	104.5
313.246	106.5
313.476	116.5
313.706	122.5
313.935	117.5
314.165	107.5
314.394	98.5
314.624	103.5
314.853	118.5
315.083	102.5
315.312	104.5
315.542	94.5
315.771	110.5
316.001	105.5
316.23	108.5
316.46	119.5
316.689	112.5
316.919	108.5
317.148	112.5
317.377	128.5
317.607	105.5
317.836	107.5
318.065	106.5
318.295	116.5
318.524	115.5
318.753	95.5
318.983	103.5
319.212	112.5
319.441	105.5
319.67	104.5
319.9	95.5
320.129	104.5
320.358	119.5
320.587	99.5
320.816	110.5
321.046	102.5
321.275	111.5
321.504	123.5
321.733	90.5
321.962	114.5
322.191	122.5
322.42	103.5
322.649	117.5
322.878	120.5
323.108	107.5
323.337	108.5
323.566	100.5
323.795	103.5
324.024	109.5
324.253	114.5
324.482	120.5
324.71	137.5
324.939	182.5
325.168	157.5
325.397	124.5
325.626	110.5
325.855	109.5
326.084	108.5
326.313	121.5
326.542	118.5
326.77	130.5
326.999	115.5
327.228	130.5
327.457	145.5
327.686	140.5
327.914	128.5
328.143	110.5
328.372	132.5
328.6	104.5
328.829	109.5
329.058	131.5
329.287	109.5
329.515	106.5
329.744	105.5
329.972	115.5
330.201	116.5
330.43	125.5
330.658	115.5
330.887	113.5
331.115	105.5
331.344	122.5
331.572	124.5
331.801	117.5
332.03	126.5
332.258	106.5
332.486	103.5
332.715	116.5
332.943	120.5
333.172	112.5
333.4	118.5
333.629	109.5
333.857	124.5
334.085	112.5
334.314	118.5
334.542	126.5
334.771	128.5
334.999	109.5
335.227	118.5
335.455	114.5
335.684	109.5
335.912	109.5
336.14	108.5
336.369	113.5
336.597	102.5
336.825	126.5
337.053	115.5
337.281	104.5
337.51	105.5
337.738	115.5
337.966	117.5
338.194	107.5
338.422	122.5
338.65	116.5
338.878	100.5
339.106	107.5
339.334	109.5
339.562	111.5
339.79	124.5
340.018	101.5
340.246	122.5
340.474	112.5
340.702	113.5
340.93	122.5
341.158	105.5
341.386	108.5
341.614	111.5
341.842	124.5
342.07	113.5
342.298	124.5
342.526	118.5
342.754	123.5
342.981	105.5
343.209	117.5
343.437	122.5
343.665	116.5
343.893	109.5
344.12	118.5
344.348	114.5
344.576	100.5
344.804	106.5
345.031	103.5
345.259	118.5
345.487	109.5
345.714	120.5
345.942	123.5
346.17	107.5
346.397	121.5
346.625	102.5
346.853	111.5
347.08	112.5
347.308	127.5
347.535	91.5
347.763	126.5
347.99	114.5
348.218	109.5
348.445	108.5
348.673	115.5
348.9	114.5
349.128	116.5
349.355	107.5
349.583	118.5
349.81	110.5
350.037	115.5
350.265	98.5
350.492	94.5
350.72	118.5
350.947	122.5
351.174	116.5
351.402	104.5
351.629	112.5
351.856	110.5
352.083	123.5
352.311	104.5
352.538	112.5
352.765	111.5
352.992	117.5
353.22	110.5
353.447	114.5
353.674	116.5
353.901	106.5
354.128	111.5
354.355	101.5
354.583	110.5
354.81	104.5
355.037	125.5
355.264	108.5
355.491	109.5
355.718	111.5
355.945	114.5
356.172	102.5
356.399	92.5
356.626	108.5
356.853	100.5
357.08	117.5
357.307	119.5
357.534	109.5
357.761	104.5
357.988	107.5
358.215	111.5
358.441	96.5
358.668	102.5
358.895	118.5
359.122	116.5
359.349	103.5
359.576	105.5
359.802	101.5
360.029	101.5
360.256	111.5
360.483	117.5
360.709	118.5
360.936	105.5
361.163	94.5
361.39	117.5
361.616	109.5
361.843	126.5
362.07	113.5
362.296	107.5
362.523	114.5
362.749	112.5
362.976	104.5
363.203	110.5
363.429	95.5
363.656	96.5
363.882	119.5
364.109	126.5
364.335	125.5
364.562	130.5
364.788	103.5
365.015	116.5
365.241	101.5
365.468	106.5
365.694	119.5
365.92	116.5
366.147	118.5
366.373	103.5
366.599	118.5
366.826	114.5
367.052	114.5
367.278	108.5
367.505	118.5
367.731	110.5
367.957	104.5
368.184	124.5
368.41	131.5
368.636	108.5
368.862	108.5
369.089	99.5
369.315	128.5
369.541	118.5
369.767	116.5
369.993	121.5
370.219	111.5
370.445	107.5
370.672	125.5
370.898	116.5
371.124	114.5
371.35	102.5
371.576	114.5
371.802	108.5
372.028	110.5
372.254	116.5
372.48	117.5
372.706	116.5
372.932	121.5
373.158	121.5
373.384	118.5
373.61	114.5
373.835	114.5
374.061	111.5
374.287	112.5
374.513	117.5
374.739	125.5
374.965	110.5
375.191	122.5
375.416	108.5
375.642	106.5
375.868	116.5
376.094	106.5
376.319	104.5
376.545	117.5
376.771	115.5
376.997	109.5
377.222	105.5
377.448	109.5
377.674	129.5
377.899	132.5
378.125	96.5
378.35	114.5
378.576	106.5
378.802	108.5
379.027	107.5
379.253	112.5
379.478	114.5
379.704	116.5
379.929	117.5
380.155	109.5
380.38	122.5
380.606	106.5
380.831	109.5
381.057	119.5
381.282	104.5
381.507	109.5
381.733	114.5
381.958	127.5
382.184	101.5
382.409	118.5
382.634	116.5
382.86	119.5
383.085	111.5
383.31	104.5
383.535	124.5
383.761	100.5
383.986	127.5
384.211	128.5
384.436	101.5
384.662	120.5
384.887	134.5
385.112	109.5
385.337	123.5
385.562	117.5
385.787	118.5
386.013	132.5
386.238	123.5
386.463	105.5
386.688	126.5
386.913	116.5
387.138	105.5
387.363	112.5
387.588	125.5
387.813	113.5
388.038	106.5
388.263	105.5
388.488	125.5
388.713	116.5
388.938	106.5
389.163	118.5
389.387	115.5
389.612	121.5
389.837	115.5
390.062	120.5
390.287	114.5
390.512	119.5
390.736	104.5
390.961	116.5
391.186	107.5
391.411	130.5
391.636	130.5
391.86	127.5
392.085	115.5
392.31	112.5
392.534	120.5
392.759	114.5
392.984	126.5
393.208	128.5
393.433	103.5
393.658	119.5
393.882	124.5
394.107	116.5
394.331	107.5
394.556	121.5
394.78	111.5
395.005	123.5
395.229	127.5
395.454	118.5
395.678	123.5
395.903	131.5
396.127	122.5
396.352	119.5
396.576	127.5
396.801	128.5
397.025	111.5
397.249	121.5
397.474	129.5
397.698	116.5
397.922	119.5
398.147	123.5
398.371	115.5
398.595	131.5
398.82	117.5
399.044	135.5
399.268	150.5
399.492	140.5
399.717	148.5
399.941	141.5
400.165	122.5
400.389	144.5
400.613	126.5
400.837	145.5
401.062	130.5
401.286	117.5
401.51	136.5
401.734	123.5
401.958	119.5
402.182	132.5
402.406	125.5
402.63	126.5
402.854	131.5
403.078	130.5
403.302	134.5
403.526	129.5
403.75	127.5
403.974	124.5
404.198	132.5
404.422	156.5
404.645	132.5
404.869	130.5
405.093	116.5
405.317	131.5
405.541	136.5
405.765	129.5
405.988	127.5
406.212	138.5
406.436	146.5
406.66	133.5
406.883	143.5
407.107	131.5
407.331	140.5
407.555	138.5
407.778	134.5
408.002	140.5
408.226	135.5
408.449	137.5
408.673	142.5
408.896	144.5
409.12	145.5
409.344	131.5
409.567	147.5
409.791	134.5
410.014	140.5
410.238	118.5
410.461	128.5
410.685	134.5
410.908	136.5
411.132	127.5
411.355	134.5
411.578	150.5
411.802	128.5
412.025	132.5
412.249	133.5
412.472	144.5
412.695	127.5
412.919	131.5
413.142	138.5
413.365	119.5
413.589	124.5
413.812	134.5
414.035	124.5
414.258	122.5
414.482	124.5
414.705	132.5
414.928	117.5
415.151	120.5
415.374	128.5
415.597	135.5
415.821	136.5
416.044	134.5
416.267	128.5
416.49	128.5
416.713	124.5
416.936	126.5
417.159	120.5
417.382	125.5
417.605	142.5
417.828	118.5
418.051	130.5
418.274	132.5
418.497	127.5
418.72	133.5
418.943	138.5
419.166	132.5
419.389	135.5
419.611	127.5
419.834	137.5
420.057	147.5
420.28	123.5
420.503	137.5
420.726	117.5
420.948	126.5
421.171	124.5
421.394	129.5
421.617	109.5
421.839	124.5
422.062	126.5
422.285	127.5
422.507	136.5
422.73	135.5
422.953	134.5
423.175	132.5
423.398	135.5
423.621	128.5
423.843	130.5
424.066	134.5
424.288	132.5
424.511	142.5
424.733	142.5
424.956	136.5
425.178	132.5
425.401	128.5
425.623	146.5
425.846	127.5
426.068	130.5
426.291	128.5
426.513	111.5
426.735	124.5
426.958	128.5
427.18	142.5
427.402	126.5
427.625	151.5
427.847	131.5
428.069	138.5
428.292	124.5
428.514	134.5
428.736	139.5
428.958	124.5
429.181	137.5
429.403	126.5
429.625	130.5
429.847	127.5
430.069	136.5
430.292	123.5
430.514	133.5
430.736	135.5
430.958	138.5
431.18	134.5
431.402	131.5
431.624	117.5
431.846	150.5
432.068	127.5
432.29	132.5
432.512	124.5
432.734	124.5
432.956	132.5
433.178	127.5
433.4	127.5
433.622	124.5
433.844	124.5
434.066	133.5
434.287	128.5
434.509	125.5
434.731	133.5
434.953	127.5
435.175	130.5
435.397	125.5
435.618	138.5
435.84	144.5
436.062	134.5
436.284	140.5
436.505	130.5
436.727	135.5
436.949	131.5
437.17	117.5
437.392	139.5
437.614	126.5
437.835	127.5
438.057	128.5
438.278	130.5
438.5	124.5
438.721	153.5
438.943	131.5
439.165	134.5
439.386	130.5
439.608	132.5
439.829	131.5
440.05	131.5
440.272	139.5
440.493	126.5
440.715	139.5
440.936	128.5
441.158	114.5
441.379	118.5
441.6	131.5
441.822	142.5
442.043	128.5
442.264	141.5
442.486	140.5
442.707	134.5
442.928	122.5
443.149	134.5
443.371	134.5
443.592	149.5
443.813	140.5
444.034	148.5
444.255	128.5
444.476	131.5
444.698	132.5
444.919	151.5
445.14	252.5
445.361	184.5
445.582	138.5
445.803	118.5
446.024	124.5
446.245	139.5
446.466	115.5
446.687	134.5
446.908	123.5
447.129	124.5
447.35	120.5
447.571	132.5
447.792	115.5
448.013	144.5
448.234	121.5
448.455	118.5
448.675	130.5
448.896	137.5
449.117	137.5
449.338	131.5
449.559	143.5
449.779	141.5
450	130.5
450.221	111.5
450.442	130.5
450.662	126.5
450.883	125.5
451.104	122.5
451.324	112.5
451.545	122.5
451.766	126.5
451.986	118.5
452.207	127.5
452.428	122.5
452.648	137.5
452.869	135.5
453.089	134.5
453.31	115.5
453.53	115.5
453.751	109.5
453.971	116.5
454.192	118.5
454.412	117.5
454.633	107.5
454.853	111.5
455.073	113.5
455.294	102.5
455.514	128.5
455.734	133.5
455.955	111.5
456.175	122.5
456.395	102.5
456.616	116.5
456.836	126.5
457.056	118.5
457.276	113.5
457.497	112.5
457.717	112.5
457.937	122.5
458.157	123.5
458.377	118.5
458.598	130.5
458.818	127.5
459.038	109.5
459.258	123.5
459.478	117.5
459.698	129.5
459.918	119.5
460.138	119.5
460.358	122.5
460.578	125.5
460.798	127.5
461.018	122.5
461.238	129.5
461.458	128.5
461.678	123.5
461.898	127.5
462.118	126.5
462.338	139.5
462.558	138.5
462.777	144.5
462.997	149.5
463.217	140.5
463.437	150.5
463.657	143.5
463.876	126.5
464.096	142.5
464.316	139.5
464.536	155.5
464.755	131.5
464.975	131.5
465.195	111.5
465.414	124.5
465.634	128.5
465.854	126.5
466.073	126.5
466.293	127.5
466.512	122.5
466.732	120.5
466.951	121.5
467.171	130.5
467.391	121.5
467.61	118.5
467.829	129.5
468.049	111.5
468.268	130.5
468.488	130.5
468.707	130.5
468.927	111.5
469.146	134.5
469.365	126.5
469.585	126.5
469.804	127.5
470.023	103.5
470.243	122.5
470.462	114.5
470.681	139.5
470.901	111.5
471.12	122.5
471.339	128.5
471.558	123.5
471.777	125.5
471.997	129.5
472.216	122.5
472.435	126.5
472.654	128.5
472.873	135.5
473.092	128.5
473.311	127.5
473.53	131.5
473.749	119.5
473.968	128.5
474.187	133.5
474.406	127.5
474.625	127.5
474.844	131.5
475.063	114.5
475.282	108.5
475.501	111.5
475.72	123.5
475.939	124.5
476.158	126.5
476.377	128.5
476.596	127.5
476.814	117.5
477.033	138.5
477.252	131.5
477.471	117.5
477.69	124.5
477.908	132.5
478.127	128.5
478.346	136.5
478.564	124.5
478.783	132.5
479.002	139.5
479.22	128.5
479.439	137.5
479.658	125.5
479.876	128.5
480.095	133.5
480.313	132.5
480.532	132.5
480.751	142.5
480.969	141.5
481.188	139.5
481.406	126.5
481.624	134.5
481.843	133.5
482.061	127.5
482.28	133.5
482.498	127.5
482.717	126.5
482.935	127.5
483.153	125.5
483.372	141.5
483.59	146.5
483.808	129.5
484.027	127.5
484.245	130.5
484.463	108.5
484.681	126.5
484.9	134.5
485.118	121.5
485.336	138.5
485.554	134.5
485.772	125.5
485.99	143.5
486.209	124.5
486.427	111.5
486.645	130.5
486.863	124.5
487.081	134.5
487.299	130.5
487.517	133.5
487.735	141.5
487.953	143.5
488.171	144.5
488.389	135.5
488.607	131.5
488.825	124.5
489.043	140.5
489.261	138.5
489.479	134.5
489.696	130.5
489.914	141.5
490.132	143.5
490.35	140.5
490.568	146.5
490.786	137.5
491.003	124.5
491.221	143.5
491.439	150.5
491.657	134.5
491.874	140.5
492.092	144.5
492.31	143.5
492.527	130.5
492.745	134.5
492.963	141.5
493.18	134.5
493.398	150.5
493.615	140.5
493.833	148.5
494.05	141.5
494.268	138.5
494.485	150.5
494.703	149.5
494.92	138.5
495.138	144.5
495.355	145.5
495.573	152.5
495.79	138.5
496.008	128.5
496.225	134.5
496.442	130.5
496.66	143.5
496.877	141.5
497.094	146.5
497.312	150.5
497.529	156.5
497.746	132.5
497.963	135.5
498.181	143.5
498.398	136.5
498.615	147.5
498.832	157.5
499.049	171.5
499.267	178.5
499.484	164.5
499.701	183.5
499.918	192.5
500.135	178.5
500.352	216.5
500.569	191.5
500.786	216.5
501.003	208.5
501.22	176.5
501.437	186.5
501.654	182.5
501.871	163.5
502.088	168.5
502.305	164.5
502.522	157.5
502.739	159.5
502.956	151.5
503.172	134.5
503.389	136.5
503.606	151.5
503.823	136.5
504.04	131.5
504.256	158.5
504.473	136.5
504.69	139.5
504.907	149.5
505.123	144.5
505.34	131.5
505.557	135.5
505.773	139.5
505.99	144.5
506.207	125.5
506.423	134.5
506.64	134.5
506.856	128.5
507.073	136.5
507.289	140.5
507.506	129.5
507.722	126.5
507.939	132.5
508.155	121.5
508.372	123.5
508.588	128.5
508.805	131.5
509.021	138.5
509.238	135.5
509.454	136.5
509.67	122.5
509.887	140.5
510.103	108.5
510.319	120.5
510.536	126.5
510.752	153.5
510.968	145.5
511.184	118.5
511.401	133.5
511.617	125.5
511.833	134.5
512.049	143.5
512.265	127.5
512.481	126.5
512.698	124.5
512.914	125.5
513.13	134.5
513.346	125.5
513.562	127.5
513.778	124.5
513.994	128.5
514.21	140.5
514.426	110.5
514.642	130.5
514.858	131.5
515.074	146.5
515.29	156.5
515.506	170.5
515.721	140.5
515.937	144.5
516.153	132.5
516.369	138.5
516.585	120.5
516.801	136.5
517.016	131.5
517.232	118.5
517.448	127.5
517.664	132.5
517.879	133.5
518.095	134.5
518.311	139.5
518.527	127.5
518.742	128.5
518.958	125.5
519.173	130.5
519.389	134.5
519.605	127.5
519.82	118.5
520.036	128.5
520.251	136.5
520.467	118.5
520.682	134.5
520.898	125.5
521.113	115.5
521.329	130.5
521.544	136.5
521.76	147.5
521.975	180.5
522.19	168.5
522.406	138.5
522.621	128.5
522.836	122.5
523.052	118.5
523.267	124.5
523.482	118.5
523.698	135.5
