Data from 1968.PennyLincolnUp.Lamp.En5.5.200Scan.071719.P1._HRD10591_14-49-25-969.txt Node
Date: Thu Jul 18 14:49:25 EDT 2019
User: cochatt
Spectrometer: HR+D1059
Trigger mode: 1
Integration Time (sec): 1.000000E-1
Scans to average: 1
Electric dark correction enabled: true
Nonlinearity correction enabled: false
Boxcar width: 0
XAxis mode: Wavelengths
Number of Pixels in Spectrum: 2048
>>>>>Begin Spectral Data<<<<<
223.165	-3.44
223.4	-3.44
223.635	-3.44
223.869	-12.44
224.104	-4.44
224.338	-13.44
224.573	-15.44
224.808	-17.44
225.042	-13.44
225.277	3.56
225.511	-0.44
225.746	8.56
225.98	-3.44
226.215	1.56
226.449	6.56
226.683	24.56
226.918	17.56
227.152	21.56
227.387	29.56
227.621	35.56
227.856	46.56
228.09	38.56
228.324	31.56
228.559	55.56
228.793	59.56
229.027	58.56
229.262	66.56
229.496	86.56
229.73	78.56
229.964	73.56
230.199	76.56
230.433	66.56
230.667	66.56
230.901	90.56
231.136	84.56
231.37	86.56
231.604	85.56
231.838	69.56
232.072	99.56
232.306	99.56
232.541	89.56
232.775	88.56
233.009	86.56
233.243	82.56
233.477	93.56
233.711	77.56
233.945	99.56
234.179	85.56
234.413	89.56
234.647	90.56
234.881	76.56
235.115	69.56
235.349	73.56
235.583	68.56
235.817	85.56
236.051	72.56
236.285	73.56
236.519	72.56
236.753	102.56
236.987	76.56
237.221	99.56
237.455	84.56
237.689	82.56
237.922	70.56
238.156	82.56
238.39	89.56
238.624	79.56
238.858	91.56
239.091	82.56
239.325	81.56
239.559	94.56
239.793	87.56
240.027	95.56
240.26	88.56
240.494	65.56
240.728	84.56
240.961	78.56
241.195	91.56
241.429	86.56
241.662	89.56
241.896	67.56
242.13	77.56
242.363	87.56
242.597	79.56
242.83	84.56
243.064	81.56
243.298	92.56
243.531	81.56
243.765	59.56
243.998	91.56
244.232	93.56
244.465	75.56
244.699	81.56
244.932	79.56
245.166	90.56
245.399	92.56
245.633	75.56
245.866	83.56
246.099	93.56
246.333	77.56
246.566	78.56
246.8	94.56
247.033	93.56
247.266	89.56
247.5	62.56
247.733	89.56
247.966	90.56
248.2	88.56
248.433	92.56
248.666	89.56
248.899	90.56
249.133	95.56
249.366	86.56
249.599	80.56
249.832	71.56
250.066	97.56
250.299	81.56
250.532	72.56
250.765	93.56
250.998	75.56
251.231	79.56
251.465	81.56
251.698	90.56
251.931	85.56
252.164	90.56
252.397	82.56
252.63	66.56
252.863	81.56
253.096	75.56
253.329	85.56
253.562	98.56
253.795	81.56
254.028	77.56
254.261	86.56
254.494	83.56
254.727	100.56
254.96	76.56
255.193	93.56
255.426	87.56
255.659	87.56
255.892	106.56
256.124	102.56
256.357	90.56
256.59	85.56
256.823	89.56
257.056	115.56
257.289	98.56
257.521	90.56
257.754	88.56
257.987	90.56
258.22	89.56
258.452	87.56
258.685	85.56
258.918	105.56
259.151	85.56
259.383	72.56
259.616	78.56
259.849	90.56
260.081	104.56
260.314	85.56
260.547	93.56
260.779	95.56
261.012	95.56
261.244	76.56
261.477	87.56
261.71	100.56
261.942	85.56
262.175	98.56
262.407	93.56
262.64	105.56
262.872	102.56
263.105	94.56
263.337	91.56
263.57	102.56
263.802	85.56
264.035	76.56
264.267	90.56
264.499	84.56
264.732	100.56
264.964	94.56
265.197	92.56
265.429	101.56
265.661	92.56
265.894	92.56
266.126	93.56
266.358	85.56
266.591	80.56
266.823	92.56
267.055	75.56
267.287	98.56
267.52	83.56
267.752	95.56
267.984	104.56
268.216	96.56
268.448	89.56
268.681	77.56
268.913	86.56
269.145	83.56
269.377	101.56
269.609	105.56
269.841	89.56
270.073	77.56
270.306	86.56
270.538	88.56
270.77	109.56
271.002	107.56
271.234	82.56
271.466	84.56
271.698	105.56
271.93	91.56
272.162	90.56
272.394	91.56
272.626	89.56
272.858	81.56
273.09	106.56
273.322	96.56
273.553	94.56
273.785	83.56
274.017	86.56
274.249	94.56
274.481	98.56
274.713	104.56
274.945	99.56
275.176	90.56
275.408	114.56
275.64	93.56
275.872	103.56
276.104	97.56
276.335	98.56
276.567	98.56
276.799	101.56
277.031	85.56
277.262	97.56
277.494	97.56
277.726	91.56
277.957	99.56
278.189	95.56
278.421	89.56
278.652	104.56
278.884	98.56
279.115	93.56
279.347	103.56
279.579	103.56
279.81	103.56
280.042	105.56
280.273	101.56
280.505	101.56
280.736	103.56
280.968	98.56
281.199	90.56
281.431	100.56
281.662	94.56
281.894	101.56
282.125	106.56
282.356	95.56
282.588	95.56
282.819	109.56
283.051	94.56
283.282	90.56
283.513	99.56
283.745	94.56
283.976	101.56
284.207	90.56
284.439	105.56
284.67	106.56
284.901	95.56
285.132	98.56
285.364	95.56
285.595	107.56
285.826	106.56
286.057	107.56
286.288	107.56
286.52	105.56
286.751	99.56
286.982	99.56
287.213	93.56
287.444	108.56
287.675	104.56
287.906	100.56
288.138	106.56
288.369	101.56
288.6	102.56
288.831	98.56
289.062	100.56
289.293	105.56
289.524	94.56
289.755	99.56
289.986	100.56
290.217	91.56
290.448	107.56
290.679	99.56
290.91	97.56
291.141	90.56
291.371	108.56
291.602	90.56
291.833	105.56
292.064	99.56
292.295	107.56
292.526	100.56
292.757	104.56
292.987	110.56
293.218	103.56
293.449	117.56
293.68	101.56
293.91	99.56
294.141	97.56
294.372	102.56
294.603	107.56
294.833	118.56
295.064	96.56
295.295	96.56
295.525	101.56
295.756	105.56
295.987	108.56
296.217	92.56
296.448	99.56
296.679	102.56
296.909	93.56
297.14	86.56
297.37	102.56
297.601	105.56
297.831	96.56
298.062	105.56
298.292	111.56
298.523	101.56
298.753	106.56
298.984	107.56
299.214	101.56
299.445	117.56
299.675	99.56
299.905	95.56
300.136	97.56
300.366	105.56
300.597	98.56
300.827	98.56
301.057	115.56
301.288	114.56
301.518	106.56
301.748	95.56
301.979	104.56
302.209	113.56
302.439	108.56
302.669	108.56
302.9	118.56
303.13	108.56
303.36	103.56
303.59	113.56
303.82	106.56
304.051	101.56
304.281	104.56
304.511	121.56
304.741	98.56
304.971	85.56
305.201	112.56
305.431	109.56
305.661	109.56
305.891	103.56
306.121	86.56
306.352	105.56
306.582	105.56
306.812	103.56
307.042	104.56
307.272	119.56
307.502	107.56
307.731	112.56
307.961	94.56
308.191	115.56
308.421	114.56
308.651	110.56
308.881	118.56
309.111	97.56
309.341	105.56
309.571	90.56
309.8	110.56
310.03	110.56
310.26	96.56
310.49	123.56
310.72	106.56
310.949	115.56
311.179	97.56
311.409	107.56
311.639	116.56
311.868	111.56
312.098	102.56
312.328	109.56
312.557	100.56
312.787	107.56
313.017	111.56
313.246	105.56
313.476	105.56
313.706	110.56
313.935	111.56
314.165	115.56
314.394	112.56
314.624	115.56
314.853	107.56
315.083	96.56
315.312	97.56
315.542	107.56
315.771	100.56
316.001	103.56
316.23	94.56
316.46	95.56
316.689	117.56
316.919	127.56
317.148	121.56
317.377	117.56
317.607	120.56
317.836	106.56
318.065	116.56
318.295	111.56
318.524	113.56
318.753	127.56
318.983	107.56
319.212	113.56
319.441	118.56
319.67	107.56
319.9	109.56
320.129	97.56
320.358	102.56
320.587	123.56
320.816	92.56
321.046	109.56
321.275	99.56
321.504	109.56
321.733	100.56
321.962	108.56
322.191	120.56
322.42	117.56
322.649	107.56
322.878	95.56
323.108	109.56
323.337	96.56
323.566	97.56
323.795	123.56
324.024	119.56
324.253	111.56
324.482	131.56
324.71	152.56
324.939	179.56
325.168	146.56
325.397	121.56
325.626	109.56
325.855	113.56
326.084	118.56
326.313	111.56
326.542	115.56
326.77	113.56
326.999	130.56
327.228	125.56
327.457	145.56
327.686	153.56
327.914	120.56
328.143	123.56
328.372	107.56
328.6	108.56
328.829	111.56
329.058	108.56
329.287	103.56
329.515	111.56
329.744	118.56
329.972	110.56
330.201	109.56
330.43	129.56
330.658	131.56
330.887	112.56
331.115	110.56
331.344	103.56
331.572	129.56
331.801	115.56
332.03	110.56
332.258	107.56
332.486	114.56
332.715	119.56
332.943	125.56
333.172	125.56
333.4	108.56
333.629	111.56
333.857	118.56
334.085	115.56
334.314	118.56
334.542	115.56
334.771	123.56
334.999	115.56
335.227	117.56
335.455	110.56
335.684	122.56
335.912	113.56
336.14	109.56
336.369	117.56
336.597	121.56
336.825	124.56
337.053	115.56
337.281	104.56
337.51	118.56
337.738	115.56
337.966	104.56
338.194	113.56
338.422	116.56
338.65	105.56
338.878	123.56
339.106	107.56
339.334	120.56
339.562	109.56
339.79	121.56
340.018	120.56
340.246	118.56
340.474	122.56
340.702	117.56
340.93	112.56
341.158	113.56
341.386	116.56
341.614	107.56
341.842	113.56
342.07	111.56
342.298	103.56
342.526	114.56
342.754	110.56
342.981	101.56
343.209	100.56
343.437	100.56
343.665	113.56
343.893	115.56
344.12	121.56
344.348	110.56
344.576	123.56
344.804	123.56
345.031	109.56
345.259	121.56
345.487	96.56
345.714	106.56
345.942	115.56
346.17	125.56
346.397	116.56
346.625	106.56
346.853	109.56
347.08	112.56
347.308	123.56
347.535	112.56
347.763	109.56
347.99	103.56
348.218	93.56
348.445	119.56
348.673	123.56
348.9	110.56
349.128	110.56
349.355	112.56
349.583	115.56
349.81	95.56
350.037	115.56
350.265	103.56
350.492	98.56
350.72	104.56
350.947	118.56
351.174	102.56
351.402	107.56
351.629	108.56
351.856	106.56
352.083	105.56
352.311	114.56
352.538	107.56
352.765	103.56
352.992	101.56
353.22	105.56
353.447	118.56
353.674	102.56
353.901	105.56
354.128	110.56
354.355	101.56
354.583	114.56
354.81	101.56
355.037	118.56
355.264	118.56
355.491	110.56
355.718	103.56
355.945	106.56
356.172	98.56
356.399	104.56
356.626	103.56
356.853	91.56
357.08	107.56
357.307	100.56
357.534	97.56
357.761	121.56
357.988	101.56
358.215	106.56
358.441	106.56
358.668	106.56
358.895	114.56
359.122	109.56
359.349	108.56
359.576	99.56
359.802	109.56
360.029	103.56
360.256	105.56
360.483	113.56
360.709	110.56
360.936	94.56
361.163	117.56
361.39	124.56
361.616	118.56
361.843	118.56
362.07	104.56
362.296	129.56
362.523	95.56
362.749	122.56
362.976	120.56
363.203	107.56
363.429	116.56
363.656	105.56
363.882	106.56
364.109	92.56
364.335	108.56
364.562	107.56
364.788	103.56
365.015	106.56
365.241	117.56
365.468	117.56
365.694	102.56
365.92	100.56
366.147	125.56
366.373	117.56
366.599	110.56
366.826	109.56
367.052	99.56
367.278	99.56
367.505	94.56
367.731	115.56
367.957	115.56
368.184	110.56
368.41	109.56
368.636	123.56
368.862	127.56
369.089	115.56
369.315	115.56
369.541	108.56
369.767	99.56
369.993	103.56
370.219	117.56
370.445	105.56
370.672	108.56
370.898	119.56
371.124	113.56
371.35	129.56
371.576	110.56
371.802	93.56
372.028	110.56
372.254	99.56
372.48	112.56
372.706	120.56
372.932	98.56
373.158	116.56
373.384	104.56
373.61	94.56
373.835	95.56
374.061	122.56
374.287	111.56
374.513	115.56
374.739	122.56
374.965	102.56
375.191	110.56
375.416	119.56
375.642	113.56
375.868	121.56
376.094	110.56
376.319	96.56
376.545	113.56
376.771	107.56
376.997	113.56
377.222	108.56
377.448	113.56
377.674	107.56
377.899	115.56
378.125	108.56
378.35	106.56
378.576	125.56
378.802	114.56
379.027	122.56
379.253	110.56
379.478	101.56
379.704	101.56
379.929	104.56
380.155	117.56
380.38	96.56
380.606	117.56
380.831	111.56
381.057	121.56
381.282	105.56
381.507	105.56
381.733	110.56
381.958	114.56
382.184	112.56
382.409	111.56
382.634	118.56
382.86	105.56
383.085	113.56
383.31	127.56
383.535	122.56
383.761	121.56
383.986	103.56
384.211	116.56
384.436	114.56
384.662	110.56
384.887	118.56
385.112	112.56
385.337	116.56
385.562	128.56
385.787	108.56
386.013	130.56
386.238	120.56
386.463	117.56
386.688	119.56
386.913	109.56
387.138	93.56
387.363	123.56
387.588	122.56
387.813	113.56
388.038	113.56
388.263	113.56
388.488	110.56
388.713	124.56
388.938	116.56
389.163	117.56
389.387	127.56
389.612	111.56
389.837	106.56
390.062	124.56
390.287	110.56
390.512	100.56
390.736	110.56
390.961	119.56
391.186	119.56
391.411	118.56
391.636	102.56
391.86	126.56
392.085	138.56
392.31	111.56
392.534	122.56
392.759	121.56
392.984	119.56
393.208	116.56
393.433	115.56
393.658	125.56
393.882	123.56
394.107	111.56
394.331	116.56
394.556	120.56
394.78	113.56
395.005	118.56
395.229	120.56
395.454	121.56
395.678	117.56
395.903	144.56
396.127	118.56
396.352	127.56
396.576	111.56
396.801	106.56
397.025	123.56
397.249	100.56
397.474	119.56
397.698	121.56
397.922	132.56
398.147	133.56
398.371	113.56
398.595	133.56
398.82	125.56
399.044	129.56
399.268	146.56
399.492	131.56
399.717	153.56
399.941	147.56
400.165	139.56
400.389	121.56
400.613	136.56
400.837	137.56
401.062	128.56
401.286	136.56
401.51	132.56
401.734	121.56
401.958	131.56
402.182	125.56
402.406	125.56
402.63	126.56
402.854	127.56
403.078	126.56
403.302	130.56
403.526	118.56
403.75	122.56
403.974	124.56
404.198	129.56
404.422	141.56
404.645	123.56
404.869	148.56
405.093	135.56
405.317	125.56
405.541	124.56
405.765	126.56
405.988	128.56
406.212	129.56
406.436	131.56
406.66	129.56
406.883	149.56
407.107	126.56
407.331	137.56
407.555	147.56
407.778	137.56
408.002	143.56
408.226	133.56
408.449	125.56
408.673	133.56
408.896	138.56
409.12	131.56
409.344	133.56
409.567	119.56
409.791	124.56
410.014	130.56
410.238	123.56
410.461	137.56
410.685	125.56
410.908	124.56
411.132	148.56
411.355	133.56
411.578	138.56
411.802	143.56
412.025	140.56
412.249	139.56
412.472	133.56
412.695	127.56
412.919	133.56
413.142	123.56
413.365	124.56
413.589	122.56
413.812	129.56
414.035	127.56
414.258	133.56
414.482	124.56
414.705	123.56
414.928	133.56
415.151	123.56
415.374	127.56
415.597	127.56
415.821	144.56
416.044	119.56
416.267	113.56
416.49	109.56
416.713	115.56
416.936	129.56
417.159	123.56
417.382	122.56
417.605	131.56
417.828	128.56
418.051	118.56
418.274	142.56
418.497	139.56
418.72	121.56
418.943	130.56
419.166	114.56
419.389	118.56
419.611	141.56
419.834	131.56
420.057	127.56
420.28	123.56
420.503	132.56
420.726	144.56
420.948	123.56
421.171	126.56
421.394	140.56
421.617	135.56
421.839	124.56
422.062	144.56
422.285	127.56
422.507	126.56
422.73	132.56
422.953	131.56
423.175	123.56
423.398	132.56
423.621	125.56
423.843	128.56
424.066	138.56
424.288	132.56
424.511	129.56
424.733	134.56
424.956	132.56
425.178	137.56
425.401	143.56
425.623	124.56
425.846	125.56
426.068	116.56
426.291	118.56
426.513	129.56
426.735	147.56
426.958	139.56
427.18	139.56
427.402	132.56
427.625	138.56
427.847	134.56
428.069	128.56
428.292	129.56
428.514	130.56
428.736	137.56
428.958	113.56
429.181	114.56
429.403	123.56
429.625	129.56
429.847	125.56
430.069	124.56
430.292	129.56
430.514	138.56
430.736	116.56
430.958	124.56
431.18	124.56
431.402	119.56
431.624	111.56
431.846	113.56
432.068	127.56
432.29	120.56
432.512	120.56
432.734	105.56
432.956	133.56
433.178	122.56
433.4	131.56
433.622	135.56
433.844	128.56
434.066	117.56
434.287	119.56
434.509	116.56
434.731	127.56
434.953	122.56
435.175	112.56
435.397	133.56
435.618	131.56
435.84	141.56
436.062	130.56
436.284	143.56
436.505	122.56
436.727	116.56
436.949	125.56
437.17	116.56
437.392	117.56
437.614	124.56
437.835	118.56
438.057	123.56
438.278	145.56
438.5	128.56
438.721	135.56
438.943	119.56
439.165	106.56
439.386	115.56
439.608	129.56
439.829	129.56
440.05	128.56
440.272	122.56
440.493	116.56
440.715	115.56
440.936	125.56
441.158	125.56
441.379	126.56
441.6	126.56
441.822	122.56
442.043	127.56
442.264	142.56
442.486	143.56
442.707	125.56
442.928	113.56
443.149	129.56
443.371	120.56
443.592	140.56
443.813	145.56
444.034	137.56
444.255	143.56
444.476	128.56
444.698	134.56
444.919	141.56
445.14	248.56
445.361	200.56
445.582	142.56
445.803	125.56
446.024	136.56
446.245	133.56
446.466	132.56
446.687	123.56
446.908	131.56
447.129	119.56
447.35	125.56
447.571	124.56
447.792	117.56
448.013	111.56
448.234	107.56
448.455	125.56
448.675	117.56
448.896	127.56
449.117	131.56
449.338	111.56
449.559	133.56
449.779	151.56
450	123.56
450.221	117.56
450.442	127.56
450.662	118.56
450.883	118.56
451.104	117.56
451.324	125.56
451.545	119.56
451.766	109.56
451.986	123.56
452.207	131.56
452.428	114.56
452.648	129.56
452.869	125.56
453.089	117.56
453.31	105.56
453.53	133.56
453.751	124.56
453.971	121.56
454.192	127.56
454.412	116.56
454.633	109.56
454.853	108.56
455.073	107.56
455.294	106.56
455.514	110.56
455.734	115.56
455.955	106.56
456.175	111.56
456.395	112.56
456.616	113.56
456.836	110.56
457.056	111.56
457.276	113.56
457.497	118.56
457.717	113.56
457.937	121.56
458.157	117.56
458.377	122.56
458.598	117.56
458.818	111.56
459.038	119.56
459.258	121.56
459.478	118.56
459.698	123.56
459.918	128.56
460.138	119.56
460.358	135.56
460.578	128.56
460.798	140.56
461.018	147.56
461.238	137.56
461.458	124.56
461.678	119.56
461.898	111.56
462.118	129.56
462.338	137.56
462.558	133.56
462.777	118.56
462.997	147.56
463.217	129.56
463.437	129.56
463.657	124.56
463.876	127.56
464.096	138.56
464.316	140.56
464.536	129.56
464.755	126.56
464.975	123.56
465.195	134.56
465.414	130.56
465.634	130.56
465.854	117.56
466.073	117.56
466.293	134.56
466.512	127.56
466.732	121.56
466.951	122.56
467.171	106.56
467.391	106.56
467.61	115.56
467.829	111.56
468.049	123.56
468.268	126.56
468.488	129.56
468.707	130.56
468.927	126.56
469.146	131.56
469.365	113.56
469.585	123.56
469.804	123.56
470.023	118.56
470.243	119.56
470.462	133.56
470.681	129.56
470.901	126.56
471.12	121.56
471.339	130.56
471.558	142.56
471.777	124.56
471.997	106.56
472.216	117.56
472.435	127.56
472.654	117.56
472.873	135.56
473.092	125.56
473.311	117.56
473.53	113.56
473.749	114.56
473.968	117.56
474.187	117.56
474.406	120.56
474.625	129.56
474.844	127.56
475.063	109.56
475.282	121.56
475.501	129.56
475.72	128.56
475.939	111.56
476.158	106.56
476.377	118.56
476.596	123.56
476.814	119.56
477.033	119.56
477.252	131.56
477.471	121.56
477.69	135.56
477.908	132.56
478.127	129.56
478.346	123.56
478.564	126.56
478.783	133.56
479.002	120.56
479.22	131.56
479.439	137.56
479.658	130.56
479.876	127.56
480.095	124.56
480.313	146.56
480.532	135.56
480.751	143.56
480.969	145.56
481.188	126.56
481.406	140.56
481.624	129.56
481.843	117.56
482.061	115.56
482.28	120.56
482.498	119.56
482.717	135.56
482.935	126.56
483.153	146.56
483.372	135.56
483.59	133.56
483.808	139.56
484.027	129.56
484.245	124.56
484.463	124.56
484.681	131.56
484.9	113.56
485.118	132.56
485.336	141.56
485.554	131.56
485.772	119.56
485.99	126.56
486.209	132.56
486.427	118.56
486.645	126.56
486.863	136.56
487.081	122.56
487.299	124.56
487.517	122.56
487.735	132.56
487.953	131.56
488.171	135.56
488.389	139.56
488.607	129.56
488.825	132.56
489.043	120.56
489.261	143.56
489.479	133.56
489.696	121.56
489.914	135.56
490.132	122.56
490.35	130.56
490.568	134.56
490.786	137.56
491.003	139.56
491.221	134.56
491.439	141.56
491.657	136.56
491.874	132.56
492.092	123.56
492.31	151.56
492.527	143.56
492.745	135.56
492.963	140.56
493.18	141.56
493.398	145.56
493.615	144.56
493.833	132.56
494.05	143.56
494.268	138.56
494.485	141.56
494.703	134.56
494.92	149.56
495.138	142.56
495.355	146.56
495.573	131.56
495.79	126.56
496.008	142.56
496.225	140.56
496.442	146.56
496.66	151.56
496.877	144.56
497.094	163.56
497.312	130.56
497.529	143.56
497.746	137.56
497.963	142.56
498.181	153.56
498.398	136.56
498.615	149.56
498.832	155.56
499.049	175.56
499.267	165.56
499.484	165.56
499.701	175.56
499.918	191.56
500.135	195.56
500.352	188.56
500.569	198.56
500.786	211.56
501.003	212.56
501.22	207.56
501.437	199.56
501.654	194.56
501.871	174.56
502.088	181.56
502.305	172.56
502.522	152.56
502.739	147.56
502.956	144.56
503.172	155.56
503.389	143.56
503.606	131.56
503.823	149.56
504.04	151.56
504.256	147.56
504.473	130.56
504.69	152.56
504.907	148.56
505.123	149.56
505.34	133.56
505.557	130.56
505.773	133.56
