Data from 1968.PennyLincolnUp.Lamp.En5.5.200Scan.071719.P1._HRD10591_14-51-16-969.txt Node
Date: Thu Jul 18 14:51:16 EDT 2019
User: cochatt
Spectrometer: HR+D1059
Trigger mode: 1
Integration Time (sec): 1.000000E-1
Scans to average: 1
Electric dark correction enabled: true
Nonlinearity correction enabled: false
Boxcar width: 0
XAxis mode: Wavelengths
Number of Pixels in Spectrum: 2048
>>>>>Begin Spectral Data<<<<<
223.165	-17.5
223.4	-17.5
223.635	-17.5
223.869	-28.5
224.104	-26.5
224.338	-8.5
224.573	-8.5
224.808	-18.5
225.042	-15.5
225.277	1.5
225.511	3.5
225.746	-10.5
225.98	-7.5
226.215	23.5
226.449	16.5
226.683	21.5
226.918	36.5
227.152	38.5
227.387	28.5
227.621	46.5
227.856	48.5
228.09	33.5
228.324	40.5
228.559	60.5
228.793	62.5
229.027	62.5
229.262	78.5
229.496	64.5
229.73	86.5
229.964	83.5
230.199	59.5
230.433	70.5
230.667	80.5
230.901	90.5
231.136	92.5
231.37	88.5
231.604	68.5
231.838	81.5
232.072	78.5
232.306	90.5
232.541	81.5
232.775	88.5
233.009	90.5
233.243	86.5
233.477	83.5
233.711	89.5
233.945	92.5
234.179	87.5
234.413	83.5
234.647	89.5
234.881	90.5
235.115	89.5
235.349	81.5
235.583	92.5
235.817	81.5
236.051	84.5
236.285	84.5
236.519	70.5
236.753	77.5
236.987	93.5
237.221	83.5
237.455	79.5
237.689	85.5
237.922	83.5
238.156	73.5
238.39	79.5
238.624	78.5
238.858	81.5
239.091	84.5
239.325	68.5
239.559	78.5
239.793	87.5
240.027	81.5
240.26	90.5
240.494	92.5
240.728	87.5
240.961	81.5
241.195	76.5
241.429	81.5
241.662	80.5
241.896	74.5
242.13	89.5
242.363	88.5
242.597	79.5
242.83	85.5
243.064	85.5
243.298	85.5
243.531	75.5
243.765	82.5
243.998	65.5
244.232	93.5
244.465	88.5
244.699	84.5
244.932	75.5
245.166	87.5
245.399	92.5
245.633	80.5
245.866	91.5
246.099	78.5
246.333	80.5
246.566	93.5
246.8	90.5
247.033	75.5
247.266	90.5
247.5	82.5
247.733	80.5
247.966	99.5
248.2	86.5
248.433	92.5
248.666	90.5
248.899	91.5
249.133	90.5
249.366	90.5
249.599	76.5
249.832	94.5
250.066	85.5
250.299	95.5
250.532	89.5
250.765	92.5
250.998	115.5
251.231	99.5
251.465	87.5
251.698	94.5
251.931	79.5
252.164	85.5
252.397	86.5
252.63	90.5
252.863	82.5
253.096	76.5
253.329	101.5
253.562	101.5
253.795	102.5
254.028	92.5
254.261	99.5
254.494	96.5
254.727	111.5
254.96	91.5
255.193	94.5
255.426	97.5
255.659	90.5
255.892	101.5
256.124	83.5
256.357	98.5
256.59	98.5
256.823	93.5
257.056	101.5
257.289	87.5
257.521	98.5
257.754	92.5
257.987	93.5
258.22	92.5
258.452	104.5
258.685	94.5
258.918	89.5
259.151	103.5
259.383	88.5
259.616	88.5
259.849	80.5
260.081	99.5
260.314	101.5
260.547	88.5
260.779	85.5
261.012	83.5
261.244	99.5
261.477	85.5
261.71	99.5
261.942	91.5
262.175	85.5
262.407	100.5
262.64	91.5
262.872	87.5
263.105	92.5
263.337	98.5
263.57	90.5
263.802	107.5
264.035	92.5
264.267	82.5
264.499	90.5
264.732	98.5
264.964	98.5
265.197	86.5
265.429	90.5
265.661	96.5
265.894	103.5
266.126	87.5
266.358	101.5
266.591	88.5
266.823	94.5
267.055	86.5
267.287	101.5
267.52	89.5
267.752	104.5
267.984	104.5
268.216	85.5
268.448	102.5
268.681	92.5
268.913	99.5
269.145	90.5
269.377	91.5
269.609	80.5
269.841	94.5
270.073	104.5
270.306	87.5
270.538	97.5
270.77	95.5
271.002	91.5
271.234	105.5
271.466	107.5
271.698	84.5
271.93	103.5
272.162	97.5
272.394	108.5
272.626	101.5
272.858	90.5
273.09	106.5
273.322	107.5
273.553	102.5
273.785	97.5
274.017	82.5
274.249	93.5
274.481	96.5
274.713	102.5
274.945	104.5
275.176	98.5
275.408	106.5
275.64	99.5
275.872	106.5
276.104	83.5
276.335	93.5
276.567	99.5
276.799	105.5
277.031	87.5
277.262	92.5
277.494	100.5
277.726	94.5
277.957	93.5
278.189	95.5
278.421	92.5
278.652	96.5
278.884	102.5
279.115	94.5
279.347	103.5
279.579	94.5
279.81	109.5
280.042	108.5
280.273	99.5
280.505	92.5
280.736	90.5
280.968	101.5
281.199	98.5
281.431	101.5
281.662	106.5
281.894	93.5
282.125	95.5
282.356	112.5
282.588	102.5
282.819	101.5
283.051	108.5
283.282	106.5
283.513	94.5
283.745	116.5
283.976	104.5
284.207	109.5
284.439	114.5
284.67	91.5
284.901	93.5
285.132	102.5
285.364	92.5
285.595	114.5
285.826	109.5
286.057	110.5
286.288	101.5
286.52	99.5
286.751	100.5
286.982	93.5
287.213	95.5
287.444	73.5
287.675	108.5
287.906	109.5
288.138	114.5
288.369	109.5
288.6	108.5
288.831	105.5
289.062	106.5
289.293	102.5
289.524	102.5
289.755	116.5
289.986	95.5
290.217	101.5
290.448	80.5
290.679	110.5
290.91	109.5
291.141	108.5
291.371	101.5
291.602	111.5
291.833	95.5
292.064	95.5
292.295	107.5
292.526	104.5
292.757	107.5
292.987	102.5
293.218	100.5
293.449	99.5
293.68	110.5
293.91	95.5
294.141	111.5
294.372	101.5
294.603	116.5
294.833	117.5
295.064	105.5
295.295	109.5
295.525	119.5
295.756	102.5
295.987	103.5
296.217	111.5
296.448	91.5
296.679	94.5
296.909	105.5
297.14	100.5
297.37	106.5
297.601	120.5
297.831	114.5
298.062	102.5
298.292	103.5
298.523	116.5
298.753	107.5
298.984	103.5
299.214	105.5
299.445	109.5
299.675	106.5
299.905	102.5
300.136	103.5
300.366	97.5
300.597	112.5
300.827	108.5
301.057	106.5
301.288	93.5
301.518	100.5
301.748	106.5
301.979	108.5
302.209	100.5
302.439	108.5
302.669	97.5
302.9	97.5
303.13	107.5
303.36	99.5
303.59	108.5
303.82	113.5
304.051	105.5
304.281	121.5
304.511	109.5
304.741	98.5
304.971	102.5
305.201	125.5
305.431	103.5
305.661	113.5
305.891	121.5
306.121	98.5
306.352	117.5
306.582	95.5
306.812	98.5
307.042	106.5
307.272	115.5
307.502	92.5
307.731	111.5
307.961	122.5
308.191	101.5
308.421	114.5
308.651	121.5
308.881	113.5
309.111	101.5
309.341	101.5
309.571	112.5
309.8	96.5
310.03	113.5
310.26	113.5
310.49	98.5
310.72	102.5
310.949	106.5
311.179	103.5
311.409	109.5
311.639	114.5
311.868	111.5
312.098	108.5
312.328	113.5
312.557	102.5
312.787	107.5
313.017	113.5
313.246	102.5
313.476	113.5
313.706	103.5
313.935	100.5
314.165	98.5
314.394	116.5
314.624	108.5
314.853	124.5
315.083	106.5
315.312	108.5
315.542	109.5
315.771	119.5
316.001	106.5
316.23	103.5
316.46	100.5
316.689	107.5
316.919	106.5
317.148	104.5
317.377	106.5
317.607	105.5
317.836	101.5
318.065	95.5
318.295	102.5
318.524	108.5
318.753	117.5
318.983	117.5
319.212	102.5
319.441	111.5
319.67	89.5
319.9	91.5
320.129	105.5
320.358	102.5
320.587	113.5
320.816	109.5
321.046	106.5
321.275	114.5
321.504	106.5
321.733	102.5
321.962	99.5
322.191	105.5
322.42	121.5
322.649	105.5
322.878	120.5
323.108	125.5
323.337	106.5
323.566	110.5
323.795	125.5
324.024	116.5
324.253	124.5
324.482	147.5
324.71	161.5
324.939	191.5
325.168	172.5
325.397	139.5
325.626	118.5
325.855	111.5
326.084	112.5
326.313	119.5
326.542	123.5
326.77	126.5
326.999	124.5
327.228	134.5
327.457	157.5
327.686	165.5
327.914	141.5
328.143	117.5
328.372	110.5
328.6	115.5
328.829	118.5
329.058	109.5
329.287	117.5
329.515	98.5
329.744	122.5
329.972	119.5
330.201	111.5
330.43	119.5
330.658	122.5
330.887	121.5
331.115	122.5
331.344	116.5
331.572	129.5
331.801	124.5
332.03	116.5
332.258	129.5
332.486	104.5
332.715	104.5
332.943	115.5
333.172	123.5
333.4	122.5
333.629	115.5
333.857	134.5
334.085	123.5
334.314	116.5
334.542	133.5
334.771	130.5
334.999	119.5
335.227	130.5
335.455	112.5
335.684	117.5
335.912	119.5
336.14	101.5
336.369	125.5
336.597	127.5
336.825	114.5
337.053	98.5
337.281	115.5
337.51	113.5
337.738	109.5
337.966	107.5
338.194	100.5
338.422	121.5
338.65	123.5
338.878	116.5
339.106	110.5
339.334	106.5
339.562	109.5
339.79	106.5
340.018	140.5
340.246	110.5
340.474	115.5
340.702	110.5
340.93	113.5
341.158	103.5
341.386	115.5
341.614	117.5
341.842	100.5
342.07	115.5
342.298	115.5
342.526	116.5
342.754	123.5
342.981	126.5
343.209	121.5
343.437	114.5
343.665	126.5
343.893	127.5
344.12	131.5
344.348	113.5
344.576	99.5
344.804	109.5
345.031	122.5
345.259	107.5
345.487	131.5
345.714	111.5
345.942	117.5
346.17	95.5
346.397	109.5
346.625	108.5
346.853	114.5
347.08	104.5
347.308	114.5
347.535	105.5
347.763	115.5
347.99	103.5
348.218	109.5
348.445	114.5
348.673	100.5
348.9	106.5
349.128	120.5
349.355	109.5
349.583	117.5
349.81	109.5
350.037	111.5
350.265	106.5
350.492	109.5
350.72	99.5
350.947	108.5
351.174	112.5
351.402	126.5
351.629	122.5
351.856	107.5
352.083	102.5
352.311	121.5
352.538	99.5
352.765	115.5
352.992	101.5
353.22	96.5
353.447	98.5
353.674	107.5
353.901	129.5
354.128	130.5
354.355	130.5
354.583	117.5
354.81	103.5
355.037	108.5
355.264	122.5
355.491	126.5
355.718	103.5
355.945	110.5
356.172	106.5
356.399	105.5
356.626	111.5
356.853	106.5
357.08	119.5
357.307	119.5
357.534	109.5
357.761	109.5
357.988	123.5
358.215	116.5
358.441	117.5
358.668	113.5
358.895	113.5
359.122	123.5
359.349	114.5
359.576	101.5
359.802	115.5
360.029	97.5
360.256	113.5
360.483	116.5
360.709	123.5
360.936	123.5
361.163	118.5
361.39	108.5
361.616	115.5
361.843	124.5
362.07	107.5
362.296	109.5
362.523	101.5
362.749	107.5
362.976	102.5
363.203	113.5
363.429	121.5
363.656	118.5
363.882	111.5
364.109	109.5
364.335	107.5
364.562	115.5
364.788	124.5
365.015	113.5
365.241	118.5
365.468	118.5
365.694	121.5
365.92	115.5
366.147	110.5
366.373	97.5
366.599	109.5
366.826	114.5
367.052	105.5
367.278	109.5
367.505	95.5
367.731	117.5
367.957	125.5
368.184	100.5
368.41	121.5
368.636	105.5
368.862	110.5
369.089	113.5
369.315	118.5
369.541	110.5
369.767	117.5
369.993	121.5
370.219	101.5
370.445	115.5
370.672	105.5
370.898	108.5
371.124	128.5
371.35	108.5
371.576	110.5
371.802	111.5
372.028	129.5
372.254	109.5
372.48	127.5
372.706	103.5
372.932	111.5
373.158	119.5
373.384	115.5
373.61	109.5
373.835	123.5
374.061	103.5
374.287	110.5
374.513	132.5
374.739	106.5
374.965	106.5
375.191	117.5
375.416	117.5
375.642	118.5
375.868	118.5
376.094	114.5
376.319	115.5
376.545	104.5
376.771	107.5
376.997	106.5
377.222	120.5
377.448	101.5
377.674	113.5
377.899	99.5
378.125	100.5
378.35	110.5
378.576	121.5
378.802	117.5
379.027	119.5
379.253	109.5
379.478	91.5
379.704	112.5
379.929	110.5
380.155	123.5
380.38	115.5
380.606	109.5
380.831	111.5
381.057	122.5
381.282	114.5
381.507	115.5
381.733	104.5
381.958	110.5
382.184	106.5
382.409	115.5
382.634	120.5
382.86	103.5
383.085	119.5
383.31	110.5
383.535	97.5
383.761	111.5
383.986	121.5
384.211	117.5
384.436	118.5
384.662	117.5
384.887	121.5
385.112	126.5
385.337	125.5
385.562	107.5
385.787	129.5
386.013	115.5
386.238	122.5
386.463	114.5
386.688	113.5
386.913	118.5
387.138	120.5
387.363	109.5
387.588	129.5
387.813	114.5
388.038	112.5
388.263	116.5
388.488	117.5
388.713	113.5
388.938	132.5
389.163	133.5
389.387	106.5
389.612	113.5
389.837	135.5
390.062	124.5
390.287	129.5
390.512	120.5
390.736	125.5
390.961	122.5
391.186	127.5
391.411	120.5
391.636	130.5
391.86	113.5
392.085	132.5
392.31	128.5
392.534	118.5
392.759	125.5
392.984	125.5
393.208	108.5
393.433	100.5
393.658	113.5
393.882	110.5
394.107	117.5
394.331	130.5
394.556	108.5
394.78	116.5
395.005	123.5
395.229	133.5
395.454	114.5
395.678	120.5
395.903	122.5
396.127	135.5
396.352	113.5
396.576	129.5
396.801	117.5
397.025	113.5
397.249	115.5
397.474	135.5
397.698	122.5
397.922	116.5
398.147	119.5
398.371	122.5
398.595	116.5
398.82	132.5
399.044	116.5
399.268	133.5
399.492	126.5
399.717	152.5
399.941	142.5
400.165	149.5
400.389	135.5
400.613	138.5
400.837	119.5
401.062	124.5
401.286	130.5
401.51	131.5
401.734	130.5
401.958	121.5
402.182	125.5
402.406	129.5
402.63	126.5
402.854	127.5
403.078	128.5
403.302	138.5
403.526	125.5
403.75	122.5
403.974	149.5
404.198	143.5
404.422	108.5
404.645	125.5
404.869	145.5
405.093	133.5
405.317	157.5
405.541	147.5
405.765	137.5
405.988	133.5
406.212	126.5
406.436	124.5
406.66	129.5
406.883	124.5
407.107	137.5
407.331	137.5
407.555	147.5
407.778	162.5
408.002	145.5
408.226	149.5
408.449	132.5
408.673	139.5
408.896	132.5
409.12	146.5
409.344	131.5
409.567	137.5
409.791	137.5
410.014	130.5
410.238	121.5
410.461	147.5
410.685	134.5
410.908	143.5
411.132	124.5
411.355	125.5
411.578	138.5
411.802	126.5
412.025	123.5
412.249	129.5
412.472	129.5
412.695	146.5
412.919	136.5
413.142	122.5
413.365	133.5
413.589	122.5
413.812	126.5
414.035	122.5
414.258	134.5
414.482	123.5
414.705	135.5
414.928	143.5
415.151	131.5
415.374	134.5
415.597	143.5
415.821	143.5
416.044	135.5
416.267	122.5
416.49	134.5
416.713	120.5
416.936	119.5
417.159	124.5
417.382	145.5
417.605	116.5
417.828	119.5
418.051	132.5
418.274	133.5
418.497	123.5
418.72	125.5
418.943	125.5
419.166	124.5
419.389	135.5
419.611	137.5
419.834	133.5
420.057	135.5
420.28	136.5
420.503	119.5
420.726	137.5
420.948	123.5
421.171	138.5
421.394	140.5
421.617	131.5
421.839	144.5
422.062	151.5
422.285	127.5
422.507	149.5
422.73	147.5
422.953	156.5
423.175	123.5
423.398	125.5
423.621	134.5
423.843	143.5
424.066	122.5
424.288	124.5
424.511	133.5
424.733	126.5
424.956	139.5
425.178	139.5
425.401	133.5
425.623	136.5
425.846	134.5
426.068	132.5
426.291	119.5
426.513	131.5
426.735	127.5
426.958	127.5
427.18	130.5
427.402	153.5
427.625	137.5
427.847	136.5
428.069	134.5
428.292	127.5
428.514	127.5
428.736	111.5
428.958	137.5
429.181	141.5
429.403	112.5
429.625	113.5
429.847	125.5
430.069	131.5
430.292	125.5
430.514	116.5
430.736	119.5
430.958	139.5
431.18	110.5
431.402	125.5
431.624	124.5
431.846	128.5
432.068	147.5
432.29	139.5
432.512	126.5
432.734	132.5
432.956	123.5
433.178	123.5
433.4	132.5
433.622	132.5
433.844	138.5
434.066	130.5
434.287	117.5
434.509	119.5
434.731	128.5
434.953	118.5
435.175	126.5
435.397	136.5
435.618	138.5
435.84	135.5
436.062	140.5
436.284	145.5
436.505	118.5
436.727	131.5
436.949	143.5
437.17	120.5
437.392	114.5
437.614	117.5
437.835	126.5
438.057	132.5
438.278	132.5
438.5	138.5
438.721	157.5
438.943	149.5
439.165	141.5
439.386	123.5
439.608	126.5
439.829	140.5
440.05	121.5
440.272	135.5
440.493	131.5
440.715	140.5
440.936	124.5
441.158	137.5
441.379	123.5
441.6	128.5
441.822	140.5
442.043	121.5
442.264	141.5
442.486	134.5
442.707	135.5
442.928	143.5
443.149	139.5
443.371	138.5
443.592	141.5
443.813	135.5
444.034	136.5
444.255	132.5
444.476	118.5
444.698	148.5
444.919	125.5
445.14	227.5
445.361	193.5
445.582	144.5
445.803	131.5
446.024	131.5
446.245	143.5
446.466	142.5
446.687	135.5
446.908	122.5
447.129	147.5
447.35	139.5
447.571	125.5
447.792	139.5
448.013	124.5
448.234	128.5
448.455	125.5
448.675	143.5
448.896	137.5
449.117	140.5
449.338	139.5
449.559	134.5
449.779	139.5
450	124.5
450.221	107.5
450.442	133.5
450.662	118.5
450.883	139.5
451.104	125.5
451.324	129.5
451.545	131.5
451.766	116.5
451.986	121.5
452.207	124.5
452.428	123.5
452.648	113.5
452.869	109.5
453.089	127.5
453.31	113.5
453.53	113.5
453.751	113.5
453.971	132.5
454.192	122.5
454.412	129.5
454.633	130.5
454.853	121.5
455.073	111.5
455.294	122.5
455.514	127.5
455.734	106.5
455.955	113.5
456.175	107.5
456.395	118.5
456.616	115.5
456.836	120.5
457.056	117.5
457.276	97.5
457.497	112.5
457.717	117.5
457.937	118.5
458.157	116.5
458.377	107.5
458.598	121.5
458.818	129.5
459.038	137.5
459.258	129.5
459.478	129.5
459.698	133.5
459.918	121.5
460.138	125.5
460.358	116.5
460.578	130.5
460.798	119.5
461.018	125.5
461.238	128.5
461.458	134.5
461.678	133.5
461.898	137.5
462.118	127.5
462.338	136.5
462.558	126.5
462.777	133.5
462.997	135.5
463.217	141.5
463.437	138.5
463.657	125.5
463.876	126.5
464.096	130.5
464.316	133.5
464.536	128.5
464.755	140.5
464.975	147.5
465.195	141.5
465.414	121.5
465.634	122.5
465.854	121.5
466.073	122.5
466.293	120.5
466.512	121.5
466.732	121.5
466.951	117.5
467.171	116.5
467.391	118.5
467.61	131.5
467.829	125.5
468.049	110.5
468.268	148.5
468.488	121.5
468.707	123.5
468.927	122.5
469.146	104.5
469.365	120.5
469.585	120.5
469.804	120.5
470.023	119.5
470.243	119.5
470.462	132.5
470.681	117.5
470.901	119.5
471.12	122.5
471.339	123.5
471.558	113.5
471.777	132.5
471.997	118.5
472.216	125.5
472.435	121.5
472.654	110.5
472.873	129.5
473.092	129.5
473.311	128.5
473.53	134.5
473.749	120.5
473.968	117.5
474.187	127.5
474.406	133.5
474.625	134.5
474.844	124.5
475.063	125.5
475.282	120.5
475.501	121.5
475.72	126.5
475.939	119.5
476.158	125.5
476.377	120.5
476.596	127.5
476.814	114.5
477.033	116.5
477.252	125.5
477.471	138.5
477.69	136.5
477.908	126.5
478.127	126.5
478.346	122.5
478.564	135.5
478.783	127.5
479.002	108.5
479.22	125.5
479.439	141.5
479.658	142.5
479.876	143.5
480.095	141.5
480.313	131.5
480.532	144.5
480.751	139.5
480.969	125.5
481.188	115.5
481.406	121.5
481.624	137.5
481.843	121.5
482.061	137.5
482.28	139.5
482.498	127.5
482.717	131.5
482.935	133.5
483.153	135.5
483.372	137.5
483.59	124.5
483.808	130.5
484.027	114.5
484.245	136.5
484.463	133.5
484.681	137.5
484.9	140.5
485.118	127.5
485.336	124.5
485.554	133.5
485.772	129.5
485.99	127.5
486.209	139.5
486.427	140.5
486.645	128.5
486.863	132.5
487.081	142.5
487.299	117.5
487.517	121.5
487.735	122.5
487.953	129.5
488.171	134.5
488.389	145.5
488.607	135.5
488.825	125.5
489.043	139.5
489.261	130.5
489.479	129.5
489.696	123.5
489.914	129.5
490.132	144.5
490.35	137.5
490.568	121.5
490.786	154.5
491.003	141.5
491.221	153.5
491.439	126.5
491.657	146.5
491.874	158.5
492.092	136.5
492.31	147.5
492.527	156.5
492.745	151.5
492.963	154.5
493.18	157.5
493.398	157.5
493.615	142.5
493.833	153.5
494.05	153.5
494.268	157.5
494.485	138.5
494.703	147.5
494.92	147.5
495.138	154.5
495.355	156.5
495.573	143.5
495.79	149.5
496.008	139.5
496.225	155.5
496.442	155.5
496.66	157.5
496.877	137.5
497.094	155.5
497.312	157.5
497.529	158.5
497.746	161.5
497.963	145.5
498.181	163.5
498.398	152.5
498.615	163.5
498.832	150.5
499.049	183.5
499.267	179.5
499.484	174.5
499.701	185.5
499.918	210.5
500.135	193.5
500.352	205.5
500.569	206.5
500.786	209.5
501.003	195.5
501.22	206.5
501.437	203.5
501.654	168.5
501.871	181.5
502.088	181.5
502.305	173.5
502.522	155.5
502.739	151.5
502.956	161.5
503.172	149.5
503.389	159.5
503.606	147.5
503.823	152.5
504.04	138.5
504.256	155.5
504.473	139.5
504.69	143.5
504.907	133.5
505.123	144.5
505.34	149.5
505.557	149.5
505.773	156.5
505.99	138.5
506.207	135.5
506.423	135.5
506.64	134.5
506.856	147.5
507.073	134.5
507.289	129.5
507.506	131.5
507.722	134.5
507.939	133.5
508.155	133.5
508.372	141.5
508.588	122.5
508.805	133.5
509.021	132.5
509.238	135.5
509.454	133.5
509.67	145.5
509.887	129.5
510.103	124.5
510.319	147.5
510.536	137.5
510.752	169.5
510.968	155.5
511.184	127.5
511.401	130.5
511.617	122.5
511.833	123.5
512.049	128.5
512.265	125.5
512.481	127.5
512.698	118.5
512.914	150.5
513.13	129.5
513.346	141.5
513.562	113.5
513.778	109.5
513.994	120.5
514.21	134.5
514.426	134.5
514.642	130.5
514.858	113.5
515.074	135.5
515.29	156.5
515.506	151.5
515.721	146.5
515.937	151.5
516.153	125.5
516.369	135.5
516.585	145.5
516.801	143.5
517.016	145.5
517.232	139.5
517.448	137.5
517.664	163.5
517.879	131.5
518.095	133.5
518.311	127.5
518.527	139.5
518.742	133.5
518.958	129.5
519.173	126.5
519.389	137.5
519.605	119.5
519.82	140.5
520.036	136.5
520.251	137.5
520.467	144.5
520.682	133.5
520.898	131.5
521.113	135.5
521.329	141.5
521.544	151.5
521.76	152.5
521.975	185.5
522.19	191.5
522.406	159.5
522.621	128.5
522.836	129.5
523.052	117.5
523.267	127.5
