Data from 1968.PennyLincolnUp.Lamp.En5.5.200Scan.071719.P1._HRD10591_14-52-00-970.txt Node
Date: Thu Jul 18 14:52:00 EDT 2019
User: cochatt
Spectrometer: HR+D1059
Trigger mode: 1
Integration Time (sec): 1.000000E-1
Scans to average: 1
Electric dark correction enabled: true
Nonlinearity correction enabled: false
Boxcar width: 0
XAxis mode: Wavelengths
Number of Pixels in Spectrum: 2048
>>>>>Begin Spectral Data<<<<<
223.165	-15.25
223.4	-15.25
223.635	-15.25
223.869	-20.25
224.104	-16.25
224.338	-21.25
224.573	-19.25
224.808	-16.25
225.042	4.75
225.277	-11.25
225.511	4.75
225.746	6.75
225.98	0.75
226.215	10.75
226.449	7.75
226.683	15.75
226.918	38.75
227.152	29.75
227.387	37.75
227.621	29.75
227.856	41.75
228.09	45.75
228.324	37.75
228.559	44.75
228.793	44.75
229.027	70.75
229.262	60.75
229.496	69.75
229.73	70.75
229.964	80.75
230.199	83.75
230.433	86.75
230.667	87.75
230.901	83.75
231.136	83.75
231.37	83.75
231.604	92.75
231.838	89.75
232.072	86.75
232.306	75.75
232.541	90.75
232.775	76.75
233.009	91.75
233.243	84.75
233.477	93.75
233.711	89.75
233.945	82.75
234.179	75.75
234.413	92.75
234.647	83.75
234.881	77.75
235.115	96.75
235.349	66.75
235.583	80.75
235.817	88.75
236.051	88.75
236.285	70.75
236.519	75.75
236.753	64.75
236.987	67.75
237.221	80.75
237.455	80.75
237.689	87.75
237.922	71.75
238.156	74.75
238.39	82.75
238.624	80.75
238.858	88.75
239.091	90.75
239.325	80.75
239.559	73.75
239.793	100.75
240.027	100.75
240.26	80.75
240.494	94.75
240.728	77.75
240.961	75.75
241.195	88.75
241.429	90.75
241.662	86.75
241.896	86.75
242.13	76.75
242.363	74.75
242.597	60.75
242.83	77.75
243.064	82.75
243.298	92.75
243.531	68.75
243.765	75.75
243.998	81.75
244.232	95.75
244.465	103.75
244.699	95.75
244.932	80.75
245.166	90.75
245.399	72.75
245.633	87.75
245.866	76.75
246.099	76.75
246.333	74.75
246.566	80.75
246.8	95.75
247.033	84.75
247.266	84.75
247.5	100.75
247.733	86.75
247.966	82.75
248.2	81.75
248.433	90.75
248.666	86.75
248.899	93.75
249.133	90.75
249.366	97.75
249.599	87.75
249.832	87.75
250.066	92.75
250.299	88.75
250.532	90.75
250.765	83.75
250.998	83.75
251.231	80.75
251.465	99.75
251.698	86.75
251.931	85.75
252.164	91.75
252.397	95.75
252.63	85.75
252.863	74.75
253.096	77.75
253.329	104.75
253.562	94.75
253.795	85.75
254.028	83.75
254.261	77.75
254.494	93.75
254.727	87.75
254.96	104.75
255.193	96.75
255.426	92.75
255.659	91.75
255.892	92.75
256.124	102.75
256.357	86.75
256.59	83.75
256.823	89.75
257.056	91.75
257.289	80.75
257.521	101.75
257.754	84.75
257.987	77.75
258.22	83.75
258.452	81.75
258.685	88.75
258.918	95.75
259.151	91.75
259.383	98.75
259.616	96.75
259.849	93.75
260.081	95.75
260.314	87.75
260.547	99.75
260.779	106.75
261.012	96.75
261.244	110.75
261.477	99.75
261.71	82.75
261.942	95.75
262.175	87.75
262.407	73.75
262.64	93.75
262.872	88.75
263.105	95.75
263.337	105.75
263.57	98.75
263.802	79.75
264.035	98.75
264.267	100.75
264.499	93.75
264.732	94.75
264.964	86.75
265.197	101.75
265.429	96.75
265.661	91.75
265.894	99.75
266.126	96.75
266.358	91.75
266.591	96.75
266.823	99.75
267.055	103.75
267.287	93.75
267.52	99.75
267.752	81.75
267.984	93.75
268.216	86.75
268.448	89.75
268.681	81.75
268.913	87.75
269.145	102.75
269.377	113.75
269.609	87.75
269.841	104.75
270.073	110.75
270.306	93.75
270.538	95.75
270.77	89.75
271.002	85.75
271.234	94.75
271.466	113.75
271.698	97.75
271.93	104.75
272.162	95.75
272.394	78.75
272.626	101.75
272.858	90.75
273.09	99.75
273.322	100.75
273.553	98.75
273.785	100.75
274.017	99.75
274.249	109.75
274.481	100.75
274.713	98.75
274.945	87.75
275.176	113.75
275.408	94.75
275.64	102.75
275.872	96.75
276.104	91.75
276.335	105.75
276.567	102.75
276.799	95.75
277.031	100.75
277.262	103.75
277.494	96.75
277.726	91.75
277.957	93.75
278.189	95.75
278.421	106.75
278.652	90.75
278.884	95.75
279.115	109.75
279.347	92.75
279.579	91.75
279.81	94.75
280.042	99.75
280.273	96.75
280.505	100.75
280.736	100.75
280.968	106.75
281.199	101.75
281.431	94.75
281.662	101.75
281.894	98.75
282.125	111.75
282.356	104.75
282.588	97.75
282.819	114.75
283.051	114.75
283.282	112.75
283.513	98.75
283.745	102.75
283.976	94.75
284.207	81.75
284.439	99.75
284.67	93.75
284.901	102.75
285.132	106.75
285.364	108.75
285.595	107.75
285.826	98.75
286.057	116.75
286.288	100.75
286.52	107.75
286.751	103.75
286.982	108.75
287.213	87.75
287.444	103.75
287.675	107.75
287.906	101.75
288.138	108.75
288.369	93.75
288.6	94.75
288.831	105.75
289.062	103.75
289.293	98.75
289.524	103.75
289.755	101.75
289.986	95.75
290.217	102.75
290.448	113.75
290.679	102.75
290.91	94.75
291.141	117.75
291.371	97.75
291.602	109.75
291.833	105.75
292.064	105.75
292.295	95.75
292.526	101.75
292.757	84.75
292.987	101.75
293.218	121.75
293.449	110.75
293.68	116.75
293.91	96.75
294.141	101.75
294.372	110.75
294.603	103.75
294.833	102.75
295.064	92.75
295.295	109.75
295.525	79.75
295.756	110.75
295.987	105.75
296.217	99.75
296.448	107.75
296.679	107.75
296.909	90.75
297.14	112.75
297.37	108.75
297.601	109.75
297.831	103.75
298.062	109.75
298.292	115.75
298.523	109.75
298.753	106.75
298.984	109.75
299.214	105.75
299.445	101.75
299.675	115.75
299.905	108.75
300.136	108.75
300.366	113.75
300.597	111.75
300.827	108.75
301.057	93.75
301.288	105.75
301.518	109.75
301.748	107.75
301.979	104.75
302.209	122.75
302.439	91.75
302.669	120.75
302.9	105.75
303.13	104.75
303.36	97.75
303.59	114.75
303.82	112.75
304.051	105.75
304.281	115.75
304.511	87.75
304.741	116.75
304.971	103.75
305.201	114.75
305.431	122.75
305.661	104.75
305.891	111.75
306.121	101.75
306.352	107.75
306.582	101.75
306.812	103.75
307.042	111.75
307.272	111.75
307.502	114.75
307.731	114.75
307.961	124.75
308.191	105.75
308.421	95.75
308.651	93.75
308.881	110.75
309.111	111.75
309.341	95.75
309.571	104.75
309.8	101.75
310.03	103.75
310.26	110.75
310.49	109.75
310.72	107.75
310.949	112.75
311.179	102.75
311.409	92.75
311.639	111.75
311.868	116.75
312.098	103.75
312.328	104.75
312.557	126.75
312.787	113.75
313.017	109.75
313.246	97.75
313.476	94.75
313.706	107.75
313.935	115.75
314.165	117.75
314.394	117.75
314.624	103.75
314.853	90.75
315.083	118.75
315.312	111.75
315.542	98.75
315.771	108.75
316.001	92.75
316.23	115.75
316.46	107.75
316.689	104.75
316.919	105.75
317.148	116.75
317.377	109.75
317.607	118.75
317.836	111.75
318.065	109.75
318.295	106.75
318.524	104.75
318.753	109.75
318.983	101.75
319.212	106.75
319.441	112.75
319.67	125.75
319.9	105.75
320.129	104.75
320.358	108.75
320.587	101.75
320.816	117.75
321.046	114.75
321.275	122.75
321.504	106.75
321.733	98.75
321.962	100.75
322.191	111.75
322.42	99.75
322.649	105.75
322.878	114.75
323.108	99.75
323.337	122.75
323.566	109.75
323.795	109.75
324.024	125.75
324.253	124.75
324.482	131.75
324.71	147.75
324.939	178.75
325.168	159.75
325.397	132.75
325.626	132.75
325.855	100.75
326.084	111.75
326.313	119.75
326.542	116.75
326.77	107.75
326.999	125.75
327.228	138.75
327.457	156.75
327.686	164.75
327.914	134.75
328.143	126.75
328.372	124.75
328.6	109.75
328.829	114.75
329.058	109.75
329.287	116.75
329.515	112.75
329.744	117.75
329.972	116.75
330.201	120.75
330.43	112.75
330.658	121.75
330.887	112.75
331.115	110.75
331.344	104.75
331.572	113.75
331.801	122.75
332.03	110.75
332.258	120.75
332.486	122.75
332.715	124.75
332.943	122.75
333.172	122.75
333.4	114.75
333.629	115.75
333.857	108.75
334.085	114.75
334.314	118.75
334.542	104.75
334.771	126.75
334.999	125.75
335.227	126.75
335.455	127.75
335.684	129.75
335.912	108.75
336.14	110.75
336.369	90.75
336.597	101.75
336.825	116.75
337.053	125.75
337.281	117.75
337.51	106.75
337.738	101.75
337.966	111.75
338.194	120.75
338.422	115.75
338.65	104.75
338.878	117.75
339.106	116.75
339.334	115.75
339.562	111.75
339.79	123.75
340.018	115.75
340.246	103.75
340.474	108.75
340.702	120.75
340.93	120.75
341.158	103.75
341.386	118.75
341.614	113.75
341.842	110.75
342.07	104.75
342.298	111.75
342.526	105.75
342.754	105.75
342.981	100.75
343.209	103.75
343.437	102.75
343.665	101.75
343.893	115.75
344.12	106.75
344.348	128.75
344.576	118.75
344.804	99.75
345.031	122.75
345.259	118.75
345.487	114.75
345.714	108.75
345.942	116.75
346.17	118.75
346.397	109.75
346.625	123.75
346.853	122.75
347.08	97.75
347.308	126.75
347.535	110.75
347.763	119.75
347.99	113.75
348.218	114.75
348.445	104.75
348.673	120.75
348.9	126.75
349.128	95.75
349.355	106.75
349.583	110.75
349.81	108.75
350.037	100.75
350.265	108.75
350.492	102.75
350.72	107.75
350.947	114.75
351.174	100.75
351.402	99.75
351.629	117.75
351.856	99.75
352.083	102.75
352.311	103.75
352.538	115.75
352.765	124.75
352.992	124.75
353.22	114.75
353.447	100.75
353.674	120.75
353.901	104.75
354.128	116.75
354.355	111.75
354.583	114.75
354.81	106.75
355.037	107.75
355.264	121.75
355.491	118.75
355.718	122.75
355.945	117.75
356.172	102.75
356.399	99.75
356.626	114.75
356.853	114.75
357.08	109.75
357.307	119.75
357.534	110.75
357.761	114.75
357.988	120.75
358.215	120.75
358.441	86.75
358.668	106.75
358.895	106.75
359.122	110.75
359.349	111.75
359.576	122.75
359.802	107.75
360.029	119.75
360.256	103.75
360.483	112.75
360.709	101.75
360.936	113.75
361.163	120.75
361.39	90.75
361.616	111.75
361.843	114.75
362.07	116.75
362.296	103.75
362.523	102.75
362.749	115.75
362.976	96.75
363.203	122.75
363.429	117.75
363.656	105.75
363.882	111.75
364.109	109.75
364.335	112.75
364.562	100.75
364.788	103.75
365.015	100.75
365.241	111.75
365.468	111.75
365.694	108.75
365.92	96.75
366.147	100.75
366.373	101.75
366.599	105.75
366.826	110.75
367.052	117.75
367.278	111.75
367.505	106.75
367.731	101.75
367.957	108.75
368.184	108.75
368.41	111.75
368.636	109.75
368.862	114.75
369.089	100.75
369.315	108.75
369.541	100.75
369.767	115.75
369.993	119.75
370.219	111.75
370.445	112.75
370.672	99.75
370.898	108.75
371.124	122.75
371.35	119.75
371.576	90.75
371.802	114.75
372.028	114.75
372.254	119.75
372.48	91.75
372.706	126.75
372.932	117.75
373.158	111.75
373.384	120.75
373.61	125.75
373.835	116.75
374.061	123.75
374.287	86.75
374.513	114.75
374.739	103.75
374.965	108.75
375.191	112.75
375.416	121.75
375.642	95.75
375.868	108.75
376.094	116.75
376.319	114.75
376.545	118.75
376.771	124.75
376.997	119.75
377.222	87.75
377.448	111.75
377.674	110.75
377.899	119.75
378.125	110.75
378.35	100.75
378.576	107.75
378.802	98.75
379.027	120.75
379.253	114.75
379.478	111.75
379.704	119.75
379.929	103.75
380.155	120.75
380.38	115.75
380.606	111.75
380.831	118.75
381.057	110.75
381.282	106.75
381.507	103.75
381.733	117.75
381.958	116.75
382.184	112.75
382.409	99.75
382.634	114.75
382.86	119.75
383.085	117.75
383.31	128.75
383.535	122.75
383.761	107.75
383.986	110.75
384.211	128.75
384.436	112.75
384.662	117.75
384.887	118.75
385.112	109.75
385.337	114.75
385.562	110.75
385.787	99.75
386.013	131.75
386.238	124.75
386.463	114.75
386.688	125.75
386.913	101.75
387.138	128.75
387.363	112.75
387.588	119.75
387.813	128.75
388.038	127.75
388.263	121.75
388.488	122.75
388.713	107.75
388.938	114.75
389.163	108.75
389.387	117.75
389.612	111.75
389.837	112.75
390.062	107.75
390.287	120.75
390.512	121.75
390.736	118.75
390.961	101.75
391.186	104.75
391.411	126.75
391.636	124.75
391.86	118.75
392.085	114.75
392.31	121.75
392.534	117.75
392.759	115.75
392.984	130.75
393.208	112.75
393.433	130.75
393.658	123.75
393.882	128.75
394.107	110.75
394.331	112.75
394.556	111.75
394.78	112.75
395.005	112.75
395.229	117.75
395.454	126.75
395.678	125.75
395.903	134.75
396.127	129.75
396.352	130.75
396.576	111.75
396.801	124.75
397.025	128.75
397.249	120.75
397.474	120.75
397.698	136.75
397.922	118.75
398.147	124.75
398.371	126.75
398.595	138.75
398.82	115.75
399.044	142.75
399.268	138.75
399.492	149.75
399.717	127.75
399.941	136.75
400.165	144.75
400.389	136.75
400.613	123.75
400.837	125.75
401.062	136.75
401.286	127.75
401.51	138.75
401.734	130.75
401.958	129.75
402.182	127.75
402.406	133.75
402.63	123.75
402.854	124.75
403.078	137.75
403.302	130.75
403.526	131.75
403.75	143.75
403.974	136.75
404.198	117.75
404.422	128.75
404.645	123.75
404.869	138.75
405.093	142.75
405.317	141.75
405.541	148.75
405.765	130.75
405.988	131.75
406.212	132.75
406.436	118.75
406.66	133.75
406.883	117.75
407.107	151.75
407.331	148.75
407.555	135.75
407.778	128.75
408.002	129.75
408.226	150.75
408.449	136.75
408.673	133.75
408.896	146.75
409.12	139.75
409.344	134.75
409.567	132.75
409.791	130.75
410.014	131.75
410.238	120.75
410.461	137.75
410.685	132.75
410.908	136.75
411.132	130.75
411.355	121.75
411.578	129.75
411.802	124.75
412.025	123.75
412.249	126.75
412.472	123.75
412.695	123.75
412.919	126.75
413.142	131.75
413.365	141.75
413.589	123.75
413.812	122.75
414.035	122.75
414.258	127.75
414.482	121.75
414.705	135.75
414.928	140.75
415.151	125.75
415.374	126.75
415.597	135.75
415.821	125.75
416.044	140.75
416.267	137.75
416.49	123.75
416.713	116.75
416.936	128.75
417.159	115.75
417.382	127.75
417.605	131.75
417.828	122.75
418.051	137.75
418.274	134.75
418.497	128.75
418.72	116.75
418.943	133.75
419.166	122.75
419.389	117.75
419.611	129.75
419.834	126.75
420.057	121.75
420.28	125.75
420.503	136.75
420.726	136.75
420.948	131.75
421.171	123.75
421.394	120.75
421.617	138.75
421.839	132.75
422.062	137.75
422.285	125.75
422.507	128.75
422.73	141.75
422.953	144.75
423.175	123.75
423.398	126.75
423.621	133.75
423.843	134.75
424.066	130.75
424.288	131.75
424.511	124.75
424.733	137.75
424.956	136.75
425.178	135.75
425.401	127.75
425.623	144.75
425.846	120.75
426.068	114.75
426.291	134.75
426.513	133.75
426.735	139.75
426.958	135.75
427.18	139.75
427.402	142.75
427.625	153.75
427.847	128.75
428.069	130.75
428.292	127.75
428.514	124.75
428.736	124.75
428.958	138.75
429.181	127.75
429.403	127.75
429.625	134.75
429.847	128.75
430.069	137.75
430.292	125.75
430.514	118.75
430.736	126.75
430.958	114.75
431.18	119.75
431.402	148.75
431.624	121.75
431.846	116.75
432.068	125.75
432.29	131.75
432.512	134.75
432.734	119.75
432.956	116.75
433.178	123.75
433.4	111.75
433.622	128.75
433.844	130.75
434.066	116.75
434.287	112.75
434.509	116.75
434.731	133.75
434.953	126.75
435.175	145.75
435.397	133.75
435.618	125.75
435.84	135.75
436.062	152.75
436.284	131.75
436.505	126.75
436.727	136.75
436.949	116.75
437.17	118.75
437.392	130.75
437.614	111.75
437.835	139.75
438.057	134.75
438.278	136.75
438.5	136.75
438.721	152.75
438.943	138.75
439.165	133.75
439.386	120.75
439.608	124.75
439.829	126.75
440.05	134.75
440.272	134.75
440.493	126.75
440.715	133.75
440.936	116.75
441.158	126.75
441.379	134.75
441.6	130.75
441.822	142.75
442.043	133.75
442.264	139.75
442.486	142.75
442.707	142.75
442.928	123.75
443.149	129.75
443.371	126.75
443.592	142.75
443.813	130.75
444.034	136.75
444.255	136.75
444.476	143.75
444.698	135.75
444.919	142.75
445.14	280.75
445.361	209.75
445.582	132.75
445.803	139.75
446.024	151.75
446.245	138.75
446.466	123.75
446.687	148.75
446.908	129.75
447.129	139.75
447.35	136.75
447.571	138.75
447.792	122.75
448.013	117.75
448.234	135.75
448.455	134.75
448.675	140.75
448.896	146.75
449.117	130.75
449.338	119.75
449.559	139.75
449.779	130.75
450	134.75
450.221	126.75
450.442	127.75
450.662	118.75
450.883	135.75
451.104	134.75
451.324	116.75
451.545	119.75
451.766	115.75
451.986	144.75
452.207	114.75
452.428	119.75
452.648	132.75
452.869	109.75
453.089	124.75
453.31	126.75
453.53	120.75
453.751	125.75
453.971	110.75
454.192	124.75
454.412	122.75
454.633	119.75
454.853	115.75
455.073	133.75
455.294	128.75
455.514	130.75
455.734	124.75
455.955	99.75
456.175	107.75
456.395	108.75
456.616	133.75
456.836	112.75
457.056	120.75
457.276	116.75
457.497	130.75
457.717	120.75
457.937	118.75
458.157	117.75
458.377	118.75
458.598	109.75
458.818	130.75
459.038	128.75
459.258	113.75
459.478	120.75
459.698	135.75
459.918	129.75
460.138	128.75
460.358	131.75
460.578	129.75
460.798	133.75
461.018	129.75
461.238	118.75
461.458	131.75
461.678	128.75
461.898	144.75
462.118	125.75
462.338	124.75
462.558	136.75
462.777	132.75
462.997	132.75
463.217	142.75
463.437	131.75
463.657	154.75
463.876	142.75
464.096	129.75
464.316	136.75
464.536	138.75
464.755	146.75
464.975	119.75
465.195	131.75
465.414	106.75
465.634	136.75
465.854	141.75
466.073	136.75
466.293	119.75
466.512	126.75
466.732	127.75
466.951	105.75
467.171	122.75
467.391	110.75
467.61	116.75
467.829	134.75
468.049	128.75
468.268	110.75
468.488	126.75
468.707	124.75
468.927	121.75
469.146	136.75
469.365	119.75
469.585	125.75
469.804	114.75
470.023	117.75
470.243	126.75
470.462	131.75
470.681	126.75
470.901	132.75
471.12	129.75
471.339	114.75
471.558	135.75
471.777	108.75
471.997	128.75
472.216	124.75
472.435	134.75
472.654	128.75
472.873	125.75
473.092	129.75
473.311	111.75
473.53	116.75
473.749	118.75
473.968	117.75
474.187	124.75
474.406	131.75
474.625	133.75
474.844	123.75
475.063	125.75
475.282	124.75
475.501	126.75
475.72	129.75
475.939	122.75
476.158	123.75
476.377	122.75
476.596	118.75
476.814	128.75
477.033	125.75
477.252	123.75
477.471	126.75
477.69	129.75
477.908	130.75
478.127	110.75
478.346	132.75
478.564	138.75
478.783	128.75
479.002	138.75
479.22	143.75
479.439	144.75
479.658	140.75
479.876	127.75
480.095	127.75
480.313	131.75
480.532	142.75
480.751	127.75
480.969	137.75
481.188	141.75
481.406	132.75
481.624	130.75
481.843	131.75
482.061	130.75
482.28	121.75
482.498	103.75
482.717	124.75
482.935	142.75
483.153	141.75
483.372	136.75
483.59	145.75
483.808	132.75
484.027	120.75
484.245	138.75
484.463	138.75
484.681	139.75
484.9	138.75
485.118	123.75
485.336	128.75
485.554	138.75
485.772	150.75
485.99	127.75
486.209	119.75
486.427	134.75
486.645	134.75
486.863	127.75
487.081	132.75
487.299	142.75
487.517	124.75
487.735	145.75
487.953	142.75
488.171	133.75
488.389	137.75
488.607	130.75
488.825	125.75
489.043	127.75
489.261	122.75
489.479	118.75
489.696	125.75
489.914	152.75
490.132	134.75
490.35	141.75
490.568	140.75
490.786	150.75
491.003	132.75
491.221	130.75
491.439	131.75
491.657	144.75
491.874	142.75
492.092	158.75
492.31	134.75
492.527	148.75
492.745	148.75
492.963	149.75
493.18	139.75
493.398	147.75
493.615	144.75
493.833	130.75
494.05	140.75
494.268	157.75
494.485	148.75
494.703	155.75
494.92	145.75
495.138	138.75
495.355	145.75
495.573	130.75
495.79	137.75
496.008	134.75
496.225	134.75
496.442	134.75
496.66	137.75
496.877	154.75
497.094	135.75
497.312	133.75
497.529	154.75
497.746	150.75
497.963	148.75
498.181	159.75
498.398	161.75
498.615	150.75
498.832	158.75
499.049	165.75
499.267	167.75
499.484	179.75
499.701	167.75
499.918	179.75
500.135	215.75
500.352	187.75
500.569	206.75
500.786	212.75
501.003	200.75
501.22	181.75
501.437	175.75
501.654	162.75
501.871	165.75
502.088	174.75
502.305	163.75
502.522	150.75
502.739	154.75
502.956	149.75
503.172	161.75
503.389	155.75
503.606	130.75
503.823	150.75
504.04	154.75
504.256	153.75
504.473	123.75
504.69	141.75
504.907	140.75
505.123	130.75
505.34	143.75
