Data from 1968.PennyLincolnUp.Lamp.En5.5.200Scan.071719.P1._HRD10591_14-50-30-969.txt Node
Date: Thu Jul 18 14:50:30 EDT 2019
User: cochatt
Spectrometer: HR+D1059
Trigger mode: 1
Integration Time (sec): 1.000000E-1
Scans to average: 1
Electric dark correction enabled: true
Nonlinearity correction enabled: false
Boxcar width: 0
XAxis mode: Wavelengths
Number of Pixels in Spectrum: 2048
>>>>>Begin Spectral Data<<<<<
223.165	-12.19
223.4	-12.19
223.635	-12.19
223.869	-20.19
224.104	-6.19
224.338	-21.19
224.573	-12.19
224.808	-7.19
225.042	-7.19
225.277	0.81
225.511	-7.19
225.746	-11.19
225.98	9.81
226.215	9.81
226.449	11.81
226.683	15.81
226.918	20.81
227.152	35.81
227.387	32.81
227.621	41.81
227.856	53.81
228.09	51.81
228.324	70.81
228.559	68.81
228.793	54.81
229.027	64.81
229.262	68.81
229.496	71.81
229.73	76.81
229.964	79.81
230.199	80.81
230.433	90.81
230.667	84.81
230.901	86.81
231.136	83.81
231.37	94.81
231.604	88.81
231.838	85.81
232.072	83.81
232.306	91.81
232.541	78.81
232.775	88.81
233.009	99.81
233.243	83.81
233.477	68.81
233.711	86.81
233.945	94.81
234.179	88.81
234.413	92.81
234.647	72.81
234.881	82.81
235.115	73.81
235.349	80.81
235.583	82.81
235.817	77.81
236.051	93.81
236.285	95.81
236.519	75.81
236.753	74.81
236.987	75.81
237.221	83.81
237.455	71.81
237.689	71.81
237.922	78.81
238.156	93.81
238.39	83.81
238.624	77.81
238.858	79.81
239.091	83.81
239.325	80.81
239.559	89.81
239.793	72.81
240.027	77.81
240.26	93.81
240.494	95.81
240.728	100.81
240.961	77.81
241.195	65.81
241.429	79.81
241.662	96.81
241.896	92.81
242.13	84.81
242.363	84.81
242.597	71.81
242.83	79.81
243.064	86.81
243.298	81.81
243.531	88.81
243.765	89.81
243.998	92.81
244.232	87.81
244.465	83.81
244.699	76.81
244.932	89.81
245.166	81.81
245.399	89.81
245.633	77.81
245.866	84.81
246.099	77.81
246.333	70.81
246.566	81.81
246.8	97.81
247.033	74.81
247.266	84.81
247.5	94.81
247.733	98.81
247.966	82.81
248.2	99.81
248.433	83.81
248.666	84.81
248.899	83.81
249.133	86.81
249.366	91.81
249.599	95.81
249.832	101.81
250.066	87.81
250.299	90.81
250.532	92.81
250.765	82.81
250.998	88.81
251.231	88.81
251.465	91.81
251.698	94.81
251.931	88.81
252.164	95.81
252.397	93.81
252.63	100.81
252.863	86.81
253.096	93.81
253.329	93.81
253.562	90.81
253.795	92.81
254.028	89.81
254.261	79.81
254.494	91.81
254.727	105.81
254.96	87.81
255.193	94.81
255.426	92.81
255.659	97.81
255.892	100.81
256.124	99.81
256.357	94.81
256.59	88.81
256.823	75.81
257.056	89.81
257.289	98.81
257.521	92.81
257.754	114.81
257.987	99.81
258.22	88.81
258.452	86.81
258.685	93.81
258.918	83.81
259.151	101.81
259.383	99.81
259.616	90.81
259.849	93.81
260.081	107.81
260.314	92.81
260.547	92.81
260.779	101.81
261.012	93.81
261.244	87.81
261.477	100.81
261.71	96.81
261.942	105.81
262.175	108.81
262.407	94.81
262.64	80.81
262.872	106.81
263.105	87.81
263.337	77.81
263.57	87.81
263.802	81.81
264.035	89.81
264.267	87.81
264.499	100.81
264.732	114.81
264.964	95.81
265.197	86.81
265.429	85.81
265.661	100.81
265.894	93.81
266.126	99.81
266.358	85.81
266.591	97.81
266.823	77.81
267.055	93.81
267.287	104.81
267.52	91.81
267.752	89.81
267.984	103.81
268.216	104.81
268.448	91.81
268.681	92.81
268.913	104.81
269.145	110.81
269.377	79.81
269.609	110.81
269.841	95.81
270.073	102.81
270.306	94.81
270.538	100.81
270.77	100.81
271.002	101.81
271.234	103.81
271.466	103.81
271.698	116.81
271.93	112.81
272.162	106.81
272.394	80.81
272.626	102.81
272.858	104.81
273.09	93.81
273.322	87.81
273.553	86.81
273.785	101.81
274.017	91.81
274.249	92.81
274.481	106.81
274.713	92.81
274.945	100.81
275.176	90.81
275.408	102.81
275.64	99.81
275.872	93.81
276.104	108.81
276.335	106.81
276.567	91.81
276.799	93.81
277.031	108.81
277.262	94.81
277.494	90.81
277.726	90.81
277.957	104.81
278.189	102.81
278.421	89.81
278.652	121.81
278.884	89.81
279.115	100.81
279.347	99.81
279.579	110.81
279.81	108.81
280.042	103.81
280.273	105.81
280.505	100.81
280.736	96.81
280.968	103.81
281.199	115.81
281.431	108.81
281.662	100.81
281.894	97.81
282.125	112.81
282.356	116.81
282.588	103.81
282.819	105.81
283.051	106.81
283.282	106.81
283.513	99.81
283.745	108.81
283.976	90.81
284.207	92.81
284.439	100.81
284.67	106.81
284.901	111.81
285.132	117.81
285.364	98.81
285.595	96.81
285.826	100.81
286.057	106.81
286.288	107.81
286.52	104.81
286.751	105.81
286.982	103.81
287.213	115.81
287.444	92.81
287.675	104.81
287.906	98.81
288.138	104.81
288.369	95.81
288.6	99.81
288.831	104.81
289.062	107.81
289.293	106.81
289.524	117.81
289.755	103.81
289.986	108.81
290.217	104.81
290.448	99.81
290.679	116.81
290.91	112.81
291.141	112.81
291.371	107.81
291.602	113.81
291.833	97.81
292.064	98.81
292.295	105.81
292.526	116.81
292.757	102.81
292.987	109.81
293.218	111.81
293.449	100.81
293.68	117.81
293.91	102.81
294.141	100.81
294.372	103.81
294.603	95.81
294.833	101.81
295.064	97.81
295.295	94.81
295.525	112.81
295.756	105.81
295.987	87.81
296.217	113.81
296.448	113.81
296.679	108.81
296.909	100.81
297.14	109.81
297.37	97.81
297.601	110.81
297.831	105.81
298.062	102.81
298.292	95.81
298.523	104.81
298.753	118.81
298.984	123.81
299.214	113.81
299.445	111.81
299.675	110.81
299.905	108.81
300.136	112.81
300.366	106.81
300.597	113.81
300.827	107.81
301.057	111.81
301.288	102.81
301.518	100.81
301.748	98.81
301.979	93.81
302.209	113.81
302.439	107.81
302.669	108.81
302.9	105.81
303.13	118.81
303.36	125.81
303.59	117.81
303.82	101.81
304.051	127.81
304.281	119.81
304.511	100.81
304.741	97.81
304.971	101.81
305.201	108.81
305.431	109.81
305.661	119.81
305.891	110.81
306.121	111.81
306.352	107.81
306.582	95.81
306.812	109.81
307.042	108.81
307.272	115.81
307.502	121.81
307.731	108.81
307.961	115.81
308.191	102.81
308.421	116.81
308.651	87.81
308.881	110.81
309.111	111.81
309.341	116.81
309.571	103.81
309.8	109.81
310.03	105.81
310.26	103.81
310.49	114.81
310.72	104.81
310.949	104.81
311.179	112.81
311.409	102.81
311.639	108.81
311.868	103.81
312.098	106.81
312.328	107.81
312.557	132.81
312.787	107.81
313.017	90.81
313.246	108.81
313.476	111.81
313.706	105.81
313.935	110.81
314.165	122.81
314.394	112.81
314.624	115.81
314.853	105.81
315.083	109.81
315.312	115.81
315.542	119.81
315.771	117.81
316.001	108.81
316.23	111.81
316.46	117.81
316.689	107.81
316.919	115.81
317.148	117.81
317.377	115.81
317.607	98.81
317.836	99.81
318.065	102.81
318.295	103.81
318.524	103.81
318.753	109.81
318.983	121.81
319.212	110.81
319.441	118.81
319.67	116.81
319.9	116.81
320.129	107.81
320.358	119.81
320.587	111.81
320.816	122.81
321.046	96.81
321.275	129.81
321.504	115.81
321.733	105.81
321.962	112.81
322.191	111.81
322.42	101.81
322.649	108.81
322.878	110.81
323.108	122.81
323.337	106.81
323.566	110.81
323.795	105.81
324.024	123.81
324.253	131.81
324.482	138.81
324.71	153.81
324.939	177.81
325.168	161.81
325.397	118.81
325.626	130.81
325.855	120.81
326.084	125.81
326.313	121.81
326.542	108.81
326.77	119.81
326.999	129.81
327.228	140.81
327.457	142.81
327.686	148.81
327.914	143.81
328.143	136.81
328.372	124.81
328.6	125.81
328.829	124.81
329.058	119.81
329.287	120.81
329.515	108.81
329.744	115.81
329.972	131.81
330.201	128.81
330.43	121.81
330.658	116.81
330.887	115.81
331.115	121.81
331.344	108.81
331.572	119.81
331.801	118.81
332.03	118.81
332.258	114.81
332.486	119.81
332.715	125.81
332.943	136.81
333.172	123.81
333.4	127.81
333.629	114.81
333.857	103.81
334.085	115.81
334.314	119.81
334.542	111.81
334.771	123.81
334.999	126.81
335.227	119.81
335.455	115.81
335.684	120.81
335.912	120.81
336.14	121.81
336.369	115.81
336.597	114.81
336.825	119.81
337.053	126.81
337.281	105.81
337.51	116.81
337.738	119.81
337.966	116.81
338.194	121.81
338.422	129.81
338.65	115.81
338.878	113.81
339.106	116.81
339.334	109.81
339.562	106.81
339.79	104.81
340.018	112.81
340.246	117.81
340.474	122.81
340.702	119.81
340.93	106.81
341.158	112.81
341.386	116.81
341.614	107.81
341.842	113.81
342.07	101.81
342.298	112.81
342.526	126.81
342.754	125.81
342.981	120.81
343.209	103.81
343.437	135.81
343.665	108.81
343.893	115.81
344.12	126.81
344.348	133.81
344.576	110.81
344.804	119.81
345.031	127.81
345.259	115.81
345.487	99.81
345.714	126.81
345.942	94.81
346.17	111.81
346.397	117.81
346.625	111.81
346.853	111.81
347.08	106.81
347.308	105.81
347.535	112.81
347.763	110.81
347.99	95.81
348.218	113.81
348.445	120.81
348.673	116.81
348.9	98.81
349.128	109.81
349.355	120.81
349.583	107.81
349.81	100.81
350.037	122.81
350.265	115.81
350.492	113.81
350.72	116.81
350.947	108.81
351.174	112.81
351.402	128.81
351.629	131.81
351.856	94.81
352.083	117.81
352.311	121.81
352.538	104.81
352.765	123.81
352.992	91.81
353.22	106.81
353.447	116.81
353.674	95.81
353.901	119.81
354.128	131.81
354.355	115.81
354.583	125.81
354.81	138.81
355.037	117.81
355.264	113.81
355.491	116.81
355.718	108.81
355.945	129.81
356.172	104.81
356.399	109.81
356.626	111.81
356.853	116.81
357.08	104.81
357.307	107.81
357.534	112.81
357.761	97.81
357.988	132.81
358.215	96.81
358.441	119.81
358.668	118.81
358.895	110.81
359.122	105.81
359.349	108.81
359.576	110.81
359.802	107.81
360.029	118.81
360.256	110.81
360.483	103.81
360.709	103.81
360.936	123.81
361.163	115.81
361.39	121.81
361.616	122.81
361.843	112.81
362.07	135.81
362.296	117.81
362.523	116.81
362.749	97.81
362.976	107.81
363.203	125.81
363.429	130.81
363.656	125.81
363.882	118.81
364.109	120.81
364.335	103.81
364.562	103.81
364.788	101.81
365.015	115.81
365.241	121.81
365.468	100.81
365.694	107.81
365.92	111.81
366.147	116.81
366.373	113.81
366.599	97.81
366.826	101.81
367.052	109.81
367.278	112.81
367.505	123.81
367.731	108.81
367.957	108.81
368.184	109.81
368.41	112.81
368.636	101.81
368.862	108.81
369.089	106.81
369.315	113.81
369.541	119.81
369.767	125.81
369.993	122.81
370.219	116.81
370.445	104.81
370.672	117.81
370.898	105.81
371.124	101.81
371.35	104.81
371.576	112.81
371.802	126.81
372.028	125.81
372.254	117.81
372.48	110.81
372.706	119.81
372.932	123.81
373.158	112.81
373.384	127.81
373.61	117.81
373.835	121.81
374.061	113.81
374.287	112.81
374.513	98.81
374.739	109.81
374.965	110.81
375.191	116.81
375.416	125.81
375.642	107.81
375.868	119.81
376.094	105.81
376.319	109.81
376.545	111.81
376.771	119.81
376.997	123.81
377.222	118.81
377.448	125.81
377.674	105.81
377.899	116.81
378.125	120.81
378.35	104.81
378.576	115.81
378.802	125.81
379.027	113.81
379.253	115.81
379.478	116.81
379.704	117.81
379.929	128.81
380.155	117.81
380.38	109.81
380.606	111.81
380.831	127.81
381.057	127.81
381.282	105.81
381.507	120.81
381.733	118.81
381.958	118.81
382.184	119.81
382.409	127.81
382.634	104.81
382.86	123.81
383.085	115.81
383.31	117.81
383.535	102.81
383.761	117.81
383.986	115.81
384.211	109.81
384.436	119.81
384.662	120.81
384.887	120.81
385.112	124.81
385.337	115.81
385.562	124.81
385.787	115.81
386.013	120.81
386.238	109.81
386.463	124.81
386.688	121.81
386.913	117.81
387.138	131.81
387.363	125.81
387.588	118.81
387.813	113.81
388.038	131.81
388.263	127.81
388.488	129.81
388.713	119.81
388.938	113.81
389.163	123.81
389.387	125.81
389.612	126.81
389.837	119.81
390.062	116.81
390.287	110.81
390.512	113.81
390.736	117.81
390.961	120.81
391.186	117.81
391.411	123.81
391.636	124.81
391.86	125.81
392.085	119.81
392.31	135.81
392.534	111.81
392.759	114.81
392.984	123.81
393.208	116.81
393.433	125.81
393.658	116.81
393.882	116.81
394.107	119.81
394.331	121.81
394.556	115.81
394.78	120.81
395.005	128.81
395.229	130.81
395.454	125.81
395.678	118.81
395.903	129.81
396.127	125.81
396.352	126.81
396.576	128.81
396.801	113.81
397.025	117.81
397.249	112.81
397.474	119.81
397.698	123.81
397.922	123.81
398.147	137.81
398.371	124.81
398.595	129.81
398.82	116.81
399.044	129.81
399.268	132.81
399.492	136.81
399.717	134.81
399.941	154.81
400.165	150.81
400.389	135.81
400.613	135.81
400.837	121.81
401.062	138.81
401.286	131.81
401.51	141.81
401.734	129.81
401.958	116.81
402.182	112.81
402.406	138.81
402.63	143.81
402.854	123.81
403.078	125.81
403.302	128.81
403.526	139.81
403.75	124.81
403.974	129.81
404.198	153.81
404.422	133.81
404.645	136.81
404.869	139.81
405.093	141.81
405.317	126.81
405.541	133.81
405.765	128.81
405.988	146.81
406.212	129.81
406.436	135.81
406.66	123.81
406.883	132.81
407.107	143.81
407.331	159.81
407.555	150.81
407.778	143.81
408.002	126.81
408.226	133.81
408.449	142.81
408.673	142.81
408.896	139.81
409.12	143.81
409.344	140.81
409.567	119.81
409.791	143.81
410.014	134.81
410.238	131.81
410.461	131.81
410.685	146.81
410.908	152.81
411.132	135.81
411.355	135.81
411.578	135.81
411.802	131.81
412.025	132.81
412.249	136.81
412.472	143.81
412.695	145.81
412.919	128.81
413.142	132.81
413.365	126.81
413.589	121.81
413.812	129.81
414.035	128.81
414.258	131.81
414.482	123.81
414.705	136.81
414.928	143.81
415.151	124.81
415.374	128.81
415.597	142.81
415.821	137.81
416.044	123.81
416.267	139.81
416.49	125.81
416.713	118.81
416.936	134.81
417.159	139.81
417.382	137.81
417.605	146.81
417.828	132.81
418.051	132.81
418.274	140.81
418.497	127.81
418.72	119.81
418.943	134.81
419.166	134.81
419.389	121.81
419.611	132.81
419.834	131.81
420.057	158.81
420.28	127.81
420.503	131.81
420.726	135.81
420.948	133.81
421.171	145.81
421.394	133.81
421.617	122.81
421.839	133.81
422.062	131.81
422.285	124.81
422.507	138.81
422.73	140.81
422.953	149.81
423.175	133.81
423.398	113.81
423.621	120.81
423.843	120.81
424.066	124.81
424.288	144.81
424.511	143.81
424.733	135.81
424.956	143.81
425.178	151.81
425.401	124.81
425.623	139.81
425.846	130.81
426.068	132.81
426.291	133.81
426.513	137.81
426.735	135.81
426.958	120.81
427.18	124.81
427.402	134.81
427.625	170.81
427.847	136.81
428.069	122.81
428.292	133.81
428.514	119.81
428.736	120.81
428.958	121.81
429.181	134.81
429.403	122.81
429.625	127.81
429.847	117.81
430.069	141.81
430.292	139.81
430.514	128.81
430.736	121.81
430.958	126.81
431.18	128.81
431.402	112.81
431.624	137.81
431.846	127.81
432.068	125.81
432.29	128.81
432.512	112.81
432.734	110.81
432.956	127.81
433.178	135.81
433.4	121.81
433.622	112.81
433.844	126.81
434.066	121.81
434.287	123.81
434.509	125.81
434.731	133.81
434.953	141.81
435.175	129.81
435.397	131.81
435.618	139.81
435.84	141.81
436.062	134.81
436.284	143.81
436.505	145.81
436.727	126.81
436.949	136.81
437.17	141.81
437.392	121.81
437.614	118.81
437.835	119.81
438.057	140.81
438.278	123.81
438.5	141.81
438.721	139.81
438.943	138.81
439.165	123.81
439.386	134.81
439.608	126.81
439.829	142.81
440.05	133.81
440.272	137.81
440.493	130.81
440.715	119.81
440.936	124.81
441.158	121.81
441.379	127.81
441.6	125.81
441.822	121.81
442.043	134.81
442.264	146.81
442.486	140.81
442.707	141.81
442.928	113.81
443.149	115.81
443.371	122.81
443.592	139.81
443.813	134.81
444.034	149.81
444.255	134.81
444.476	127.81
444.698	126.81
444.919	147.81
445.14	223.81
445.361	169.81
445.582	136.81
445.803	141.81
446.024	147.81
446.245	144.81
446.466	124.81
446.687	138.81
446.908	135.81
447.129	122.81
447.35	122.81
447.571	131.81
447.792	119.81
448.013	132.81
448.234	112.81
448.455	121.81
448.675	138.81
448.896	131.81
449.117	140.81
449.338	129.81
449.559	124.81
449.779	137.81
450	139.81
450.221	127.81
450.442	133.81
450.662	127.81
450.883	116.81
451.104	126.81
451.324	100.81
451.545	115.81
451.766	125.81
451.986	110.81
452.207	123.81
452.428	109.81
452.648	125.81
452.869	117.81
453.089	115.81
453.31	128.81
453.53	129.81
453.751	116.81
453.971	99.81
454.192	115.81
454.412	127.81
454.633	116.81
454.853	126.81
455.073	115.81
455.294	126.81
455.514	130.81
455.734	120.81
455.955	107.81
456.175	127.81
456.395	129.81
456.616	123.81
456.836	112.81
457.056	123.81
457.276	123.81
457.497	121.81
457.717	108.81
457.937	115.81
458.157	107.81
458.377	121.81
458.598	129.81
458.818	127.81
459.038	133.81
459.258	127.81
459.478	143.81
459.698	117.81
459.918	114.81
460.138	121.81
460.358	123.81
460.578	125.81
460.798	118.81
461.018	124.81
461.238	118.81
461.458	123.81
461.678	120.81
461.898	139.81
462.118	141.81
462.338	129.81
462.558	130.81
462.777	136.81
462.997	139.81
463.217	152.81
463.437	143.81
463.657	145.81
463.876	136.81
464.096	144.81
464.316	149.81
464.536	144.81
464.755	136.81
464.975	137.81
465.195	140.81
465.414	135.81
465.634	114.81
465.854	120.81
466.073	130.81
466.293	127.81
466.512	113.81
466.732	108.81
466.951	135.81
467.171	131.81
467.391	122.81
467.61	121.81
467.829	129.81
468.049	131.81
468.268	143.81
468.488	130.81
468.707	118.81
468.927	106.81
469.146	143.81
469.365	125.81
469.585	112.81
469.804	125.81
470.023	129.81
470.243	126.81
470.462	131.81
470.681	129.81
470.901	119.81
471.12	140.81
471.339	122.81
471.558	115.81
471.777	117.81
471.997	125.81
472.216	136.81
472.435	124.81
472.654	115.81
472.873	119.81
473.092	116.81
473.311	125.81
473.53	111.81
473.749	117.81
473.968	115.81
474.187	112.81
474.406	139.81
474.625	125.81
474.844	131.81
475.063	128.81
475.282	106.81
475.501	131.81
475.72	127.81
475.939	113.81
476.158	121.81
476.377	141.81
476.596	124.81
476.814	103.81
477.033	122.81
477.252	131.81
477.471	128.81
477.69	130.81
477.908	108.81
478.127	137.81
478.346	115.81
478.564	131.81
478.783	132.81
479.002	129.81
479.22	129.81
479.439	133.81
479.658	137.81
479.876	126.81
480.095	128.81
480.313	137.81
480.532	128.81
480.751	121.81
480.969	133.81
481.188	124.81
481.406	135.81
481.624	116.81
481.843	135.81
482.061	123.81
482.28	141.81
482.498	124.81
482.717	125.81
482.935	128.81
483.153	128.81
483.372	127.81
483.59	138.81
483.808	139.81
484.027	142.81
484.245	122.81
484.463	129.81
484.681	137.81
484.9	131.81
485.118	125.81
485.336	137.81
485.554	123.81
485.772	131.81
485.99	124.81
486.209	139.81
486.427	135.81
486.645	149.81
486.863	139.81
487.081	140.81
487.299	140.81
487.517	142.81
487.735	129.81
487.953	132.81
488.171	136.81
488.389	132.81
488.607	135.81
488.825	132.81
489.043	117.81
489.261	140.81
489.479	138.81
489.696	139.81
489.914	149.81
490.132	137.81
490.35	139.81
490.568	126.81
490.786	135.81
491.003	130.81
491.221	142.81
491.439	139.81
491.657	151.81
491.874	135.81
492.092	147.81
492.31	144.81
492.527	152.81
492.745	148.81
492.963	148.81
493.18	161.81
493.398	129.81
493.615	137.81
493.833	137.81
494.05	142.81
494.268	135.81
494.485	150.81
494.703	137.81
494.92	142.81
495.138	144.81
495.355	158.81
495.573	133.81
495.79	145.81
496.008	154.81
496.225	140.81
496.442	147.81
496.66	145.81
496.877	152.81
497.094	149.81
497.312	156.81
497.529	144.81
497.746	160.81
497.963	136.81
498.181	161.81
498.398	161.81
498.615	156.81
498.832	142.81
499.049	165.81
499.267	162.81
499.484	174.81
499.701	181.81
499.918	176.81
500.135	191.81
500.352	201.81
500.569	209.81
500.786	220.81
501.003	196.81
501.22	204.81
501.437	184.81
501.654	179.81
501.871	165.81
502.088	166.81
502.305	175.81
502.522	159.81
502.739	162.81
502.956	138.81
503.172	169.81
503.389	159.81
503.606	135.81
503.823	145.81
504.04	153.81
504.256	145.81
504.473	155.81
504.69	134.81
504.907	151.81
