Data from 1968.PennyLincolnUp.Lamp.En5.5.200Scan.071719.P1._HRD10591_14-52-18-970.txt Node
Date: Thu Jul 18 14:52:18 EDT 2019
User: cochatt
Spectrometer: HR+D1059
Trigger mode: 1
Integration Time (sec): 1.000000E-1
Scans to average: 1
Electric dark correction enabled: true
Nonlinearity correction enabled: false
Boxcar width: 0
XAxis mode: Wavelengths
Number of Pixels in Spectrum: 2048
>>>>>Begin Spectral Data<<<<<
223.165	8.31
223.4	8.31
223.635	8.31
223.869	-15.69
224.104	-30.69
224.338	1.31
224.573	-22.69
224.808	-7.69
225.042	-15.69
225.277	4.31
225.511	-10.69
225.746	8.31
225.98	8.31
226.215	10.31
226.449	14.31
226.683	14.31
226.918	7.31
227.152	26.31
227.387	43.31
227.621	42.31
227.856	37.31
228.09	46.31
228.324	53.31
228.559	59.31
228.793	57.31
229.027	68.31
229.262	71.31
229.496	61.31
229.73	74.31
229.964	83.31
230.199	74.31
230.433	79.31
230.667	81.31
230.901	77.31
231.136	79.31
231.37	91.31
231.604	81.31
231.838	85.31
232.072	81.31
232.306	80.31
232.541	79.31
232.775	81.31
233.009	91.31
233.243	86.31
233.477	75.31
233.711	94.31
233.945	98.31
234.179	99.31
234.413	98.31
234.647	90.31
234.881	98.31
235.115	89.31
235.349	91.31
235.583	83.31
235.817	76.31
236.051	75.31
236.285	92.31
236.519	87.31
236.753	85.31
236.987	73.31
237.221	96.31
237.455	89.31
237.689	81.31
237.922	65.31
238.156	71.31
238.39	87.31
238.624	89.31
238.858	85.31
239.091	87.31
239.325	84.31
239.559	88.31
239.793	79.31
240.027	82.31
240.26	77.31
240.494	87.31
240.728	71.31
240.961	70.31
241.195	79.31
241.429	84.31
241.662	86.31
241.896	87.31
242.13	78.31
242.363	81.31
242.597	81.31
242.83	82.31
243.064	73.31
243.298	92.31
243.531	72.31
243.765	82.31
243.998	80.31
244.232	86.31
244.465	86.31
244.699	92.31
244.932	99.31
245.166	89.31
245.399	79.31
245.633	69.31
245.866	86.31
246.099	96.31
246.333	81.31
246.566	87.31
246.8	78.31
247.033	77.31
247.266	86.31
247.5	65.31
247.733	97.31
247.966	98.31
248.2	83.31
248.433	87.31
248.666	79.31
248.899	100.31
249.133	83.31
249.366	98.31
249.599	69.31
249.832	85.31
250.066	90.31
250.299	90.31
250.532	91.31
250.765	93.31
250.998	75.31
251.231	80.31
251.465	92.31
251.698	99.31
251.931	102.31
252.164	88.31
252.397	73.31
252.63	85.31
252.863	65.31
253.096	93.31
253.329	94.31
253.562	93.31
253.795	81.31
254.028	84.31
254.261	89.31
254.494	98.31
254.727	91.31
254.96	97.31
255.193	104.31
255.426	90.31
255.659	80.31
255.892	110.31
256.124	77.31
256.357	102.31
256.59	95.31
256.823	85.31
257.056	85.31
257.289	89.31
257.521	84.31
257.754	90.31
257.987	94.31
258.22	82.31
258.452	90.31
258.685	84.31
258.918	106.31
259.151	80.31
259.383	96.31
259.616	87.31
259.849	87.31
260.081	79.31
260.314	79.31
260.547	96.31
260.779	98.31
261.012	80.31
261.244	88.31
261.477	77.31
261.71	87.31
261.942	94.31
262.175	99.31
262.407	84.31
262.64	97.31
262.872	93.31
263.105	90.31
263.337	104.31
263.57	93.31
263.802	80.31
264.035	84.31
264.267	79.31
264.499	83.31
264.732	99.31
264.964	76.31
265.197	91.31
265.429	86.31
265.661	107.31
265.894	95.31
266.126	102.31
266.358	103.31
266.591	98.31
266.823	104.31
267.055	80.31
267.287	98.31
267.52	109.31
267.752	95.31
267.984	119.31
268.216	84.31
268.448	81.31
268.681	97.31
268.913	100.31
269.145	107.31
269.377	93.31
269.609	105.31
269.841	97.31
270.073	87.31
270.306	109.31
270.538	105.31
270.77	102.31
271.002	86.31
271.234	105.31
271.466	104.31
271.698	114.31
271.93	92.31
272.162	106.31
272.394	88.31
272.626	92.31
272.858	87.31
273.09	94.31
273.322	91.31
273.553	92.31
273.785	93.31
274.017	114.31
274.249	97.31
274.481	99.31
274.713	106.31
274.945	102.31
275.176	106.31
275.408	89.31
275.64	93.31
275.872	85.31
276.104	88.31
276.335	88.31
276.567	98.31
276.799	97.31
277.031	89.31
277.262	95.31
277.494	106.31
277.726	97.31
277.957	99.31
278.189	113.31
278.421	113.31
278.652	94.31
278.884	97.31
279.115	91.31
279.347	97.31
279.579	94.31
279.81	93.31
280.042	95.31
280.273	76.31
280.505	107.31
280.736	106.31
280.968	96.31
281.199	99.31
281.431	96.31
281.662	104.31
281.894	98.31
282.125	92.31
282.356	103.31
282.588	115.31
282.819	93.31
283.051	102.31
283.282	103.31
283.513	114.31
283.745	109.31
283.976	91.31
284.207	88.31
284.439	89.31
284.67	94.31
284.901	90.31
285.132	102.31
285.364	93.31
285.595	100.31
285.826	93.31
286.057	94.31
286.288	105.31
286.52	101.31
286.751	91.31
286.982	88.31
287.213	92.31
287.444	103.31
287.675	94.31
287.906	98.31
288.138	105.31
288.369	97.31
288.6	101.31
288.831	94.31
289.062	102.31
289.293	104.31
289.524	94.31
289.755	102.31
289.986	98.31
290.217	111.31
290.448	93.31
290.679	93.31
290.91	102.31
291.141	98.31
291.371	110.31
291.602	96.31
291.833	92.31
292.064	94.31
292.295	107.31
292.526	108.31
292.757	115.31
292.987	96.31
293.218	90.31
293.449	105.31
293.68	92.31
293.91	101.31
294.141	91.31
294.372	93.31
294.603	103.31
294.833	97.31
295.064	105.31
295.295	95.31
295.525	99.31
295.756	78.31
295.987	105.31
296.217	88.31
296.448	109.31
296.679	110.31
296.909	99.31
297.14	110.31
297.37	88.31
297.601	91.31
297.831	102.31
298.062	102.31
298.292	113.31
298.523	112.31
298.753	94.31
298.984	94.31
299.214	108.31
299.445	112.31
299.675	98.31
299.905	93.31
300.136	96.31
300.366	108.31
300.597	101.31
300.827	108.31
301.057	101.31
301.288	99.31
301.518	108.31
301.748	120.31
301.979	95.31
302.209	100.31
302.439	106.31
302.669	103.31
302.9	110.31
303.13	105.31
303.36	94.31
303.59	83.31
303.82	98.31
304.051	104.31
304.281	117.31
304.511	104.31
304.741	101.31
304.971	93.31
305.201	111.31
305.431	111.31
305.661	109.31
305.891	98.31
306.121	103.31
306.352	98.31
306.582	117.31
306.812	118.31
307.042	94.31
307.272	113.31
307.502	123.31
307.731	104.31
307.961	103.31
308.191	103.31
308.421	98.31
308.651	104.31
308.881	107.31
309.111	106.31
309.341	76.31
309.571	107.31
309.8	96.31
310.03	84.31
310.26	90.31
310.49	98.31
310.72	93.31
310.949	92.31
311.179	103.31
311.409	109.31
311.639	116.31
311.868	106.31
312.098	114.31
312.328	106.31
312.557	126.31
312.787	106.31
313.017	124.31
313.246	110.31
313.476	100.31
313.706	99.31
313.935	100.31
314.165	115.31
314.394	118.31
314.624	112.31
314.853	111.31
315.083	116.31
315.312	98.31
315.542	108.31
315.771	100.31
316.001	99.31
316.23	108.31
316.46	121.31
316.689	102.31
316.919	116.31
317.148	109.31
317.377	106.31
317.607	117.31
317.836	88.31
318.065	104.31
318.295	94.31
318.524	105.31
318.753	106.31
318.983	111.31
319.212	105.31
319.441	113.31
319.67	123.31
319.9	94.31
320.129	120.31
320.358	117.31
320.587	113.31
320.816	104.31
321.046	111.31
321.275	107.31
321.504	109.31
321.733	106.31
321.962	122.31
322.191	111.31
322.42	126.31
322.649	108.31
322.878	106.31
323.108	102.31
323.337	107.31
323.566	113.31
323.795	123.31
324.024	94.31
324.253	115.31
324.482	134.31
324.71	143.31
324.939	169.31
325.168	157.31
325.397	121.31
325.626	112.31
325.855	119.31
326.084	126.31
326.313	106.31
326.542	109.31
326.77	119.31
326.999	110.31
327.228	137.31
327.457	159.31
327.686	161.31
327.914	141.31
328.143	124.31
328.372	118.31
328.6	113.31
328.829	100.31
329.058	119.31
329.287	111.31
329.515	101.31
329.744	103.31
329.972	113.31
330.201	105.31
330.43	118.31
330.658	121.31
330.887	113.31
331.115	110.31
331.344	118.31
331.572	126.31
331.801	109.31
332.03	110.31
332.258	113.31
332.486	126.31
332.715	106.31
332.943	102.31
333.172	130.31
333.4	114.31
333.629	133.31
333.857	113.31
334.085	103.31
334.314	123.31
334.542	117.31
334.771	118.31
334.999	104.31
335.227	105.31
335.455	109.31
335.684	117.31
335.912	111.31
336.14	106.31
336.369	115.31
336.597	105.31
336.825	115.31
337.053	115.31
337.281	111.31
337.51	112.31
337.738	113.31
337.966	115.31
338.194	115.31
338.422	122.31
338.65	105.31
338.878	106.31
339.106	107.31
339.334	123.31
339.562	109.31
339.79	103.31
340.018	105.31
340.246	110.31
340.474	105.31
340.702	102.31
340.93	115.31
341.158	106.31
341.386	109.31
341.614	93.31
341.842	103.31
342.07	106.31
342.298	106.31
342.526	125.31
342.754	102.31
342.981	101.31
343.209	118.31
343.437	123.31
343.665	105.31
343.893	126.31
344.12	129.31
344.348	115.31
344.576	111.31
344.804	115.31
345.031	110.31
345.259	113.31
345.487	113.31
345.714	114.31
345.942	117.31
346.17	114.31
346.397	106.31
346.625	105.31
346.853	100.31
347.08	125.31
347.308	100.31
347.535	106.31
347.763	120.31
347.99	116.31
348.218	108.31
348.445	117.31
348.673	124.31
348.9	127.31
349.128	109.31
349.355	113.31
349.583	120.31
349.81	104.31
350.037	100.31
350.265	107.31
350.492	87.31
350.72	120.31
350.947	113.31
351.174	110.31
351.402	108.31
351.629	125.31
351.856	110.31
352.083	109.31
352.311	95.31
352.538	105.31
352.765	107.31
352.992	102.31
353.22	102.31
353.447	105.31
353.674	106.31
353.901	105.31
354.128	105.31
354.355	108.31
354.583	111.31
354.81	111.31
355.037	108.31
355.264	99.31
355.491	114.31
355.718	110.31
355.945	108.31
356.172	107.31
356.399	115.31
356.626	99.31
356.853	100.31
357.08	112.31
357.307	109.31
357.534	115.31
357.761	98.31
357.988	125.31
358.215	108.31
358.441	102.31
358.668	105.31
358.895	122.31
359.122	114.31
359.349	98.31
359.576	101.31
359.802	116.31
360.029	116.31
360.256	112.31
360.483	115.31
360.709	115.31
360.936	110.31
361.163	102.31
361.39	123.31
361.616	114.31
361.843	105.31
362.07	105.31
362.296	116.31
362.523	99.31
362.749	108.31
362.976	109.31
363.203	103.31
363.429	114.31
363.656	93.31
363.882	104.31
364.109	113.31
364.335	110.31
364.562	109.31
364.788	110.31
365.015	113.31
365.241	116.31
365.468	106.31
365.694	100.31
365.92	110.31
366.147	113.31
366.373	110.31
366.599	101.31
366.826	110.31
367.052	112.31
367.278	109.31
367.505	123.31
367.731	109.31
367.957	114.31
368.184	104.31
368.41	112.31
368.636	113.31
368.862	110.31
369.089	109.31
369.315	113.31
369.541	102.31
369.767	109.31
369.993	105.31
370.219	122.31
370.445	114.31
370.672	111.31
370.898	94.31
371.124	118.31
371.35	107.31
371.576	119.31
371.802	115.31
372.028	105.31
372.254	110.31
372.48	112.31
372.706	117.31
372.932	118.31
373.158	117.31
373.384	102.31
373.61	94.31
373.835	95.31
374.061	115.31
374.287	123.31
374.513	117.31
374.739	103.31
374.965	116.31
375.191	108.31
375.416	110.31
375.642	118.31
375.868	106.31
376.094	107.31
376.319	121.31
376.545	107.31
376.771	133.31
376.997	118.31
377.222	127.31
377.448	114.31
377.674	122.31
377.899	110.31
378.125	106.31
378.35	106.31
378.576	109.31
378.802	109.31
379.027	116.31
379.253	118.31
379.478	103.31
379.704	118.31
379.929	91.31
380.155	102.31
380.38	102.31
380.606	98.31
380.831	107.31
381.057	108.31
381.282	99.31
381.507	113.31
381.733	115.31
381.958	122.31
382.184	102.31
382.409	106.31
382.634	104.31
382.86	101.31
383.085	111.31
383.31	115.31
383.535	105.31
383.761	109.31
383.986	102.31
384.211	113.31
384.436	101.31
384.662	114.31
384.887	129.31
385.112	124.31
385.337	115.31
385.562	120.31
385.787	115.31
386.013	129.31
386.238	124.31
386.463	110.31
386.688	117.31
386.913	110.31
387.138	119.31
387.363	108.31
387.588	117.31
387.813	125.31
388.038	124.31
388.263	116.31
388.488	116.31
388.713	129.31
388.938	133.31
389.163	116.31
389.387	118.31
389.612	109.31
389.837	118.31
390.062	115.31
390.287	123.31
390.512	112.31
390.736	119.31
390.961	118.31
391.186	125.31
391.411	122.31
391.636	114.31
391.86	119.31
392.085	109.31
392.31	121.31
392.534	117.31
392.759	122.31
392.984	118.31
393.208	121.31
393.433	117.31
393.658	128.31
393.882	123.31
394.107	117.31
394.331	103.31
394.556	121.31
394.78	117.31
395.005	120.31
395.229	119.31
395.454	109.31
395.678	109.31
395.903	140.31
396.127	124.31
396.352	119.31
396.576	130.31
396.801	130.31
397.025	117.31
397.249	131.31
397.474	132.31
397.698	114.31
397.922	119.31
398.147	130.31
398.371	122.31
398.595	117.31
398.82	137.31
399.044	124.31
399.268	134.31
399.492	126.31
399.717	145.31
399.941	126.31
400.165	139.31
400.389	142.31
400.613	131.31
400.837	135.31
401.062	122.31
401.286	131.31
401.51	121.31
401.734	131.31
401.958	127.31
402.182	132.31
402.406	134.31
402.63	131.31
402.854	121.31
403.078	132.31
403.302	125.31
403.526	137.31
403.75	129.31
403.974	133.31
404.198	129.31
404.422	134.31
404.645	137.31
404.869	117.31
405.093	136.31
405.317	131.31
405.541	118.31
405.765	125.31
405.988	131.31
406.212	145.31
406.436	153.31
406.66	133.31
406.883	125.31
407.107	126.31
407.331	135.31
407.555	141.31
407.778	147.31
408.002	137.31
408.226	137.31
408.449	124.31
408.673	133.31
408.896	139.31
409.12	129.31
409.344	117.31
409.567	131.31
409.791	127.31
410.014	125.31
410.238	126.31
410.461	142.31
410.685	143.31
410.908	133.31
411.132	141.31
411.355	126.31
411.578	127.31
411.802	129.31
412.025	125.31
412.249	135.31
412.472	132.31
412.695	126.31
412.919	133.31
413.142	130.31
413.365	121.31
413.589	132.31
413.812	111.31
414.035	123.31
414.258	129.31
414.482	127.31
414.705	124.31
414.928	126.31
415.151	125.31
415.374	131.31
415.597	135.31
415.821	139.31
416.044	132.31
416.267	125.31
416.49	140.31
416.713	133.31
416.936	133.31
417.159	118.31
417.382	129.31
417.605	125.31
417.828	122.31
418.051	137.31
418.274	126.31
418.497	125.31
418.72	129.31
418.943	139.31
419.166	134.31
419.389	134.31
419.611	126.31
419.834	125.31
420.057	136.31
420.28	119.31
420.503	123.31
420.726	139.31
420.948	130.31
421.171	124.31
421.394	129.31
421.617	113.31
421.839	129.31
422.062	141.31
422.285	132.31
422.507	131.31
422.73	131.31
422.953	142.31
423.175	137.31
423.398	130.31
423.621	141.31
423.843	123.31
424.066	140.31
424.288	133.31
424.511	125.31
424.733	140.31
424.956	138.31
425.178	130.31
425.401	138.31
425.623	128.31
425.846	130.31
426.068	117.31
426.291	126.31
426.513	139.31
426.735	124.31
426.958	110.31
427.18	134.31
427.402	128.31
427.625	140.31
427.847	135.31
428.069	152.31
428.292	141.31
428.514	119.31
428.736	124.31
428.958	133.31
429.181	125.31
429.403	118.31
429.625	130.31
429.847	127.31
430.069	123.31
430.292	113.31
430.514	145.31
430.736	121.31
430.958	122.31
431.18	127.31
431.402	110.31
431.624	122.31
431.846	138.31
432.068	131.31
432.29	122.31
432.512	124.31
432.734	109.31
432.956	124.31
433.178	120.31
433.4	126.31
433.622	129.31
433.844	126.31
434.066	118.31
434.287	127.31
434.509	125.31
434.731	143.31
434.953	125.31
435.175	113.31
435.397	131.31
435.618	120.31
435.84	126.31
436.062	134.31
436.284	133.31
436.505	126.31
436.727	124.31
436.949	133.31
437.17	122.31
437.392	115.31
437.614	120.31
437.835	122.31
438.057	137.31
438.278	131.31
438.5	133.31
438.721	131.31
438.943	132.31
439.165	133.31
439.386	127.31
439.608	122.31
439.829	129.31
440.05	122.31
440.272	127.31
440.493	139.31
440.715	136.31
440.936	133.31
441.158	133.31
441.379	123.31
441.6	122.31
441.822	131.31
442.043	119.31
442.264	141.31
442.486	139.31
442.707	125.31
442.928	119.31
443.149	141.31
443.371	145.31
443.592	127.31
443.813	155.31
444.034	142.31
444.255	147.31
444.476	125.31
444.698	138.31
444.919	127.31
445.14	229.31
445.361	161.31
445.582	126.31
445.803	125.31
446.024	143.31
446.245	133.31
446.466	129.31
446.687	122.31
446.908	126.31
447.129	125.31
447.35	139.31
447.571	114.31
447.792	117.31
448.013	118.31
448.234	130.31
448.455	133.31
448.675	135.31
448.896	121.31
449.117	123.31
449.338	123.31
449.559	134.31
449.779	153.31
450	137.31
450.221	113.31
450.442	121.31
450.662	110.31
450.883	113.31
451.104	116.31
451.324	104.31
451.545	106.31
451.766	118.31
451.986	105.31
452.207	120.31
452.428	123.31
452.648	118.31
452.869	114.31
453.089	121.31
453.31	98.31
453.53	102.31
453.751	121.31
453.971	111.31
454.192	117.31
454.412	116.31
454.633	113.31
454.853	113.31
455.073	132.31
455.294	121.31
455.514	120.31
455.734	115.31
455.955	107.31
456.175	118.31
456.395	110.31
456.616	99.31
456.836	101.31
457.056	118.31
457.276	117.31
457.497	123.31
457.717	101.31
457.937	111.31
458.157	125.31
458.377	117.31
458.598	124.31
458.818	128.31
459.038	110.31
459.258	125.31
459.478	116.31
459.698	120.31
459.918	121.31
460.138	133.31
460.358	122.31
460.578	113.31
460.798	137.31
461.018	134.31
461.238	136.31
461.458	124.31
461.678	127.31
461.898	121.31
462.118	116.31
462.338	122.31
462.558	126.31
462.777	118.31
462.997	121.31
463.217	141.31
463.437	141.31
463.657	139.31
463.876	134.31
464.096	135.31
464.316	129.31
464.536	141.31
464.755	143.31
464.975	143.31
465.195	133.31
465.414	128.31
465.634	125.31
465.854	129.31
466.073	114.31
466.293	115.31
466.512	117.31
466.732	118.31
466.951	116.31
467.171	128.31
467.391	119.31
467.61	120.31
467.829	133.31
468.049	102.31
468.268	126.31
468.488	110.31
468.707	109.31
468.927	120.31
469.146	129.31
469.365	113.31
469.585	116.31
469.804	139.31
470.023	130.31
470.243	129.31
470.462	106.31
470.681	119.31
470.901	123.31
471.12	122.31
471.339	134.31
471.558	139.31
471.777	118.31
471.997	110.31
472.216	115.31
472.435	118.31
472.654	126.31
472.873	125.31
473.092	118.31
473.311	124.31
473.53	119.31
473.749	136.31
473.968	136.31
474.187	127.31
474.406	116.31
474.625	119.31
474.844	131.31
475.063	113.31
475.282	125.31
475.501	126.31
475.72	126.31
475.939	106.31
476.158	126.31
476.377	122.31
476.596	119.31
476.814	110.31
477.033	111.31
477.252	131.31
477.471	117.31
477.69	110.31
477.908	135.31
478.127	145.31
478.346	140.31
478.564	137.31
478.783	125.31
479.002	128.31
479.22	139.31
479.439	137.31
479.658	127.31
479.876	105.31
480.095	117.31
480.313	135.31
480.532	131.31
480.751	138.31
480.969	124.31
481.188	139.31
481.406	137.31
481.624	137.31
481.843	128.31
482.061	122.31
482.28	116.31
482.498	125.31
482.717	118.31
482.935	131.31
483.153	127.31
483.372	139.31
483.59	130.31
483.808	119.31
484.027	118.31
484.245	132.31
484.463	126.31
484.681	151.31
484.9	125.31
485.118	125.31
485.336	119.31
485.554	130.31
485.772	129.31
485.99	116.31
486.209	124.31
486.427	122.31
486.645	126.31
486.863	131.31
487.081	126.31
487.299	136.31
487.517	143.31
487.735	140.31
487.953	150.31
488.171	118.31
488.389	139.31
488.607	131.31
488.825	125.31
489.043	138.31
489.261	128.31
489.479	122.31
489.696	141.31
489.914	135.31
490.132	139.31
490.35	140.31
490.568	108.31
490.786	139.31
491.003	133.31
491.221	129.31
491.439	154.31
491.657	145.31
491.874	133.31
492.092	152.31
492.31	156.31
492.527	143.31
492.745	153.31
492.963	140.31
493.18	135.31
493.398	142.31
493.615	137.31
493.833	131.31
494.05	136.31
494.268	140.31
494.485	140.31
494.703	155.31
494.92	150.31
495.138	135.31
495.355	139.31
495.573	130.31
495.79	129.31
496.008	146.31
496.225	150.31
496.442	142.31
496.66	141.31
496.877	140.31
497.094	149.31
497.312	143.31
497.529	148.31
497.746	149.31
497.963	139.31
498.181	154.31
498.398	141.31
498.615	161.31
498.832	156.31
499.049	171.31
499.267	160.31
499.484	154.31
499.701	179.31
499.918	187.31
500.135	185.31
500.352	196.31
500.569	214.31
500.786	216.31
501.003	183.31
501.22	184.31
501.437	190.31
501.654	173.31
501.871	157.31
502.088	193.31
502.305	183.31
502.522	154.31
502.739	149.31
502.956	151.31
503.172	152.31
503.389	139.31
503.606	146.31
503.823	137.31
504.04	143.31
504.256	138.31
504.473	151.31
504.69	133.31
504.907	134.31
505.123	146.31
505.34	143.31
505.557	146.31
505.773	143.31
505.99	145.31
