Data from 1968.PennyLincolnUp.Lamp.En5.5.200Scan.071719.P1._HRD10591_14-49-54-968.txt Node
Date: Thu Jul 18 14:49:54 EDT 2019
User: cochatt
Spectrometer: HR+D1059
Trigger mode: 1
Integration Time (sec): 1.000000E-1
Scans to average: 1
Electric dark correction enabled: true
Nonlinearity correction enabled: false
Boxcar width: 0
XAxis mode: Wavelengths
Number of Pixels in Spectrum: 2048
>>>>>Begin Spectral Data<<<<<
223.165	-6.06
223.4	-6.06
223.635	-6.06
223.869	-25.06
224.104	-8.06
224.338	-20.06
224.573	-24.06
224.808	1.94
225.042	-0.06
225.277	-3.06
225.511	1.94
225.746	0.94
225.98	0.94
226.215	2.94
226.449	25.94
226.683	15.94
226.918	13.94
227.152	21.94
227.387	31.94
227.621	38.94
227.856	33.94
228.09	47.94
228.324	47.94
228.559	57.94
228.793	58.94
229.027	63.94
229.262	66.94
229.496	67.94
229.73	55.94
229.964	57.94
230.199	75.94
230.433	60.94
230.667	63.94
230.901	93.94
231.136	82.94
231.37	89.94
231.604	86.94
231.838	75.94
232.072	90.94
232.306	86.94
232.541	79.94
232.775	84.94
233.009	94.94
233.243	75.94
233.477	82.94
233.711	89.94
233.945	83.94
234.179	87.94
234.413	80.94
234.647	82.94
234.881	78.94
235.115	89.94
235.349	86.94
235.583	79.94
235.817	85.94
236.051	67.94
236.285	82.94
236.519	89.94
236.753	75.94
236.987	81.94
237.221	83.94
237.455	71.94
237.689	83.94
237.922	78.94
238.156	82.94
238.39	75.94
238.624	70.94
238.858	83.94
239.091	69.94
239.325	77.94
239.559	73.94
239.793	77.94
240.027	87.94
240.26	90.94
240.494	80.94
240.728	86.94
240.961	88.94
241.195	66.94
241.429	78.94
241.662	90.94
241.896	63.94
242.13	70.94
242.363	79.94
242.597	85.94
242.83	67.94
243.064	77.94
243.298	49.94
243.531	75.94
243.765	78.94
243.998	80.94
244.232	76.94
244.465	80.94
244.699	75.94
244.932	79.94
245.166	86.94
245.399	80.94
245.633	81.94
245.866	73.94
246.099	72.94
246.333	71.94
246.566	86.94
246.8	79.94
247.033	80.94
247.266	70.94
247.5	75.94
247.733	78.94
247.966	79.94
248.2	89.94
248.433	79.94
248.666	83.94
248.899	72.94
249.133	78.94
249.366	105.94
249.599	82.94
249.832	80.94
250.066	83.94
250.299	78.94
250.532	91.94
250.765	82.94
250.998	81.94
251.231	81.94
251.465	101.94
251.698	83.94
251.931	86.94
252.164	85.94
252.397	79.94
252.63	79.94
252.863	88.94
253.096	97.94
253.329	86.94
253.562	83.94
253.795	97.94
254.028	82.94
254.261	70.94
254.494	87.94
254.727	88.94
254.96	88.94
255.193	79.94
255.426	88.94
255.659	92.94
255.892	87.94
256.124	79.94
256.357	116.94
256.59	84.94
256.823	91.94
257.056	74.94
257.289	87.94
257.521	82.94
257.754	91.94
257.987	73.94
258.22	80.94
258.452	80.94
258.685	93.94
258.918	88.94
259.151	81.94
259.383	89.94
259.616	85.94
259.849	85.94
260.081	81.94
260.314	83.94
260.547	87.94
260.779	95.94
261.012	76.94
261.244	96.94
261.477	91.94
261.71	85.94
261.942	83.94
262.175	81.94
262.407	81.94
262.64	84.94
262.872	65.94
263.105	81.94
263.337	106.94
263.57	82.94
263.802	76.94
264.035	96.94
264.267	79.94
264.499	83.94
264.732	82.94
264.964	78.94
265.197	89.94
265.429	88.94
265.661	111.94
265.894	91.94
266.126	79.94
266.358	90.94
266.591	85.94
266.823	90.94
267.055	94.94
267.287	85.94
267.52	87.94
267.752	100.94
267.984	94.94
268.216	90.94
268.448	87.94
268.681	88.94
268.913	88.94
269.145	93.94
269.377	88.94
269.609	87.94
269.841	95.94
270.073	88.94
270.306	104.94
270.538	84.94
270.77	76.94
271.002	97.94
271.234	92.94
271.466	77.94
271.698	81.94
271.93	87.94
272.162	101.94
272.394	99.94
272.626	89.94
272.858	92.94
273.09	105.94
273.322	97.94
273.553	103.94
273.785	85.94
274.017	85.94
274.249	103.94
274.481	92.94
274.713	78.94
274.945	98.94
275.176	99.94
275.408	89.94
275.64	83.94
275.872	89.94
276.104	97.94
276.335	89.94
276.567	98.94
276.799	82.94
277.031	92.94
277.262	96.94
277.494	91.94
277.726	99.94
277.957	105.94
278.189	85.94
278.421	101.94
278.652	85.94
278.884	88.94
279.115	79.94
279.347	101.94
279.579	93.94
279.81	96.94
280.042	84.94
280.273	101.94
280.505	81.94
280.736	88.94
280.968	101.94
281.199	91.94
281.431	81.94
281.662	92.94
281.894	93.94
282.125	94.94
282.356	89.94
282.588	97.94
282.819	109.94
283.051	87.94
283.282	108.94
283.513	100.94
283.745	85.94
283.976	86.94
284.207	98.94
284.439	98.94
284.67	94.94
284.901	97.94
285.132	76.94
285.364	95.94
285.595	93.94
285.826	86.94
286.057	97.94
286.288	87.94
286.52	91.94
286.751	95.94
286.982	92.94
287.213	73.94
287.444	95.94
287.675	104.94
287.906	91.94
288.138	103.94
288.369	101.94
288.6	101.94
288.831	95.94
289.062	112.94
289.293	114.94
289.524	111.94
289.755	88.94
289.986	94.94
290.217	95.94
290.448	90.94
290.679	84.94
290.91	109.94
291.141	103.94
291.371	105.94
291.602	109.94
291.833	97.94
292.064	85.94
292.295	90.94
292.526	96.94
292.757	95.94
292.987	100.94
293.218	97.94
293.449	98.94
293.68	105.94
293.91	95.94
294.141	99.94
294.372	89.94
294.603	111.94
294.833	98.94
295.064	91.94
295.295	91.94
295.525	87.94
295.756	95.94
295.987	96.94
296.217	95.94
296.448	96.94
296.679	95.94
296.909	99.94
297.14	97.94
297.37	112.94
297.601	104.94
297.831	96.94
298.062	115.94
298.292	98.94
298.523	103.94
298.753	109.94
298.984	98.94
299.214	89.94
299.445	100.94
299.675	93.94
299.905	107.94
300.136	83.94
300.366	87.94
300.597	102.94
300.827	89.94
301.057	105.94
301.288	106.94
301.518	101.94
301.748	92.94
301.979	92.94
302.209	120.94
302.439	100.94
302.669	95.94
302.9	97.94
303.13	114.94
303.36	109.94
303.59	107.94
303.82	96.94
304.051	102.94
304.281	94.94
304.511	98.94
304.741	102.94
304.971	93.94
305.201	101.94
305.431	98.94
305.661	73.94
305.891	95.94
306.121	96.94
306.352	99.94
306.582	111.94
306.812	116.94
307.042	93.94
307.272	97.94
307.502	87.94
307.731	103.94
307.961	89.94
308.191	94.94
308.421	106.94
308.651	112.94
308.881	103.94
309.111	117.94
309.341	109.94
309.571	85.94
309.8	98.94
310.03	98.94
310.26	112.94
310.49	105.94
310.72	112.94
310.949	119.94
311.179	99.94
311.409	105.94
311.639	100.94
311.868	103.94
312.098	90.94
312.328	92.94
312.557	117.94
312.787	103.94
313.017	116.94
313.246	114.94
313.476	104.94
313.706	96.94
313.935	104.94
314.165	106.94
314.394	114.94
314.624	103.94
314.853	92.94
315.083	101.94
315.312	112.94
315.542	108.94
315.771	100.94
316.001	100.94
316.23	110.94
316.46	99.94
316.689	103.94
316.919	101.94
317.148	118.94
317.377	115.94
317.607	98.94
317.836	103.94
318.065	125.94
318.295	101.94
318.524	116.94
318.753	103.94
318.983	95.94
319.212	83.94
319.441	102.94
319.67	99.94
319.9	112.94
320.129	105.94
320.358	115.94
320.587	102.94
320.816	117.94
321.046	108.94
321.275	113.94
321.504	110.94
321.733	106.94
321.962	108.94
322.191	113.94
322.42	113.94
322.649	106.94
322.878	107.94
323.108	97.94
323.337	98.94
323.566	103.94
323.795	118.94
324.024	111.94
324.253	121.94
324.482	126.94
324.71	157.94
324.939	160.94
325.168	149.94
325.397	118.94
325.626	111.94
325.855	113.94
326.084	94.94
326.313	105.94
326.542	112.94
326.77	114.94
326.999	117.94
327.228	115.94
327.457	141.94
327.686	157.94
327.914	128.94
328.143	124.94
328.372	116.94
328.6	111.94
328.829	115.94
329.058	113.94
329.287	106.94
329.515	105.94
329.744	112.94
329.972	101.94
330.201	120.94
330.43	103.94
330.658	116.94
330.887	117.94
331.115	114.94
331.344	108.94
331.572	105.94
331.801	109.94
332.03	92.94
332.258	110.94
332.486	121.94
332.715	105.94
332.943	105.94
333.172	117.94
333.4	102.94
333.629	111.94
333.857	118.94
334.085	111.94
334.314	113.94
334.542	117.94
334.771	114.94
334.999	111.94
335.227	106.94
335.455	114.94
335.684	123.94
335.912	104.94
336.14	108.94
336.369	111.94
336.597	93.94
336.825	96.94
337.053	110.94
337.281	107.94
337.51	98.94
337.738	106.94
337.966	115.94
338.194	99.94
338.422	111.94
338.65	116.94
338.878	110.94
339.106	106.94
339.334	104.94
339.562	106.94
339.79	97.94
340.018	93.94
340.246	104.94
340.474	101.94
340.702	102.94
340.93	119.94
341.158	117.94
341.386	97.94
341.614	109.94
341.842	110.94
342.07	103.94
342.298	113.94
342.526	112.94
342.754	110.94
342.981	110.94
343.209	118.94
343.437	110.94
343.665	115.94
343.893	122.94
344.12	100.94
344.348	109.94
344.576	106.94
344.804	97.94
345.031	106.94
345.259	112.94
345.487	104.94
345.714	112.94
345.942	109.94
346.17	102.94
346.397	98.94
346.625	109.94
346.853	100.94
347.08	96.94
347.308	99.94
347.535	106.94
347.763	113.94
347.99	109.94
348.218	119.94
348.445	99.94
348.673	109.94
348.9	103.94
349.128	107.94
349.355	97.94
349.583	104.94
349.81	114.94
350.037	105.94
350.265	114.94
350.492	99.94
350.72	97.94
350.947	109.94
351.174	109.94
351.402	93.94
351.629	114.94
351.856	106.94
352.083	90.94
352.311	102.94
352.538	102.94
352.765	110.94
352.992	94.94
353.22	95.94
353.447	86.94
353.674	105.94
353.901	111.94
354.128	95.94
354.355	104.94
354.583	93.94
354.81	113.94
355.037	117.94
355.264	111.94
355.491	115.94
355.718	104.94
355.945	99.94
356.172	103.94
356.399	109.94
356.626	105.94
356.853	91.94
357.08	102.94
357.307	100.94
357.534	111.94
357.761	109.94
357.988	104.94
358.215	106.94
358.441	108.94
358.668	113.94
358.895	111.94
359.122	114.94
359.349	112.94
359.576	106.94
359.802	100.94
360.029	114.94
360.256	103.94
360.483	113.94
360.709	97.94
360.936	95.94
361.163	106.94
361.39	102.94
361.616	106.94
361.843	114.94
362.07	102.94
362.296	108.94
362.523	107.94
362.749	121.94
362.976	97.94
363.203	113.94
363.429	101.94
363.656	116.94
363.882	110.94
364.109	106.94
364.335	109.94
364.562	109.94
364.788	111.94
365.015	95.94
365.241	114.94
365.468	109.94
365.694	116.94
365.92	101.94
366.147	119.94
366.373	111.94
366.599	109.94
366.826	116.94
367.052	111.94
367.278	112.94
367.505	113.94
367.731	119.94
367.957	113.94
368.184	106.94
368.41	104.94
368.636	122.94
368.862	117.94
369.089	100.94
369.315	83.94
369.541	124.94
369.767	112.94
369.993	101.94
370.219	84.94
370.445	105.94
370.672	105.94
370.898	102.94
371.124	99.94
371.35	98.94
371.576	106.94
371.802	103.94
372.028	94.94
372.254	105.94
372.48	113.94
372.706	94.94
372.932	98.94
373.158	120.94
373.384	120.94
373.61	102.94
373.835	101.94
374.061	115.94
374.287	112.94
374.513	110.94
374.739	115.94
374.965	107.94
375.191	121.94
375.416	119.94
375.642	114.94
375.868	119.94
376.094	117.94
376.319	91.94
376.545	121.94
376.771	119.94
376.997	113.94
377.222	118.94
377.448	109.94
377.674	105.94
377.899	115.94
378.125	116.94
378.35	110.94
378.576	92.94
378.802	105.94
379.027	99.94
379.253	118.94
379.478	111.94
379.704	115.94
379.929	101.94
380.155	104.94
380.38	98.94
380.606	109.94
380.831	109.94
381.057	111.94
381.282	118.94
381.507	95.94
381.733	105.94
381.958	110.94
382.184	106.94
382.409	109.94
382.634	110.94
382.86	112.94
383.085	111.94
383.31	105.94
383.535	102.94
383.761	116.94
383.986	122.94
384.211	105.94
384.436	123.94
384.662	113.94
384.887	109.94
385.112	115.94
385.337	113.94
385.562	106.94
385.787	116.94
386.013	110.94
386.238	109.94
386.463	106.94
386.688	95.94
386.913	109.94
387.138	118.94
387.363	109.94
387.588	116.94
387.813	116.94
388.038	103.94
388.263	129.94
388.488	127.94
388.713	106.94
388.938	100.94
389.163	100.94
389.387	117.94
389.612	98.94
389.837	114.94
390.062	105.94
390.287	128.94
390.512	116.94
390.736	109.94
390.961	131.94
391.186	110.94
391.411	91.94
391.636	114.94
391.86	114.94
392.085	112.94
392.31	121.94
392.534	103.94
392.759	121.94
392.984	109.94
393.208	123.94
393.433	122.94
393.658	124.94
393.882	125.94
394.107	119.94
394.331	120.94
394.556	117.94
394.78	121.94
395.005	114.94
395.229	121.94
395.454	111.94
395.678	128.94
395.903	113.94
396.127	111.94
396.352	117.94
396.576	127.94
396.801	109.94
397.025	123.94
397.249	122.94
397.474	123.94
397.698	127.94
397.922	135.94
398.147	122.94
398.371	115.94
398.595	118.94
398.82	120.94
399.044	118.94
399.268	123.94
399.492	139.94
399.717	148.94
399.941	129.94
400.165	136.94
400.389	130.94
400.613	120.94
400.837	126.94
401.062	129.94
401.286	128.94
401.51	119.94
401.734	113.94
401.958	136.94
402.182	129.94
402.406	129.94
402.63	131.94
402.854	132.94
403.078	123.94
403.302	133.94
403.526	122.94
403.75	122.94
403.974	127.94
404.198	141.94
404.422	138.94
404.645	133.94
404.869	129.94
405.093	142.94
405.317	139.94
405.541	139.94
405.765	122.94
405.988	151.94
406.212	119.94
406.436	130.94
406.66	111.94
406.883	127.94
407.107	134.94
407.331	145.94
407.555	143.94
407.778	145.94
408.002	125.94
408.226	137.94
408.449	125.94
408.673	132.94
408.896	125.94
409.12	118.94
409.344	126.94
409.567	126.94
409.791	132.94
410.014	138.94
410.238	139.94
410.461	121.94
410.685	125.94
410.908	123.94
411.132	127.94
411.355	131.94
411.578	134.94
411.802	129.94
412.025	117.94
412.249	137.94
412.472	123.94
412.695	138.94
412.919	132.94
413.142	117.94
413.365	113.94
413.589	130.94
413.812	115.94
414.035	143.94
414.258	135.94
414.482	118.94
414.705	110.94
414.928	129.94
415.151	121.94
415.374	131.94
415.597	114.94
415.821	133.94
416.044	120.94
416.267	119.94
416.49	136.94
416.713	110.94
416.936	134.94
417.159	129.94
417.382	125.94
417.605	133.94
417.828	132.94
418.051	111.94
418.274	114.94
418.497	121.94
418.72	129.94
418.943	133.94
419.166	117.94
419.389	125.94
419.611	123.94
419.834	139.94
420.057	129.94
420.28	120.94
420.503	125.94
420.726	105.94
420.948	117.94
421.171	118.94
421.394	138.94
421.617	137.94
421.839	134.94
422.062	131.94
422.285	128.94
422.507	144.94
422.73	126.94
422.953	123.94
423.175	123.94
423.398	134.94
423.621	126.94
423.843	127.94
424.066	136.94
424.288	124.94
424.511	124.94
424.733	138.94
424.956	134.94
425.178	140.94
425.401	140.94
425.623	147.94
425.846	138.94
426.068	130.94
426.291	130.94
426.513	133.94
426.735	135.94
426.958	122.94
427.18	143.94
427.402	145.94
427.625	153.94
427.847	127.94
428.069	118.94
428.292	133.94
428.514	111.94
428.736	144.94
428.958	129.94
429.181	126.94
429.403	114.94
429.625	126.94
429.847	115.94
430.069	127.94
430.292	125.94
430.514	121.94
430.736	113.94
430.958	114.94
431.18	123.94
431.402	113.94
431.624	114.94
431.846	139.94
432.068	132.94
432.29	124.94
432.512	125.94
432.734	122.94
432.956	116.94
433.178	111.94
433.4	112.94
433.622	123.94
433.844	120.94
434.066	122.94
434.287	121.94
434.509	119.94
434.731	112.94
434.953	124.94
435.175	127.94
435.397	143.94
435.618	122.94
435.84	125.94
436.062	137.94
436.284	134.94
436.505	118.94
436.727	119.94
436.949	112.94
437.17	118.94
437.392	117.94
437.614	113.94
437.835	119.94
438.057	137.94
438.278	131.94
438.5	133.94
438.721	136.94
438.943	138.94
439.165	127.94
439.386	120.94
439.608	125.94
439.829	119.94
440.05	130.94
440.272	129.94
440.493	142.94
440.715	105.94
440.936	129.94
441.158	128.94
441.379	113.94
441.6	133.94
441.822	136.94
442.043	129.94
442.264	131.94
442.486	144.94
442.707	125.94
442.928	134.94
443.149	131.94
443.371	131.94
443.592	126.94
443.813	145.94
444.034	134.94
444.255	123.94
444.476	149.94
444.698	127.94
444.919	131.94
445.14	274.94
445.361	182.94
445.582	145.94
445.803	136.94
446.024	137.94
446.245	132.94
446.466	131.94
446.687	127.94
446.908	122.94
447.129	133.94
447.35	139.94
447.571	111.94
447.792	117.94
448.013	121.94
448.234	134.94
448.455	113.94
448.675	125.94
448.896	153.94
449.117	129.94
449.338	121.94
449.559	129.94
449.779	124.94
450	120.94
450.221	135.94
450.442	138.94
450.662	105.94
450.883	105.94
451.104	118.94
451.324	121.94
451.545	115.94
451.766	117.94
451.986	116.94
452.207	115.94
452.428	106.94
452.648	125.94
452.869	127.94
453.089	103.94
453.31	112.94
453.53	117.94
453.751	127.94
453.971	125.94
454.192	111.94
454.412	123.94
454.633	118.94
454.853	106.94
455.073	113.94
455.294	102.94
455.514	115.94
455.734	111.94
455.955	118.94
456.175	112.94
456.395	116.94
456.616	120.94
456.836	100.94
457.056	113.94
457.276	117.94
457.497	95.94
457.717	119.94
457.937	107.94
458.157	105.94
458.377	125.94
458.598	118.94
458.818	123.94
459.038	122.94
459.258	123.94
459.478	102.94
459.698	119.94
459.918	113.94
460.138	125.94
460.358	133.94
460.578	116.94
460.798	122.94
461.018	130.94
461.238	134.94
461.458	139.94
461.678	112.94
461.898	127.94
462.118	124.94
462.338	139.94
462.558	133.94
462.777	138.94
462.997	141.94
463.217	127.94
463.437	132.94
463.657	134.94
463.876	126.94
464.096	151.94
464.316	136.94
464.536	134.94
464.755	129.94
464.975	136.94
465.195	135.94
465.414	130.94
465.634	125.94
465.854	114.94
466.073	121.94
466.293	115.94
466.512	107.94
466.732	104.94
466.951	121.94
467.171	117.94
467.391	131.94
467.61	105.94
467.829	119.94
468.049	117.94
468.268	113.94
468.488	115.94
468.707	123.94
468.927	110.94
469.146	119.94
469.365	121.94
469.585	112.94
469.804	128.94
470.023	114.94
470.243	118.94
470.462	130.94
470.681	119.94
470.901	123.94
471.12	131.94
471.339	135.94
471.558	130.94
471.777	124.94
471.997	120.94
472.216	123.94
472.435	123.94
472.654	126.94
472.873	128.94
473.092	120.94
473.311	123.94
473.53	120.94
473.749	117.94
473.968	142.94
474.187	117.94
474.406	129.94
474.625	118.94
474.844	119.94
475.063	107.94
475.282	130.94
475.501	105.94
475.72	122.94
475.939	111.94
476.158	127.94
476.377	125.94
476.596	117.94
476.814	119.94
477.033	106.94
477.252	115.94
477.471	116.94
477.69	111.94
477.908	119.94
478.127	154.94
478.346	119.94
478.564	122.94
478.783	136.94
479.002	122.94
479.22	112.94
479.439	136.94
479.658	133.94
479.876	146.94
480.095	140.94
480.313	134.94
480.532	125.94
480.751	119.94
480.969	129.94
481.188	129.94
481.406	134.94
481.624	130.94
481.843	115.94
482.061	117.94
482.28	114.94
482.498	142.94
482.717	125.94
482.935	123.94
483.153	125.94
483.372	125.94
483.59	130.94
483.808	138.94
484.027	123.94
484.245	132.94
484.463	126.94
484.681	134.94
484.9	132.94
485.118	120.94
485.336	125.94
485.554	131.94
485.772	129.94
485.99	126.94
486.209	126.94
486.427	117.94
486.645	121.94
486.863	133.94
487.081	126.94
487.299	133.94
487.517	137.94
487.735	136.94
487.953	139.94
488.171	139.94
488.389	134.94
488.607	151.94
488.825	140.94
489.043	131.94
489.261	123.94
489.479	134.94
489.696	127.94
489.914	143.94
490.132	136.94
490.35	137.94
490.568	121.94
490.786	138.94
491.003	126.94
491.221	145.94
491.439	131.94
491.657	130.94
491.874	149.94
492.092	135.94
492.31	153.94
492.527	139.94
492.745	131.94
492.963	152.94
493.18	145.94
493.398	133.94
493.615	151.94
493.833	146.94
494.05	134.94
494.268	139.94
494.485	139.94
494.703	135.94
494.92	147.94
495.138	150.94
495.355	137.94
495.573	143.94
495.79	127.94
496.008	139.94
496.225	130.94
496.442	151.94
496.66	145.94
496.877	141.94
497.094	131.94
497.312	139.94
497.529	141.94
497.746	132.94
497.963	144.94
498.181	125.94
498.398	138.94
498.615	149.94
498.832	157.94
499.049	155.94
499.267	162.94
499.484	167.94
499.701	181.94
499.918	200.94
500.135	195.94
500.352	215.94
500.569	224.94
500.786	218.94
501.003	192.94
501.22	197.94
501.437	180.94
501.654	171.94
501.871	179.94
502.088	171.94
502.305	147.94
502.522	155.94
502.739	147.94
502.956	149.94
503.172	123.94
503.389	135.94
503.606	153.94
503.823	141.94
504.04	146.94
504.256	146.94
504.473	148.94
504.69	131.94
504.907	135.94
505.123	145.94
505.34	125.94
505.557	139.94
505.773	131.94
505.99	126.94
506.207	140.94
506.423	136.94
506.64	121.94
506.856	127.94
