Data from 1968.PennyLincolnUp.Lamp.En5.5.200Scan.071719.P1._HRD10591_14-50-06-969.txt Node
Date: Thu Jul 18 14:50:06 EDT 2019
User: cochatt
Spectrometer: HR+D1059
Trigger mode: 1
Integration Time (sec): 1.000000E-1
Scans to average: 1
Electric dark correction enabled: true
Nonlinearity correction enabled: false
Boxcar width: 0
XAxis mode: Wavelengths
Number of Pixels in Spectrum: 2048
>>>>>Begin Spectral Data<<<<<
223.165	-2.25
223.4	-2.25
223.635	-2.25
223.869	-7.25
224.104	-11.25
224.338	-26.25
224.573	-22.25
224.808	-11.25
225.042	-13.25
225.277	-6.25
225.511	-2.25
225.746	-3.25
225.98	19.75
226.215	11.75
226.449	13.75
226.683	9.75
226.918	28.75
227.152	21.75
227.387	23.75
227.621	39.75
227.856	36.75
228.09	36.75
228.324	45.75
228.559	57.75
228.793	58.75
229.027	58.75
229.262	70.75
229.496	56.75
229.73	71.75
229.964	77.75
230.199	62.75
230.433	70.75
230.667	79.75
230.901	74.75
231.136	81.75
231.37	76.75
231.604	81.75
231.838	77.75
232.072	90.75
232.306	98.75
232.541	84.75
232.775	90.75
233.009	91.75
233.243	88.75
233.477	74.75
233.711	83.75
233.945	83.75
234.179	75.75
234.413	89.75
234.647	82.75
234.881	89.75
235.115	82.75
235.349	81.75
235.583	87.75
235.817	84.75
236.051	76.75
236.285	82.75
236.519	88.75
236.753	80.75
236.987	83.75
237.221	80.75
237.455	98.75
237.689	93.75
237.922	76.75
238.156	75.75
238.39	89.75
238.624	79.75
238.858	82.75
239.091	76.75
239.325	73.75
239.559	66.75
239.793	96.75
240.027	80.75
240.26	80.75
240.494	90.75
240.728	77.75
240.961	78.75
241.195	91.75
241.429	70.75
241.662	88.75
241.896	73.75
242.13	91.75
242.363	84.75
242.597	77.75
242.83	74.75
243.064	82.75
243.298	75.75
243.531	81.75
243.765	79.75
243.998	93.75
244.232	78.75
244.465	84.75
244.699	91.75
244.932	86.75
245.166	62.75
245.399	95.75
245.633	94.75
245.866	74.75
246.099	88.75
246.333	82.75
246.566	85.75
246.8	88.75
247.033	77.75
247.266	85.75
247.5	87.75
247.733	92.75
247.966	95.75
248.2	86.75
248.433	91.75
248.666	87.75
248.899	91.75
249.133	83.75
249.366	77.75
249.599	91.75
249.832	94.75
250.066	84.75
250.299	73.75
250.532	83.75
250.765	93.75
250.998	78.75
251.231	97.75
251.465	97.75
251.698	96.75
251.931	91.75
252.164	98.75
252.397	97.75
252.63	87.75
252.863	80.75
253.096	97.75
253.329	91.75
253.562	81.75
253.795	91.75
254.028	79.75
254.261	97.75
254.494	84.75
254.727	94.75
254.96	95.75
255.193	87.75
255.426	75.75
255.659	81.75
255.892	95.75
256.124	74.75
256.357	80.75
256.59	88.75
256.823	78.75
257.056	95.75
257.289	83.75
257.521	74.75
257.754	83.75
257.987	90.75
258.22	103.75
258.452	90.75
258.685	95.75
258.918	97.75
259.151	81.75
259.383	71.75
259.616	74.75
259.849	87.75
260.081	97.75
260.314	85.75
260.547	94.75
260.779	91.75
261.012	87.75
261.244	92.75
261.477	94.75
261.71	81.75
261.942	80.75
262.175	89.75
262.407	97.75
262.64	89.75
262.872	91.75
263.105	96.75
263.337	114.75
263.57	85.75
263.802	82.75
264.035	86.75
264.267	93.75
264.499	92.75
264.732	94.75
264.964	88.75
265.197	104.75
265.429	98.75
265.661	86.75
265.894	109.75
266.126	95.75
266.358	93.75
266.591	82.75
266.823	92.75
267.055	90.75
267.287	86.75
267.52	104.75
267.752	92.75
267.984	87.75
268.216	99.75
268.448	87.75
268.681	79.75
268.913	77.75
269.145	82.75
269.377	102.75
269.609	81.75
269.841	112.75
270.073	99.75
270.306	95.75
270.538	102.75
270.77	95.75
271.002	106.75
271.234	97.75
271.466	99.75
271.698	98.75
271.93	104.75
272.162	89.75
272.394	95.75
272.626	93.75
272.858	93.75
273.09	96.75
273.322	89.75
273.553	86.75
273.785	85.75
274.017	87.75
274.249	97.75
274.481	87.75
274.713	98.75
274.945	107.75
275.176	97.75
275.408	110.75
275.64	96.75
275.872	113.75
276.104	89.75
276.335	90.75
276.567	92.75
276.799	93.75
277.031	85.75
277.262	98.75
277.494	109.75
277.726	79.75
277.957	105.75
278.189	80.75
278.421	93.75
278.652	83.75
278.884	97.75
279.115	92.75
279.347	95.75
279.579	94.75
279.81	91.75
280.042	94.75
280.273	79.75
280.505	99.75
280.736	95.75
280.968	109.75
281.199	98.75
281.431	90.75
281.662	101.75
281.894	102.75
282.125	98.75
282.356	99.75
282.588	102.75
282.819	76.75
283.051	99.75
283.282	98.75
283.513	93.75
283.745	87.75
283.976	102.75
284.207	97.75
284.439	118.75
284.67	92.75
284.901	86.75
285.132	108.75
285.364	94.75
285.595	104.75
285.826	97.75
286.057	107.75
286.288	94.75
286.52	110.75
286.751	99.75
286.982	98.75
287.213	108.75
287.444	94.75
287.675	100.75
287.906	97.75
288.138	108.75
288.369	99.75
288.6	102.75
288.831	104.75
289.062	108.75
289.293	109.75
289.524	106.75
289.755	114.75
289.986	104.75
290.217	101.75
290.448	114.75
290.679	101.75
290.91	129.75
291.141	107.75
291.371	110.75
291.602	96.75
291.833	96.75
292.064	110.75
292.295	129.75
292.526	98.75
292.757	101.75
292.987	82.75
293.218	103.75
293.449	99.75
293.68	107.75
293.91	98.75
294.141	85.75
294.372	95.75
294.603	103.75
294.833	100.75
295.064	90.75
295.295	98.75
295.525	94.75
295.756	109.75
295.987	93.75
296.217	92.75
296.448	110.75
296.679	90.75
296.909	114.75
297.14	107.75
297.37	113.75
297.601	110.75
297.831	112.75
298.062	105.75
298.292	104.75
298.523	106.75
298.753	118.75
298.984	119.75
299.214	98.75
299.445	103.75
299.675	101.75
299.905	101.75
300.136	103.75
300.366	111.75
300.597	92.75
300.827	115.75
301.057	106.75
301.288	93.75
301.518	116.75
301.748	97.75
301.979	97.75
302.209	104.75
302.439	95.75
302.669	100.75
302.9	110.75
303.13	112.75
303.36	86.75
303.59	101.75
303.82	106.75
304.051	95.75
304.281	104.75
304.511	103.75
304.741	88.75
304.971	111.75
305.201	117.75
305.431	102.75
305.661	108.75
305.891	117.75
306.121	110.75
306.352	108.75
306.582	91.75
306.812	103.75
307.042	123.75
307.272	108.75
307.502	95.75
307.731	96.75
307.961	104.75
308.191	105.75
308.421	101.75
308.651	106.75
308.881	105.75
309.111	114.75
309.341	121.75
309.571	116.75
309.8	104.75
310.03	102.75
310.26	93.75
310.49	118.75
310.72	106.75
310.949	110.75
311.179	103.75
311.409	99.75
311.639	101.75
311.868	106.75
312.098	109.75
312.328	111.75
312.557	114.75
312.787	126.75
313.017	109.75
313.246	114.75
313.476	94.75
313.706	115.75
313.935	104.75
314.165	109.75
314.394	100.75
314.624	103.75
314.853	120.75
315.083	110.75
315.312	101.75
315.542	104.75
315.771	120.75
316.001	115.75
316.23	106.75
316.46	94.75
316.689	103.75
316.919	102.75
317.148	104.75
317.377	109.75
317.607	98.75
317.836	105.75
318.065	105.75
318.295	112.75
318.524	97.75
318.753	104.75
318.983	106.75
319.212	101.75
319.441	97.75
319.67	111.75
319.9	102.75
320.129	120.75
320.358	109.75
320.587	90.75
320.816	114.75
321.046	105.75
321.275	127.75
321.504	117.75
321.733	110.75
321.962	121.75
322.191	108.75
322.42	115.75
322.649	113.75
322.878	103.75
323.108	111.75
323.337	114.75
323.566	108.75
323.795	113.75
324.024	112.75
324.253	125.75
324.482	127.75
324.71	149.75
324.939	169.75
325.168	161.75
325.397	130.75
325.626	115.75
325.855	110.75
326.084	110.75
326.313	118.75
326.542	113.75
326.77	108.75
326.999	129.75
327.228	131.75
327.457	144.75
327.686	154.75
327.914	134.75
328.143	123.75
328.372	121.75
328.6	120.75
328.829	106.75
329.058	119.75
329.287	119.75
329.515	122.75
329.744	121.75
329.972	102.75
330.201	121.75
330.43	113.75
330.658	130.75
330.887	118.75
331.115	115.75
331.344	113.75
331.572	108.75
331.801	120.75
332.03	113.75
332.258	113.75
332.486	120.75
332.715	119.75
332.943	117.75
333.172	125.75
333.4	115.75
333.629	115.75
333.857	121.75
334.085	125.75
334.314	125.75
334.542	134.75
334.771	139.75
334.999	121.75
335.227	118.75
335.455	117.75
335.684	125.75
335.912	107.75
336.14	103.75
336.369	104.75
336.597	116.75
336.825	114.75
337.053	112.75
337.281	103.75
337.51	122.75
337.738	104.75
337.966	110.75
338.194	112.75
338.422	107.75
338.65	110.75
338.878	118.75
339.106	106.75
339.334	120.75
339.562	113.75
339.79	114.75
340.018	107.75
340.246	123.75
340.474	118.75
340.702	118.75
340.93	118.75
341.158	120.75
341.386	122.75
341.614	118.75
341.842	106.75
342.07	107.75
342.298	114.75
342.526	109.75
342.754	115.75
342.981	112.75
343.209	123.75
343.437	118.75
343.665	116.75
343.893	134.75
344.12	87.75
344.348	124.75
344.576	113.75
344.804	119.75
345.031	117.75
345.259	114.75
345.487	114.75
345.714	129.75
345.942	116.75
346.17	111.75
346.397	100.75
346.625	97.75
346.853	116.75
347.08	121.75
347.308	107.75
347.535	110.75
347.763	124.75
347.99	123.75
348.218	118.75
348.445	113.75
348.673	105.75
348.9	121.75
349.128	121.75
349.355	115.75
349.583	100.75
349.81	99.75
350.037	106.75
350.265	104.75
350.492	100.75
350.72	114.75
350.947	117.75
351.174	116.75
351.402	115.75
351.629	103.75
351.856	118.75
352.083	113.75
352.311	109.75
352.538	110.75
352.765	106.75
352.992	105.75
353.22	93.75
353.447	90.75
353.674	122.75
353.901	108.75
354.128	119.75
354.355	125.75
354.583	117.75
354.81	110.75
355.037	113.75
355.264	102.75
355.491	117.75
355.718	107.75
355.945	116.75
356.172	115.75
356.399	107.75
356.626	119.75
356.853	121.75
357.08	109.75
357.307	119.75
357.534	123.75
357.761	102.75
357.988	110.75
358.215	92.75
358.441	108.75
358.668	110.75
358.895	92.75
359.122	101.75
359.349	109.75
359.576	104.75
359.802	113.75
360.029	129.75
360.256	113.75
360.483	126.75
360.709	108.75
360.936	116.75
361.163	117.75
361.39	109.75
361.616	109.75
361.843	110.75
362.07	115.75
362.296	109.75
362.523	129.75
362.749	99.75
362.976	114.75
363.203	120.75
363.429	103.75
363.656	115.75
363.882	104.75
364.109	108.75
364.335	102.75
364.562	107.75
364.788	117.75
365.015	108.75
365.241	113.75
365.468	104.75
365.694	103.75
365.92	103.75
366.147	113.75
366.373	109.75
366.599	111.75
366.826	102.75
367.052	97.75
367.278	131.75
367.505	118.75
367.731	114.75
367.957	106.75
368.184	119.75
368.41	105.75
368.636	103.75
368.862	97.75
369.089	101.75
369.315	104.75
369.541	119.75
369.767	106.75
369.993	123.75
370.219	115.75
370.445	111.75
370.672	111.75
370.898	111.75
371.124	118.75
371.35	119.75
371.576	107.75
371.802	119.75
372.028	112.75
372.254	108.75
372.48	107.75
372.706	98.75
372.932	111.75
373.158	107.75
373.384	110.75
373.61	121.75
373.835	120.75
374.061	117.75
374.287	110.75
374.513	105.75
374.739	116.75
374.965	109.75
375.191	116.75
375.416	116.75
375.642	109.75
375.868	129.75
376.094	119.75
376.319	115.75
376.545	107.75
376.771	110.75
376.997	107.75
377.222	115.75
377.448	121.75
377.674	113.75
377.899	107.75
378.125	112.75
378.35	121.75
378.576	120.75
378.802	115.75
379.027	111.75
379.253	109.75
379.478	126.75
379.704	121.75
379.929	124.75
380.155	122.75
380.38	114.75
380.606	115.75
380.831	123.75
381.057	111.75
381.282	123.75
381.507	104.75
381.733	101.75
381.958	115.75
382.184	115.75
382.409	125.75
382.634	115.75
382.86	106.75
383.085	107.75
383.31	118.75
383.535	123.75
383.761	118.75
383.986	131.75
384.211	119.75
384.436	115.75
384.662	113.75
384.887	116.75
385.112	105.75
385.337	112.75
385.562	109.75
385.787	109.75
386.013	117.75
386.238	104.75
386.463	116.75
386.688	110.75
386.913	121.75
387.138	122.75
387.363	112.75
387.588	114.75
387.813	127.75
388.038	120.75
388.263	120.75
388.488	134.75
388.713	132.75
388.938	101.75
389.163	110.75
389.387	136.75
389.612	124.75
389.837	114.75
390.062	118.75
390.287	130.75
390.512	121.75
390.736	100.75
390.961	108.75
391.186	118.75
391.411	106.75
391.636	116.75
391.86	133.75
392.085	125.75
392.31	136.75
392.534	125.75
392.759	121.75
392.984	108.75
393.208	125.75
393.433	110.75
393.658	115.75
393.882	124.75
394.107	109.75
394.331	124.75
394.556	115.75
394.78	103.75
395.005	117.75
395.229	126.75
395.454	126.75
395.678	131.75
395.903	118.75
396.127	118.75
396.352	114.75
396.576	113.75
396.801	134.75
397.025	126.75
397.249	94.75
397.474	129.75
397.698	121.75
397.922	133.75
398.147	129.75
398.371	127.75
398.595	130.75
398.82	114.75
399.044	130.75
399.268	130.75
399.492	145.75
399.717	132.75
399.941	155.75
400.165	152.75
400.389	138.75
400.613	120.75
400.837	143.75
401.062	121.75
401.286	119.75
401.51	110.75
401.734	123.75
401.958	125.75
402.182	130.75
402.406	131.75
402.63	127.75
402.854	129.75
403.078	129.75
403.302	143.75
403.526	126.75
403.75	132.75
403.974	129.75
404.198	147.75
404.422	141.75
404.645	133.75
404.869	130.75
405.093	127.75
405.317	145.75
405.541	135.75
405.765	143.75
405.988	139.75
406.212	140.75
406.436	142.75
406.66	133.75
406.883	121.75
407.107	139.75
407.331	155.75
407.555	141.75
407.778	127.75
408.002	134.75
408.226	128.75
408.449	130.75
408.673	126.75
408.896	128.75
409.12	133.75
409.344	133.75
409.567	145.75
409.791	134.75
410.014	131.75
410.238	131.75
410.461	116.75
410.685	133.75
410.908	137.75
411.132	137.75
411.355	135.75
411.578	127.75
411.802	122.75
412.025	132.75
412.249	131.75
412.472	137.75
412.695	135.75
412.919	124.75
413.142	128.75
413.365	134.75
413.589	126.75
413.812	124.75
414.035	140.75
414.258	125.75
414.482	116.75
414.705	140.75
414.928	114.75
415.151	124.75
415.374	130.75
415.597	124.75
415.821	117.75
416.044	125.75
416.267	115.75
416.49	121.75
416.713	134.75
416.936	122.75
417.159	137.75
417.382	127.75
417.605	137.75
417.828	115.75
418.051	127.75
418.274	133.75
418.497	138.75
418.72	132.75
418.943	127.75
419.166	134.75
419.389	129.75
419.611	139.75
419.834	130.75
420.057	122.75
420.28	130.75
420.503	130.75
420.726	140.75
420.948	129.75
421.171	132.75
421.394	125.75
421.617	113.75
421.839	108.75
422.062	139.75
422.285	117.75
422.507	143.75
422.73	138.75
422.953	141.75
423.175	127.75
423.398	126.75
423.621	133.75
423.843	138.75
424.066	129.75
424.288	137.75
424.511	137.75
424.733	137.75
424.956	152.75
425.178	129.75
425.401	126.75
425.623	138.75
425.846	123.75
426.068	119.75
426.291	137.75
426.513	117.75
426.735	129.75
426.958	119.75
427.18	133.75
427.402	142.75
427.625	141.75
427.847	142.75
428.069	143.75
428.292	130.75
428.514	131.75
428.736	129.75
428.958	123.75
429.181	132.75
429.403	110.75
429.625	125.75
429.847	133.75
430.069	122.75
430.292	133.75
430.514	117.75
430.736	115.75
430.958	121.75
431.18	118.75
431.402	126.75
431.624	137.75
431.846	120.75
432.068	121.75
432.29	116.75
432.512	140.75
432.734	115.75
432.956	126.75
433.178	116.75
433.4	132.75
433.622	133.75
433.844	129.75
434.066	130.75
434.287	127.75
434.509	130.75
434.731	125.75
434.953	139.75
435.175	133.75
435.397	121.75
435.618	113.75
435.84	146.75
436.062	124.75
436.284	137.75
436.505	123.75
436.727	122.75
436.949	118.75
437.17	115.75
437.392	104.75
437.614	135.75
437.835	118.75
438.057	122.75
438.278	120.75
438.5	138.75
438.721	139.75
438.943	150.75
439.165	140.75
439.386	113.75
439.608	107.75
439.829	131.75
440.05	130.75
440.272	132.75
440.493	131.75
440.715	135.75
440.936	124.75
441.158	127.75
441.379	138.75
441.6	135.75
441.822	143.75
442.043	128.75
442.264	129.75
442.486	149.75
442.707	137.75
442.928	127.75
443.149	121.75
443.371	121.75
443.592	126.75
443.813	129.75
444.034	141.75
444.255	143.75
444.476	141.75
444.698	141.75
444.919	139.75
445.14	272.75
445.361	204.75
445.582	133.75
445.803	142.75
446.024	141.75
446.245	119.75
446.466	137.75
446.687	142.75
446.908	124.75
447.129	127.75
447.35	126.75
447.571	124.75
447.792	118.75
448.013	112.75
448.234	131.75
448.455	122.75
448.675	147.75
448.896	137.75
449.117	119.75
449.338	128.75
449.559	132.75
449.779	135.75
450	126.75
450.221	131.75
450.442	121.75
450.662	120.75
450.883	130.75
451.104	131.75
451.324	122.75
451.545	117.75
451.766	126.75
451.986	117.75
452.207	126.75
452.428	120.75
452.648	103.75
452.869	109.75
453.089	119.75
453.31	133.75
453.53	119.75
453.751	111.75
453.971	122.75
454.192	125.75
454.412	125.75
454.633	122.75
454.853	120.75
455.073	137.75
455.294	104.75
455.514	115.75
455.734	117.75
455.955	129.75
456.175	125.75
456.395	119.75
456.616	128.75
456.836	126.75
457.056	114.75
457.276	122.75
457.497	125.75
457.717	117.75
457.937	127.75
458.157	121.75
458.377	133.75
458.598	125.75
458.818	129.75
459.038	126.75
459.258	128.75
459.478	124.75
459.698	123.75
459.918	114.75
460.138	126.75
460.358	128.75
460.578	115.75
460.798	122.75
461.018	134.75
461.238	133.75
461.458	127.75
461.678	131.75
461.898	151.75
462.118	126.75
462.338	134.75
462.558	147.75
462.777	129.75
462.997	142.75
463.217	139.75
463.437	149.75
463.657	140.75
463.876	137.75
464.096	146.75
464.316	133.75
464.536	114.75
464.755	119.75
464.975	125.75
465.195	127.75
465.414	129.75
465.634	133.75
465.854	107.75
466.073	131.75
466.293	118.75
466.512	124.75
466.732	120.75
466.951	127.75
467.171	126.75
467.391	113.75
467.61	127.75
467.829	126.75
468.049	123.75
468.268	108.75
468.488	128.75
468.707	123.75
468.927	129.75
469.146	121.75
469.365	129.75
469.585	136.75
469.804	118.75
470.023	113.75
470.243	115.75
470.462	129.75
470.681	134.75
470.901	121.75
471.12	114.75
471.339	105.75
471.558	115.75
471.777	115.75
471.997	135.75
472.216	125.75
472.435	117.75
472.654	112.75
472.873	128.75
473.092	120.75
473.311	119.75
473.53	122.75
473.749	123.75
473.968	118.75
474.187	126.75
474.406	128.75
474.625	109.75
474.844	118.75
475.063	108.75
475.282	119.75
475.501	117.75
475.72	110.75
475.939	127.75
476.158	128.75
476.377	117.75
476.596	115.75
476.814	115.75
477.033	125.75
477.252	127.75
477.471	119.75
477.69	125.75
477.908	136.75
478.127	143.75
478.346	127.75
478.564	138.75
478.783	139.75
479.002	132.75
479.22	136.75
479.439	132.75
479.658	138.75
479.876	142.75
480.095	122.75
480.313	150.75
480.532	135.75
480.751	123.75
480.969	124.75
481.188	122.75
481.406	127.75
481.624	148.75
481.843	123.75
482.061	130.75
482.28	127.75
482.498	114.75
482.717	129.75
482.935	123.75
483.153	135.75
483.372	125.75
483.59	136.75
483.808	130.75
484.027	138.75
484.245	130.75
484.463	128.75
484.681	150.75
484.9	137.75
485.118	125.75
485.336	129.75
485.554	131.75
485.772	127.75
485.99	136.75
486.209	113.75
486.427	139.75
486.645	129.75
486.863	134.75
487.081	125.75
487.299	131.75
487.517	132.75
487.735	137.75
487.953	133.75
488.171	116.75
488.389	143.75
488.607	130.75
488.825	145.75
489.043	139.75
489.261	129.75
489.479	136.75
489.696	139.75
489.914	129.75
490.132	137.75
490.35	137.75
490.568	152.75
490.786	156.75
491.003	151.75
491.221	134.75
491.439	136.75
491.657	145.75
491.874	137.75
492.092	131.75
492.31	137.75
492.527	140.75
492.745	145.75
492.963	133.75
493.18	146.75
493.398	139.75
493.615	141.75
493.833	149.75
494.05	146.75
494.268	141.75
494.485	143.75
494.703	140.75
494.92	139.75
495.138	143.75
495.355	154.75
495.573	145.75
495.79	161.75
496.008	148.75
496.225	151.75
496.442	134.75
496.66	158.75
496.877	140.75
497.094	145.75
497.312	146.75
497.529	153.75
497.746	150.75
497.963	146.75
498.181	137.75
498.398	157.75
498.615	151.75
498.832	143.75
499.049	178.75
499.267	169.75
499.484	175.75
499.701	183.75
499.918	194.75
500.135	202.75
500.352	202.75
500.569	214.75
500.786	203.75
501.003	205.75
501.22	179.75
501.437	189.75
501.654	163.75
501.871	179.75
502.088	169.75
502.305	171.75
502.522	145.75
502.739	161.75
502.956	170.75
503.172	156.75
503.389	154.75
503.606	142.75
503.823	153.75
504.04	147.75
504.256	154.75
504.473	142.75
504.69	148.75
504.907	127.75
505.123	132.75
505.34	147.75
505.557	129.75
505.773	145.75
