Data from 1968.PennyLincolnUp.Lamp.En5.5.200Scan.071719.P1._HRD10591_14-49-51-968.txt Node
Date: Thu Jul 18 14:49:51 EDT 2019
User: cochatt
Spectrometer: HR+D1059
Trigger mode: 1
Integration Time (sec): 1.000000E-1
Scans to average: 1
Electric dark correction enabled: true
Nonlinearity correction enabled: false
Boxcar width: 0
XAxis mode: Wavelengths
Number of Pixels in Spectrum: 2048
>>>>>Begin Spectral Data<<<<<
223.165	-12.69
223.4	-12.69
223.635	-12.69
223.869	-16.69
224.104	-30.69
224.338	-16.69
224.573	-11.69
224.808	-20.69
225.042	-0.69
225.277	13.31
225.511	-3.69
225.746	7.31
225.98	7.31
226.215	6.31
226.449	25.31
226.683	8.31
226.918	9.31
227.152	36.31
227.387	34.31
227.621	33.31
227.856	38.31
228.09	33.31
228.324	56.31
228.559	65.31
228.793	67.31
229.027	71.31
229.262	55.31
229.496	76.31
229.73	74.31
229.964	71.31
230.199	72.31
230.433	76.31
230.667	63.31
230.901	61.31
231.136	69.31
231.37	84.31
231.604	86.31
231.838	77.31
232.072	78.31
232.306	66.31
232.541	88.31
232.775	93.31
233.009	83.31
233.243	88.31
233.477	85.31
233.711	84.31
233.945	88.31
234.179	81.31
234.413	81.31
234.647	84.31
234.881	80.31
235.115	97.31
235.349	90.31
235.583	85.31
235.817	77.31
236.051	63.31
236.285	83.31
236.519	72.31
236.753	92.31
236.987	89.31
237.221	83.31
237.455	79.31
237.689	80.31
237.922	80.31
238.156	70.31
238.39	86.31
238.624	74.31
238.858	72.31
239.091	76.31
239.325	75.31
239.559	83.31
239.793	72.31
240.027	81.31
240.26	88.31
240.494	100.31
240.728	78.31
240.961	73.31
241.195	76.31
241.429	80.31
241.662	75.31
241.896	78.31
242.13	81.31
242.363	81.31
242.597	85.31
242.83	84.31
243.064	81.31
243.298	96.31
243.531	82.31
243.765	86.31
243.998	85.31
244.232	89.31
244.465	87.31
244.699	75.31
244.932	88.31
245.166	72.31
245.399	91.31
245.633	77.31
245.866	93.31
246.099	78.31
246.333	74.31
246.566	87.31
246.8	67.31
247.033	91.31
247.266	82.31
247.5	61.31
247.733	78.31
247.966	79.31
248.2	66.31
248.433	92.31
248.666	91.31
248.899	86.31
249.133	90.31
249.366	97.31
249.599	83.31
249.832	80.31
250.066	91.31
250.299	85.31
250.532	94.31
250.765	88.31
250.998	75.31
251.231	96.31
251.465	80.31
251.698	93.31
251.931	93.31
252.164	96.31
252.397	87.31
252.63	81.31
252.863	91.31
253.096	84.31
253.329	97.31
253.562	77.31
253.795	90.31
254.028	91.31
254.261	86.31
254.494	95.31
254.727	93.31
254.96	90.31
255.193	80.31
255.426	84.31
255.659	91.31
255.892	89.31
256.124	74.31
256.357	84.31
256.59	83.31
256.823	93.31
257.056	84.31
257.289	86.31
257.521	82.31
257.754	92.31
257.987	95.31
258.22	95.31
258.452	87.31
258.685	95.31
258.918	67.31
259.151	96.31
259.383	99.31
259.616	84.31
259.849	98.31
260.081	93.31
260.314	100.31
260.547	97.31
260.779	84.31
261.012	92.31
261.244	81.31
261.477	97.31
261.71	97.31
261.942	89.31
262.175	92.31
262.407	94.31
262.64	82.31
262.872	89.31
263.105	92.31
263.337	85.31
263.57	93.31
263.802	93.31
264.035	89.31
264.267	102.31
264.499	89.31
264.732	91.31
264.964	100.31
265.197	91.31
265.429	86.31
265.661	82.31
265.894	81.31
266.126	96.31
266.358	76.31
266.591	95.31
266.823	98.31
267.055	78.31
267.287	110.31
267.52	80.31
267.752	95.31
267.984	87.31
268.216	90.31
268.448	102.31
268.681	82.31
268.913	111.31
269.145	108.31
269.377	93.31
269.609	98.31
269.841	101.31
270.073	95.31
270.306	91.31
270.538	93.31
270.77	106.31
271.002	84.31
271.234	103.31
271.466	91.31
271.698	99.31
271.93	83.31
272.162	83.31
272.394	89.31
272.626	92.31
272.858	102.31
273.09	95.31
273.322	79.31
273.553	101.31
273.785	87.31
274.017	84.31
274.249	88.31
274.481	97.31
274.713	99.31
274.945	100.31
275.176	91.31
275.408	98.31
275.64	112.31
275.872	115.31
276.104	94.31
276.335	93.31
276.567	100.31
276.799	86.31
277.031	94.31
277.262	105.31
277.494	101.31
277.726	91.31
277.957	95.31
278.189	99.31
278.421	103.31
278.652	95.31
278.884	89.31
279.115	104.31
279.347	99.31
279.579	99.31
279.81	98.31
280.042	90.31
280.273	95.31
280.505	99.31
280.736	113.31
280.968	96.31
281.199	85.31
281.431	99.31
281.662	104.31
281.894	89.31
282.125	101.31
282.356	89.31
282.588	89.31
282.819	116.31
283.051	111.31
283.282	99.31
283.513	111.31
283.745	88.31
283.976	82.31
284.207	100.31
284.439	101.31
284.67	97.31
284.901	103.31
285.132	93.31
285.364	92.31
285.595	89.31
285.826	91.31
286.057	101.31
286.288	100.31
286.52	106.31
286.751	82.31
286.982	104.31
287.213	104.31
287.444	113.31
287.675	96.31
287.906	98.31
288.138	97.31
288.369	104.31
288.6	111.31
288.831	101.31
289.062	108.31
289.293	103.31
289.524	80.31
289.755	91.31
289.986	99.31
290.217	100.31
290.448	106.31
290.679	95.31
290.91	97.31
291.141	100.31
291.371	95.31
291.602	96.31
291.833	91.31
292.064	93.31
292.295	106.31
292.526	111.31
292.757	109.31
292.987	105.31
293.218	104.31
293.449	105.31
293.68	108.31
293.91	95.31
294.141	93.31
294.372	92.31
294.603	103.31
294.833	112.31
295.064	98.31
295.295	107.31
295.525	115.31
295.756	91.31
295.987	112.31
296.217	96.31
296.448	108.31
296.679	100.31
296.909	102.31
297.14	89.31
297.37	100.31
297.601	110.31
297.831	95.31
298.062	87.31
298.292	105.31
298.523	102.31
298.753	115.31
298.984	91.31
299.214	112.31
299.445	101.31
299.675	104.31
299.905	114.31
300.136	98.31
300.366	92.31
300.597	88.31
300.827	97.31
301.057	108.31
301.288	115.31
301.518	101.31
301.748	99.31
301.979	105.31
302.209	96.31
302.439	106.31
302.669	112.31
302.9	101.31
303.13	100.31
303.36	96.31
303.59	102.31
303.82	100.31
304.051	118.31
304.281	117.31
304.511	99.31
304.741	98.31
304.971	100.31
305.201	99.31
305.431	115.31
305.661	114.31
305.891	109.31
306.121	119.31
306.352	106.31
306.582	91.31
306.812	98.31
307.042	93.31
307.272	100.31
307.502	99.31
307.731	85.31
307.961	90.31
308.191	98.31
308.421	82.31
308.651	95.31
308.881	105.31
309.111	111.31
309.341	101.31
309.571	100.31
309.8	86.31
310.03	89.31
310.26	98.31
310.49	105.31
310.72	115.31
310.949	106.31
311.179	97.31
311.409	108.31
311.639	114.31
311.868	97.31
312.098	102.31
312.328	99.31
312.557	109.31
312.787	114.31
313.017	116.31
313.246	106.31
313.476	94.31
313.706	107.31
313.935	94.31
314.165	108.31
314.394	107.31
314.624	115.31
314.853	98.31
315.083	106.31
315.312	94.31
315.542	108.31
315.771	109.31
316.001	108.31
316.23	93.31
316.46	96.31
316.689	87.31
316.919	106.31
317.148	94.31
317.377	118.31
317.607	116.31
317.836	103.31
318.065	104.31
318.295	111.31
318.524	94.31
318.753	107.31
318.983	109.31
319.212	121.31
319.441	113.31
319.67	103.31
319.9	123.31
320.129	106.31
320.358	99.31
320.587	113.31
320.816	102.31
321.046	119.31
321.275	106.31
321.504	95.31
321.733	107.31
321.962	100.31
322.191	106.31
322.42	104.31
322.649	99.31
322.878	102.31
323.108	125.31
323.337	123.31
323.566	86.31
323.795	105.31
324.024	127.31
324.253	121.31
324.482	137.31
324.71	151.31
324.939	167.31
325.168	166.31
325.397	114.31
325.626	106.31
325.855	100.31
326.084	103.31
326.313	105.31
326.542	113.31
326.77	115.31
326.999	124.31
327.228	128.31
327.457	148.31
327.686	145.31
327.914	134.31
328.143	105.31
328.372	113.31
328.6	114.31
328.829	115.31
329.058	123.31
329.287	105.31
329.515	109.31
329.744	123.31
329.972	124.31
330.201	108.31
330.43	111.31
330.658	113.31
330.887	121.31
331.115	109.31
331.344	103.31
331.572	113.31
331.801	117.31
332.03	127.31
332.258	127.31
332.486	110.31
332.715	103.31
332.943	116.31
333.172	105.31
333.4	113.31
333.629	125.31
333.857	123.31
334.085	127.31
334.314	117.31
334.542	130.31
334.771	132.31
334.999	129.31
335.227	127.31
335.455	113.31
335.684	101.31
335.912	125.31
336.14	113.31
336.369	107.31
336.597	112.31
336.825	109.31
337.053	117.31
337.281	104.31
337.51	119.31
337.738	99.31
337.966	121.31
338.194	112.31
338.422	115.31
338.65	109.31
338.878	121.31
339.106	111.31
339.334	95.31
339.562	119.31
339.79	105.31
340.018	103.31
340.246	124.31
340.474	107.31
340.702	95.31
340.93	110.31
341.158	113.31
341.386	117.31
341.614	115.31
341.842	96.31
342.07	107.31
342.298	119.31
342.526	108.31
342.754	106.31
342.981	107.31
343.209	103.31
343.437	117.31
343.665	105.31
343.893	106.31
344.12	122.31
344.348	119.31
344.576	110.31
344.804	110.31
345.031	117.31
345.259	123.31
345.487	108.31
345.714	106.31
345.942	112.31
346.17	119.31
346.397	104.31
346.625	110.31
346.853	109.31
347.08	105.31
347.308	106.31
347.535	114.31
347.763	105.31
347.99	119.31
348.218	115.31
348.445	95.31
348.673	118.31
348.9	123.31
349.128	109.31
349.355	105.31
349.583	130.31
349.81	102.31
350.037	93.31
350.265	101.31
350.492	104.31
350.72	107.31
350.947	114.31
351.174	121.31
351.402	102.31
351.629	117.31
351.856	107.31
352.083	108.31
352.311	111.31
352.538	113.31
352.765	107.31
352.992	95.31
353.22	121.31
353.447	111.31
353.674	114.31
353.901	107.31
354.128	117.31
354.355	102.31
354.583	118.31
354.81	103.31
355.037	113.31
355.264	107.31
355.491	103.31
355.718	99.31
355.945	104.31
356.172	108.31
356.399	106.31
356.626	109.31
356.853	97.31
357.08	117.31
357.307	95.31
357.534	107.31
357.761	96.31
357.988	99.31
358.215	111.31
358.441	115.31
358.668	95.31
358.895	102.31
359.122	101.31
359.349	100.31
359.576	107.31
359.802	103.31
360.029	109.31
360.256	105.31
360.483	119.31
360.709	111.31
360.936	116.31
361.163	101.31
361.39	101.31
361.616	110.31
361.843	116.31
362.07	114.31
362.296	115.31
362.523	96.31
362.749	99.31
362.976	104.31
363.203	116.31
363.429	104.31
363.656	96.31
363.882	101.31
364.109	98.31
364.335	114.31
364.562	109.31
364.788	108.31
365.015	105.31
365.241	122.31
365.468	122.31
365.694	117.31
365.92	121.31
366.147	113.31
366.373	107.31
366.599	105.31
366.826	101.31
367.052	91.31
367.278	104.31
367.505	111.31
367.731	113.31
367.957	98.31
368.184	115.31
368.41	123.31
368.636	129.31
368.862	107.31
369.089	112.31
369.315	102.31
369.541	131.31
369.767	113.31
369.993	122.31
370.219	124.31
370.445	108.31
370.672	110.31
370.898	107.31
371.124	125.31
371.35	111.31
371.576	116.31
371.802	118.31
372.028	109.31
372.254	106.31
372.48	106.31
372.706	115.31
372.932	115.31
373.158	97.31
373.384	116.31
373.61	114.31
373.835	118.31
374.061	115.31
374.287	113.31
374.513	120.31
374.739	125.31
374.965	107.31
375.191	99.31
375.416	120.31
375.642	103.31
375.868	121.31
376.094	114.31
376.319	105.31
376.545	97.31
376.771	114.31
376.997	116.31
377.222	101.31
377.448	120.31
377.674	107.31
377.899	102.31
378.125	113.31
378.35	111.31
378.576	101.31
378.802	113.31
379.027	124.31
379.253	115.31
379.478	111.31
379.704	104.31
379.929	105.31
380.155	117.31
380.38	115.31
380.606	122.31
380.831	109.31
381.057	118.31
381.282	105.31
381.507	112.31
381.733	105.31
381.958	107.31
382.184	101.31
382.409	97.31
382.634	114.31
382.86	119.31
383.085	115.31
383.31	122.31
383.535	104.31
383.761	103.31
383.986	100.31
384.211	123.31
384.436	129.31
384.662	113.31
384.887	121.31
385.112	120.31
385.337	113.31
385.562	112.31
385.787	115.31
386.013	108.31
386.238	114.31
386.463	105.31
386.688	127.31
386.913	124.31
387.138	129.31
387.363	109.31
387.588	127.31
387.813	118.31
388.038	125.31
388.263	117.31
388.488	118.31
388.713	104.31
388.938	138.31
389.163	109.31
389.387	118.31
389.612	113.31
389.837	100.31
390.062	123.31
390.287	133.31
390.512	131.31
390.736	106.31
390.961	111.31
391.186	103.31
391.411	126.31
391.636	130.31
391.86	113.31
392.085	120.31
392.31	131.31
392.534	117.31
392.759	125.31
392.984	111.31
393.208	117.31
393.433	122.31
393.658	128.31
393.882	115.31
394.107	119.31
394.331	121.31
394.556	108.31
394.78	123.31
395.005	123.31
395.229	120.31
395.454	118.31
395.678	113.31
395.903	121.31
396.127	130.31
396.352	116.31
396.576	125.31
396.801	124.31
397.025	121.31
397.249	112.31
397.474	120.31
397.698	111.31
397.922	127.31
398.147	122.31
398.371	123.31
398.595	125.31
398.82	113.31
399.044	124.31
399.268	121.31
399.492	151.31
399.717	139.31
399.941	145.31
400.165	147.31
400.389	123.31
400.613	136.31
400.837	135.31
401.062	138.31
401.286	129.31
401.51	118.31
401.734	123.31
401.958	134.31
402.182	125.31
402.406	124.31
402.63	120.31
402.854	132.31
403.078	122.31
403.302	136.31
403.526	135.31
403.75	125.31
403.974	128.31
404.198	152.31
404.422	132.31
404.645	121.31
404.869	129.31
405.093	131.31
405.317	131.31
405.541	131.31
405.765	130.31
405.988	124.31
406.212	135.31
406.436	134.31
406.66	123.31
406.883	121.31
407.107	148.31
407.331	149.31
407.555	138.31
407.778	131.31
408.002	125.31
408.226	136.31
408.449	120.31
408.673	140.31
408.896	142.31
409.12	137.31
409.344	125.31
409.567	123.31
409.791	122.31
410.014	129.31
410.238	131.31
410.461	124.31
410.685	131.31
410.908	130.31
411.132	123.31
411.355	130.31
411.578	137.31
411.802	131.31
412.025	132.31
412.249	121.31
412.472	136.31
412.695	133.31
412.919	125.31
413.142	128.31
413.365	139.31
413.589	121.31
413.812	112.31
414.035	128.31
414.258	123.31
414.482	140.31
414.705	131.31
414.928	126.31
415.151	116.31
415.374	130.31
415.597	117.31
415.821	122.31
416.044	116.31
416.267	132.31
416.49	119.31
416.713	123.31
416.936	132.31
417.159	129.31
417.382	122.31
417.605	108.31
417.828	120.31
418.051	116.31
418.274	126.31
418.497	139.31
418.72	135.31
418.943	107.31
419.166	133.31
419.389	124.31
419.611	123.31
419.834	129.31
420.057	130.31
420.28	125.31
420.503	130.31
420.726	122.31
420.948	128.31
421.171	121.31
421.394	138.31
421.617	121.31
421.839	135.31
422.062	134.31
422.285	127.31
422.507	141.31
422.73	127.31
422.953	134.31
423.175	134.31
423.398	129.31
423.621	134.31
423.843	133.31
424.066	134.31
424.288	132.31
424.511	120.31
424.733	133.31
424.956	130.31
425.178	128.31
425.401	138.31
425.623	133.31
425.846	131.31
426.068	120.31
426.291	131.31
426.513	127.31
426.735	132.31
426.958	127.31
427.18	123.31
427.402	144.31
427.625	145.31
427.847	124.31
428.069	122.31
428.292	136.31
428.514	115.31
428.736	121.31
428.958	135.31
429.181	139.31
429.403	131.31
429.625	122.31
429.847	128.31
430.069	123.31
430.292	125.31
430.514	119.31
430.736	138.31
430.958	122.31
431.18	121.31
431.402	118.31
431.624	122.31
431.846	129.31
432.068	115.31
432.29	123.31
432.512	128.31
432.734	135.31
432.956	107.31
433.178	136.31
433.4	133.31
433.622	119.31
433.844	139.31
434.066	119.31
434.287	120.31
434.509	123.31
434.731	130.31
434.953	121.31
435.175	129.31
435.397	127.31
435.618	139.31
435.84	128.31
436.062	141.31
436.284	125.31
436.505	134.31
436.727	122.31
436.949	124.31
437.17	131.31
437.392	112.31
437.614	119.31
437.835	106.31
438.057	141.31
438.278	128.31
438.5	122.31
438.721	152.31
438.943	125.31
439.165	120.31
439.386	139.31
439.608	141.31
439.829	128.31
440.05	132.31
440.272	114.31
440.493	113.31
440.715	137.31
440.936	135.31
441.158	128.31
441.379	121.31
441.6	137.31
441.822	108.31
442.043	137.31
442.264	134.31
442.486	138.31
442.707	137.31
442.928	135.31
443.149	140.31
443.371	108.31
443.592	145.31
443.813	133.31
444.034	136.31
444.255	137.31
444.476	142.31
444.698	125.31
444.919	141.31
445.14	267.31
445.361	189.31
445.582	140.31
445.803	140.31
446.024	140.31
446.245	129.31
446.466	132.31
446.687	128.31
446.908	132.31
447.129	120.31
447.35	115.31
447.571	125.31
447.792	115.31
448.013	120.31
448.234	117.31
448.455	121.31
448.675	129.31
448.896	139.31
449.117	135.31
449.338	128.31
449.559	125.31
449.779	144.31
450	126.31
450.221	124.31
450.442	122.31
450.662	117.31
450.883	132.31
451.104	108.31
451.324	108.31
451.545	124.31
451.766	108.31
451.986	128.31
452.207	115.31
452.428	114.31
452.648	127.31
452.869	115.31
453.089	119.31
453.31	103.31
453.53	118.31
453.751	113.31
453.971	118.31
454.192	130.31
454.412	129.31
454.633	121.31
454.853	113.31
455.073	115.31
455.294	105.31
455.514	117.31
455.734	123.31
455.955	116.31
456.175	126.31
456.395	115.31
456.616	133.31
456.836	112.31
457.056	118.31
457.276	105.31
457.497	121.31
457.717	109.31
457.937	119.31
458.157	106.31
458.377	119.31
458.598	108.31
458.818	125.31
459.038	115.31
459.258	124.31
459.478	117.31
459.698	137.31
459.918	133.31
460.138	119.31
460.358	127.31
460.578	127.31
460.798	128.31
461.018	130.31
461.238	135.31
461.458	139.31
461.678	131.31
461.898	141.31
462.118	124.31
462.338	136.31
462.558	131.31
462.777	117.31
462.997	121.31
463.217	140.31
463.437	137.31
463.657	127.31
463.876	137.31
464.096	132.31
464.316	117.31
464.536	148.31
464.755	129.31
464.975	128.31
465.195	123.31
465.414	131.31
465.634	128.31
465.854	111.31
466.073	123.31
466.293	107.31
466.512	131.31
466.732	123.31
466.951	124.31
467.171	105.31
467.391	117.31
467.61	115.31
467.829	111.31
468.049	125.31
468.268	126.31
468.488	120.31
468.707	119.31
468.927	120.31
469.146	111.31
469.365	126.31
469.585	123.31
469.804	123.31
470.023	119.31
470.243	110.31
470.462	136.31
470.681	121.31
470.901	118.31
471.12	134.31
471.339	127.31
471.558	123.31
471.777	122.31
471.997	128.31
472.216	115.31
472.435	123.31
472.654	119.31
472.873	122.31
473.092	120.31
473.311	121.31
473.53	112.31
473.749	139.31
473.968	120.31
474.187	119.31
474.406	116.31
474.625	121.31
474.844	117.31
475.063	124.31
475.282	116.31
475.501	116.31
475.72	112.31
475.939	124.31
476.158	127.31
476.377	116.31
476.596	109.31
476.814	118.31
477.033	119.31
477.252	122.31
477.471	133.31
477.69	127.31
477.908	129.31
478.127	121.31
478.346	135.31
478.564	129.31
478.783	124.31
479.002	124.31
479.22	121.31
479.439	135.31
479.658	125.31
479.876	133.31
480.095	143.31
480.313	150.31
480.532	136.31
480.751	120.31
480.969	138.31
481.188	141.31
481.406	136.31
481.624	142.31
481.843	144.31
482.061	126.31
482.28	126.31
482.498	130.31
482.717	106.31
482.935	125.31
483.153	115.31
483.372	118.31
483.59	136.31
483.808	131.31
484.027	119.31
484.245	124.31
484.463	113.31
484.681	131.31
484.9	129.31
485.118	135.31
485.336	122.31
485.554	124.31
485.772	124.31
485.99	145.31
486.209	123.31
486.427	121.31
486.645	137.31
486.863	133.31
487.081	135.31
487.299	123.31
487.517	139.31
487.735	127.31
487.953	130.31
488.171	122.31
488.389	131.31
488.607	118.31
488.825	140.31
489.043	125.31
489.261	142.31
489.479	127.31
489.696	131.31
489.914	129.31
490.132	131.31
490.35	141.31
490.568	134.31
490.786	137.31
491.003	131.31
491.221	141.31
491.439	144.31
491.657	137.31
491.874	139.31
492.092	147.31
492.31	136.31
492.527	157.31
492.745	137.31
492.963	140.31
493.18	125.31
493.398	124.31
493.615	123.31
493.833	145.31
494.05	140.31
494.268	127.31
494.485	133.31
494.703	155.31
494.92	131.31
495.138	163.31
495.355	148.31
495.573	147.31
495.79	136.31
496.008	141.31
496.225	149.31
496.442	133.31
496.66	153.31
496.877	142.31
497.094	132.31
497.312	148.31
497.529	148.31
497.746	133.31
497.963	141.31
498.181	152.31
498.398	146.31
498.615	160.31
498.832	171.31
499.049	159.31
499.267	166.31
499.484	177.31
499.701	193.31
499.918	187.31
500.135	201.31
500.352	204.31
500.569	211.31
500.786	223.31
501.003	212.31
501.22	187.31
501.437	173.31
501.654	179.31
501.871	177.31
502.088	176.31
502.305	170.31
502.522	161.31
502.739	151.31
502.956	141.31
503.172	152.31
503.389	153.31
503.606	140.31
503.823	147.31
504.04	134.31
504.256	143.31
504.473	140.31
504.69	146.31
504.907	156.31
505.123	152.31
505.34	135.31
505.557	122.31
505.773	130.31
505.99	135.31
506.207	136.31
