Data from 1968.PennyLincolnUp.Lamp.En5.5.200Scan.071719.P1._HRD10591_14-50-05-969.txt Node
Date: Thu Jul 18 14:50:05 EDT 2019
User: cochatt
Spectrometer: HR+D1059
Trigger mode: 1
Integration Time (sec): 1.000000E-1
Scans to average: 1
Electric dark correction enabled: true
Nonlinearity correction enabled: false
Boxcar width: 0
XAxis mode: Wavelengths
Number of Pixels in Spectrum: 2048
>>>>>Begin Spectral Data<<<<<
223.165	-10.19
223.4	-10.19
223.635	-10.19
223.869	-14.19
224.104	-18.19
224.338	-7.19
224.573	-7.19
224.808	-15.19
225.042	-3.19
225.277	-18.19
225.511	-8.19
225.746	9.81
225.98	3.81
226.215	10.81
226.449	8.81
226.683	23.81
226.918	20.81
227.152	23.81
227.387	31.81
227.621	35.81
227.856	52.81
228.09	54.81
228.324	38.81
228.559	55.81
228.793	58.81
229.027	68.81
229.262	70.81
229.496	45.81
229.73	78.81
229.964	72.81
230.199	66.81
230.433	73.81
230.667	77.81
230.901	89.81
231.136	81.81
231.37	85.81
231.604	67.81
231.838	68.81
232.072	84.81
232.306	79.81
232.541	84.81
232.775	73.81
233.009	85.81
233.243	93.81
233.477	90.81
233.711	81.81
233.945	77.81
234.179	91.81
234.413	87.81
234.647	76.81
234.881	83.81
235.115	79.81
235.349	80.81
235.583	83.81
235.817	90.81
236.051	88.81
236.285	81.81
236.519	88.81
236.753	69.81
236.987	81.81
237.221	81.81
237.455	85.81
237.689	78.81
237.922	86.81
238.156	86.81
238.39	73.81
238.624	87.81
238.858	74.81
239.091	78.81
239.325	76.81
239.559	88.81
239.793	84.81
240.027	80.81
240.26	85.81
240.494	100.81
240.728	81.81
240.961	84.81
241.195	97.81
241.429	77.81
241.662	73.81
241.896	85.81
242.13	78.81
242.363	64.81
242.597	84.81
242.83	97.81
243.064	80.81
243.298	79.81
243.531	85.81
243.765	74.81
243.998	78.81
244.232	81.81
244.465	94.81
244.699	89.81
244.932	84.81
245.166	75.81
245.399	93.81
245.633	85.81
245.866	87.81
246.099	84.81
246.333	84.81
246.566	78.81
246.8	76.81
247.033	70.81
247.266	79.81
247.5	91.81
247.733	84.81
247.966	85.81
248.2	80.81
248.433	88.81
248.666	78.81
248.899	95.81
249.133	78.81
249.366	82.81
249.599	82.81
249.832	72.81
250.066	93.81
250.299	85.81
250.532	85.81
250.765	81.81
250.998	82.81
251.231	97.81
251.465	100.81
251.698	85.81
251.931	81.81
252.164	94.81
252.397	77.81
252.63	92.81
252.863	80.81
253.096	89.81
253.329	91.81
253.562	79.81
253.795	83.81
254.028	84.81
254.261	85.81
254.494	104.81
254.727	89.81
254.96	86.81
255.193	97.81
255.426	100.81
255.659	83.81
255.892	91.81
256.124	86.81
256.357	100.81
256.59	97.81
256.823	105.81
257.056	75.81
257.289	104.81
257.521	87.81
257.754	87.81
257.987	86.81
258.22	90.81
258.452	89.81
258.685	84.81
258.918	100.81
259.151	107.81
259.383	76.81
259.616	93.81
259.849	92.81
260.081	91.81
260.314	106.81
260.547	100.81
260.779	94.81
261.012	82.81
261.244	94.81
261.477	91.81
261.71	96.81
261.942	83.81
262.175	83.81
262.407	93.81
262.64	93.81
262.872	86.81
263.105	91.81
263.337	103.81
263.57	96.81
263.802	90.81
264.035	108.81
264.267	94.81
264.499	101.81
264.732	95.81
264.964	88.81
265.197	87.81
265.429	98.81
265.661	87.81
265.894	100.81
266.126	101.81
266.358	103.81
266.591	87.81
266.823	92.81
267.055	87.81
267.287	86.81
267.52	88.81
267.752	98.81
267.984	91.81
268.216	83.81
268.448	84.81
268.681	92.81
268.913	99.81
269.145	105.81
269.377	101.81
269.609	97.81
269.841	97.81
270.073	93.81
270.306	87.81
270.538	90.81
270.77	99.81
271.002	111.81
271.234	85.81
271.466	87.81
271.698	111.81
271.93	97.81
272.162	88.81
272.394	99.81
272.626	107.81
272.858	93.81
273.09	93.81
273.322	107.81
273.553	101.81
273.785	111.81
274.017	86.81
274.249	98.81
274.481	105.81
274.713	91.81
274.945	95.81
275.176	93.81
275.408	92.81
275.64	109.81
275.872	102.81
276.104	93.81
276.335	92.81
276.567	85.81
276.799	109.81
277.031	102.81
277.262	99.81
277.494	89.81
277.726	87.81
277.957	97.81
278.189	116.81
278.421	91.81
278.652	102.81
278.884	88.81
279.115	102.81
279.347	93.81
279.579	110.81
279.81	88.81
280.042	93.81
280.273	102.81
280.505	96.81
280.736	98.81
280.968	89.81
281.199	102.81
281.431	100.81
281.662	103.81
281.894	109.81
282.125	84.81
282.356	101.81
282.588	109.81
282.819	111.81
283.051	103.81
283.282	105.81
283.513	122.81
283.745	91.81
283.976	99.81
284.207	93.81
284.439	101.81
284.67	102.81
284.901	99.81
285.132	96.81
285.364	100.81
285.595	100.81
285.826	112.81
286.057	97.81
286.288	93.81
286.52	93.81
286.751	105.81
286.982	86.81
287.213	103.81
287.444	99.81
287.675	106.81
287.906	107.81
288.138	118.81
288.369	99.81
288.6	96.81
288.831	90.81
289.062	95.81
289.293	94.81
289.524	98.81
289.755	99.81
289.986	93.81
290.217	100.81
290.448	106.81
290.679	120.81
290.91	106.81
291.141	102.81
291.371	104.81
291.602	105.81
291.833	114.81
292.064	94.81
292.295	95.81
292.526	96.81
292.757	103.81
292.987	107.81
293.218	86.81
293.449	104.81
293.68	116.81
293.91	103.81
294.141	98.81
294.372	94.81
294.603	106.81
294.833	102.81
295.064	112.81
295.295	90.81
295.525	96.81
295.756	102.81
295.987	101.81
296.217	89.81
296.448	115.81
296.679	114.81
296.909	116.81
297.14	107.81
297.37	96.81
297.601	92.81
297.831	106.81
298.062	98.81
298.292	104.81
298.523	91.81
298.753	109.81
298.984	98.81
299.214	110.81
299.445	111.81
299.675	107.81
299.905	105.81
300.136	107.81
300.366	106.81
300.597	101.81
300.827	98.81
301.057	107.81
301.288	102.81
301.518	96.81
301.748	108.81
301.979	114.81
302.209	112.81
302.439	107.81
302.669	97.81
302.9	92.81
303.13	106.81
303.36	107.81
303.59	102.81
303.82	125.81
304.051	110.81
304.281	110.81
304.511	104.81
304.741	105.81
304.971	106.81
305.201	108.81
305.431	102.81
305.661	118.81
305.891	100.81
306.121	109.81
306.352	107.81
306.582	106.81
306.812	98.81
307.042	105.81
307.272	105.81
307.502	94.81
307.731	94.81
307.961	101.81
308.191	109.81
308.421	114.81
308.651	107.81
308.881	108.81
309.111	97.81
309.341	95.81
309.571	106.81
309.8	107.81
310.03	99.81
310.26	107.81
310.49	107.81
310.72	106.81
310.949	107.81
311.179	109.81
311.409	120.81
311.639	89.81
311.868	107.81
312.098	92.81
312.328	114.81
312.557	108.81
312.787	112.81
313.017	100.81
313.246	98.81
313.476	94.81
313.706	109.81
313.935	103.81
314.165	100.81
314.394	109.81
314.624	116.81
314.853	102.81
315.083	91.81
315.312	108.81
315.542	100.81
315.771	119.81
316.001	114.81
316.23	105.81
316.46	100.81
316.689	103.81
316.919	105.81
317.148	112.81
317.377	105.81
317.607	112.81
317.836	114.81
318.065	101.81
318.295	116.81
318.524	90.81
318.753	85.81
318.983	115.81
319.212	86.81
319.441	113.81
319.67	110.81
319.9	101.81
320.129	96.81
320.358	118.81
320.587	107.81
320.816	94.81
321.046	110.81
321.275	110.81
321.504	93.81
321.733	101.81
321.962	107.81
322.191	117.81
322.42	102.81
322.649	113.81
322.878	102.81
323.108	104.81
323.337	103.81
323.566	122.81
323.795	123.81
324.024	107.81
324.253	120.81
324.482	132.81
324.71	155.81
324.939	179.81
325.168	159.81
325.397	109.81
325.626	111.81
325.855	107.81
326.084	101.81
326.313	108.81
326.542	109.81
326.77	119.81
326.999	99.81
327.228	128.81
327.457	160.81
327.686	152.81
327.914	110.81
328.143	126.81
328.372	107.81
328.6	110.81
328.829	113.81
329.058	128.81
329.287	115.81
329.515	108.81
329.744	122.81
329.972	114.81
330.201	117.81
330.43	122.81
330.658	115.81
330.887	124.81
331.115	112.81
331.344	115.81
331.572	105.81
331.801	115.81
332.03	115.81
332.258	117.81
332.486	118.81
332.715	119.81
332.943	118.81
333.172	111.81
333.4	125.81
333.629	123.81
333.857	121.81
334.085	116.81
334.314	109.81
334.542	119.81
334.771	135.81
334.999	125.81
335.227	131.81
335.455	119.81
335.684	107.81
335.912	109.81
336.14	126.81
336.369	104.81
336.597	122.81
336.825	114.81
337.053	106.81
337.281	114.81
337.51	117.81
337.738	116.81
337.966	114.81
338.194	118.81
338.422	102.81
338.65	114.81
338.878	115.81
339.106	113.81
339.334	114.81
339.562	102.81
339.79	96.81
340.018	109.81
340.246	112.81
340.474	116.81
340.702	132.81
340.93	107.81
341.158	109.81
341.386	101.81
341.614	102.81
341.842	107.81
342.07	107.81
342.298	115.81
342.526	96.81
342.754	99.81
342.981	107.81
343.209	107.81
343.437	97.81
343.665	116.81
343.893	102.81
344.12	127.81
344.348	120.81
344.576	121.81
344.804	109.81
345.031	120.81
345.259	102.81
345.487	112.81
345.714	115.81
345.942	102.81
346.17	126.81
346.397	103.81
346.625	96.81
346.853	108.81
347.08	105.81
347.308	106.81
347.535	99.81
347.763	105.81
347.99	119.81
348.218	111.81
348.445	97.81
348.673	117.81
348.9	112.81
349.128	119.81
349.355	115.81
349.583	122.81
349.81	106.81
350.037	108.81
350.265	114.81
350.492	128.81
350.72	107.81
350.947	120.81
351.174	114.81
351.402	104.81
351.629	101.81
351.856	128.81
352.083	100.81
352.311	117.81
352.538	96.81
352.765	101.81
352.992	116.81
353.22	104.81
353.447	110.81
353.674	103.81
353.901	105.81
354.128	103.81
354.355	98.81
354.583	97.81
354.81	110.81
355.037	116.81
355.264	101.81
355.491	98.81
355.718	102.81
355.945	105.81
356.172	115.81
356.399	106.81
356.626	116.81
356.853	107.81
357.08	98.81
357.307	113.81
357.534	128.81
357.761	116.81
357.988	113.81
358.215	104.81
358.441	94.81
358.668	116.81
358.895	105.81
359.122	108.81
359.349	125.81
359.576	105.81
359.802	110.81
360.029	126.81
360.256	111.81
360.483	114.81
360.709	116.81
360.936	95.81
361.163	110.81
361.39	102.81
361.616	112.81
361.843	98.81
362.07	106.81
362.296	106.81
362.523	121.81
362.749	107.81
362.976	114.81
363.203	119.81
363.429	103.81
363.656	128.81
363.882	109.81
364.109	112.81
364.335	118.81
364.562	94.81
364.788	116.81
365.015	116.81
365.241	126.81
365.468	106.81
365.694	115.81
365.92	109.81
366.147	120.81
366.373	103.81
366.599	107.81
366.826	122.81
367.052	124.81
367.278	104.81
367.505	105.81
367.731	112.81
367.957	109.81
368.184	114.81
368.41	94.81
368.636	112.81
368.862	97.81
369.089	107.81
369.315	117.81
369.541	100.81
369.767	100.81
369.993	119.81
370.219	102.81
370.445	120.81
370.672	106.81
370.898	121.81
371.124	108.81
371.35	124.81
371.576	97.81
371.802	96.81
372.028	108.81
372.254	124.81
372.48	114.81
372.706	112.81
372.932	129.81
373.158	121.81
373.384	112.81
373.61	113.81
373.835	115.81
374.061	96.81
374.287	122.81
374.513	111.81
374.739	100.81
374.965	123.81
375.191	122.81
375.416	120.81
375.642	103.81
375.868	98.81
376.094	107.81
376.319	94.81
376.545	99.81
376.771	89.81
376.997	113.81
377.222	112.81
377.448	108.81
377.674	106.81
377.899	119.81
378.125	100.81
378.35	101.81
378.576	101.81
378.802	102.81
379.027	127.81
379.253	122.81
379.478	122.81
379.704	112.81
379.929	123.81
380.155	121.81
380.38	100.81
380.606	110.81
380.831	112.81
381.057	120.81
381.282	107.81
381.507	108.81
381.733	110.81
381.958	107.81
382.184	103.81
382.409	114.81
382.634	116.81
382.86	108.81
383.085	111.81
383.31	102.81
383.535	110.81
383.761	112.81
383.986	125.81
384.211	122.81
384.436	104.81
384.662	120.81
384.887	122.81
385.112	119.81
385.337	117.81
385.562	131.81
385.787	111.81
386.013	116.81
386.238	113.81
386.463	120.81
386.688	102.81
386.913	116.81
387.138	129.81
387.363	108.81
387.588	128.81
387.813	134.81
388.038	126.81
388.263	117.81
388.488	121.81
388.713	113.81
388.938	127.81
389.163	129.81
389.387	123.81
389.612	126.81
389.837	123.81
390.062	109.81
390.287	114.81
390.512	116.81
390.736	112.81
390.961	123.81
391.186	117.81
391.411	124.81
391.636	123.81
391.86	118.81
392.085	117.81
392.31	114.81
392.534	139.81
392.759	105.81
392.984	103.81
393.208	113.81
393.433	124.81
393.658	112.81
393.882	117.81
394.107	109.81
394.331	115.81
394.556	116.81
394.78	118.81
395.005	110.81
395.229	120.81
395.454	120.81
395.678	130.81
395.903	122.81
396.127	135.81
396.352	132.81
396.576	127.81
396.801	106.81
397.025	120.81
397.249	120.81
397.474	122.81
397.698	123.81
397.922	119.81
398.147	119.81
398.371	131.81
398.595	138.81
398.82	134.81
399.044	137.81
399.268	134.81
399.492	141.81
399.717	141.81
399.941	124.81
400.165	136.81
400.389	117.81
400.613	130.81
400.837	132.81
401.062	133.81
401.286	129.81
401.51	132.81
401.734	128.81
401.958	110.81
402.182	124.81
402.406	124.81
402.63	112.81
402.854	133.81
403.078	137.81
403.302	120.81
403.526	116.81
403.75	123.81
403.974	128.81
404.198	127.81
404.422	119.81
404.645	132.81
404.869	146.81
405.093	140.81
405.317	138.81
405.541	142.81
405.765	134.81
405.988	139.81
406.212	133.81
406.436	117.81
406.66	135.81
406.883	136.81
407.107	133.81
407.331	146.81
407.555	142.81
407.778	145.81
408.002	131.81
408.226	144.81
408.449	125.81
408.673	132.81
408.896	140.81
409.12	130.81
409.344	130.81
409.567	126.81
409.791	132.81
410.014	134.81
410.238	135.81
410.461	143.81
410.685	128.81
410.908	124.81
411.132	149.81
411.355	141.81
411.578	138.81
411.802	139.81
412.025	124.81
412.249	126.81
412.472	139.81
412.695	132.81
412.919	127.81
413.142	126.81
413.365	127.81
413.589	108.81
413.812	133.81
414.035	146.81
414.258	122.81
414.482	115.81
414.705	115.81
414.928	126.81
415.151	125.81
415.374	102.81
415.597	125.81
415.821	129.81
416.044	128.81
416.267	125.81
416.49	130.81
416.713	132.81
416.936	133.81
417.159	131.81
417.382	120.81
417.605	118.81
417.828	136.81
418.051	119.81
418.274	135.81
418.497	127.81
418.72	127.81
418.943	123.81
419.166	140.81
419.389	121.81
419.611	113.81
419.834	128.81
420.057	117.81
420.28	146.81
420.503	143.81
420.726	112.81
420.948	133.81
421.171	115.81
421.394	133.81
421.617	136.81
421.839	130.81
422.062	149.81
422.285	135.81
422.507	128.81
422.73	127.81
422.953	143.81
423.175	127.81
423.398	122.81
423.621	139.81
423.843	139.81
424.066	140.81
424.288	133.81
424.511	122.81
424.733	134.81
424.956	126.81
425.178	130.81
425.401	120.81
425.623	149.81
425.846	138.81
426.068	145.81
426.291	121.81
426.513	141.81
426.735	127.81
426.958	140.81
427.18	137.81
427.402	157.81
427.625	137.81
427.847	130.81
428.069	136.81
428.292	126.81
428.514	129.81
428.736	131.81
428.958	132.81
429.181	123.81
429.403	132.81
429.625	124.81
429.847	113.81
430.069	122.81
430.292	125.81
430.514	128.81
430.736	114.81
430.958	122.81
431.18	130.81
431.402	113.81
431.624	109.81
431.846	120.81
432.068	125.81
432.29	128.81
432.512	115.81
432.734	126.81
432.956	143.81
433.178	132.81
433.4	120.81
433.622	128.81
433.844	120.81
434.066	121.81
434.287	141.81
434.509	112.81
434.731	116.81
434.953	126.81
435.175	122.81
435.397	142.81
435.618	128.81
435.84	119.81
436.062	141.81
436.284	132.81
436.505	122.81
436.727	120.81
436.949	126.81
437.17	122.81
437.392	117.81
437.614	122.81
437.835	135.81
438.057	141.81
438.278	126.81
438.5	125.81
438.721	138.81
438.943	135.81
439.165	121.81
439.386	112.81
439.608	127.81
439.829	130.81
440.05	124.81
440.272	123.81
440.493	127.81
440.715	140.81
440.936	118.81
441.158	126.81
441.379	115.81
441.6	128.81
441.822	138.81
442.043	142.81
442.264	135.81
442.486	131.81
442.707	134.81
442.928	126.81
443.149	128.81
443.371	129.81
443.592	139.81
443.813	152.81
444.034	134.81
444.255	133.81
444.476	132.81
444.698	133.81
444.919	129.81
445.14	279.81
445.361	208.81
445.582	135.81
445.803	136.81
446.024	145.81
446.245	138.81
446.466	148.81
446.687	125.81
446.908	119.81
447.129	125.81
447.35	133.81
447.571	132.81
447.792	132.81
448.013	120.81
448.234	112.81
448.455	114.81
448.675	131.81
448.896	133.81
449.117	134.81
449.338	121.81
449.559	158.81
449.779	134.81
450	123.81
450.221	115.81
450.442	116.81
450.662	131.81
450.883	106.81
451.104	129.81
451.324	116.81
451.545	114.81
451.766	129.81
451.986	137.81
452.207	122.81
452.428	122.81
452.648	112.81
452.869	115.81
453.089	116.81
453.31	129.81
453.53	122.81
453.751	103.81
453.971	107.81
454.192	113.81
454.412	128.81
454.633	112.81
454.853	116.81
455.073	113.81
455.294	117.81
455.514	113.81
455.734	121.81
455.955	119.81
456.175	114.81
456.395	109.81
456.616	119.81
456.836	105.81
457.056	116.81
457.276	100.81
457.497	107.81
457.717	110.81
457.937	116.81
458.157	122.81
458.377	122.81
458.598	126.81
458.818	120.81
459.038	127.81
459.258	122.81
459.478	118.81
459.698	122.81
459.918	122.81
460.138	127.81
460.358	130.81
460.578	134.81
460.798	127.81
461.018	126.81
461.238	137.81
461.458	147.81
461.678	132.81
461.898	123.81
462.118	134.81
462.338	129.81
462.558	128.81
462.777	129.81
462.997	134.81
463.217	132.81
463.437	135.81
463.657	127.81
463.876	146.81
464.096	135.81
464.316	140.81
464.536	123.81
464.755	137.81
464.975	126.81
465.195	136.81
465.414	130.81
465.634	119.81
465.854	118.81
466.073	131.81
466.293	122.81
466.512	140.81
466.732	128.81
466.951	113.81
467.171	130.81
467.391	124.81
467.61	120.81
467.829	132.81
468.049	121.81
468.268	129.81
468.488	133.81
468.707	128.81
468.927	126.81
469.146	133.81
469.365	118.81
469.585	126.81
469.804	130.81
470.023	109.81
470.243	125.81
470.462	126.81
470.681	113.81
470.901	117.81
471.12	127.81
471.339	124.81
471.558	119.81
471.777	131.81
471.997	134.81
472.216	126.81
472.435	120.81
472.654	134.81
472.873	148.81
473.092	118.81
473.311	110.81
473.53	120.81
473.749	121.81
473.968	127.81
474.187	138.81
474.406	131.81
474.625	130.81
474.844	127.81
475.063	109.81
475.282	126.81
475.501	138.81
475.72	140.81
475.939	98.81
476.158	113.81
476.377	124.81
476.596	126.81
476.814	128.81
477.033	122.81
477.252	137.81
477.471	126.81
477.69	118.81
477.908	116.81
478.127	128.81
478.346	116.81
478.564	128.81
478.783	130.81
479.002	130.81
479.22	131.81
479.439	141.81
479.658	136.81
479.876	125.81
480.095	136.81
480.313	116.81
480.532	132.81
480.751	117.81
480.969	108.81
481.188	132.81
481.406	134.81
481.624	138.81
481.843	132.81
482.061	114.81
482.28	126.81
482.498	128.81
482.717	122.81
482.935	132.81
483.153	125.81
483.372	115.81
483.59	117.81
483.808	120.81
484.027	128.81
484.245	129.81
484.463	149.81
484.681	134.81
484.9	142.81
485.118	125.81
485.336	114.81
485.554	131.81
485.772	128.81
485.99	118.81
486.209	134.81
486.427	130.81
486.645	103.81
486.863	126.81
487.081	148.81
487.299	130.81
487.517	138.81
487.735	141.81
487.953	125.81
488.171	129.81
488.389	136.81
488.607	132.81
488.825	132.81
489.043	120.81
489.261	133.81
489.479	134.81
489.696	136.81
489.914	124.81
490.132	145.81
490.35	138.81
490.568	134.81
490.786	137.81
491.003	143.81
491.221	143.81
491.439	132.81
491.657	141.81
491.874	149.81
492.092	155.81
492.31	157.81
492.527	140.81
492.745	135.81
492.963	148.81
493.18	146.81
493.398	151.81
493.615	136.81
493.833	155.81
494.05	142.81
494.268	136.81
494.485	148.81
494.703	148.81
494.92	149.81
495.138	128.81
495.355	156.81
495.573	141.81
495.79	131.81
496.008	140.81
496.225	138.81
496.442	129.81
496.66	143.81
496.877	121.81
497.094	149.81
497.312	144.81
497.529	147.81
497.746	160.81
497.963	142.81
498.181	150.81
498.398	169.81
498.615	171.81
498.832	169.81
499.049	174.81
499.267	179.81
499.484	178.81
499.701	185.81
499.918	201.81
500.135	197.81
500.352	207.81
500.569	218.81
500.786	201.81
501.003	219.81
501.22	208.81
501.437	182.81
501.654	178.81
501.871	162.81
502.088	152.81
502.305	156.81
502.522	159.81
502.739	159.81
502.956	156.81
503.172	152.81
503.389	159.81
503.606	142.81
503.823	149.81
504.04	171.81
504.256	154.81
504.473	142.81
504.69	152.81
504.907	163.81
505.123	143.81
505.34	145.81
505.557	131.81
505.773	136.81
