Data from 1968.PennyLincolnUp.Lamp.En5.5.200Scan.071719.P1._HRD10591_14-49-28-969.txt Node
Date: Thu Jul 18 14:49:28 EDT 2019
User: cochatt
Spectrometer: HR+D1059
Trigger mode: 1
Integration Time (sec): 1.000000E-1
Scans to average: 1
Electric dark correction enabled: true
Nonlinearity correction enabled: false
Boxcar width: 0
XAxis mode: Wavelengths
Number of Pixels in Spectrum: 2048
>>>>>Begin Spectral Data<<<<<
223.165	1.88
223.4	1.88
223.635	1.88
223.869	-3.12
224.104	-13.12
224.338	-2.12
224.573	-29.12
224.808	-11.12
225.042	-21.12
225.277	4.88
225.511	-0.12
225.746	-9.12
225.98	-5.12
226.215	-2.12
226.449	14.88
226.683	25.88
226.918	29.88
227.152	18.88
227.387	21.88
227.621	47.88
227.856	35.88
228.09	51.88
228.324	56.88
228.559	65.88
228.793	52.88
229.027	58.88
229.262	69.88
229.496	74.88
229.73	72.88
229.964	78.88
230.199	63.88
230.433	69.88
230.667	85.88
230.901	85.88
231.136	87.88
231.37	69.88
231.604	87.88
231.838	81.88
232.072	86.88
232.306	86.88
232.541	76.88
232.775	78.88
233.009	101.88
233.243	86.88
233.477	88.88
233.711	88.88
233.945	86.88
234.179	74.88
234.413	70.88
234.647	92.88
234.881	91.88
235.115	68.88
235.349	82.88
235.583	89.88
235.817	84.88
236.051	88.88
236.285	70.88
236.519	83.88
236.753	66.88
236.987	94.88
237.221	82.88
237.455	64.88
237.689	71.88
237.922	62.88
238.156	68.88
238.39	84.88
238.624	73.88
238.858	64.88
239.091	72.88
239.325	90.88
239.559	94.88
239.793	57.88
240.027	84.88
240.26	60.88
240.494	77.88
240.728	78.88
240.961	83.88
241.195	88.88
241.429	74.88
241.662	90.88
241.896	82.88
242.13	85.88
242.363	69.88
242.597	102.88
242.83	72.88
243.064	83.88
243.298	74.88
243.531	68.88
243.765	70.88
243.998	77.88
244.232	71.88
244.465	81.88
244.699	92.88
244.932	85.88
245.166	77.88
245.399	75.88
245.633	90.88
245.866	87.88
246.099	79.88
246.333	85.88
246.566	79.88
246.8	83.88
247.033	85.88
247.266	90.88
247.5	67.88
247.733	72.88
247.966	86.88
248.2	76.88
248.433	84.88
248.666	82.88
248.899	90.88
249.133	78.88
249.366	84.88
249.599	93.88
249.832	85.88
250.066	69.88
250.299	89.88
250.532	88.88
250.765	81.88
250.998	91.88
251.231	88.88
251.465	71.88
251.698	80.88
251.931	105.88
252.164	107.88
252.397	70.88
252.63	86.88
252.863	85.88
253.096	91.88
253.329	77.88
253.562	81.88
253.795	95.88
254.028	88.88
254.261	88.88
254.494	99.88
254.727	97.88
254.96	93.88
255.193	86.88
255.426	91.88
255.659	70.88
255.892	90.88
256.124	86.88
256.357	77.88
256.59	101.88
256.823	91.88
257.056	79.88
257.289	83.88
257.521	88.88
257.754	86.88
257.987	82.88
258.22	91.88
258.452	87.88
258.685	97.88
258.918	84.88
259.151	93.88
259.383	88.88
259.616	85.88
259.849	95.88
260.081	83.88
260.314	84.88
260.547	79.88
260.779	86.88
261.012	78.88
261.244	87.88
261.477	94.88
261.71	105.88
261.942	79.88
262.175	78.88
262.407	77.88
262.64	93.88
262.872	94.88
263.105	90.88
263.337	83.88
263.57	71.88
263.802	81.88
264.035	98.88
264.267	103.88
264.499	93.88
264.732	93.88
264.964	96.88
265.197	88.88
265.429	99.88
265.661	93.88
265.894	85.88
266.126	83.88
266.358	89.88
266.591	92.88
266.823	84.88
267.055	85.88
267.287	96.88
267.52	92.88
267.752	91.88
267.984	88.88
268.216	99.88
268.448	109.88
268.681	92.88
268.913	87.88
269.145	75.88
269.377	96.88
269.609	88.88
269.841	103.88
270.073	102.88
270.306	93.88
270.538	103.88
270.77	96.88
271.002	97.88
271.234	86.88
271.466	85.88
271.698	76.88
271.93	98.88
272.162	92.88
272.394	87.88
272.626	93.88
272.858	97.88
273.09	95.88
273.322	89.88
273.553	82.88
273.785	93.88
274.017	87.88
274.249	110.88
274.481	97.88
274.713	102.88
274.945	106.88
275.176	100.88
275.408	97.88
275.64	101.88
275.872	111.88
276.104	96.88
276.335	104.88
276.567	90.88
276.799	90.88
277.031	86.88
277.262	90.88
277.494	102.88
277.726	101.88
277.957	101.88
278.189	90.88
278.421	76.88
278.652	92.88
278.884	101.88
279.115	112.88
279.347	104.88
279.579	98.88
279.81	99.88
280.042	96.88
280.273	104.88
280.505	96.88
280.736	94.88
280.968	96.88
281.199	96.88
281.431	105.88
281.662	101.88
281.894	101.88
282.125	97.88
282.356	112.88
282.588	96.88
282.819	82.88
283.051	99.88
283.282	97.88
283.513	97.88
283.745	108.88
283.976	96.88
284.207	105.88
284.439	99.88
284.67	92.88
284.901	83.88
285.132	91.88
285.364	107.88
285.595	90.88
285.826	88.88
286.057	99.88
286.288	91.88
286.52	97.88
286.751	106.88
286.982	96.88
287.213	102.88
287.444	89.88
287.675	97.88
287.906	95.88
288.138	104.88
288.369	113.88
288.6	108.88
288.831	93.88
289.062	105.88
289.293	91.88
289.524	91.88
289.755	109.88
289.986	94.88
290.217	100.88
290.448	96.88
290.679	83.88
290.91	109.88
291.141	101.88
291.371	92.88
291.602	97.88
291.833	104.88
292.064	106.88
292.295	108.88
292.526	119.88
292.757	99.88
292.987	100.88
293.218	100.88
293.449	98.88
293.68	113.88
293.91	91.88
294.141	106.88
294.372	104.88
294.603	102.88
294.833	102.88
295.064	97.88
295.295	94.88
295.525	86.88
295.756	109.88
295.987	103.88
296.217	88.88
296.448	106.88
296.679	99.88
296.909	94.88
297.14	104.88
297.37	94.88
297.601	96.88
297.831	99.88
298.062	97.88
298.292	93.88
298.523	103.88
298.753	100.88
298.984	109.88
299.214	104.88
299.445	102.88
299.675	109.88
299.905	103.88
300.136	103.88
300.366	95.88
300.597	102.88
300.827	90.88
301.057	88.88
301.288	85.88
301.518	99.88
301.748	89.88
301.979	108.88
302.209	97.88
302.439	99.88
302.669	110.88
302.9	108.88
303.13	108.88
303.36	80.88
303.59	97.88
303.82	99.88
304.051	109.88
304.281	100.88
304.511	93.88
304.741	102.88
304.971	97.88
305.201	108.88
305.431	107.88
305.661	89.88
305.891	116.88
306.121	95.88
306.352	95.88
306.582	101.88
306.812	91.88
307.042	100.88
307.272	99.88
307.502	101.88
307.731	97.88
307.961	112.88
308.191	99.88
308.421	121.88
308.651	90.88
308.881	107.88
309.111	101.88
309.341	112.88
309.571	113.88
309.8	98.88
310.03	93.88
310.26	111.88
310.49	109.88
310.72	101.88
310.949	100.88
311.179	109.88
311.409	108.88
311.639	128.88
311.868	108.88
312.098	98.88
312.328	89.88
312.557	116.88
312.787	108.88
313.017	114.88
313.246	119.88
313.476	108.88
313.706	96.88
313.935	100.88
314.165	98.88
314.394	118.88
314.624	121.88
314.853	108.88
315.083	101.88
315.312	109.88
315.542	102.88
315.771	118.88
316.001	112.88
316.23	100.88
316.46	97.88
316.689	94.88
316.919	103.88
317.148	104.88
317.377	103.88
317.607	104.88
317.836	104.88
318.065	106.88
318.295	115.88
318.524	106.88
318.753	100.88
318.983	99.88
319.212	94.88
319.441	113.88
319.67	109.88
319.9	112.88
320.129	108.88
320.358	92.88
320.587	117.88
320.816	117.88
321.046	105.88
321.275	118.88
321.504	110.88
321.733	107.88
321.962	115.88
322.191	92.88
322.42	113.88
322.649	106.88
322.878	107.88
323.108	109.88
323.337	103.88
323.566	107.88
323.795	101.88
324.024	102.88
324.253	120.88
324.482	118.88
324.71	150.88
324.939	166.88
325.168	155.88
325.397	125.88
325.626	108.88
325.855	117.88
326.084	100.88
326.313	109.88
326.542	102.88
326.77	112.88
326.999	107.88
327.228	122.88
327.457	142.88
327.686	144.88
327.914	124.88
328.143	132.88
328.372	110.88
328.6	99.88
328.829	102.88
329.058	100.88
329.287	113.88
329.515	125.88
329.744	120.88
329.972	123.88
330.201	108.88
330.43	107.88
330.658	110.88
330.887	115.88
331.115	116.88
331.344	110.88
331.572	106.88
331.801	112.88
332.03	106.88
332.258	104.88
332.486	119.88
332.715	104.88
332.943	105.88
333.172	107.88
333.4	124.88
333.629	114.88
333.857	107.88
334.085	124.88
334.314	123.88
334.542	122.88
334.771	124.88
334.999	116.88
335.227	127.88
335.455	109.88
335.684	108.88
335.912	112.88
336.14	116.88
336.369	113.88
336.597	112.88
336.825	113.88
337.053	98.88
337.281	112.88
337.51	108.88
337.738	112.88
337.966	107.88
338.194	123.88
338.422	123.88
338.65	124.88
338.878	97.88
339.106	117.88
339.334	123.88
339.562	102.88
339.79	118.88
340.018	122.88
340.246	107.88
340.474	114.88
340.702	114.88
340.93	124.88
341.158	102.88
341.386	109.88
341.614	112.88
341.842	120.88
342.07	114.88
342.298	99.88
342.526	110.88
342.754	107.88
342.981	121.88
343.209	94.88
343.437	108.88
343.665	109.88
343.893	102.88
344.12	105.88
344.348	109.88
344.576	107.88
344.804	121.88
345.031	122.88
345.259	119.88
345.487	97.88
345.714	109.88
345.942	109.88
346.17	112.88
346.397	109.88
346.625	96.88
346.853	114.88
347.08	116.88
347.308	121.88
347.535	116.88
347.763	110.88
347.99	106.88
348.218	117.88
348.445	96.88
348.673	100.88
348.9	94.88
349.128	110.88
349.355	109.88
349.583	100.88
349.81	107.88
350.037	110.88
350.265	122.88
350.492	114.88
350.72	106.88
350.947	115.88
351.174	90.88
351.402	107.88
351.629	123.88
351.856	111.88
352.083	116.88
352.311	121.88
352.538	109.88
352.765	114.88
352.992	113.88
353.22	110.88
353.447	105.88
353.674	96.88
353.901	107.88
354.128	114.88
354.355	98.88
354.583	112.88
354.81	106.88
355.037	113.88
355.264	117.88
355.491	119.88
355.718	96.88
355.945	104.88
356.172	116.88
356.399	115.88
356.626	124.88
356.853	117.88
357.08	110.88
357.307	99.88
357.534	107.88
357.761	112.88
357.988	111.88
358.215	101.88
358.441	116.88
358.668	98.88
358.895	118.88
359.122	123.88
359.349	120.88
359.576	109.88
359.802	101.88
360.029	113.88
360.256	104.88
360.483	87.88
360.709	113.88
360.936	109.88
361.163	120.88
361.39	104.88
361.616	102.88
361.843	97.88
362.07	119.88
362.296	120.88
362.523	103.88
362.749	109.88
362.976	98.88
363.203	109.88
363.429	108.88
363.656	109.88
363.882	104.88
364.109	105.88
364.335	94.88
364.562	112.88
364.788	119.88
365.015	105.88
365.241	100.88
365.468	117.88
365.694	124.88
365.92	118.88
366.147	94.88
366.373	104.88
366.599	99.88
366.826	108.88
367.052	102.88
367.278	115.88
367.505	116.88
367.731	119.88
367.957	117.88
368.184	113.88
368.41	121.88
368.636	115.88
368.862	84.88
369.089	103.88
369.315	113.88
369.541	114.88
369.767	116.88
369.993	106.88
370.219	112.88
370.445	115.88
370.672	97.88
370.898	112.88
371.124	109.88
371.35	107.88
371.576	124.88
371.802	105.88
372.028	108.88
372.254	118.88
372.48	103.88
372.706	114.88
372.932	105.88
373.158	115.88
373.384	120.88
373.61	108.88
373.835	113.88
374.061	112.88
374.287	115.88
374.513	118.88
374.739	125.88
374.965	115.88
375.191	102.88
375.416	120.88
375.642	105.88
375.868	110.88
376.094	114.88
376.319	106.88
376.545	123.88
376.771	114.88
376.997	112.88
377.222	119.88
377.448	121.88
377.674	100.88
377.899	108.88
378.125	106.88
378.35	111.88
378.576	112.88
378.802	108.88
379.027	121.88
379.253	117.88
379.478	104.88
379.704	105.88
379.929	107.88
380.155	102.88
380.38	120.88
380.606	110.88
380.831	109.88
381.057	108.88
381.282	117.88
381.507	122.88
381.733	120.88
381.958	118.88
382.184	101.88
382.409	123.88
382.634	124.88
382.86	112.88
383.085	113.88
383.31	106.88
383.535	129.88
383.761	116.88
383.986	126.88
384.211	110.88
384.436	103.88
384.662	109.88
384.887	113.88
385.112	118.88
385.337	114.88
385.562	132.88
385.787	109.88
386.013	127.88
386.238	115.88
386.463	113.88
386.688	110.88
386.913	103.88
387.138	118.88
387.363	118.88
387.588	131.88
387.813	109.88
388.038	128.88
388.263	123.88
388.488	124.88
388.713	118.88
388.938	109.88
389.163	118.88
389.387	120.88
389.612	112.88
389.837	114.88
390.062	108.88
390.287	118.88
390.512	120.88
390.736	107.88
390.961	114.88
391.186	118.88
391.411	106.88
391.636	114.88
391.86	116.88
392.085	117.88
392.31	117.88
392.534	117.88
392.759	106.88
392.984	116.88
393.208	118.88
393.433	118.88
393.658	122.88
393.882	119.88
394.107	122.88
394.331	137.88
394.556	120.88
394.78	123.88
395.005	133.88
395.229	118.88
395.454	121.88
395.678	133.88
395.903	136.88
396.127	136.88
396.352	123.88
396.576	135.88
396.801	122.88
397.025	132.88
397.249	120.88
397.474	112.88
397.698	122.88
397.922	133.88
398.147	116.88
398.371	122.88
398.595	111.88
398.82	102.88
399.044	122.88
399.268	126.88
399.492	144.88
399.717	142.88
399.941	151.88
400.165	134.88
400.389	156.88
400.613	124.88
400.837	136.88
401.062	137.88
401.286	126.88
401.51	124.88
401.734	118.88
401.958	125.88
402.182	146.88
402.406	130.88
402.63	111.88
402.854	132.88
403.078	127.88
403.302	130.88
403.526	132.88
403.75	132.88
403.974	129.88
404.198	125.88
404.422	146.88
404.645	131.88
404.869	134.88
405.093	139.88
405.317	136.88
405.541	139.88
405.765	142.88
405.988	136.88
406.212	127.88
406.436	130.88
406.66	126.88
406.883	129.88
407.107	140.88
407.331	140.88
407.555	132.88
407.778	147.88
408.002	151.88
408.226	140.88
408.449	138.88
408.673	114.88
408.896	140.88
409.12	123.88
409.344	133.88
409.567	137.88
409.791	138.88
410.014	138.88
410.238	135.88
410.461	132.88
410.685	130.88
410.908	125.88
411.132	127.88
411.355	134.88
411.578	121.88
411.802	105.88
412.025	120.88
412.249	119.88
412.472	127.88
412.695	132.88
412.919	136.88
413.142	130.88
413.365	118.88
413.589	128.88
413.812	132.88
414.035	120.88
414.258	120.88
414.482	128.88
414.705	128.88
414.928	125.88
415.151	129.88
415.374	116.88
415.597	115.88
415.821	130.88
416.044	125.88
416.267	122.88
416.49	129.88
416.713	123.88
416.936	124.88
417.159	140.88
417.382	120.88
417.605	136.88
417.828	126.88
418.051	128.88
418.274	129.88
418.497	117.88
418.72	150.88
418.943	136.88
419.166	131.88
419.389	138.88
419.611	124.88
419.834	119.88
420.057	130.88
420.28	115.88
420.503	140.88
420.726	126.88
420.948	123.88
421.171	138.88
421.394	132.88
421.617	124.88
421.839	124.88
422.062	128.88
422.285	137.88
422.507	142.88
422.73	132.88
422.953	138.88
423.175	130.88
423.398	137.88
423.621	130.88
423.843	134.88
424.066	136.88
424.288	124.88
424.511	140.88
424.733	143.88
424.956	147.88
425.178	134.88
425.401	138.88
425.623	136.88
425.846	131.88
426.068	134.88
426.291	130.88
426.513	119.88
426.735	121.88
426.958	128.88
427.18	128.88
427.402	143.88
427.625	138.88
427.847	136.88
428.069	130.88
428.292	122.88
428.514	133.88
428.736	132.88
428.958	128.88
429.181	129.88
429.403	122.88
429.625	127.88
429.847	130.88
430.069	137.88
430.292	128.88
430.514	109.88
430.736	140.88
430.958	118.88
431.18	116.88
431.402	127.88
431.624	116.88
431.846	116.88
432.068	117.88
432.29	136.88
432.512	138.88
432.734	121.88
432.956	126.88
433.178	109.88
433.4	132.88
433.622	126.88
433.844	128.88
434.066	124.88
434.287	124.88
434.509	140.88
434.731	123.88
434.953	113.88
435.175	134.88
435.397	130.88
435.618	132.88
435.84	130.88
436.062	147.88
436.284	125.88
436.505	134.88
436.727	114.88
436.949	120.88
437.17	125.88
437.392	110.88
437.614	120.88
437.835	114.88
438.057	148.88
438.278	127.88
438.5	111.88
438.721	119.88
438.943	133.88
439.165	125.88
439.386	128.88
439.608	126.88
439.829	128.88
440.05	137.88
440.272	141.88
440.493	129.88
440.715	128.88
440.936	121.88
441.158	125.88
441.379	136.88
441.6	124.88
441.822	121.88
442.043	114.88
442.264	144.88
442.486	121.88
442.707	138.88
442.928	126.88
443.149	116.88
443.371	125.88
443.592	134.88
443.813	128.88
444.034	136.88
444.255	133.88
444.476	129.88
444.698	134.88
444.919	142.88
445.14	278.88
445.361	197.88
445.582	140.88
445.803	136.88
446.024	127.88
446.245	132.88
446.466	134.88
446.687	119.88
446.908	112.88
447.129	126.88
447.35	126.88
447.571	128.88
447.792	126.88
448.013	123.88
448.234	126.88
448.455	135.88
448.675	130.88
448.896	134.88
449.117	136.88
449.338	126.88
449.559	129.88
449.779	130.88
450	131.88
450.221	133.88
450.442	125.88
450.662	106.88
450.883	131.88
451.104	130.88
451.324	138.88
451.545	120.88
451.766	123.88
451.986	121.88
452.207	112.88
452.428	125.88
452.648	114.88
452.869	126.88
453.089	122.88
453.31	121.88
453.53	122.88
453.751	130.88
453.971	118.88
454.192	124.88
454.412	130.88
454.633	120.88
454.853	109.88
455.073	115.88
455.294	121.88
455.514	112.88
455.734	114.88
455.955	124.88
456.175	110.88
456.395	116.88
456.616	119.88
456.836	125.88
457.056	116.88
457.276	118.88
457.497	117.88
457.717	120.88
457.937	123.88
458.157	124.88
458.377	122.88
458.598	109.88
458.818	134.88
459.038	114.88
459.258	119.88
459.478	110.88
459.698	112.88
459.918	115.88
460.138	120.88
460.358	136.88
460.578	137.88
460.798	132.88
461.018	103.88
461.238	124.88
461.458	131.88
461.678	132.88
461.898	146.88
462.118	146.88
462.338	131.88
462.558	125.88
462.777	126.88
462.997	138.88
463.217	145.88
463.437	122.88
463.657	126.88
463.876	138.88
464.096	135.88
464.316	141.88
464.536	140.88
464.755	136.88
464.975	141.88
465.195	126.88
465.414	136.88
465.634	133.88
465.854	118.88
466.073	110.88
466.293	112.88
466.512	112.88
466.732	109.88
466.951	109.88
467.171	121.88
467.391	120.88
467.61	120.88
467.829	93.88
468.049	134.88
468.268	122.88
468.488	109.88
468.707	110.88
468.927	139.88
469.146	120.88
469.365	126.88
469.585	136.88
469.804	114.88
470.023	125.88
470.243	128.88
470.462	122.88
470.681	130.88
470.901	122.88
471.12	103.88
471.339	122.88
471.558	126.88
471.777	129.88
471.997	112.88
472.216	119.88
472.435	109.88
472.654	116.88
472.873	119.88
473.092	122.88
473.311	122.88
473.53	143.88
473.749	122.88
473.968	115.88
474.187	116.88
474.406	118.88
474.625	131.88
474.844	120.88
475.063	121.88
475.282	132.88
475.501	112.88
475.72	131.88
475.939	129.88
476.158	128.88
476.377	136.88
476.596	108.88
476.814	126.88
477.033	121.88
477.252	123.88
477.471	126.88
477.69	122.88
477.908	113.88
478.127	148.88
478.346	132.88
478.564	122.88
478.783	124.88
479.002	138.88
479.22	134.88
479.439	137.88
479.658	132.88
479.876	128.88
480.095	133.88
480.313	134.88
480.532	139.88
480.751	135.88
480.969	129.88
481.188	123.88
481.406	133.88
481.624	125.88
481.843	118.88
482.061	125.88
482.28	133.88
482.498	123.88
482.717	121.88
482.935	126.88
483.153	131.88
483.372	128.88
483.59	130.88
483.808	128.88
484.027	118.88
484.245	119.88
484.463	144.88
484.681	137.88
484.9	120.88
485.118	131.88
485.336	129.88
485.554	141.88
485.772	125.88
485.99	135.88
486.209	128.88
486.427	125.88
486.645	141.88
486.863	131.88
487.081	128.88
487.299	126.88
487.517	132.88
487.735	136.88
487.953	138.88
488.171	130.88
488.389	129.88
488.607	139.88
488.825	129.88
489.043	131.88
489.261	125.88
489.479	136.88
489.696	122.88
489.914	132.88
490.132	133.88
490.35	129.88
490.568	130.88
490.786	141.88
491.003	129.88
491.221	137.88
491.439	146.88
491.657	136.88
491.874	138.88
492.092	148.88
492.31	148.88
492.527	148.88
492.745	152.88
492.963	148.88
493.18	139.88
493.398	146.88
493.615	140.88
493.833	140.88
494.05	154.88
494.268	141.88
494.485	136.88
494.703	138.88
494.92	131.88
495.138	136.88
495.355	160.88
495.573	131.88
495.79	133.88
496.008	133.88
496.225	137.88
496.442	140.88
496.66	134.88
496.877	148.88
497.094	136.88
497.312	135.88
497.529	152.88
497.746	168.88
497.963	148.88
498.181	157.88
498.398	147.88
498.615	152.88
498.832	164.88
499.049	168.88
499.267	159.88
499.484	174.88
499.701	167.88
499.918	188.88
500.135	196.88
500.352	203.88
500.569	215.88
500.786	204.88
501.003	185.88
501.22	176.88
501.437	176.88
501.654	172.88
501.871	160.88
502.088	158.88
502.305	162.88
502.522	156.88
502.739	144.88
502.956	149.88
503.172	157.88
503.389	167.88
503.606	145.88
503.823	120.88
504.04	143.88
504.256	144.88
504.473	146.88
504.69	141.88
504.907	142.88
505.123	138.88
505.34	134.88
505.557	133.88
505.773	123.88
505.99	136.88
506.207	134.88
