Data from 1968.PennyLincolnUp.Lamp.En5.5.200Scan.071719.P1._HRD10591_14-50-02-970.txt Node
Date: Thu Jul 18 14:50:02 EDT 2019
User: cochatt
Spectrometer: HR+D1059
Trigger mode: 1
Integration Time (sec): 1.000000E-1
Scans to average: 1
Electric dark correction enabled: true
Nonlinearity correction enabled: false
Boxcar width: 0
XAxis mode: Wavelengths
Number of Pixels in Spectrum: 2048
>>>>>Begin Spectral Data<<<<<
223.165	-2.44
223.4	-2.44
223.635	-2.44
223.869	-22.44
224.104	-10.44
224.338	-15.44
224.573	-17.44
224.808	-14.44
225.042	-11.44
225.277	-9.44
225.511	0.56
225.746	-1.44
225.98	15.56
226.215	14.56
226.449	8.56
226.683	16.56
226.918	16.56
227.152	32.56
227.387	47.56
227.621	32.56
227.856	51.56
228.09	43.56
228.324	47.56
228.559	62.56
228.793	61.56
229.027	57.56
229.262	57.56
229.496	76.56
229.73	71.56
229.964	69.56
230.199	66.56
230.433	90.56
230.667	78.56
230.901	74.56
231.136	81.56
231.37	81.56
231.604	82.56
231.838	71.56
232.072	87.56
232.306	104.56
232.541	92.56
232.775	81.56
233.009	80.56
233.243	92.56
233.477	103.56
233.711	66.56
233.945	92.56
234.179	86.56
234.413	93.56
234.647	83.56
234.881	87.56
235.115	76.56
235.349	70.56
235.583	73.56
235.817	83.56
236.051	75.56
236.285	79.56
236.519	86.56
236.753	76.56
236.987	83.56
237.221	77.56
237.455	87.56
237.689	74.56
237.922	84.56
238.156	74.56
238.39	74.56
238.624	81.56
238.858	80.56
239.091	77.56
239.325	87.56
239.559	88.56
239.793	81.56
240.027	98.56
240.26	98.56
240.494	94.56
240.728	76.56
240.961	77.56
241.195	89.56
241.429	90.56
241.662	92.56
241.896	92.56
242.13	75.56
242.363	88.56
242.597	74.56
242.83	99.56
243.064	87.56
243.298	83.56
243.531	82.56
243.765	77.56
243.998	86.56
244.232	75.56
244.465	85.56
244.699	80.56
244.932	89.56
245.166	89.56
245.399	88.56
245.633	98.56
245.866	96.56
246.099	88.56
246.333	80.56
246.566	78.56
246.8	88.56
247.033	95.56
247.266	91.56
247.5	93.56
247.733	92.56
247.966	83.56
248.2	94.56
248.433	92.56
248.666	75.56
248.899	86.56
249.133	97.56
249.366	98.56
249.599	86.56
249.832	95.56
250.066	86.56
250.299	86.56
250.532	86.56
250.765	74.56
250.998	99.56
251.231	91.56
251.465	94.56
251.698	89.56
251.931	103.56
252.164	88.56
252.397	94.56
252.63	88.56
252.863	90.56
253.096	92.56
253.329	85.56
253.562	84.56
253.795	88.56
254.028	91.56
254.261	86.56
254.494	84.56
254.727	94.56
254.96	104.56
255.193	95.56
255.426	86.56
255.659	95.56
255.892	98.56
256.124	85.56
256.357	87.56
256.59	87.56
256.823	99.56
257.056	88.56
257.289	70.56
257.521	84.56
257.754	109.56
257.987	96.56
258.22	94.56
258.452	91.56
258.685	88.56
258.918	106.56
259.151	99.56
259.383	91.56
259.616	90.56
259.849	94.56
260.081	103.56
260.314	87.56
260.547	90.56
260.779	90.56
261.012	90.56
261.244	80.56
261.477	107.56
261.71	90.56
261.942	112.56
262.175	89.56
262.407	110.56
262.64	87.56
262.872	98.56
263.105	82.56
263.337	102.56
263.57	88.56
263.802	100.56
264.035	87.56
264.267	90.56
264.499	98.56
264.732	103.56
264.964	109.56
265.197	94.56
265.429	104.56
265.661	87.56
265.894	86.56
266.126	108.56
266.358	87.56
266.591	90.56
266.823	97.56
267.055	83.56
267.287	95.56
267.52	93.56
267.752	101.56
267.984	92.56
268.216	92.56
268.448	96.56
268.681	105.56
268.913	105.56
269.145	91.56
269.377	100.56
269.609	105.56
269.841	98.56
270.073	89.56
270.306	105.56
270.538	102.56
270.77	111.56
271.002	104.56
271.234	95.56
271.466	91.56
271.698	91.56
271.93	97.56
272.162	100.56
272.394	93.56
272.626	95.56
272.858	107.56
273.09	97.56
273.322	92.56
273.553	91.56
273.785	96.56
274.017	91.56
274.249	100.56
274.481	113.56
274.713	102.56
274.945	89.56
275.176	93.56
275.408	99.56
275.64	95.56
275.872	98.56
276.104	97.56
276.335	91.56
276.567	98.56
276.799	82.56
277.031	95.56
277.262	112.56
277.494	106.56
277.726	108.56
277.957	104.56
278.189	108.56
278.421	106.56
278.652	107.56
278.884	87.56
279.115	107.56
279.347	101.56
279.579	109.56
279.81	102.56
280.042	93.56
280.273	123.56
280.505	121.56
280.736	97.56
280.968	98.56
281.199	99.56
281.431	93.56
281.662	100.56
281.894	110.56
282.125	94.56
282.356	108.56
282.588	97.56
282.819	106.56
283.051	95.56
283.282	112.56
283.513	108.56
283.745	91.56
283.976	102.56
284.207	98.56
284.439	94.56
284.67	99.56
284.901	104.56
285.132	110.56
285.364	108.56
285.595	119.56
285.826	97.56
286.057	93.56
286.288	105.56
286.52	110.56
286.751	100.56
286.982	112.56
287.213	115.56
287.444	113.56
287.675	96.56
287.906	105.56
288.138	114.56
288.369	77.56
288.6	109.56
288.831	93.56
289.062	102.56
289.293	99.56
289.524	100.56
289.755	101.56
289.986	108.56
290.217	90.56
290.448	112.56
290.679	110.56
290.91	103.56
291.141	110.56
291.371	103.56
291.602	121.56
291.833	117.56
292.064	103.56
292.295	100.56
292.526	105.56
292.757	101.56
292.987	98.56
293.218	110.56
293.449	111.56
293.68	97.56
293.91	107.56
294.141	104.56
294.372	110.56
294.603	113.56
294.833	119.56
295.064	101.56
295.295	122.56
295.525	95.56
295.756	104.56
295.987	110.56
296.217	101.56
296.448	107.56
296.679	112.56
296.909	99.56
297.14	91.56
297.37	104.56
297.601	94.56
297.831	108.56
298.062	120.56
298.292	102.56
298.523	105.56
298.753	106.56
298.984	102.56
299.214	103.56
299.445	96.56
299.675	99.56
299.905	100.56
300.136	107.56
300.366	105.56
300.597	111.56
300.827	117.56
301.057	99.56
301.288	113.56
301.518	109.56
301.748	105.56
301.979	108.56
302.209	109.56
302.439	113.56
302.669	107.56
302.9	111.56
303.13	105.56
303.36	103.56
303.59	107.56
303.82	109.56
304.051	117.56
304.281	101.56
304.511	102.56
304.741	105.56
304.971	107.56
305.201	109.56
305.431	111.56
305.661	109.56
305.891	110.56
306.121	117.56
306.352	110.56
306.582	113.56
306.812	94.56
307.042	100.56
307.272	102.56
307.502	117.56
307.731	119.56
307.961	111.56
308.191	123.56
308.421	117.56
308.651	111.56
308.881	103.56
309.111	110.56
309.341	100.56
309.571	107.56
309.8	110.56
310.03	116.56
310.26	116.56
310.49	111.56
310.72	112.56
310.949	116.56
311.179	103.56
311.409	125.56
311.639	115.56
311.868	108.56
312.098	121.56
312.328	109.56
312.557	101.56
312.787	117.56
313.017	97.56
313.246	117.56
313.476	97.56
313.706	115.56
313.935	119.56
314.165	120.56
314.394	101.56
314.624	104.56
314.853	100.56
315.083	105.56
315.312	113.56
315.542	113.56
315.771	116.56
316.001	107.56
316.23	113.56
316.46	109.56
316.689	117.56
316.919	110.56
317.148	117.56
317.377	127.56
317.607	123.56
317.836	114.56
318.065	104.56
318.295	111.56
318.524	121.56
318.753	108.56
318.983	98.56
319.212	95.56
319.441	116.56
319.67	122.56
319.9	117.56
320.129	114.56
320.358	111.56
320.587	133.56
320.816	115.56
321.046	109.56
321.275	107.56
321.504	105.56
321.733	103.56
321.962	108.56
322.191	98.56
322.42	134.56
322.649	116.56
322.878	108.56
323.108	120.56
323.337	106.56
323.566	111.56
323.795	112.56
324.024	124.56
324.253	123.56
324.482	126.56
324.71	151.56
324.939	176.56
325.168	151.56
325.397	109.56
325.626	127.56
325.855	121.56
326.084	121.56
326.313	98.56
326.542	122.56
326.77	128.56
326.999	119.56
327.228	139.56
327.457	144.56
327.686	146.56
327.914	127.56
328.143	135.56
328.372	109.56
328.6	120.56
328.829	120.56
329.058	112.56
329.287	112.56
329.515	101.56
329.744	112.56
329.972	123.56
330.201	111.56
330.43	119.56
330.658	115.56
330.887	125.56
331.115	129.56
331.344	103.56
331.572	126.56
331.801	116.56
332.03	125.56
332.258	129.56
332.486	125.56
332.715	121.56
332.943	125.56
333.172	118.56
333.4	112.56
333.629	121.56
333.857	130.56
334.085	117.56
334.314	127.56
334.542	135.56
334.771	119.56
334.999	121.56
335.227	113.56
335.455	110.56
335.684	125.56
335.912	119.56
336.14	121.56
336.369	109.56
336.597	126.56
336.825	125.56
337.053	122.56
337.281	111.56
337.51	121.56
337.738	124.56
337.966	117.56
338.194	115.56
338.422	111.56
338.65	136.56
338.878	121.56
339.106	121.56
339.334	101.56
339.562	117.56
339.79	115.56
340.018	127.56
340.246	124.56
340.474	104.56
340.702	117.56
340.93	125.56
341.158	117.56
341.386	115.56
341.614	120.56
341.842	112.56
342.07	104.56
342.298	111.56
342.526	106.56
342.754	123.56
342.981	122.56
343.209	116.56
343.437	121.56
343.665	122.56
343.893	124.56
344.12	108.56
344.348	105.56
344.576	104.56
344.804	107.56
345.031	112.56
345.259	121.56
345.487	110.56
345.714	103.56
345.942	111.56
346.17	122.56
346.397	119.56
346.625	109.56
346.853	127.56
347.08	110.56
347.308	110.56
347.535	122.56
347.763	109.56
347.99	115.56
348.218	104.56
348.445	110.56
348.673	115.56
348.9	115.56
349.128	120.56
349.355	106.56
349.583	115.56
349.81	111.56
350.037	127.56
350.265	124.56
350.492	120.56
350.72	110.56
350.947	110.56
351.174	120.56
351.402	117.56
351.629	118.56
351.856	106.56
352.083	115.56
352.311	107.56
352.538	125.56
352.765	99.56
352.992	112.56
353.22	109.56
353.447	110.56
353.674	103.56
353.901	117.56
354.128	114.56
354.355	110.56
354.583	124.56
354.81	108.56
355.037	109.56
355.264	119.56
355.491	110.56
355.718	109.56
355.945	108.56
356.172	115.56
356.399	104.56
356.626	112.56
356.853	110.56
357.08	127.56
357.307	133.56
357.534	118.56
357.761	115.56
357.988	113.56
358.215	115.56
358.441	100.56
358.668	103.56
358.895	116.56
359.122	97.56
359.349	101.56
359.576	122.56
359.802	119.56
360.029	128.56
360.256	125.56
360.483	124.56
360.709	108.56
360.936	117.56
361.163	96.56
361.39	123.56
361.616	131.56
361.843	112.56
362.07	110.56
362.296	120.56
362.523	114.56
362.749	91.56
362.976	121.56
363.203	108.56
363.429	121.56
363.656	111.56
363.882	119.56
364.109	105.56
364.335	99.56
364.562	116.56
364.788	117.56
365.015	112.56
365.241	108.56
365.468	117.56
365.694	111.56
365.92	120.56
366.147	127.56
366.373	118.56
366.599	109.56
366.826	111.56
367.052	112.56
367.278	107.56
367.505	109.56
367.731	123.56
367.957	103.56
368.184	122.56
368.41	119.56
368.636	112.56
368.862	115.56
369.089	119.56
369.315	116.56
369.541	112.56
369.767	115.56
369.993	125.56
370.219	115.56
370.445	107.56
370.672	120.56
370.898	117.56
371.124	122.56
371.35	127.56
371.576	112.56
371.802	134.56
372.028	125.56
372.254	109.56
372.48	127.56
372.706	127.56
372.932	112.56
373.158	123.56
373.384	113.56
373.61	120.56
373.835	117.56
374.061	109.56
374.287	96.56
374.513	106.56
374.739	129.56
374.965	105.56
375.191	122.56
375.416	131.56
375.642	127.56
375.868	117.56
376.094	129.56
376.319	107.56
376.545	113.56
376.771	110.56
376.997	118.56
377.222	120.56
377.448	101.56
377.674	105.56
377.899	121.56
378.125	117.56
378.35	121.56
378.576	116.56
378.802	97.56
379.027	115.56
379.253	112.56
379.478	115.56
379.704	137.56
379.929	111.56
380.155	125.56
380.38	121.56
380.606	115.56
380.831	116.56
381.057	123.56
381.282	107.56
381.507	120.56
381.733	110.56
381.958	104.56
382.184	111.56
382.409	117.56
382.634	125.56
382.86	128.56
383.085	116.56
383.31	115.56
383.535	123.56
383.761	109.56
383.986	123.56
384.211	116.56
384.436	99.56
384.662	115.56
384.887	103.56
385.112	111.56
385.337	116.56
385.562	110.56
385.787	115.56
386.013	141.56
386.238	125.56
386.463	122.56
386.688	124.56
386.913	128.56
387.138	108.56
387.363	106.56
387.588	111.56
387.813	119.56
388.038	127.56
388.263	130.56
388.488	113.56
388.713	129.56
388.938	143.56
389.163	122.56
389.387	120.56
389.612	127.56
389.837	119.56
390.062	125.56
390.287	123.56
390.512	114.56
390.736	128.56
390.961	103.56
391.186	115.56
391.411	133.56
391.636	129.56
391.86	126.56
392.085	134.56
392.31	118.56
392.534	126.56
392.759	144.56
392.984	128.56
393.208	122.56
393.433	127.56
393.658	110.56
393.882	112.56
394.107	119.56
394.331	122.56
394.556	117.56
394.78	116.56
395.005	101.56
395.229	111.56
395.454	121.56
395.678	124.56
395.903	153.56
396.127	139.56
396.352	126.56
396.576	113.56
396.801	125.56
397.025	135.56
397.249	121.56
397.474	133.56
397.698	133.56
397.922	137.56
398.147	120.56
398.371	119.56
398.595	121.56
398.82	137.56
399.044	121.56
399.268	125.56
399.492	144.56
399.717	142.56
399.941	135.56
400.165	140.56
400.389	128.56
400.613	139.56
400.837	139.56
401.062	143.56
401.286	133.56
401.51	135.56
401.734	127.56
401.958	123.56
402.182	135.56
402.406	133.56
402.63	130.56
402.854	134.56
403.078	124.56
403.302	137.56
403.526	134.56
403.75	140.56
403.974	131.56
404.198	133.56
404.422	133.56
404.645	125.56
404.869	128.56
405.093	129.56
405.317	137.56
405.541	132.56
405.765	143.56
405.988	143.56
406.212	134.56
406.436	122.56
406.66	132.56
406.883	128.56
407.107	131.56
407.331	145.56
407.555	149.56
407.778	137.56
408.002	130.56
408.226	138.56
408.449	142.56
408.673	135.56
408.896	151.56
409.12	133.56
409.344	154.56
409.567	134.56
409.791	117.56
410.014	135.56
410.238	134.56
410.461	142.56
410.685	123.56
410.908	126.56
411.132	133.56
411.355	143.56
411.578	126.56
411.802	121.56
412.025	136.56
412.249	136.56
412.472	140.56
412.695	126.56
412.919	129.56
413.142	152.56
413.365	128.56
413.589	125.56
413.812	121.56
414.035	118.56
414.258	120.56
414.482	142.56
414.705	126.56
414.928	127.56
415.151	141.56
415.374	127.56
415.597	138.56
415.821	126.56
416.044	122.56
416.267	122.56
416.49	132.56
416.713	115.56
416.936	122.56
417.159	119.56
417.382	125.56
417.605	139.56
417.828	132.56
418.051	139.56
418.274	135.56
418.497	123.56
418.72	128.56
418.943	125.56
419.166	138.56
419.389	137.56
419.611	117.56
419.834	136.56
420.057	143.56
420.28	133.56
420.503	133.56
420.726	138.56
420.948	140.56
421.171	136.56
421.394	165.56
421.617	129.56
421.839	123.56
422.062	131.56
422.285	134.56
422.507	138.56
422.73	134.56
422.953	139.56
423.175	151.56
423.398	135.56
423.621	128.56
423.843	123.56
424.066	140.56
424.288	147.56
424.511	134.56
424.733	137.56
424.956	128.56
425.178	128.56
425.401	145.56
425.623	145.56
425.846	119.56
426.068	142.56
426.291	142.56
426.513	125.56
426.735	135.56
426.958	133.56
427.18	140.56
427.402	159.56
427.625	140.56
427.847	137.56
428.069	130.56
428.292	124.56
428.514	117.56
428.736	128.56
428.958	130.56
429.181	129.56
429.403	143.56
429.625	122.56
429.847	130.56
430.069	140.56
430.292	125.56
430.514	126.56
430.736	128.56
430.958	134.56
431.18	126.56
431.402	118.56
431.624	108.56
431.846	139.56
432.068	123.56
432.29	123.56
432.512	123.56
432.734	121.56
432.956	136.56
433.178	130.56
433.4	132.56
433.622	138.56
433.844	131.56
434.066	121.56
434.287	123.56
434.509	117.56
434.731	137.56
434.953	123.56
435.175	131.56
435.397	128.56
435.618	134.56
435.84	123.56
436.062	141.56
436.284	143.56
436.505	139.56
436.727	121.56
436.949	123.56
437.17	125.56
437.392	128.56
437.614	126.56
437.835	139.56
438.057	143.56
438.278	118.56
438.5	142.56
438.721	138.56
438.943	161.56
439.165	157.56
439.386	126.56
439.608	146.56
439.829	123.56
440.05	122.56
440.272	129.56
440.493	147.56
440.715	143.56
440.936	137.56
441.158	139.56
441.379	140.56
441.6	127.56
441.822	145.56
442.043	145.56
442.264	124.56
442.486	146.56
442.707	143.56
442.928	136.56
443.149	133.56
443.371	138.56
443.592	139.56
443.813	149.56
444.034	149.56
444.255	149.56
444.476	139.56
444.698	139.56
444.919	141.56
445.14	261.56
445.361	209.56
445.582	145.56
445.803	126.56
446.024	140.56
446.245	167.56
446.466	127.56
446.687	139.56
446.908	117.56
447.129	131.56
447.35	112.56
447.571	143.56
447.792	119.56
448.013	138.56
448.234	140.56
448.455	127.56
448.675	136.56
448.896	133.56
449.117	116.56
449.338	124.56
449.559	133.56
449.779	138.56
450	137.56
450.221	135.56
450.442	114.56
450.662	120.56
450.883	131.56
451.104	121.56
451.324	110.56
451.545	139.56
451.766	128.56
451.986	134.56
452.207	121.56
452.428	116.56
452.648	123.56
452.869	118.56
453.089	139.56
453.31	124.56
453.53	128.56
453.751	123.56
453.971	126.56
454.192	104.56
454.412	119.56
454.633	109.56
454.853	117.56
455.073	119.56
455.294	123.56
455.514	141.56
455.734	125.56
455.955	118.56
456.175	124.56
456.395	118.56
456.616	121.56
456.836	126.56
457.056	128.56
457.276	109.56
457.497	126.56
457.717	108.56
457.937	119.56
458.157	123.56
458.377	112.56
458.598	119.56
458.818	135.56
459.038	129.56
459.258	121.56
459.478	124.56
459.698	146.56
459.918	129.56
460.138	133.56
460.358	132.56
460.578	125.56
460.798	146.56
461.018	135.56
461.238	112.56
461.458	138.56
461.678	130.56
461.898	149.56
462.118	132.56
462.338	129.56
462.558	122.56
462.777	128.56
462.997	136.56
463.217	150.56
463.437	144.56
463.657	144.56
463.876	132.56
464.096	149.56
464.316	132.56
464.536	126.56
464.755	134.56
464.975	137.56
465.195	135.56
465.414	133.56
465.634	111.56
465.854	129.56
466.073	120.56
466.293	123.56
466.512	118.56
466.732	119.56
466.951	126.56
467.171	119.56
467.391	131.56
467.61	130.56
467.829	123.56
468.049	136.56
468.268	119.56
468.488	135.56
468.707	119.56
468.927	120.56
469.146	137.56
469.365	116.56
469.585	133.56
469.804	113.56
470.023	115.56
470.243	115.56
470.462	117.56
470.681	124.56
470.901	125.56
471.12	138.56
471.339	135.56
471.558	109.56
471.777	126.56
471.997	121.56
472.216	128.56
472.435	136.56
472.654	119.56
472.873	109.56
473.092	115.56
473.311	126.56
473.53	128.56
473.749	120.56
473.968	127.56
474.187	130.56
474.406	139.56
474.625	129.56
474.844	127.56
475.063	122.56
475.282	119.56
475.501	124.56
475.72	120.56
475.939	108.56
476.158	106.56
476.377	129.56
476.596	127.56
476.814	121.56
477.033	129.56
477.252	140.56
477.471	123.56
477.69	131.56
477.908	127.56
478.127	145.56
478.346	133.56
478.564	127.56
478.783	133.56
479.002	131.56
479.22	131.56
479.439	141.56
479.658	129.56
479.876	144.56
480.095	129.56
480.313	144.56
480.532	139.56
480.751	137.56
480.969	139.56
481.188	132.56
481.406	135.56
481.624	137.56
481.843	130.56
482.061	133.56
482.28	136.56
482.498	129.56
482.717	124.56
482.935	128.56
483.153	127.56
483.372	126.56
483.59	137.56
483.808	135.56
484.027	142.56
484.245	136.56
484.463	134.56
484.681	124.56
484.9	133.56
485.118	136.56
485.336	129.56
485.554	127.56
485.772	125.56
485.99	127.56
486.209	138.56
486.427	141.56
486.645	132.56
486.863	131.56
487.081	131.56
487.299	138.56
487.517	143.56
487.735	131.56
487.953	143.56
488.171	139.56
488.389	136.56
488.607	133.56
488.825	126.56
489.043	132.56
489.261	122.56
489.479	138.56
489.696	140.56
489.914	143.56
490.132	141.56
490.35	143.56
490.568	139.56
490.786	138.56
491.003	144.56
491.221	137.56
491.439	137.56
491.657	145.56
491.874	160.56
492.092	145.56
492.31	156.56
492.527	145.56
492.745	158.56
492.963	144.56
493.18	147.56
493.398	152.56
493.615	167.56
493.833	137.56
494.05	153.56
494.268	144.56
494.485	150.56
494.703	144.56
494.92	136.56
495.138	148.56
495.355	133.56
495.573	131.56
495.79	136.56
496.008	143.56
496.225	130.56
496.442	127.56
496.66	123.56
496.877	144.56
497.094	143.56
497.312	153.56
497.529	164.56
497.746	149.56
497.963	152.56
498.181	152.56
498.398	170.56
498.615	174.56
498.832	172.56
499.049	161.56
499.267	184.56
499.484	165.56
499.701	183.56
499.918	201.56
500.135	199.56
500.352	223.56
500.569	239.56
500.786	224.56
501.003	216.56
501.22	184.56
501.437	180.56
501.654	165.56
501.871	164.56
502.088	172.56
502.305	148.56
502.522	166.56
502.739	159.56
502.956	140.56
503.172	161.56
503.389	147.56
503.606	149.56
503.823	138.56
504.04	155.56
504.256	146.56
504.473	150.56
504.69	153.56
504.907	146.56
505.123	143.56
