Data from 1968.PennyLincolnUp.Lamp.En5.5.200Scan.071719.P1._HRD10591_14-52-07-970.txt Node
Date: Thu Jul 18 14:52:07 EDT 2019
User: cochatt
Spectrometer: HR+D1059
Trigger mode: 1
Integration Time (sec): 1.000000E-1
Scans to average: 1
Electric dark correction enabled: true
Nonlinearity correction enabled: false
Boxcar width: 0
XAxis mode: Wavelengths
Number of Pixels in Spectrum: 2048
>>>>>Begin Spectral Data<<<<<
223.165	-13.25
223.4	-13.25
223.635	-13.25
223.869	-0.25
224.104	-11.25
224.338	-7.25
224.573	-12.25
224.808	-15.25
225.042	-10.25
225.277	-6.25
225.511	1.75
225.746	4.75
225.98	-7.25
226.215	11.75
226.449	6.75
226.683	-5.25
226.918	33.75
227.152	29.75
227.387	33.75
227.621	29.75
227.856	50.75
228.09	43.75
228.324	50.75
228.559	60.75
228.793	63.75
229.027	69.75
229.262	71.75
229.496	59.75
229.73	70.75
229.964	64.75
230.199	76.75
230.433	79.75
230.667	67.75
230.901	69.75
231.136	82.75
231.37	91.75
231.604	72.75
231.838	82.75
232.072	66.75
232.306	93.75
232.541	80.75
232.775	73.75
233.009	88.75
233.243	80.75
233.477	83.75
233.711	79.75
233.945	89.75
234.179	83.75
234.413	76.75
234.647	79.75
234.881	77.75
235.115	78.75
235.349	69.75
235.583	81.75
235.817	83.75
236.051	78.75
236.285	81.75
236.519	72.75
236.753	84.75
236.987	86.75
237.221	88.75
237.455	73.75
237.689	69.75
237.922	89.75
238.156	81.75
238.39	73.75
238.624	73.75
238.858	94.75
239.091	78.75
239.325	84.75
239.559	92.75
239.793	82.75
240.027	82.75
240.26	80.75
240.494	68.75
240.728	71.75
240.961	72.75
241.195	87.75
241.429	85.75
241.662	90.75
241.896	81.75
242.13	59.75
242.363	79.75
242.597	78.75
242.83	86.75
243.064	82.75
243.298	92.75
243.531	77.75
243.765	76.75
243.998	88.75
244.232	86.75
244.465	78.75
244.699	75.75
244.932	90.75
245.166	70.75
245.399	88.75
245.633	81.75
245.866	81.75
246.099	94.75
246.333	71.75
246.566	90.75
246.8	88.75
247.033	71.75
247.266	76.75
247.5	88.75
247.733	83.75
247.966	77.75
248.2	70.75
248.433	84.75
248.666	83.75
248.899	83.75
249.133	83.75
249.366	74.75
249.599	102.75
249.832	91.75
250.066	80.75
250.299	78.75
250.532	91.75
250.765	88.75
250.998	83.75
251.231	99.75
251.465	68.75
251.698	89.75
251.931	90.75
252.164	89.75
252.397	83.75
252.63	87.75
252.863	75.75
253.096	91.75
253.329	77.75
253.562	84.75
253.795	97.75
254.028	92.75
254.261	91.75
254.494	84.75
254.727	86.75
254.96	89.75
255.193	102.75
255.426	94.75
255.659	89.75
255.892	101.75
256.124	96.75
256.357	88.75
256.59	88.75
256.823	85.75
257.056	87.75
257.289	93.75
257.521	90.75
257.754	95.75
257.987	98.75
258.22	88.75
258.452	85.75
258.685	96.75
258.918	92.75
259.151	90.75
259.383	83.75
259.616	90.75
259.849	94.75
260.081	88.75
260.314	90.75
260.547	78.75
260.779	78.75
261.012	99.75
261.244	90.75
261.477	75.75
261.71	86.75
261.942	105.75
262.175	88.75
262.407	83.75
262.64	105.75
262.872	87.75
263.105	81.75
263.337	80.75
263.57	88.75
263.802	87.75
264.035	91.75
264.267	88.75
264.499	86.75
264.732	90.75
264.964	93.75
265.197	89.75
265.429	87.75
265.661	82.75
265.894	90.75
266.126	107.75
266.358	101.75
266.591	89.75
266.823	101.75
267.055	79.75
267.287	82.75
267.52	88.75
267.752	106.75
267.984	89.75
268.216	107.75
268.448	94.75
268.681	101.75
268.913	93.75
269.145	101.75
269.377	101.75
269.609	101.75
269.841	93.75
270.073	92.75
270.306	77.75
270.538	105.75
270.77	96.75
271.002	106.75
271.234	93.75
271.466	96.75
271.698	100.75
271.93	118.75
272.162	103.75
272.394	84.75
272.626	93.75
272.858	85.75
273.09	101.75
273.322	95.75
273.553	106.75
273.785	65.75
274.017	91.75
274.249	86.75
274.481	96.75
274.713	89.75
274.945	95.75
275.176	107.75
275.408	93.75
275.64	92.75
275.872	109.75
276.104	93.75
276.335	89.75
276.567	85.75
276.799	102.75
277.031	85.75
277.262	89.75
277.494	90.75
277.726	97.75
277.957	106.75
278.189	120.75
278.421	90.75
278.652	95.75
278.884	92.75
279.115	96.75
279.347	78.75
279.579	100.75
279.81	108.75
280.042	92.75
280.273	93.75
280.505	93.75
280.736	97.75
280.968	104.75
281.199	104.75
281.431	89.75
281.662	96.75
281.894	99.75
282.125	91.75
282.356	108.75
282.588	103.75
282.819	93.75
283.051	90.75
283.282	96.75
283.513	88.75
283.745	100.75
283.976	96.75
284.207	112.75
284.439	91.75
284.67	107.75
284.901	113.75
285.132	96.75
285.364	90.75
285.595	95.75
285.826	91.75
286.057	89.75
286.288	93.75
286.52	97.75
286.751	98.75
286.982	104.75
287.213	113.75
287.444	86.75
287.675	98.75
287.906	106.75
288.138	97.75
288.369	107.75
288.6	106.75
288.831	104.75
289.062	106.75
289.293	96.75
289.524	100.75
289.755	95.75
289.986	110.75
290.217	96.75
290.448	110.75
290.679	105.75
290.91	105.75
291.141	88.75
291.371	102.75
291.602	97.75
291.833	95.75
292.064	99.75
292.295	93.75
292.526	107.75
292.757	103.75
292.987	101.75
293.218	97.75
293.449	108.75
293.68	97.75
293.91	107.75
294.141	101.75
294.372	103.75
294.603	96.75
294.833	86.75
295.064	101.75
295.295	108.75
295.525	103.75
295.756	102.75
295.987	93.75
296.217	104.75
296.448	104.75
296.679	98.75
296.909	104.75
297.14	114.75
297.37	114.75
297.601	98.75
297.831	93.75
298.062	101.75
298.292	90.75
298.523	109.75
298.753	97.75
298.984	100.75
299.214	105.75
299.445	100.75
299.675	101.75
299.905	102.75
300.136	106.75
300.366	102.75
300.597	97.75
300.827	107.75
301.057	92.75
301.288	98.75
301.518	108.75
301.748	96.75
301.979	104.75
302.209	102.75
302.439	108.75
302.669	93.75
302.9	112.75
303.13	96.75
303.36	101.75
303.59	95.75
303.82	107.75
304.051	89.75
304.281	95.75
304.511	101.75
304.741	109.75
304.971	109.75
305.201	105.75
305.431	112.75
305.661	110.75
305.891	101.75
306.121	100.75
306.352	104.75
306.582	112.75
306.812	100.75
307.042	103.75
307.272	106.75
307.502	102.75
307.731	100.75
307.961	105.75
308.191	98.75
308.421	117.75
308.651	105.75
308.881	106.75
309.111	116.75
309.341	101.75
309.571	95.75
309.8	105.75
310.03	98.75
310.26	98.75
310.49	102.75
310.72	107.75
310.949	105.75
311.179	96.75
311.409	105.75
311.639	113.75
311.868	104.75
312.098	108.75
312.328	105.75
312.557	109.75
312.787	106.75
313.017	95.75
313.246	91.75
313.476	78.75
313.706	112.75
313.935	116.75
314.165	108.75
314.394	94.75
314.624	100.75
314.853	101.75
315.083	105.75
315.312	105.75
315.542	116.75
315.771	104.75
316.001	105.75
316.23	113.75
316.46	116.75
316.689	114.75
316.919	97.75
317.148	101.75
317.377	101.75
317.607	107.75
317.836	90.75
318.065	105.75
318.295	112.75
318.524	116.75
318.753	119.75
318.983	116.75
319.212	113.75
319.441	119.75
319.67	121.75
319.9	94.75
320.129	101.75
320.358	105.75
320.587	116.75
320.816	108.75
321.046	87.75
321.275	118.75
321.504	119.75
321.733	112.75
321.962	113.75
322.191	115.75
322.42	108.75
322.649	109.75
322.878	117.75
323.108	122.75
323.337	122.75
323.566	134.75
323.795	102.75
324.024	124.75
324.253	120.75
324.482	126.75
324.71	164.75
324.939	206.75
325.168	150.75
325.397	133.75
325.626	111.75
325.855	112.75
326.084	114.75
326.313	108.75
326.542	107.75
326.77	112.75
326.999	123.75
327.228	125.75
327.457	152.75
327.686	157.75
327.914	133.75
328.143	108.75
328.372	117.75
328.6	116.75
328.829	114.75
329.058	103.75
329.287	101.75
329.515	107.75
329.744	109.75
329.972	118.75
330.201	103.75
330.43	126.75
330.658	112.75
330.887	118.75
331.115	112.75
331.344	109.75
331.572	112.75
331.801	105.75
332.03	121.75
332.258	130.75
332.486	113.75
332.715	120.75
332.943	109.75
333.172	114.75
333.4	104.75
333.629	111.75
333.857	113.75
334.085	119.75
334.314	123.75
334.542	117.75
334.771	104.75
334.999	121.75
335.227	117.75
335.455	118.75
335.684	107.75
335.912	112.75
336.14	120.75
336.369	128.75
336.597	119.75
336.825	103.75
337.053	119.75
337.281	113.75
337.51	122.75
337.738	132.75
337.966	112.75
338.194	101.75
338.422	108.75
338.65	125.75
338.878	119.75
339.106	111.75
339.334	111.75
339.562	102.75
339.79	109.75
340.018	106.75
340.246	105.75
340.474	113.75
340.702	116.75
340.93	124.75
341.158	112.75
341.386	112.75
341.614	100.75
341.842	116.75
342.07	112.75
342.298	106.75
342.526	102.75
342.754	105.75
342.981	102.75
343.209	131.75
343.437	125.75
343.665	108.75
343.893	117.75
344.12	112.75
344.348	118.75
344.576	128.75
344.804	114.75
345.031	106.75
345.259	112.75
345.487	100.75
345.714	118.75
345.942	107.75
346.17	105.75
346.397	107.75
346.625	119.75
346.853	117.75
347.08	100.75
347.308	101.75
347.535	100.75
347.763	104.75
347.99	103.75
348.218	113.75
348.445	112.75
348.673	99.75
348.9	115.75
349.128	108.75
349.355	109.75
349.583	100.75
349.81	113.75
350.037	116.75
350.265	123.75
350.492	116.75
350.72	101.75
350.947	110.75
351.174	121.75
351.402	125.75
351.629	109.75
351.856	101.75
352.083	106.75
352.311	111.75
352.538	112.75
352.765	95.75
352.992	116.75
353.22	105.75
353.447	107.75
353.674	123.75
353.901	100.75
354.128	102.75
354.355	112.75
354.583	101.75
354.81	114.75
355.037	112.75
355.264	113.75
355.491	107.75
355.718	107.75
355.945	88.75
356.172	102.75
356.399	94.75
356.626	87.75
356.853	104.75
357.08	92.75
357.307	114.75
357.534	116.75
357.761	104.75
357.988	104.75
358.215	101.75
358.441	115.75
358.668	105.75
358.895	107.75
359.122	114.75
359.349	102.75
359.576	121.75
359.802	116.75
360.029	117.75
360.256	97.75
360.483	106.75
360.709	105.75
360.936	118.75
361.163	124.75
361.39	107.75
361.616	102.75
361.843	109.75
362.07	107.75
362.296	123.75
362.523	115.75
362.749	126.75
362.976	108.75
363.203	98.75
363.429	105.75
363.656	99.75
363.882	117.75
364.109	109.75
364.335	119.75
364.562	108.75
364.788	111.75
365.015	102.75
365.241	106.75
365.468	115.75
365.694	132.75
365.92	117.75
366.147	116.75
366.373	104.75
366.599	120.75
366.826	107.75
367.052	116.75
367.278	102.75
367.505	124.75
367.731	124.75
367.957	104.75
368.184	113.75
368.41	122.75
368.636	107.75
368.862	117.75
369.089	119.75
369.315	115.75
369.541	94.75
369.767	120.75
369.993	103.75
370.219	127.75
370.445	107.75
370.672	103.75
370.898	110.75
371.124	103.75
371.35	120.75
371.576	115.75
371.802	121.75
372.028	106.75
372.254	120.75
372.48	123.75
372.706	115.75
372.932	117.75
373.158	100.75
373.384	124.75
373.61	116.75
373.835	112.75
374.061	117.75
374.287	117.75
374.513	118.75
374.739	122.75
374.965	114.75
375.191	120.75
375.416	131.75
375.642	113.75
375.868	91.75
376.094	106.75
376.319	106.75
376.545	115.75
376.771	114.75
376.997	118.75
377.222	115.75
377.448	102.75
377.674	116.75
377.899	103.75
378.125	109.75
378.35	114.75
378.576	110.75
378.802	109.75
379.027	109.75
379.253	109.75
379.478	111.75
379.704	101.75
379.929	109.75
380.155	124.75
380.38	109.75
380.606	92.75
380.831	107.75
381.057	124.75
381.282	112.75
381.507	116.75
381.733	119.75
381.958	104.75
382.184	113.75
382.409	98.75
382.634	106.75
382.86	94.75
383.085	124.75
383.31	104.75
383.535	121.75
383.761	108.75
383.986	114.75
384.211	102.75
384.436	114.75
384.662	134.75
384.887	117.75
385.112	116.75
385.337	125.75
385.562	115.75
385.787	123.75
386.013	127.75
386.238	117.75
386.463	106.75
386.688	123.75
386.913	118.75
387.138	96.75
387.363	122.75
387.588	127.75
387.813	124.75
388.038	120.75
388.263	126.75
388.488	126.75
388.713	125.75
388.938	121.75
389.163	126.75
389.387	125.75
389.612	116.75
389.837	122.75
390.062	113.75
390.287	122.75
390.512	131.75
390.736	118.75
390.961	132.75
391.186	119.75
391.411	124.75
391.636	105.75
391.86	115.75
392.085	113.75
392.31	127.75
392.534	133.75
392.759	116.75
392.984	112.75
393.208	136.75
393.433	126.75
393.658	116.75
393.882	132.75
394.107	116.75
394.331	122.75
394.556	98.75
394.78	116.75
395.005	118.75
395.229	112.75
395.454	131.75
395.678	125.75
395.903	127.75
396.127	125.75
396.352	98.75
396.576	106.75
396.801	131.75
397.025	113.75
397.249	135.75
397.474	131.75
397.698	129.75
397.922	116.75
398.147	102.75
398.371	131.75
398.595	134.75
398.82	136.75
399.044	125.75
399.268	136.75
399.492	149.75
399.717	146.75
399.941	150.75
400.165	153.75
400.389	137.75
400.613	124.75
400.837	142.75
401.062	129.75
401.286	126.75
401.51	125.75
401.734	128.75
401.958	123.75
402.182	124.75
402.406	130.75
402.63	129.75
402.854	120.75
403.078	114.75
403.302	131.75
403.526	141.75
403.75	162.75
403.974	132.75
404.198	136.75
404.422	126.75
404.645	136.75
404.869	124.75
405.093	130.75
405.317	135.75
405.541	150.75
405.765	128.75
405.988	146.75
406.212	150.75
406.436	129.75
406.66	142.75
406.883	131.75
407.107	145.75
407.331	150.75
407.555	148.75
407.778	137.75
408.002	120.75
408.226	134.75
408.449	127.75
408.673	146.75
408.896	136.75
409.12	133.75
409.344	132.75
409.567	122.75
409.791	135.75
410.014	137.75
410.238	133.75
410.461	140.75
410.685	133.75
410.908	140.75
411.132	141.75
411.355	143.75
411.578	121.75
411.802	125.75
412.025	134.75
412.249	124.75
412.472	129.75
412.695	136.75
412.919	130.75
413.142	130.75
413.365	119.75
413.589	135.75
413.812	120.75
414.035	121.75
414.258	124.75
414.482	127.75
414.705	122.75
414.928	129.75
415.151	135.75
415.374	129.75
415.597	123.75
415.821	128.75
416.044	124.75
416.267	129.75
416.49	109.75
416.713	126.75
416.936	125.75
417.159	125.75
417.382	128.75
417.605	120.75
417.828	120.75
418.051	119.75
418.274	123.75
418.497	125.75
418.72	128.75
418.943	124.75
419.166	137.75
419.389	133.75
419.611	137.75
419.834	132.75
420.057	132.75
420.28	130.75
420.503	131.75
420.726	130.75
420.948	131.75
421.171	137.75
421.394	135.75
421.617	122.75
421.839	143.75
422.062	126.75
422.285	125.75
422.507	140.75
422.73	148.75
422.953	150.75
423.175	137.75
423.398	136.75
423.621	120.75
423.843	136.75
424.066	127.75
424.288	114.75
424.511	129.75
424.733	134.75
424.956	138.75
425.178	146.75
425.401	130.75
425.623	128.75
425.846	126.75
426.068	132.75
426.291	114.75
426.513	142.75
426.735	135.75
426.958	136.75
427.18	137.75
427.402	134.75
427.625	136.75
427.847	132.75
428.069	121.75
428.292	124.75
428.514	136.75
428.736	123.75
428.958	132.75
429.181	130.75
429.403	124.75
429.625	123.75
429.847	122.75
430.069	116.75
430.292	134.75
430.514	129.75
430.736	122.75
430.958	135.75
431.18	132.75
431.402	109.75
431.624	124.75
431.846	124.75
432.068	125.75
432.29	122.75
432.512	125.75
432.734	120.75
432.956	131.75
433.178	129.75
433.4	123.75
433.622	114.75
433.844	131.75
434.066	126.75
434.287	130.75
434.509	129.75
434.731	137.75
434.953	128.75
435.175	145.75
435.397	130.75
435.618	127.75
435.84	140.75
436.062	147.75
436.284	134.75
436.505	121.75
436.727	122.75
436.949	118.75
437.17	129.75
437.392	122.75
437.614	119.75
437.835	120.75
438.057	133.75
438.278	130.75
438.5	137.75
438.721	140.75
438.943	131.75
439.165	129.75
439.386	118.75
439.608	134.75
439.829	123.75
440.05	128.75
440.272	123.75
440.493	121.75
440.715	125.75
440.936	137.75
441.158	134.75
441.379	131.75
441.6	136.75
441.822	137.75
442.043	132.75
442.264	129.75
442.486	136.75
442.707	125.75
442.928	126.75
443.149	125.75
443.371	136.75
443.592	149.75
443.813	141.75
444.034	141.75
444.255	134.75
444.476	140.75
444.698	133.75
444.919	155.75
445.14	261.75
445.361	178.75
445.582	149.75
445.803	144.75
446.024	147.75
446.245	139.75
446.466	120.75
446.687	129.75
446.908	117.75
447.129	133.75
447.35	131.75
447.571	122.75
447.792	120.75
448.013	121.75
448.234	133.75
448.455	130.75
448.675	128.75
448.896	136.75
449.117	122.75
449.338	131.75
449.559	136.75
449.779	135.75
450	134.75
450.221	133.75
450.442	126.75
450.662	125.75
450.883	138.75
451.104	125.75
451.324	117.75
451.545	126.75
451.766	127.75
451.986	119.75
452.207	121.75
452.428	121.75
452.648	121.75
452.869	121.75
453.089	108.75
453.31	121.75
453.53	129.75
453.751	119.75
453.971	119.75
454.192	121.75
454.412	124.75
454.633	130.75
454.853	112.75
455.073	123.75
455.294	117.75
455.514	125.75
455.734	121.75
455.955	113.75
456.175	114.75
456.395	122.75
456.616	112.75
456.836	125.75
457.056	116.75
457.276	120.75
457.497	130.75
457.717	110.75
457.937	118.75
458.157	103.75
458.377	105.75
458.598	121.75
458.818	122.75
459.038	126.75
459.258	126.75
459.478	145.75
459.698	110.75
459.918	122.75
460.138	130.75
460.358	123.75
460.578	128.75
460.798	132.75
461.018	132.75
461.238	117.75
461.458	132.75
461.678	123.75
461.898	135.75
462.118	149.75
462.338	152.75
462.558	135.75
462.777	138.75
462.997	148.75
463.217	150.75
463.437	137.75
463.657	138.75
463.876	134.75
464.096	126.75
464.316	114.75
464.536	140.75
464.755	126.75
464.975	128.75
465.195	137.75
465.414	132.75
465.634	116.75
465.854	121.75
466.073	130.75
466.293	134.75
466.512	106.75
466.732	104.75
466.951	130.75
467.171	120.75
467.391	130.75
467.61	132.75
467.829	123.75
468.049	111.75
468.268	111.75
468.488	108.75
468.707	104.75
468.927	113.75
469.146	128.75
469.365	116.75
469.585	103.75
469.804	109.75
470.023	141.75
470.243	129.75
470.462	126.75
470.681	126.75
470.901	130.75
471.12	130.75
471.339	130.75
471.558	121.75
471.777	122.75
471.997	117.75
472.216	124.75
472.435	126.75
472.654	119.75
472.873	116.75
473.092	133.75
473.311	127.75
473.53	120.75
473.749	122.75
473.968	130.75
474.187	142.75
474.406	130.75
474.625	118.75
474.844	108.75
475.063	126.75
475.282	110.75
475.501	121.75
475.72	114.75
475.939	124.75
476.158	118.75
476.377	128.75
476.596	135.75
476.814	100.75
477.033	109.75
477.252	132.75
477.471	126.75
477.69	118.75
477.908	130.75
478.127	130.75
478.346	118.75
478.564	129.75
478.783	135.75
479.002	135.75
479.22	125.75
479.439	128.75
479.658	124.75
479.876	124.75
480.095	138.75
480.313	124.75
480.532	126.75
480.751	122.75
480.969	139.75
481.188	131.75
481.406	140.75
481.624	122.75
481.843	132.75
482.061	119.75
482.28	123.75
482.498	119.75
482.717	123.75
482.935	123.75
483.153	114.75
483.372	140.75
483.59	144.75
483.808	133.75
484.027	137.75
484.245	129.75
484.463	136.75
484.681	136.75
484.9	122.75
485.118	119.75
485.336	139.75
485.554	121.75
485.772	120.75
485.99	133.75
486.209	134.75
486.427	133.75
486.645	136.75
486.863	150.75
487.081	145.75
487.299	122.75
487.517	118.75
487.735	132.75
487.953	136.75
488.171	146.75
488.389	143.75
488.607	124.75
488.825	138.75
489.043	125.75
489.261	132.75
489.479	131.75
489.696	145.75
489.914	139.75
490.132	149.75
490.35	147.75
490.568	121.75
490.786	136.75
491.003	128.75
491.221	145.75
491.439	135.75
491.657	152.75
491.874	136.75
492.092	148.75
492.31	156.75
492.527	147.75
492.745	148.75
492.963	140.75
493.18	139.75
493.398	141.75
493.615	151.75
493.833	136.75
494.05	142.75
494.268	156.75
494.485	142.75
494.703	154.75
494.92	148.75
495.138	143.75
495.355	138.75
495.573	140.75
495.79	151.75
496.008	152.75
496.225	146.75
496.442	139.75
496.66	150.75
496.877	143.75
497.094	134.75
497.312	140.75
497.529	147.75
497.746	149.75
497.963	145.75
498.181	168.75
498.398	153.75
498.615	144.75
498.832	162.75
499.049	171.75
499.267	148.75
499.484	183.75
499.701	196.75
499.918	180.75
500.135	198.75
500.352	207.75
500.569	214.75
500.786	222.75
501.003	205.75
501.22	197.75
501.437	178.75
501.654	184.75
501.871	160.75
502.088	168.75
502.305	156.75
502.522	165.75
502.739	161.75
502.956	152.75
503.172	141.75
503.389	140.75
503.606	140.75
503.823	143.75
504.04	144.75
504.256	142.75
504.473	136.75
504.69	151.75
504.907	157.75
505.123	155.75
505.34	150.75
505.557	149.75
505.773	137.75
