Data from 1968.PennyLincolnUp.Lamp.En5.5.200Scan.071719.P1._HRD10591_14-50-54-969.txt Node
Date: Thu Jul 18 14:50:54 EDT 2019
User: cochatt
Spectrometer: HR+D1059
Trigger mode: 1
Integration Time (sec): 1.000000E-1
Scans to average: 1
Electric dark correction enabled: true
Nonlinearity correction enabled: false
Boxcar width: 0
XAxis mode: Wavelengths
Number of Pixels in Spectrum: 2048
>>>>>Begin Spectral Data<<<<<
223.165	-19.38
223.4	-19.38
223.635	-19.38
223.869	-21.38
224.104	-1.38
224.338	-14.38
224.573	-15.38
224.808	-7.38
225.042	-9.38
225.277	-8.38
225.511	-5.38
225.746	10.62
225.98	5.62
226.215	24.62
226.449	14.62
226.683	13.62
226.918	21.62
227.152	11.62
227.387	39.62
227.621	28.62
227.856	52.62
228.09	44.62
228.324	41.62
228.559	50.62
228.793	65.62
229.027	69.62
229.262	75.62
229.496	86.62
229.73	59.62
229.964	62.62
230.199	73.62
230.433	87.62
230.667	75.62
230.901	55.62
231.136	72.62
231.37	73.62
231.604	91.62
231.838	89.62
232.072	74.62
232.306	83.62
232.541	76.62
232.775	76.62
233.009	85.62
233.243	86.62
233.477	89.62
233.711	90.62
233.945	85.62
234.179	80.62
234.413	93.62
234.647	76.62
234.881	93.62
235.115	83.62
235.349	89.62
235.583	85.62
235.817	80.62
236.051	76.62
236.285	80.62
236.519	81.62
236.753	91.62
236.987	81.62
237.221	82.62
237.455	75.62
237.689	76.62
237.922	75.62
238.156	89.62
238.39	76.62
238.624	75.62
238.858	83.62
239.091	66.62
239.325	93.62
239.559	86.62
239.793	76.62
240.027	94.62
240.26	75.62
240.494	75.62
240.728	90.62
240.961	89.62
241.195	81.62
241.429	84.62
241.662	82.62
241.896	66.62
242.13	80.62
242.363	80.62
242.597	64.62
242.83	84.62
243.064	89.62
243.298	88.62
243.531	80.62
243.765	86.62
243.998	82.62
244.232	79.62
244.465	89.62
244.699	73.62
244.932	77.62
245.166	99.62
245.399	81.62
245.633	79.62
245.866	81.62
246.099	87.62
246.333	78.62
246.566	82.62
246.8	78.62
247.033	79.62
247.266	92.62
247.5	90.62
247.733	76.62
247.966	81.62
248.2	63.62
248.433	72.62
248.666	92.62
248.899	91.62
249.133	83.62
249.366	82.62
249.599	90.62
249.832	83.62
250.066	75.62
250.299	88.62
250.532	87.62
250.765	87.62
250.998	68.62
251.231	82.62
251.465	90.62
251.698	85.62
251.931	90.62
252.164	94.62
252.397	101.62
252.63	87.62
252.863	90.62
253.096	76.62
253.329	68.62
253.562	77.62
253.795	78.62
254.028	89.62
254.261	103.62
254.494	75.62
254.727	96.62
254.96	83.62
255.193	89.62
255.426	80.62
255.659	87.62
255.892	94.62
256.124	95.62
256.357	91.62
256.59	73.62
256.823	76.62
257.056	94.62
257.289	97.62
257.521	83.62
257.754	100.62
257.987	79.62
258.22	76.62
258.452	83.62
258.685	98.62
258.918	86.62
259.151	86.62
259.383	92.62
259.616	99.62
259.849	91.62
260.081	91.62
260.314	74.62
260.547	75.62
260.779	99.62
261.012	91.62
261.244	88.62
261.477	100.62
261.71	83.62
261.942	86.62
262.175	86.62
262.407	77.62
262.64	84.62
262.872	98.62
263.105	85.62
263.337	87.62
263.57	89.62
263.802	98.62
264.035	83.62
264.267	93.62
264.499	92.62
264.732	97.62
264.964	84.62
265.197	91.62
265.429	91.62
265.661	81.62
265.894	94.62
266.126	101.62
266.358	84.62
266.591	92.62
266.823	86.62
267.055	84.62
267.287	85.62
267.52	79.62
267.752	82.62
267.984	98.62
268.216	82.62
268.448	86.62
268.681	78.62
268.913	100.62
269.145	105.62
269.377	97.62
269.609	90.62
269.841	88.62
270.073	94.62
270.306	90.62
270.538	84.62
270.77	91.62
271.002	91.62
271.234	105.62
271.466	98.62
271.698	85.62
271.93	100.62
272.162	95.62
272.394	99.62
272.626	90.62
272.858	89.62
273.09	94.62
273.322	96.62
273.553	91.62
273.785	99.62
274.017	95.62
274.249	82.62
274.481	91.62
274.713	86.62
274.945	92.62
275.176	97.62
275.408	90.62
275.64	100.62
275.872	90.62
276.104	93.62
276.335	91.62
276.567	97.62
276.799	110.62
277.031	80.62
277.262	86.62
277.494	114.62
277.726	109.62
277.957	99.62
278.189	102.62
278.421	93.62
278.652	94.62
278.884	98.62
279.115	103.62
279.347	102.62
279.579	100.62
279.81	86.62
280.042	93.62
280.273	94.62
280.505	87.62
280.736	96.62
280.968	104.62
281.199	105.62
281.431	94.62
281.662	86.62
281.894	81.62
282.125	96.62
282.356	99.62
282.588	98.62
282.819	94.62
283.051	99.62
283.282	107.62
283.513	96.62
283.745	95.62
283.976	92.62
284.207	86.62
284.439	103.62
284.67	94.62
284.901	97.62
285.132	99.62
285.364	93.62
285.595	103.62
285.826	103.62
286.057	95.62
286.288	98.62
286.52	96.62
286.751	98.62
286.982	97.62
287.213	88.62
287.444	107.62
287.675	96.62
287.906	102.62
288.138	100.62
288.369	89.62
288.6	102.62
288.831	101.62
289.062	93.62
289.293	92.62
289.524	100.62
289.755	93.62
289.986	92.62
290.217	107.62
290.448	88.62
290.679	103.62
290.91	82.62
291.141	107.62
291.371	75.62
291.602	94.62
291.833	87.62
292.064	100.62
292.295	99.62
292.526	91.62
292.757	91.62
292.987	104.62
293.218	98.62
293.449	91.62
293.68	106.62
293.91	104.62
294.141	92.62
294.372	94.62
294.603	98.62
294.833	99.62
295.064	102.62
295.295	101.62
295.525	111.62
295.756	89.62
295.987	111.62
296.217	97.62
296.448	118.62
296.679	122.62
296.909	103.62
297.14	93.62
297.37	93.62
297.601	86.62
297.831	96.62
298.062	84.62
298.292	105.62
298.523	92.62
298.753	107.62
298.984	103.62
299.214	113.62
299.445	94.62
299.675	98.62
299.905	107.62
300.136	91.62
300.366	99.62
300.597	103.62
300.827	104.62
301.057	102.62
301.288	102.62
301.518	98.62
301.748	116.62
301.979	87.62
302.209	98.62
302.439	93.62
302.669	95.62
302.9	99.62
303.13	104.62
303.36	100.62
303.59	108.62
303.82	99.62
304.051	94.62
304.281	95.62
304.511	92.62
304.741	90.62
304.971	91.62
305.201	91.62
305.431	105.62
305.661	105.62
305.891	98.62
306.121	89.62
306.352	98.62
306.582	100.62
306.812	104.62
307.042	109.62
307.272	107.62
307.502	92.62
307.731	101.62
307.961	98.62
308.191	100.62
308.421	102.62
308.651	91.62
308.881	94.62
309.111	107.62
309.341	120.62
309.571	98.62
309.8	101.62
310.03	99.62
310.26	102.62
310.49	98.62
310.72	114.62
310.949	93.62
311.179	92.62
311.409	99.62
311.639	108.62
311.868	113.62
312.098	101.62
312.328	102.62
312.557	102.62
312.787	103.62
313.017	92.62
313.246	100.62
313.476	101.62
313.706	110.62
313.935	96.62
314.165	112.62
314.394	109.62
314.624	120.62
314.853	108.62
315.083	112.62
315.312	116.62
315.542	104.62
315.771	106.62
316.001	107.62
316.23	115.62
316.46	96.62
316.689	96.62
316.919	99.62
317.148	100.62
317.377	93.62
317.607	106.62
317.836	97.62
318.065	103.62
318.295	103.62
318.524	92.62
318.753	107.62
318.983	96.62
319.212	93.62
319.441	118.62
319.67	112.62
319.9	106.62
320.129	115.62
320.358	105.62
320.587	105.62
320.816	111.62
321.046	104.62
321.275	97.62
321.504	112.62
321.733	100.62
321.962	111.62
322.191	103.62
322.42	97.62
322.649	99.62
322.878	104.62
323.108	114.62
323.337	114.62
323.566	88.62
323.795	110.62
324.024	107.62
324.253	117.62
324.482	127.62
324.71	164.62
324.939	161.62
325.168	156.62
325.397	121.62
325.626	104.62
325.855	116.62
326.084	103.62
326.313	116.62
326.542	110.62
326.77	103.62
326.999	118.62
327.228	120.62
327.457	139.62
327.686	141.62
327.914	123.62
328.143	119.62
328.372	119.62
328.6	110.62
328.829	114.62
329.058	92.62
329.287	118.62
329.515	106.62
329.744	99.62
329.972	111.62
330.201	110.62
330.43	111.62
330.658	104.62
330.887	108.62
331.115	97.62
331.344	118.62
331.572	100.62
331.801	114.62
332.03	112.62
332.258	122.62
332.486	118.62
332.715	105.62
332.943	96.62
333.172	101.62
333.4	113.62
333.629	116.62
333.857	115.62
334.085	113.62
334.314	112.62
334.542	118.62
334.771	112.62
334.999	122.62
335.227	101.62
335.455	97.62
335.684	112.62
335.912	106.62
336.14	116.62
336.369	115.62
336.597	102.62
336.825	121.62
337.053	109.62
337.281	115.62
337.51	120.62
337.738	107.62
337.966	102.62
338.194	91.62
338.422	109.62
338.65	112.62
338.878	106.62
339.106	97.62
339.334	118.62
339.562	83.62
339.79	104.62
340.018	101.62
340.246	110.62
340.474	112.62
340.702	94.62
340.93	98.62
341.158	106.62
341.386	111.62
341.614	107.62
341.842	112.62
342.07	116.62
342.298	112.62
342.526	120.62
342.754	118.62
342.981	99.62
343.209	110.62
343.437	112.62
343.665	108.62
343.893	117.62
344.12	115.62
344.348	124.62
344.576	111.62
344.804	110.62
345.031	106.62
345.259	106.62
345.487	123.62
345.714	112.62
345.942	123.62
346.17	103.62
346.397	118.62
346.625	116.62
346.853	95.62
347.08	113.62
347.308	89.62
347.535	112.62
347.763	109.62
347.99	105.62
348.218	108.62
348.445	101.62
348.673	112.62
348.9	104.62
349.128	107.62
349.355	100.62
349.583	95.62
349.81	99.62
350.037	101.62
350.265	102.62
350.492	117.62
350.72	110.62
350.947	105.62
351.174	106.62
351.402	89.62
351.629	106.62
351.856	101.62
352.083	115.62
352.311	112.62
352.538	98.62
352.765	88.62
352.992	112.62
353.22	113.62
353.447	88.62
353.674	89.62
353.901	102.62
354.128	110.62
354.355	90.62
354.583	112.62
354.81	107.62
355.037	112.62
355.264	114.62
355.491	105.62
355.718	116.62
355.945	114.62
356.172	102.62
356.399	103.62
356.626	111.62
356.853	107.62
357.08	106.62
357.307	126.62
357.534	102.62
357.761	89.62
357.988	111.62
358.215	103.62
358.441	110.62
358.668	110.62
358.895	107.62
359.122	108.62
359.349	91.62
359.576	112.62
359.802	108.62
360.029	121.62
360.256	104.62
360.483	110.62
360.709	115.62
360.936	101.62
361.163	111.62
361.39	111.62
361.616	96.62
361.843	110.62
362.07	100.62
362.296	110.62
362.523	96.62
362.749	111.62
362.976	99.62
363.203	114.62
363.429	103.62
363.656	106.62
363.882	112.62
364.109	110.62
364.335	98.62
364.562	111.62
364.788	107.62
365.015	107.62
365.241	118.62
365.468	110.62
365.694	106.62
365.92	96.62
366.147	81.62
366.373	110.62
366.599	105.62
366.826	97.62
367.052	112.62
367.278	112.62
367.505	106.62
367.731	105.62
367.957	101.62
368.184	96.62
368.41	114.62
368.636	110.62
368.862	107.62
369.089	108.62
369.315	102.62
369.541	105.62
369.767	111.62
369.993	120.62
370.219	104.62
370.445	107.62
370.672	106.62
370.898	108.62
371.124	111.62
371.35	116.62
371.576	107.62
371.802	99.62
372.028	107.62
372.254	100.62
372.48	99.62
372.706	105.62
372.932	102.62
373.158	101.62
373.384	108.62
373.61	119.62
373.835	88.62
374.061	100.62
374.287	121.62
374.513	106.62
374.739	96.62
374.965	106.62
375.191	107.62
375.416	118.62
375.642	110.62
375.868	100.62
376.094	105.62
376.319	113.62
376.545	103.62
376.771	127.62
376.997	99.62
377.222	107.62
377.448	102.62
377.674	101.62
377.899	107.62
378.125	110.62
378.35	108.62
378.576	110.62
378.802	114.62
379.027	105.62
379.253	124.62
379.478	108.62
379.704	110.62
379.929	88.62
380.155	97.62
380.38	105.62
380.606	90.62
380.831	102.62
381.057	95.62
381.282	106.62
381.507	108.62
381.733	117.62
381.958	105.62
382.184	118.62
382.409	98.62
382.634	120.62
382.86	112.62
383.085	104.62
383.31	110.62
383.535	114.62
383.761	94.62
383.986	129.62
384.211	106.62
384.436	112.62
384.662	111.62
384.887	121.62
385.112	118.62
385.337	112.62
385.562	101.62
385.787	100.62
386.013	114.62
386.238	112.62
386.463	126.62
386.688	115.62
386.913	110.62
387.138	96.62
387.363	115.62
387.588	102.62
387.813	116.62
388.038	118.62
388.263	117.62
388.488	96.62
388.713	102.62
388.938	120.62
389.163	117.62
389.387	92.62
389.612	104.62
389.837	123.62
390.062	104.62
390.287	97.62
390.512	102.62
390.736	98.62
390.961	107.62
391.186	124.62
391.411	107.62
391.636	116.62
391.86	115.62
392.085	102.62
392.31	102.62
392.534	121.62
392.759	100.62
392.984	119.62
393.208	114.62
393.433	114.62
393.658	113.62
393.882	115.62
394.107	131.62
394.331	122.62
394.556	116.62
394.78	124.62
395.005	119.62
395.229	108.62
395.454	121.62
395.678	130.62
395.903	108.62
396.127	118.62
396.352	122.62
396.576	115.62
396.801	130.62
397.025	122.62
397.249	102.62
397.474	117.62
397.698	116.62
397.922	112.62
398.147	131.62
398.371	100.62
398.595	124.62
398.82	135.62
399.044	119.62
399.268	131.62
399.492	147.62
399.717	135.62
399.941	126.62
400.165	132.62
400.389	132.62
400.613	117.62
400.837	122.62
401.062	122.62
401.286	133.62
401.51	122.62
401.734	126.62
401.958	117.62
402.182	122.62
402.406	130.62
402.63	128.62
402.854	113.62
403.078	120.62
403.302	129.62
403.526	118.62
403.75	130.62
403.974	113.62
404.198	127.62
404.422	128.62
404.645	134.62
404.869	126.62
405.093	128.62
405.317	133.62
405.541	133.62
405.765	129.62
405.988	123.62
406.212	120.62
406.436	127.62
406.66	134.62
406.883	116.62
407.107	133.62
407.331	136.62
407.555	130.62
407.778	140.62
408.002	149.62
408.226	129.62
408.449	135.62
408.673	136.62
408.896	124.62
409.12	144.62
409.344	139.62
409.567	134.62
409.791	124.62
410.014	139.62
410.238	143.62
410.461	132.62
410.685	120.62
410.908	118.62
411.132	135.62
411.355	134.62
411.578	137.62
411.802	122.62
412.025	115.62
412.249	127.62
412.472	115.62
412.695	131.62
412.919	131.62
413.142	134.62
413.365	129.62
413.589	125.62
413.812	128.62
414.035	132.62
414.258	124.62
414.482	113.62
414.705	113.62
414.928	129.62
415.151	114.62
415.374	129.62
415.597	129.62
415.821	123.62
416.044	110.62
416.267	124.62
416.49	123.62
416.713	124.62
416.936	112.62
417.159	101.62
417.382	122.62
417.605	140.62
417.828	141.62
418.051	130.62
418.274	109.62
418.497	123.62
418.72	137.62
418.943	115.62
419.166	142.62
419.389	118.62
419.611	128.62
419.834	128.62
420.057	144.62
420.28	129.62
420.503	124.62
420.726	126.62
420.948	112.62
421.171	126.62
421.394	125.62
421.617	137.62
421.839	140.62
422.062	127.62
422.285	117.62
422.507	123.62
422.73	118.62
422.953	127.62
423.175	120.62
423.398	127.62
423.621	131.62
423.843	120.62
424.066	125.62
424.288	122.62
424.511	122.62
424.733	123.62
424.956	129.62
425.178	128.62
425.401	139.62
425.623	127.62
425.846	137.62
426.068	134.62
426.291	123.62
426.513	124.62
426.735	138.62
426.958	137.62
427.18	124.62
427.402	146.62
427.625	138.62
427.847	138.62
428.069	127.62
428.292	120.62
428.514	127.62
428.736	110.62
428.958	114.62
429.181	124.62
429.403	133.62
429.625	128.62
429.847	133.62
430.069	125.62
430.292	122.62
430.514	126.62
430.736	109.62
430.958	128.62
431.18	123.62
431.402	120.62
431.624	123.62
431.846	114.62
432.068	128.62
432.29	137.62
432.512	119.62
432.734	135.62
432.956	135.62
433.178	122.62
433.4	126.62
433.622	107.62
433.844	116.62
434.066	128.62
434.287	111.62
434.509	125.62
434.731	112.62
434.953	120.62
435.175	117.62
435.397	133.62
435.618	121.62
435.84	127.62
436.062	119.62
436.284	140.62
436.505	124.62
436.727	116.62
436.949	119.62
437.17	125.62
437.392	120.62
437.614	113.62
437.835	113.62
438.057	120.62
438.278	113.62
438.5	135.62
438.721	130.62
438.943	135.62
439.165	123.62
439.386	138.62
439.608	139.62
439.829	132.62
440.05	124.62
440.272	134.62
440.493	128.62
440.715	117.62
440.936	115.62
441.158	138.62
441.379	115.62
441.6	123.62
441.822	128.62
442.043	139.62
442.264	140.62
442.486	122.62
442.707	131.62
442.928	120.62
443.149	145.62
443.371	136.62
443.592	125.62
443.813	139.62
444.034	130.62
444.255	143.62
444.476	120.62
444.698	132.62
444.919	136.62
445.14	200.62
445.361	159.62
445.582	127.62
445.803	147.62
446.024	148.62
446.245	128.62
446.466	129.62
446.687	128.62
446.908	114.62
447.129	130.62
447.35	122.62
447.571	102.62
447.792	112.62
448.013	122.62
448.234	127.62
448.455	122.62
448.675	138.62
448.896	132.62
449.117	132.62
449.338	129.62
449.559	115.62
449.779	135.62
450	131.62
450.221	129.62
450.442	124.62
450.662	120.62
450.883	122.62
451.104	118.62
451.324	122.62
451.545	104.62
451.766	121.62
451.986	110.62
452.207	117.62
452.428	120.62
452.648	129.62
452.869	118.62
453.089	118.62
453.31	118.62
453.53	104.62
453.751	132.62
453.971	125.62
454.192	112.62
454.412	109.62
454.633	98.62
454.853	105.62
455.073	110.62
455.294	100.62
455.514	126.62
455.734	121.62
455.955	116.62
456.175	126.62
456.395	105.62
456.616	114.62
456.836	121.62
457.056	130.62
457.276	109.62
457.497	107.62
457.717	114.62
457.937	129.62
458.157	115.62
458.377	115.62
458.598	108.62
458.818	121.62
459.038	138.62
459.258	126.62
459.478	116.62
459.698	136.62
459.918	130.62
460.138	104.62
460.358	121.62
460.578	132.62
460.798	126.62
461.018	127.62
461.238	126.62
461.458	115.62
461.678	124.62
461.898	120.62
462.118	117.62
462.338	135.62
462.558	125.62
462.777	139.62
462.997	139.62
463.217	147.62
463.437	122.62
463.657	118.62
463.876	112.62
464.096	122.62
464.316	128.62
464.536	141.62
464.755	131.62
464.975	150.62
465.195	138.62
465.414	130.62
465.634	133.62
465.854	132.62
466.073	112.62
466.293	113.62
466.512	121.62
466.732	122.62
466.951	124.62
467.171	115.62
467.391	124.62
467.61	120.62
467.829	114.62
468.049	106.62
468.268	120.62
468.488	121.62
468.707	116.62
468.927	119.62
469.146	108.62
469.365	138.62
469.585	122.62
469.804	132.62
470.023	115.62
470.243	110.62
470.462	118.62
470.681	118.62
470.901	118.62
471.12	116.62
471.339	118.62
471.558	115.62
471.777	115.62
471.997	126.62
472.216	116.62
472.435	137.62
472.654	112.62
472.873	96.62
473.092	118.62
473.311	127.62
473.53	100.62
473.749	121.62
473.968	124.62
474.187	127.62
474.406	122.62
474.625	126.62
474.844	120.62
475.063	124.62
475.282	119.62
475.501	107.62
475.72	129.62
475.939	116.62
476.158	113.62
476.377	131.62
476.596	121.62
476.814	126.62
477.033	114.62
477.252	115.62
477.471	116.62
477.69	108.62
477.908	123.62
478.127	128.62
478.346	120.62
478.564	114.62
478.783	134.62
479.002	126.62
479.22	127.62
479.439	129.62
479.658	134.62
479.876	127.62
480.095	138.62
480.313	132.62
480.532	137.62
480.751	136.62
480.969	116.62
481.188	130.62
481.406	132.62
481.624	112.62
481.843	124.62
482.061	126.62
482.28	148.62
482.498	123.62
482.717	122.62
482.935	128.62
483.153	134.62
483.372	126.62
483.59	125.62
483.808	120.62
484.027	123.62
484.245	123.62
484.463	124.62
484.681	128.62
484.9	131.62
485.118	132.62
485.336	127.62
485.554	119.62
485.772	122.62
485.99	113.62
486.209	112.62
486.427	126.62
486.645	125.62
486.863	131.62
487.081	126.62
487.299	124.62
487.517	130.62
487.735	131.62
487.953	127.62
488.171	137.62
488.389	128.62
488.607	130.62
488.825	121.62
489.043	121.62
489.261	120.62
489.479	142.62
489.696	138.62
489.914	127.62
490.132	126.62
490.35	127.62
490.568	134.62
490.786	130.62
491.003	140.62
491.221	155.62
491.439	146.62
491.657	122.62
491.874	140.62
492.092	135.62
492.31	152.62
492.527	137.62
492.745	132.62
492.963	131.62
493.18	129.62
493.398	126.62
493.615	146.62
493.833	144.62
494.05	151.62
494.268	126.62
494.485	137.62
494.703	139.62
494.92	146.62
495.138	153.62
495.355	127.62
495.573	138.62
495.79	120.62
496.008	144.62
496.225	137.62
496.442	134.62
496.66	133.62
496.877	130.62
497.094	135.62
497.312	147.62
497.529	151.62
497.746	147.62
497.963	157.62
498.181	133.62
498.398	155.62
498.615	158.62
498.832	152.62
499.049	153.62
499.267	159.62
499.484	177.62
499.701	171.62
499.918	176.62
500.135	178.62
500.352	202.62
500.569	204.62
500.786	216.62
501.003	199.62
501.22	188.62
501.437	171.62
501.654	163.62
501.871	162.62
502.088	155.62
502.305	156.62
502.522	159.62
502.739	159.62
502.956	160.62
503.172	154.62
503.389	136.62
503.606	146.62
503.823	153.62
504.04	146.62
504.256	148.62
504.473	134.62
504.69	146.62
504.907	146.62
505.123	125.62
505.34	138.62
505.557	135.62
505.773	126.62
505.99	130.62
506.207	140.62
506.423	139.62
506.64	136.62
506.856	117.62
