Data from 1968.PennyLincolnUp.Lamp.En5.5.200Scan.071719.P1._HRD10591_14-49-30-969.txt Node
Date: Thu Jul 18 14:49:30 EDT 2019
User: cochatt
Spectrometer: HR+D1059
Trigger mode: 1
Integration Time (sec): 1.000000E-1
Scans to average: 1
Electric dark correction enabled: true
Nonlinearity correction enabled: false
Boxcar width: 0
XAxis mode: Wavelengths
Number of Pixels in Spectrum: 2048
>>>>>Begin Spectral Data<<<<<
223.165	-17.75
223.4	-17.75
223.635	-17.75
223.869	-20.75
224.104	-22.75
224.338	-14.75
224.573	-6.75
224.808	-19.75
225.042	-16.75
225.277	2.25
225.511	7.25
225.746	7.25
225.98	7.25
226.215	3.25
226.449	17.25
226.683	10.25
226.918	30.25
227.152	34.25
227.387	43.25
227.621	36.25
227.856	46.25
228.09	39.25
228.324	42.25
228.559	52.25
228.793	54.25
229.027	73.25
229.262	68.25
229.496	73.25
229.73	58.25
229.964	77.25
230.199	69.25
230.433	74.25
230.667	62.25
230.901	83.25
231.136	88.25
231.37	93.25
231.604	82.25
231.838	78.25
232.072	93.25
232.306	93.25
232.541	86.25
232.775	79.25
233.009	70.25
233.243	89.25
233.477	80.25
233.711	89.25
233.945	77.25
234.179	77.25
234.413	82.25
234.647	70.25
234.881	80.25
235.115	90.25
235.349	82.25
235.583	85.25
235.817	96.25
236.051	79.25
236.285	74.25
236.519	90.25
236.753	85.25
236.987	89.25
237.221	90.25
237.455	84.25
237.689	66.25
237.922	84.25
238.156	97.25
238.39	71.25
238.624	85.25
238.858	77.25
239.091	77.25
239.325	82.25
239.559	85.25
239.793	74.25
240.027	83.25
240.26	75.25
240.494	95.25
240.728	87.25
240.961	89.25
241.195	81.25
241.429	74.25
241.662	74.25
241.896	85.25
242.13	72.25
242.363	77.25
242.597	85.25
242.83	79.25
243.064	80.25
243.298	84.25
243.531	77.25
243.765	68.25
243.998	95.25
244.232	93.25
244.465	80.25
244.699	83.25
244.932	78.25
245.166	81.25
245.399	93.25
245.633	86.25
245.866	84.25
246.099	100.25
246.333	93.25
246.566	89.25
246.8	86.25
247.033	85.25
247.266	82.25
247.5	81.25
247.733	84.25
247.966	86.25
248.2	99.25
248.433	85.25
248.666	84.25
248.899	95.25
249.133	101.25
249.366	90.25
249.599	95.25
249.832	90.25
250.066	77.25
250.299	87.25
250.532	87.25
250.765	82.25
250.998	97.25
251.231	84.25
251.465	86.25
251.698	89.25
251.931	93.25
252.164	99.25
252.397	95.25
252.63	89.25
252.863	77.25
253.096	87.25
253.329	91.25
253.562	95.25
253.795	86.25
254.028	91.25
254.261	84.25
254.494	89.25
254.727	85.25
254.96	83.25
255.193	89.25
255.426	99.25
255.659	87.25
255.892	75.25
256.124	79.25
256.357	90.25
256.59	106.25
256.823	104.25
257.056	98.25
257.289	85.25
257.521	78.25
257.754	96.25
257.987	97.25
258.22	81.25
258.452	79.25
258.685	102.25
258.918	86.25
259.151	80.25
259.383	90.25
259.616	72.25
259.849	79.25
260.081	104.25
260.314	89.25
260.547	88.25
260.779	86.25
261.012	94.25
261.244	98.25
261.477	97.25
261.71	90.25
261.942	89.25
262.175	87.25
262.407	83.25
262.64	76.25
262.872	91.25
263.105	93.25
263.337	95.25
263.57	84.25
263.802	82.25
264.035	89.25
264.267	101.25
264.499	102.25
264.732	85.25
264.964	89.25
265.197	82.25
265.429	82.25
265.661	83.25
265.894	86.25
266.126	92.25
266.358	82.25
266.591	101.25
266.823	88.25
267.055	88.25
267.287	94.25
267.52	93.25
267.752	77.25
267.984	108.25
268.216	82.25
268.448	98.25
268.681	98.25
268.913	90.25
269.145	89.25
269.377	94.25
269.609	93.25
269.841	78.25
270.073	99.25
270.306	100.25
270.538	77.25
270.77	97.25
271.002	93.25
271.234	103.25
271.466	110.25
271.698	103.25
271.93	92.25
272.162	99.25
272.394	107.25
272.626	98.25
272.858	96.25
273.09	85.25
273.322	83.25
273.553	85.25
273.785	85.25
274.017	88.25
274.249	99.25
274.481	84.25
274.713	93.25
274.945	81.25
275.176	80.25
275.408	89.25
275.64	92.25
275.872	94.25
276.104	94.25
276.335	91.25
276.567	99.25
276.799	102.25
277.031	94.25
277.262	97.25
277.494	99.25
277.726	96.25
277.957	87.25
278.189	109.25
278.421	94.25
278.652	104.25
278.884	106.25
279.115	98.25
279.347	91.25
279.579	100.25
279.81	98.25
280.042	97.25
280.273	110.25
280.505	99.25
280.736	105.25
280.968	91.25
281.199	117.25
281.431	95.25
281.662	118.25
281.894	90.25
282.125	101.25
282.356	88.25
282.588	107.25
282.819	81.25
283.051	78.25
283.282	96.25
283.513	93.25
283.745	90.25
283.976	94.25
284.207	99.25
284.439	94.25
284.67	121.25
284.901	94.25
285.132	92.25
285.364	103.25
285.595	102.25
285.826	98.25
286.057	95.25
286.288	106.25
286.52	108.25
286.751	106.25
286.982	103.25
287.213	91.25
287.444	104.25
287.675	93.25
287.906	102.25
288.138	98.25
288.369	110.25
288.6	118.25
288.831	89.25
289.062	101.25
289.293	106.25
289.524	105.25
289.755	107.25
289.986	103.25
290.217	96.25
290.448	103.25
290.679	108.25
290.91	75.25
291.141	95.25
291.371	98.25
291.602	111.25
291.833	92.25
292.064	107.25
292.295	109.25
292.526	107.25
292.757	108.25
292.987	107.25
293.218	101.25
293.449	108.25
293.68	118.25
293.91	113.25
294.141	97.25
294.372	100.25
294.603	110.25
294.833	95.25
295.064	95.25
295.295	91.25
295.525	110.25
295.756	103.25
295.987	108.25
296.217	94.25
296.448	109.25
296.679	104.25
296.909	90.25
297.14	105.25
297.37	94.25
297.601	97.25
297.831	102.25
298.062	124.25
298.292	102.25
298.523	102.25
298.753	97.25
298.984	110.25
299.214	105.25
299.445	108.25
299.675	88.25
299.905	122.25
300.136	98.25
300.366	97.25
300.597	103.25
300.827	94.25
301.057	112.25
301.288	106.25
301.518	110.25
301.748	113.25
301.979	102.25
302.209	107.25
302.439	86.25
302.669	106.25
302.9	107.25
303.13	101.25
303.36	99.25
303.59	97.25
303.82	125.25
304.051	88.25
304.281	102.25
304.511	109.25
304.741	103.25
304.971	102.25
305.201	112.25
305.431	99.25
305.661	108.25
305.891	113.25
306.121	97.25
306.352	101.25
306.582	114.25
306.812	97.25
307.042	117.25
307.272	102.25
307.502	102.25
307.731	102.25
307.961	106.25
308.191	110.25
308.421	96.25
308.651	99.25
308.881	109.25
309.111	99.25
309.341	108.25
309.571	108.25
309.8	104.25
310.03	96.25
310.26	97.25
310.49	94.25
310.72	106.25
310.949	97.25
311.179	100.25
311.409	92.25
311.639	99.25
311.868	104.25
312.098	107.25
312.328	107.25
312.557	121.25
312.787	91.25
313.017	104.25
313.246	125.25
313.476	112.25
313.706	114.25
313.935	115.25
314.165	120.25
314.394	116.25
314.624	95.25
314.853	100.25
315.083	108.25
315.312	110.25
315.542	99.25
315.771	102.25
316.001	102.25
316.23	108.25
316.46	119.25
316.689	99.25
316.919	104.25
317.148	106.25
317.377	116.25
317.607	111.25
317.836	106.25
318.065	122.25
318.295	93.25
318.524	95.25
318.753	113.25
318.983	109.25
319.212	114.25
319.441	107.25
319.67	102.25
319.9	94.25
320.129	105.25
320.358	94.25
320.587	93.25
320.816	107.25
321.046	117.25
321.275	107.25
321.504	117.25
321.733	103.25
321.962	101.25
322.191	108.25
322.42	120.25
322.649	97.25
322.878	99.25
323.108	107.25
323.337	113.25
323.566	129.25
323.795	107.25
324.024	110.25
324.253	107.25
324.482	134.25
324.71	127.25
324.939	166.25
325.168	154.25
325.397	121.25
325.626	120.25
325.855	107.25
326.084	106.25
326.313	104.25
326.542	126.25
326.77	115.25
326.999	114.25
327.228	139.25
327.457	143.25
327.686	129.25
327.914	120.25
328.143	129.25
328.372	111.25
328.6	108.25
328.829	128.25
329.058	104.25
329.287	120.25
329.515	127.25
329.744	117.25
329.972	113.25
330.201	118.25
330.43	124.25
330.658	107.25
330.887	106.25
331.115	109.25
331.344	102.25
331.572	98.25
331.801	117.25
332.03	116.25
332.258	107.25
332.486	101.25
332.715	111.25
332.943	124.25
333.172	127.25
333.4	124.25
333.629	121.25
333.857	114.25
334.085	127.25
334.314	126.25
334.542	121.25
334.771	106.25
334.999	106.25
335.227	128.25
335.455	117.25
335.684	117.25
335.912	101.25
336.14	102.25
336.369	115.25
336.597	121.25
336.825	119.25
337.053	106.25
337.281	125.25
337.51	111.25
337.738	109.25
337.966	109.25
338.194	128.25
338.422	100.25
338.65	122.25
338.878	110.25
339.106	123.25
339.334	123.25
339.562	116.25
339.79	120.25
340.018	108.25
340.246	102.25
340.474	120.25
340.702	114.25
340.93	123.25
341.158	123.25
341.386	103.25
341.614	127.25
341.842	108.25
342.07	108.25
342.298	127.25
342.526	119.25
342.754	94.25
342.981	102.25
343.209	108.25
343.437	126.25
343.665	114.25
343.893	121.25
344.12	119.25
344.348	118.25
344.576	106.25
344.804	111.25
345.031	108.25
345.259	113.25
345.487	103.25
345.714	102.25
345.942	113.25
346.17	118.25
346.397	119.25
346.625	117.25
346.853	111.25
347.08	125.25
347.308	107.25
347.535	115.25
347.763	89.25
347.99	114.25
348.218	108.25
348.445	106.25
348.673	120.25
348.9	112.25
349.128	122.25
349.355	115.25
349.583	111.25
349.81	121.25
350.037	97.25
350.265	121.25
350.492	113.25
350.72	97.25
350.947	103.25
351.174	110.25
351.402	106.25
351.629	126.25
351.856	124.25
352.083	115.25
352.311	105.25
352.538	113.25
352.765	107.25
352.992	115.25
353.22	103.25
353.447	110.25
353.674	112.25
353.901	117.25
354.128	117.25
354.355	100.25
354.583	100.25
354.81	113.25
355.037	119.25
355.264	124.25
355.491	105.25
355.718	105.25
355.945	112.25
356.172	106.25
356.399	119.25
356.626	95.25
356.853	110.25
357.08	118.25
357.307	113.25
357.534	113.25
357.761	103.25
357.988	110.25
358.215	114.25
358.441	113.25
358.668	105.25
358.895	115.25
359.122	116.25
359.349	112.25
359.576	113.25
359.802	106.25
360.029	99.25
360.256	114.25
360.483	113.25
360.709	116.25
360.936	121.25
361.163	115.25
361.39	120.25
361.616	116.25
361.843	105.25
362.07	102.25
362.296	114.25
362.523	118.25
362.749	100.25
362.976	108.25
363.203	108.25
363.429	102.25
363.656	107.25
363.882	107.25
364.109	110.25
364.335	106.25
364.562	109.25
364.788	113.25
365.015	96.25
365.241	97.25
365.468	113.25
365.694	99.25
365.92	119.25
366.147	121.25
366.373	108.25
366.599	110.25
366.826	111.25
367.052	113.25
367.278	108.25
367.505	105.25
367.731	95.25
367.957	119.25
368.184	104.25
368.41	103.25
368.636	114.25
368.862	116.25
369.089	101.25
369.315	117.25
369.541	116.25
369.767	103.25
369.993	113.25
370.219	116.25
370.445	102.25
370.672	108.25
370.898	98.25
371.124	104.25
371.35	111.25
371.576	109.25
371.802	102.25
372.028	106.25
372.254	103.25
372.48	117.25
372.706	115.25
372.932	112.25
373.158	110.25
373.384	121.25
373.61	115.25
373.835	123.25
374.061	120.25
374.287	97.25
374.513	107.25
374.739	117.25
374.965	123.25
375.191	104.25
375.416	102.25
375.642	107.25
375.868	114.25
376.094	99.25
376.319	114.25
376.545	110.25
376.771	109.25
376.997	117.25
377.222	108.25
377.448	124.25
377.674	98.25
377.899	116.25
378.125	117.25
378.35	107.25
378.576	102.25
378.802	109.25
379.027	98.25
379.253	106.25
379.478	114.25
379.704	115.25
379.929	118.25
380.155	125.25
380.38	108.25
380.606	109.25
380.831	101.25
381.057	108.25
381.282	110.25
381.507	115.25
381.733	123.25
381.958	120.25
382.184	97.25
382.409	105.25
382.634	129.25
382.86	110.25
383.085	104.25
383.31	106.25
383.535	112.25
383.761	117.25
383.986	114.25
384.211	107.25
384.436	125.25
384.662	116.25
384.887	109.25
385.112	123.25
385.337	111.25
385.562	126.25
385.787	133.25
386.013	123.25
386.238	125.25
386.463	125.25
386.688	115.25
386.913	122.25
387.138	124.25
387.363	121.25
387.588	108.25
387.813	123.25
388.038	111.25
388.263	131.25
388.488	121.25
388.713	127.25
388.938	117.25
389.163	106.25
389.387	115.25
389.612	125.25
389.837	118.25
390.062	132.25
390.287	117.25
390.512	121.25
390.736	108.25
390.961	111.25
391.186	119.25
391.411	108.25
391.636	119.25
391.86	117.25
392.085	115.25
392.31	117.25
392.534	105.25
392.759	117.25
392.984	129.25
393.208	113.25
393.433	135.25
393.658	118.25
393.882	114.25
394.107	110.25
394.331	115.25
394.556	125.25
394.78	116.25
395.005	121.25
395.229	117.25
395.454	130.25
395.678	113.25
395.903	122.25
396.127	125.25
396.352	123.25
396.576	130.25
396.801	106.25
397.025	116.25
397.249	117.25
397.474	126.25
397.698	123.25
397.922	123.25
398.147	116.25
398.371	125.25
398.595	130.25
398.82	120.25
399.044	126.25
399.268	135.25
399.492	163.25
399.717	143.25
399.941	127.25
400.165	149.25
400.389	148.25
400.613	123.25
400.837	139.25
401.062	130.25
401.286	110.25
401.51	131.25
401.734	114.25
401.958	127.25
402.182	132.25
402.406	134.25
402.63	126.25
402.854	143.25
403.078	138.25
403.302	117.25
403.526	140.25
403.75	129.25
403.974	125.25
404.198	140.25
404.422	133.25
404.645	142.25
404.869	142.25
405.093	143.25
405.317	123.25
405.541	133.25
405.765	125.25
405.988	137.25
406.212	129.25
406.436	125.25
406.66	133.25
406.883	146.25
407.107	136.25
407.331	136.25
407.555	141.25
407.778	149.25
408.002	137.25
408.226	143.25
408.449	143.25
408.673	130.25
408.896	129.25
409.12	133.25
409.344	157.25
409.567	146.25
409.791	126.25
410.014	122.25
410.238	130.25
410.461	120.25
410.685	113.25
410.908	128.25
411.132	126.25
411.355	142.25
411.578	135.25
411.802	143.25
412.025	134.25
412.249	137.25
412.472	132.25
412.695	127.25
412.919	137.25
413.142	125.25
413.365	122.25
413.589	137.25
413.812	131.25
414.035	130.25
414.258	126.25
414.482	115.25
414.705	135.25
414.928	131.25
415.151	108.25
415.374	129.25
415.597	123.25
415.821	123.25
416.044	119.25
416.267	132.25
416.49	118.25
416.713	116.25
416.936	133.25
417.159	122.25
417.382	123.25
417.605	125.25
417.828	135.25
418.051	131.25
418.274	142.25
418.497	123.25
418.72	115.25
418.943	131.25
419.166	116.25
419.389	127.25
419.611	123.25
419.834	133.25
420.057	124.25
420.28	116.25
420.503	132.25
420.726	121.25
420.948	142.25
421.171	135.25
421.394	135.25
421.617	125.25
421.839	118.25
422.062	118.25
422.285	137.25
422.507	137.25
422.73	119.25
422.953	125.25
423.175	123.25
423.398	141.25
423.621	131.25
423.843	136.25
424.066	129.25
424.288	126.25
424.511	129.25
424.733	139.25
424.956	140.25
425.178	132.25
425.401	118.25
425.623	130.25
425.846	122.25
426.068	118.25
426.291	128.25
426.513	129.25
426.735	129.25
426.958	120.25
427.18	129.25
427.402	135.25
427.625	125.25
427.847	124.25
428.069	142.25
428.292	126.25
428.514	126.25
428.736	117.25
428.958	128.25
429.181	134.25
429.403	127.25
429.625	130.25
429.847	127.25
430.069	140.25
430.292	142.25
430.514	134.25
430.736	118.25
430.958	119.25
431.18	130.25
431.402	120.25
431.624	115.25
431.846	120.25
432.068	115.25
432.29	123.25
432.512	133.25
432.734	116.25
432.956	134.25
433.178	129.25
433.4	127.25
433.622	140.25
433.844	128.25
434.066	123.25
434.287	124.25
434.509	125.25
434.731	120.25
434.953	111.25
435.175	146.25
435.397	133.25
435.618	129.25
435.84	126.25
436.062	142.25
436.284	120.25
436.505	120.25
436.727	133.25
436.949	129.25
437.17	115.25
437.392	110.25
437.614	110.25
437.835	131.25
438.057	146.25
438.278	133.25
438.5	128.25
438.721	135.25
438.943	157.25
439.165	127.25
439.386	115.25
439.608	118.25
439.829	113.25
440.05	122.25
440.272	134.25
440.493	127.25
440.715	134.25
440.936	118.25
441.158	122.25
441.379	125.25
441.6	120.25
441.822	121.25
442.043	138.25
442.264	130.25
442.486	134.25
442.707	126.25
442.928	131.25
443.149	129.25
443.371	141.25
443.592	134.25
443.813	125.25
444.034	147.25
444.255	129.25
444.476	142.25
444.698	153.25
444.919	139.25
445.14	248.25
445.361	206.25
445.582	153.25
445.803	135.25
446.024	135.25
446.245	125.25
446.466	142.25
446.687	129.25
446.908	136.25
447.129	128.25
447.35	117.25
447.571	133.25
447.792	119.25
448.013	133.25
448.234	123.25
448.455	116.25
448.675	142.25
448.896	143.25
449.117	129.25
449.338	131.25
449.559	130.25
449.779	127.25
450	137.25
450.221	118.25
450.442	128.25
450.662	132.25
450.883	134.25
451.104	115.25
451.324	118.25
451.545	129.25
451.766	121.25
451.986	123.25
452.207	111.25
452.428	107.25
452.648	131.25
452.869	125.25
453.089	115.25
453.31	106.25
453.53	126.25
453.751	122.25
453.971	113.25
454.192	121.25
454.412	123.25
454.633	129.25
454.853	116.25
455.073	116.25
455.294	138.25
455.514	115.25
455.734	113.25
455.955	101.25
456.175	100.25
456.395	124.25
456.616	118.25
456.836	107.25
457.056	109.25
457.276	108.25
457.497	103.25
457.717	116.25
457.937	121.25
458.157	106.25
458.377	103.25
458.598	116.25
458.818	119.25
459.038	123.25
459.258	138.25
459.478	117.25
459.698	115.25
459.918	116.25
460.138	130.25
460.358	115.25
460.578	135.25
460.798	121.25
461.018	129.25
461.238	133.25
461.458	132.25
461.678	139.25
461.898	127.25
462.118	134.25
462.338	127.25
462.558	127.25
462.777	132.25
462.997	143.25
463.217	135.25
463.437	127.25
463.657	137.25
463.876	130.25
464.096	136.25
464.316	147.25
464.536	140.25
464.755	139.25
464.975	130.25
465.195	124.25
465.414	130.25
465.634	129.25
465.854	131.25
466.073	108.25
466.293	109.25
466.512	123.25
466.732	117.25
466.951	117.25
467.171	119.25
467.391	130.25
467.61	118.25
467.829	110.25
468.049	126.25
468.268	109.25
468.488	106.25
468.707	95.25
468.927	123.25
469.146	147.25
469.365	133.25
469.585	126.25
469.804	119.25
470.023	115.25
470.243	126.25
470.462	124.25
470.681	118.25
470.901	126.25
471.12	110.25
471.339	121.25
471.558	113.25
471.777	117.25
471.997	116.25
472.216	106.25
472.435	133.25
472.654	111.25
472.873	125.25
473.092	113.25
473.311	126.25
473.53	127.25
473.749	130.25
473.968	126.25
474.187	134.25
474.406	111.25
474.625	113.25
474.844	125.25
475.063	136.25
475.282	107.25
475.501	103.25
475.72	126.25
475.939	131.25
476.158	121.25
476.377	117.25
476.596	121.25
476.814	119.25
477.033	127.25
477.252	124.25
477.471	113.25
477.69	121.25
477.908	129.25
478.127	119.25
478.346	125.25
478.564	135.25
478.783	119.25
479.002	120.25
479.22	127.25
479.439	144.25
479.658	117.25
479.876	131.25
480.095	128.25
480.313	148.25
480.532	138.25
480.751	122.25
480.969	136.25
481.188	142.25
481.406	141.25
481.624	128.25
481.843	142.25
482.061	123.25
482.28	139.25
482.498	126.25
482.717	121.25
482.935	125.25
483.153	129.25
483.372	134.25
483.59	124.25
483.808	123.25
484.027	131.25
484.245	124.25
484.463	125.25
484.681	134.25
484.9	134.25
485.118	125.25
485.336	132.25
485.554	131.25
485.772	128.25
485.99	135.25
486.209	125.25
486.427	126.25
486.645	145.25
486.863	141.25
487.081	131.25
487.299	139.25
487.517	127.25
487.735	137.25
487.953	131.25
488.171	124.25
488.389	138.25
488.607	130.25
488.825	143.25
489.043	140.25
489.261	141.25
489.479	149.25
489.696	124.25
489.914	120.25
490.132	128.25
490.35	130.25
490.568	155.25
490.786	142.25
491.003	135.25
491.221	146.25
491.439	129.25
491.657	142.25
491.874	158.25
492.092	146.25
492.31	147.25
492.527	142.25
492.745	141.25
492.963	137.25
493.18	139.25
493.398	144.25
493.615	140.25
493.833	156.25
494.05	150.25
494.268	143.25
494.485	144.25
494.703	149.25
494.92	158.25
495.138	141.25
495.355	148.25
495.573	139.25
495.79	142.25
496.008	149.25
496.225	144.25
496.442	144.25
496.66	156.25
496.877	125.25
497.094	154.25
497.312	139.25
497.529	149.25
497.746	147.25
497.963	147.25
498.181	143.25
498.398	158.25
498.615	136.25
498.832	181.25
499.049	158.25
499.267	172.25
499.484	167.25
499.701	178.25
499.918	205.25
500.135	213.25
500.352	207.25
500.569	204.25
500.786	235.25
501.003	207.25
501.22	200.25
501.437	185.25
501.654	186.25
501.871	181.25
502.088	167.25
502.305	167.25
502.522	165.25
502.739	147.25
502.956	147.25
503.172	157.25
503.389	146.25
503.606	148.25
503.823	143.25
504.04	145.25
504.256	143.25
504.473	153.25
504.69	140.25
504.907	145.25
505.123	149.25
505.34	153.25
505.557	143.25
505.773	123.25
505.99	123.25
