Data from 1968.PennyLincolnUp.Lamp.En5.5.200Scan.071719.P1._HRD10591_14-50-01-969.txt Node
Date: Thu Jul 18 14:50:01 EDT 2019
User: cochatt
Spectrometer: HR+D1059
Trigger mode: 1
Integration Time (sec): 1.000000E-1
Scans to average: 1
Electric dark correction enabled: true
Nonlinearity correction enabled: false
Boxcar width: 0
XAxis mode: Wavelengths
Number of Pixels in Spectrum: 2048
>>>>>Begin Spectral Data<<<<<
223.165	-5.69
223.4	-5.69
223.635	-5.69
223.869	-12.69
224.104	-20.69
224.338	-9.69
224.573	-4.69
224.808	-8.69
225.042	-11.69
225.277	-18.69
225.511	5.31
225.746	3.31
225.98	1.31
226.215	3.31
226.449	23.31
226.683	10.31
226.918	24.31
227.152	21.31
227.387	24.31
227.621	42.31
227.856	31.31
228.09	45.31
228.324	51.31
228.559	81.31
228.793	64.31
229.027	66.31
229.262	75.31
229.496	79.31
229.73	79.31
229.964	75.31
230.199	86.31
230.433	82.31
230.667	82.31
230.901	73.31
231.136	89.31
231.37	81.31
231.604	78.31
231.838	95.31
232.072	78.31
232.306	97.31
232.541	81.31
232.775	88.31
233.009	70.31
233.243	85.31
233.477	88.31
233.711	92.31
233.945	87.31
234.179	79.31
234.413	80.31
234.647	92.31
234.881	85.31
235.115	78.31
235.349	72.31
235.583	99.31
235.817	92.31
236.051	91.31
236.285	87.31
236.519	90.31
236.753	89.31
236.987	84.31
237.221	93.31
237.455	91.31
237.689	93.31
237.922	88.31
238.156	89.31
238.39	81.31
238.624	71.31
238.858	78.31
239.091	78.31
239.325	91.31
239.559	90.31
239.793	70.31
240.027	89.31
240.26	79.31
240.494	80.31
240.728	87.31
240.961	80.31
241.195	88.31
241.429	84.31
241.662	80.31
241.896	86.31
242.13	84.31
242.363	81.31
242.597	91.31
242.83	87.31
243.064	81.31
243.298	85.31
243.531	91.31
243.765	79.31
243.998	79.31
244.232	90.31
244.465	82.31
244.699	90.31
244.932	66.31
245.166	85.31
245.399	95.31
245.633	97.31
245.866	94.31
246.099	93.31
246.333	80.31
246.566	77.31
246.8	71.31
247.033	74.31
247.266	88.31
247.5	79.31
247.733	90.31
247.966	87.31
248.2	91.31
248.433	97.31
248.666	88.31
248.899	81.31
249.133	92.31
249.366	85.31
249.599	98.31
249.832	80.31
250.066	106.31
250.299	102.31
250.532	95.31
250.765	95.31
250.998	86.31
251.231	92.31
251.465	99.31
251.698	91.31
251.931	83.31
252.164	82.31
252.397	84.31
252.63	110.31
252.863	88.31
253.096	100.31
253.329	88.31
253.562	85.31
253.795	80.31
254.028	99.31
254.261	93.31
254.494	95.31
254.727	99.31
254.96	103.31
255.193	96.31
255.426	95.31
255.659	87.31
255.892	98.31
256.124	95.31
256.357	87.31
256.59	105.31
256.823	95.31
257.056	90.31
257.289	76.31
257.521	72.31
257.754	85.31
257.987	95.31
258.22	119.31
258.452	86.31
258.685	93.31
258.918	95.31
259.151	90.31
259.383	97.31
259.616	101.31
259.849	87.31
260.081	95.31
260.314	89.31
260.547	97.31
260.779	99.31
261.012	93.31
261.244	95.31
261.477	103.31
261.71	108.31
261.942	74.31
262.175	99.31
262.407	87.31
262.64	92.31
262.872	104.31
263.105	99.31
263.337	91.31
263.57	100.31
263.802	92.31
264.035	77.31
264.267	106.31
264.499	91.31
264.732	85.31
264.964	98.31
265.197	88.31
265.429	89.31
265.661	87.31
265.894	88.31
266.126	93.31
266.358	82.31
266.591	96.31
266.823	104.31
267.055	90.31
267.287	86.31
267.52	87.31
267.752	87.31
267.984	91.31
268.216	82.31
268.448	102.31
268.681	93.31
268.913	96.31
269.145	97.31
269.377	109.31
269.609	102.31
269.841	111.31
270.073	96.31
270.306	99.31
270.538	119.31
270.77	91.31
271.002	91.31
271.234	99.31
271.466	96.31
271.698	96.31
271.93	89.31
272.162	93.31
272.394	98.31
272.626	104.31
272.858	92.31
273.09	91.31
273.322	98.31
273.553	90.31
273.785	102.31
274.017	105.31
274.249	95.31
274.481	94.31
274.713	102.31
274.945	88.31
275.176	78.31
275.408	92.31
275.64	100.31
275.872	101.31
276.104	92.31
276.335	111.31
276.567	99.31
276.799	103.31
277.031	106.31
277.262	97.31
277.494	105.31
277.726	103.31
277.957	92.31
278.189	88.31
278.421	105.31
278.652	104.31
278.884	92.31
279.115	103.31
279.347	115.31
279.579	91.31
279.81	94.31
280.042	107.31
280.273	92.31
280.505	110.31
280.736	107.31
280.968	100.31
281.199	101.31
281.431	101.31
281.662	89.31
281.894	79.31
282.125	97.31
282.356	113.31
282.588	109.31
282.819	93.31
283.051	100.31
283.282	90.31
283.513	119.31
283.745	99.31
283.976	95.31
284.207	108.31
284.439	105.31
284.67	107.31
284.901	104.31
285.132	98.31
285.364	101.31
285.595	109.31
285.826	98.31
286.057	112.31
286.288	110.31
286.52	92.31
286.751	106.31
286.982	112.31
287.213	103.31
287.444	97.31
287.675	104.31
287.906	97.31
288.138	99.31
288.369	90.31
288.6	104.31
288.831	109.31
289.062	115.31
289.293	91.31
289.524	99.31
289.755	106.31
289.986	111.31
290.217	99.31
290.448	86.31
290.679	91.31
290.91	103.31
291.141	97.31
291.371	95.31
291.602	94.31
291.833	110.31
292.064	120.31
292.295	74.31
292.526	96.31
292.757	101.31
292.987	105.31
293.218	85.31
293.449	93.31
293.68	105.31
293.91	102.31
294.141	104.31
294.372	106.31
294.603	112.31
294.833	102.31
295.064	99.31
295.295	100.31
295.525	98.31
295.756	106.31
295.987	99.31
296.217	100.31
296.448	117.31
296.679	97.31
296.909	102.31
297.14	107.31
297.37	112.31
297.601	105.31
297.831	101.31
298.062	111.31
298.292	101.31
298.523	109.31
298.753	94.31
298.984	109.31
299.214	104.31
299.445	108.31
299.675	97.31
299.905	103.31
300.136	108.31
300.366	112.31
300.597	104.31
300.827	94.31
301.057	76.31
301.288	94.31
301.518	89.31
301.748	107.31
301.979	98.31
302.209	98.31
302.439	110.31
302.669	99.31
302.9	106.31
303.13	95.31
303.36	108.31
303.59	95.31
303.82	112.31
304.051	97.31
304.281	101.31
304.511	105.31
304.741	93.31
304.971	110.31
305.201	106.31
305.431	110.31
305.661	109.31
305.891	118.31
306.121	109.31
306.352	99.31
306.582	102.31
306.812	106.31
307.042	111.31
307.272	110.31
307.502	106.31
307.731	116.31
307.961	103.31
308.191	99.31
308.421	97.31
308.651	112.31
308.881	106.31
309.111	102.31
309.341	115.31
309.571	104.31
309.8	102.31
310.03	101.31
310.26	108.31
310.49	125.31
310.72	113.31
310.949	107.31
311.179	121.31
311.409	87.31
311.639	109.31
311.868	115.31
312.098	98.31
312.328	103.31
312.557	124.31
312.787	118.31
313.017	117.31
313.246	110.31
313.476	98.31
313.706	94.31
313.935	99.31
314.165	95.31
314.394	101.31
314.624	123.31
314.853	123.31
315.083	113.31
315.312	92.31
315.542	95.31
315.771	104.31
316.001	115.31
316.23	120.31
316.46	129.31
316.689	101.31
316.919	107.31
317.148	115.31
317.377	109.31
317.607	113.31
317.836	115.31
318.065	106.31
318.295	113.31
318.524	102.31
318.753	122.31
318.983	99.31
319.212	110.31
319.441	113.31
319.67	118.31
319.9	112.31
320.129	89.31
320.358	113.31
320.587	123.31
320.816	101.31
321.046	108.31
321.275	116.31
321.504	119.31
321.733	109.31
321.962	108.31
322.191	109.31
322.42	126.31
322.649	109.31
322.878	119.31
323.108	103.31
323.337	112.31
323.566	115.31
323.795	129.31
324.024	106.31
324.253	124.31
324.482	125.31
324.71	149.31
324.939	159.31
325.168	150.31
325.397	122.31
325.626	125.31
325.855	123.31
326.084	111.31
326.313	118.31
326.542	100.31
326.77	114.31
326.999	119.31
327.228	129.31
327.457	152.31
327.686	153.31
327.914	118.31
328.143	132.31
328.372	125.31
328.6	103.31
328.829	113.31
329.058	110.31
329.287	114.31
329.515	134.31
329.744	108.31
329.972	95.31
330.201	132.31
330.43	122.31
330.658	102.31
330.887	131.31
331.115	105.31
331.344	100.31
331.572	115.31
331.801	129.31
332.03	108.31
332.258	129.31
332.486	114.31
332.715	103.31
332.943	115.31
333.172	111.31
333.4	121.31
333.629	124.31
333.857	102.31
334.085	119.31
334.314	118.31
334.542	132.31
334.771	106.31
334.999	136.31
335.227	121.31
335.455	116.31
335.684	121.31
335.912	123.31
336.14	127.31
336.369	118.31
336.597	109.31
336.825	109.31
337.053	108.31
337.281	130.31
337.51	104.31
337.738	119.31
337.966	108.31
338.194	121.31
338.422	128.31
338.65	107.31
338.878	121.31
339.106	116.31
339.334	112.31
339.562	113.31
339.79	109.31
340.018	123.31
340.246	99.31
340.474	115.31
340.702	115.31
340.93	113.31
341.158	121.31
341.386	113.31
341.614	101.31
341.842	117.31
342.07	107.31
342.298	108.31
342.526	100.31
342.754	124.31
342.981	103.31
343.209	119.31
343.437	121.31
343.665	105.31
343.893	117.31
344.12	131.31
344.348	123.31
344.576	115.31
344.804	104.31
345.031	115.31
345.259	105.31
345.487	112.31
345.714	104.31
345.942	116.31
346.17	125.31
346.397	120.31
346.625	115.31
346.853	121.31
347.08	123.31
347.308	121.31
347.535	102.31
347.763	121.31
347.99	112.31
348.218	124.31
348.445	110.31
348.673	108.31
348.9	107.31
349.128	116.31
349.355	101.31
349.583	105.31
349.81	118.31
350.037	106.31
350.265	109.31
350.492	117.31
350.72	110.31
350.947	113.31
351.174	122.31
351.402	106.31
351.629	114.31
351.856	109.31
352.083	110.31
352.311	117.31
352.538	113.31
352.765	105.31
352.992	104.31
353.22	103.31
353.447	104.31
353.674	123.31
353.901	105.31
354.128	100.31
354.355	115.31
354.583	110.31
354.81	103.31
355.037	120.31
355.264	121.31
355.491	108.31
355.718	103.31
355.945	131.31
356.172	111.31
356.399	116.31
356.626	117.31
356.853	115.31
357.08	126.31
357.307	130.31
357.534	112.31
357.761	120.31
357.988	99.31
358.215	103.31
358.441	123.31
358.668	99.31
358.895	119.31
359.122	115.31
359.349	118.31
359.576	111.31
359.802	111.31
360.029	107.31
360.256	115.31
360.483	110.31
360.709	117.31
360.936	108.31
361.163	111.31
361.39	103.31
361.616	112.31
361.843	103.31
362.07	119.31
362.296	108.31
362.523	109.31
362.749	103.31
362.976	103.31
363.203	120.31
363.429	101.31
363.656	105.31
363.882	108.31
364.109	117.31
364.335	113.31
364.562	110.31
364.788	111.31
365.015	125.31
365.241	97.31
365.468	115.31
365.694	105.31
365.92	119.31
366.147	119.31
366.373	114.31
366.599	106.31
366.826	120.31
367.052	115.31
367.278	100.31
367.505	113.31
367.731	111.31
367.957	126.31
368.184	105.31
368.41	113.31
368.636	111.31
368.862	117.31
369.089	129.31
369.315	106.31
369.541	119.31
369.767	112.31
369.993	122.31
370.219	107.31
370.445	94.31
370.672	118.31
370.898	106.31
371.124	112.31
371.35	113.31
371.576	113.31
371.802	111.31
372.028	118.31
372.254	119.31
372.48	97.31
372.706	124.31
372.932	111.31
373.158	118.31
373.384	115.31
373.61	115.31
373.835	115.31
374.061	111.31
374.287	100.31
374.513	100.31
374.739	97.31
374.965	100.31
375.191	117.31
375.416	110.31
375.642	109.31
375.868	126.31
376.094	108.31
376.319	123.31
376.545	114.31
376.771	111.31
376.997	117.31
377.222	114.31
377.448	115.31
377.674	114.31
377.899	121.31
378.125	120.31
378.35	128.31
378.576	119.31
378.802	110.31
379.027	121.31
379.253	118.31
379.478	119.31
379.704	120.31
379.929	121.31
380.155	125.31
380.38	99.31
380.606	121.31
380.831	119.31
381.057	127.31
381.282	118.31
381.507	120.31
381.733	108.31
381.958	108.31
382.184	122.31
382.409	123.31
382.634	118.31
382.86	110.31
383.085	107.31
383.31	104.31
383.535	108.31
383.761	120.31
383.986	108.31
384.211	117.31
384.436	120.31
384.662	132.31
384.887	121.31
385.112	118.31
385.337	115.31
385.562	135.31
385.787	142.31
386.013	110.31
386.238	124.31
386.463	109.31
386.688	127.31
386.913	127.31
387.138	118.31
387.363	124.31
387.588	122.31
387.813	129.31
388.038	121.31
388.263	113.31
388.488	118.31
388.713	125.31
388.938	122.31
389.163	125.31
389.387	128.31
389.612	129.31
389.837	122.31
390.062	128.31
390.287	128.31
390.512	111.31
390.736	107.31
390.961	119.31
391.186	135.31
391.411	119.31
391.636	113.31
391.86	114.31
392.085	115.31
392.31	110.31
392.534	108.31
392.759	107.31
392.984	123.31
393.208	130.31
393.433	119.31
393.658	125.31
393.882	128.31
394.107	131.31
394.331	138.31
394.556	123.31
394.78	113.31
395.005	120.31
395.229	123.31
395.454	117.31
395.678	120.31
395.903	129.31
396.127	113.31
396.352	131.31
396.576	123.31
396.801	112.31
397.025	133.31
397.249	123.31
397.474	128.31
397.698	112.31
397.922	138.31
398.147	107.31
398.371	130.31
398.595	132.31
398.82	128.31
399.044	131.31
399.268	134.31
399.492	155.31
399.717	154.31
399.941	158.31
400.165	132.31
400.389	142.31
400.613	137.31
400.837	135.31
401.062	134.31
401.286	121.31
401.51	126.31
401.734	143.31
401.958	131.31
402.182	125.31
402.406	150.31
402.63	134.31
402.854	129.31
403.078	127.31
403.302	138.31
403.526	144.31
403.75	132.31
403.974	135.31
404.198	145.31
404.422	157.31
404.645	117.31
404.869	117.31
405.093	143.31
405.317	143.31
405.541	138.31
405.765	139.31
405.988	148.31
406.212	124.31
406.436	139.31
406.66	138.31
406.883	143.31
407.107	143.31
407.331	131.31
407.555	150.31
407.778	129.31
408.002	130.31
408.226	151.31
408.449	141.31
408.673	142.31
408.896	139.31
409.12	126.31
409.344	144.31
409.567	145.31
409.791	135.31
410.014	137.31
410.238	129.31
410.461	150.31
410.685	127.31
410.908	139.31
411.132	139.31
411.355	128.31
411.578	139.31
411.802	126.31
412.025	127.31
412.249	109.31
412.472	135.31
412.695	144.31
412.919	127.31
413.142	144.31
413.365	122.31
413.589	141.31
413.812	143.31
414.035	122.31
414.258	136.31
414.482	124.31
414.705	127.31
414.928	109.31
415.151	123.31
415.374	134.31
415.597	144.31
415.821	121.31
416.044	116.31
416.267	134.31
416.49	131.31
416.713	103.31
416.936	117.31
417.159	129.31
417.382	125.31
417.605	128.31
417.828	132.31
418.051	127.31
418.274	133.31
418.497	131.31
418.72	135.31
418.943	149.31
419.166	112.31
419.389	125.31
419.611	136.31
419.834	147.31
420.057	127.31
420.28	135.31
420.503	126.31
420.726	121.31
420.948	115.31
421.171	113.31
421.394	141.31
421.617	136.31
421.839	155.31
422.062	128.31
422.285	134.31
422.507	135.31
422.73	139.31
422.953	149.31
423.175	124.31
423.398	129.31
423.621	132.31
423.843	142.31
424.066	132.31
424.288	143.31
424.511	139.31
424.733	124.31
424.956	136.31
425.178	148.31
425.401	139.31
425.623	135.31
425.846	131.31
426.068	123.31
426.291	115.31
426.513	143.31
426.735	128.31
426.958	116.31
427.18	132.31
427.402	126.31
427.625	139.31
427.847	129.31
428.069	153.31
428.292	131.31
428.514	122.31
428.736	129.31
428.958	134.31
429.181	131.31
429.403	125.31
429.625	121.31
429.847	126.31
430.069	132.31
430.292	135.31
430.514	124.31
430.736	118.31
430.958	131.31
431.18	117.31
431.402	130.31
431.624	119.31
431.846	106.31
432.068	107.31
432.29	125.31
432.512	135.31
432.734	139.31
432.956	125.31
433.178	126.31
433.4	138.31
433.622	137.31
433.844	137.31
434.066	133.31
434.287	123.31
434.509	145.31
434.731	125.31
434.953	134.31
435.175	135.31
435.397	131.31
435.618	125.31
435.84	133.31
436.062	138.31
436.284	129.31
436.505	131.31
436.727	123.31
436.949	138.31
437.17	125.31
437.392	120.31
437.614	133.31
437.835	120.31
438.057	143.31
438.278	147.31
438.5	133.31
438.721	132.31
438.943	150.31
439.165	121.31
439.386	137.31
439.608	146.31
439.829	133.31
440.05	132.31
440.272	117.31
440.493	130.31
440.715	123.31
440.936	113.31
441.158	143.31
441.379	145.31
441.6	124.31
441.822	127.31
442.043	125.31
442.264	144.31
442.486	142.31
442.707	146.31
442.928	139.31
443.149	126.31
443.371	134.31
443.592	132.31
443.813	146.31
444.034	151.31
444.255	136.31
444.476	135.31
444.698	129.31
444.919	146.31
445.14	259.31
445.361	199.31
445.582	140.31
445.803	146.31
446.024	151.31
446.245	128.31
446.466	131.31
446.687	140.31
446.908	121.31
447.129	125.31
447.35	116.31
447.571	130.31
447.792	129.31
448.013	122.31
448.234	128.31
448.455	111.31
448.675	137.31
448.896	132.31
449.117	137.31
449.338	113.31
449.559	127.31
449.779	143.31
450	125.31
450.221	125.31
450.442	116.31
450.662	121.31
450.883	119.31
451.104	132.31
451.324	131.31
451.545	128.31
451.766	115.31
451.986	107.31
452.207	112.31
452.428	125.31
452.648	119.31
452.869	130.31
453.089	109.31
453.31	135.31
453.53	130.31
453.751	125.31
453.971	110.31
454.192	105.31
454.412	118.31
454.633	110.31
454.853	121.31
455.073	120.31
455.294	125.31
455.514	135.31
455.734	122.31
455.955	120.31
456.175	107.31
456.395	122.31
456.616	124.31
456.836	119.31
457.056	108.31
457.276	103.31
457.497	99.31
457.717	116.31
457.937	108.31
458.157	124.31
458.377	113.31
458.598	127.31
458.818	131.31
459.038	119.31
459.258	133.31
459.478	124.31
459.698	125.31
459.918	112.31
460.138	128.31
460.358	137.31
460.578	146.31
460.798	133.31
461.018	121.31
461.238	141.31
461.458	128.31
461.678	140.31
461.898	127.31
462.118	131.31
462.338	128.31
462.558	129.31
462.777	116.31
462.997	128.31
463.217	128.31
463.437	144.31
463.657	141.31
463.876	133.31
464.096	132.31
464.316	137.31
464.536	152.31
464.755	147.31
464.975	118.31
465.195	144.31
465.414	132.31
465.634	137.31
465.854	135.31
466.073	129.31
466.293	116.31
466.512	142.31
466.732	130.31
466.951	123.31
467.171	117.31
467.391	124.31
467.61	120.31
467.829	119.31
468.049	126.31
468.268	125.31
468.488	128.31
468.707	124.31
468.927	115.31
469.146	119.31
469.365	129.31
469.585	134.31
469.804	111.31
470.023	123.31
470.243	123.31
470.462	126.31
470.681	120.31
470.901	120.31
471.12	132.31
471.339	119.31
471.558	125.31
471.777	119.31
471.997	121.31
472.216	132.31
472.435	127.31
472.654	122.31
472.873	120.31
473.092	129.31
473.311	120.31
473.53	122.31
473.749	137.31
473.968	131.31
474.187	128.31
474.406	117.31
474.625	116.31
474.844	134.31
475.063	135.31
475.282	116.31
475.501	127.31
475.72	128.31
475.939	133.31
476.158	125.31
476.377	135.31
476.596	132.31
476.814	128.31
477.033	136.31
477.252	138.31
477.471	124.31
477.69	125.31
477.908	134.31
478.127	143.31
478.346	140.31
478.564	116.31
478.783	146.31
479.002	133.31
479.22	134.31
479.439	137.31
479.658	161.31
479.876	135.31
480.095	132.31
480.313	148.31
480.532	133.31
480.751	125.31
480.969	132.31
481.188	135.31
481.406	147.31
481.624	130.31
481.843	122.31
482.061	133.31
482.28	131.31
482.498	117.31
482.717	131.31
482.935	125.31
483.153	129.31
483.372	125.31
483.59	134.31
483.808	121.31
484.027	132.31
484.245	130.31
484.463	122.31
484.681	145.31
484.9	125.31
485.118	131.31
485.336	127.31
485.554	132.31
485.772	139.31
485.99	125.31
486.209	130.31
486.427	133.31
486.645	135.31
486.863	144.31
487.081	144.31
487.299	143.31
487.517	132.31
487.735	125.31
487.953	148.31
488.171	152.31
488.389	132.31
488.607	136.31
488.825	108.31
489.043	127.31
489.261	132.31
489.479	139.31
489.696	144.31
489.914	135.31
490.132	133.31
490.35	133.31
490.568	146.31
490.786	141.31
491.003	143.31
491.221	141.31
491.439	147.31
491.657	133.31
491.874	151.31
492.092	137.31
492.31	145.31
492.527	142.31
492.745	159.31
492.963	145.31
493.18	165.31
493.398	154.31
493.615	141.31
493.833	141.31
494.05	163.31
494.268	136.31
494.485	137.31
494.703	145.31
494.92	141.31
495.138	127.31
495.355	133.31
495.573	141.31
495.79	145.31
496.008	144.31
496.225	147.31
496.442	155.31
496.66	135.31
496.877	151.31
497.094	167.31
497.312	146.31
497.529	146.31
497.746	152.31
497.963	153.31
498.181	154.31
498.398	164.31
498.615	168.31
498.832	157.31
499.049	183.31
499.267	166.31
499.484	174.31
499.701	178.31
499.918	187.31
500.135	203.31
500.352	217.31
500.569	197.31
500.786	218.31
501.003	197.31
501.22	192.31
501.437	185.31
501.654	169.31
501.871	181.31
502.088	177.31
502.305	163.31
502.522	155.31
502.739	159.31
502.956	163.31
503.172	137.31
503.389	150.31
503.606	153.31
503.823	145.31
504.04	156.31
504.256	152.31
504.473	142.31
504.69	155.31
504.907	143.31
505.123	153.31
505.34	159.31
505.557	121.31
