Data from 1968.PennyLincolnUp.Lamp.En5.5.200Scan.071719.P1._HRD10591_14-50-38-969.txt Node
Date: Thu Jul 18 14:50:38 EDT 2019
User: cochatt
Spectrometer: HR+D1059
Trigger mode: 1
Integration Time (sec): 1.000000E-1
Scans to average: 1
Electric dark correction enabled: true
Nonlinearity correction enabled: false
Boxcar width: 0
XAxis mode: Wavelengths
Number of Pixels in Spectrum: 2048
>>>>>Begin Spectral Data<<<<<
223.165	-21.69
223.4	-21.69
223.635	-21.69
223.869	-11.69
224.104	-18.69
224.338	-14.69
224.573	-16.69
224.808	-4.69
225.042	-10.69
225.277	5.31
225.511	-0.69
225.746	2.31
225.98	6.31
226.215	5.31
226.449	13.31
226.683	16.31
226.918	15.31
227.152	35.31
227.387	25.31
227.621	40.31
227.856	39.31
228.09	45.31
228.324	45.31
228.559	45.31
228.793	57.31
229.027	67.31
229.262	69.31
229.496	62.31
229.73	67.31
229.964	82.31
230.199	85.31
230.433	73.31
230.667	77.31
230.901	87.31
231.136	78.31
231.37	74.31
231.604	74.31
231.838	86.31
232.072	76.31
232.306	77.31
232.541	81.31
232.775	72.31
233.009	77.31
233.243	85.31
233.477	84.31
233.711	102.31
233.945	77.31
234.179	99.31
234.413	88.31
234.647	86.31
234.881	91.31
235.115	80.31
235.349	101.31
235.583	86.31
235.817	66.31
236.051	84.31
236.285	89.31
236.519	79.31
236.753	76.31
236.987	90.31
237.221	84.31
237.455	81.31
237.689	78.31
237.922	86.31
238.156	71.31
238.39	76.31
238.624	79.31
238.858	73.31
239.091	86.31
239.325	82.31
239.559	72.31
239.793	74.31
240.027	91.31
240.26	71.31
240.494	81.31
240.728	77.31
240.961	72.31
241.195	76.31
241.429	83.31
241.662	79.31
241.896	84.31
242.13	79.31
242.363	78.31
242.597	84.31
242.83	101.31
243.064	85.31
243.298	76.31
243.531	78.31
243.765	74.31
243.998	68.31
244.232	79.31
244.465	82.31
244.699	102.31
244.932	76.31
245.166	85.31
245.399	90.31
245.633	82.31
245.866	79.31
246.099	81.31
246.333	78.31
246.566	75.31
246.8	86.31
247.033	79.31
247.266	87.31
247.5	87.31
247.733	87.31
247.966	79.31
248.2	90.31
248.433	85.31
248.666	82.31
248.899	92.31
249.133	85.31
249.366	95.31
249.599	85.31
249.832	79.31
250.066	93.31
250.299	76.31
250.532	105.31
250.765	86.31
250.998	97.31
251.231	72.31
251.465	100.31
251.698	80.31
251.931	84.31
252.164	91.31
252.397	90.31
252.63	87.31
252.863	95.31
253.096	86.31
253.329	79.31
253.562	95.31
253.795	85.31
254.028	83.31
254.261	85.31
254.494	91.31
254.727	102.31
254.96	92.31
255.193	94.31
255.426	97.31
255.659	81.31
255.892	84.31
256.124	91.31
256.357	85.31
256.59	96.31
256.823	78.31
257.056	85.31
257.289	87.31
257.521	79.31
257.754	83.31
257.987	75.31
258.22	95.31
258.452	94.31
258.685	96.31
258.918	93.31
259.151	91.31
259.383	89.31
259.616	98.31
259.849	91.31
260.081	91.31
260.314	102.31
260.547	71.31
260.779	72.31
261.012	94.31
261.244	94.31
261.477	97.31
261.71	94.31
261.942	70.31
262.175	99.31
262.407	90.31
262.64	94.31
262.872	84.31
263.105	94.31
263.337	91.31
263.57	94.31
263.802	99.31
264.035	101.31
264.267	90.31
264.499	91.31
264.732	90.31
264.964	71.31
265.197	85.31
265.429	95.31
265.661	97.31
265.894	83.31
266.126	103.31
266.358	89.31
266.591	86.31
266.823	87.31
267.055	85.31
267.287	93.31
267.52	96.31
267.752	98.31
267.984	90.31
268.216	82.31
268.448	80.31
268.681	93.31
268.913	88.31
269.145	89.31
269.377	89.31
269.609	98.31
269.841	96.31
270.073	95.31
270.306	97.31
270.538	103.31
270.77	87.31
271.002	85.31
271.234	72.31
271.466	106.31
271.698	98.31
271.93	101.31
272.162	103.31
272.394	99.31
272.626	91.31
272.858	102.31
273.09	85.31
273.322	90.31
273.553	107.31
273.785	106.31
274.017	100.31
274.249	93.31
274.481	81.31
274.713	100.31
274.945	103.31
275.176	97.31
275.408	94.31
275.64	93.31
275.872	98.31
276.104	93.31
276.335	84.31
276.567	98.31
276.799	102.31
277.031	105.31
277.262	102.31
277.494	102.31
277.726	85.31
277.957	93.31
278.189	101.31
278.421	109.31
278.652	95.31
278.884	93.31
279.115	98.31
279.347	115.31
279.579	98.31
279.81	90.31
280.042	94.31
280.273	97.31
280.505	94.31
280.736	106.31
280.968	92.31
281.199	85.31
281.431	100.31
281.662	102.31
281.894	107.31
282.125	101.31
282.356	105.31
282.588	99.31
282.819	92.31
283.051	110.31
283.282	104.31
283.513	100.31
283.745	89.31
283.976	113.31
284.207	99.31
284.439	104.31
284.67	115.31
284.901	106.31
285.132	113.31
285.364	102.31
285.595	91.31
285.826	94.31
286.057	100.31
286.288	101.31
286.52	100.31
286.751	105.31
286.982	94.31
287.213	88.31
287.444	97.31
287.675	109.31
287.906	98.31
288.138	102.31
288.369	95.31
288.6	113.31
288.831	117.31
289.062	86.31
289.293	85.31
289.524	99.31
289.755	99.31
289.986	103.31
290.217	98.31
290.448	98.31
290.679	92.31
290.91	116.31
291.141	107.31
291.371	90.31
291.602	100.31
291.833	107.31
292.064	113.31
292.295	89.31
292.526	102.31
292.757	101.31
292.987	114.31
293.218	89.31
293.449	89.31
293.68	100.31
293.91	116.31
294.141	97.31
294.372	108.31
294.603	116.31
294.833	102.31
295.064	103.31
295.295	99.31
295.525	108.31
295.756	95.31
295.987	99.31
296.217	109.31
296.448	92.31
296.679	94.31
296.909	91.31
297.14	105.31
297.37	118.31
297.601	97.31
297.831	108.31
298.062	112.31
298.292	91.31
298.523	94.31
298.753	113.31
298.984	101.31
299.214	108.31
299.445	91.31
299.675	99.31
299.905	105.31
300.136	115.31
300.366	105.31
300.597	105.31
300.827	101.31
301.057	95.31
301.288	102.31
301.518	111.31
301.748	110.31
301.979	115.31
302.209	103.31
302.439	107.31
302.669	104.31
302.9	113.31
303.13	102.31
303.36	113.31
303.59	101.31
303.82	100.31
304.051	94.31
304.281	109.31
304.511	113.31
304.741	117.31
304.971	95.31
305.201	96.31
305.431	97.31
305.661	109.31
305.891	104.31
306.121	99.31
306.352	106.31
306.582	102.31
306.812	102.31
307.042	98.31
307.272	93.31
307.502	86.31
307.731	115.31
307.961	110.31
308.191	113.31
308.421	111.31
308.651	106.31
308.881	104.31
309.111	105.31
309.341	113.31
309.571	101.31
309.8	106.31
310.03	101.31
310.26	108.31
310.49	109.31
310.72	95.31
310.949	116.31
311.179	127.31
311.409	110.31
311.639	105.31
311.868	110.31
312.098	105.31
312.328	114.31
312.557	101.31
312.787	106.31
313.017	110.31
313.246	106.31
313.476	109.31
313.706	106.31
313.935	107.31
314.165	98.31
314.394	107.31
314.624	115.31
314.853	118.31
315.083	114.31
315.312	101.31
315.542	109.31
315.771	111.31
316.001	95.31
316.23	103.31
316.46	108.31
316.689	107.31
316.919	96.31
317.148	109.31
317.377	96.31
317.607	107.31
317.836	104.31
318.065	115.31
318.295	95.31
318.524	113.31
318.753	106.31
318.983	120.31
319.212	113.31
319.441	105.31
319.67	105.31
319.9	97.31
320.129	107.31
320.358	105.31
320.587	108.31
320.816	94.31
321.046	110.31
321.275	117.31
321.504	108.31
321.733	118.31
321.962	117.31
322.191	106.31
322.42	114.31
322.649	111.31
322.878	106.31
323.108	110.31
323.337	129.31
323.566	123.31
323.795	127.31
324.024	114.31
324.253	105.31
324.482	135.31
324.71	147.31
324.939	173.31
325.168	143.31
325.397	118.31
325.626	112.31
325.855	103.31
326.084	108.31
326.313	108.31
326.542	118.31
326.77	112.31
326.999	124.31
327.228	131.31
327.457	139.31
327.686	154.31
327.914	121.31
328.143	113.31
328.372	111.31
328.6	95.31
328.829	107.31
329.058	102.31
329.287	125.31
329.515	106.31
329.744	115.31
329.972	110.31
330.201	126.31
330.43	102.31
330.658	111.31
330.887	122.31
331.115	127.31
331.344	135.31
331.572	127.31
331.801	110.31
332.03	113.31
332.258	113.31
332.486	117.31
332.715	131.31
332.943	100.31
333.172	110.31
333.4	108.31
333.629	105.31
333.857	105.31
334.085	120.31
334.314	125.31
334.542	119.31
334.771	120.31
334.999	125.31
335.227	114.31
335.455	112.31
335.684	116.31
335.912	109.31
336.14	135.31
336.369	123.31
336.597	107.31
336.825	113.31
337.053	113.31
337.281	122.31
337.51	97.31
337.738	119.31
337.966	123.31
338.194	111.31
338.422	119.31
338.65	115.31
338.878	102.31
339.106	97.31
339.334	103.31
339.562	104.31
339.79	101.31
340.018	98.31
340.246	113.31
340.474	113.31
340.702	107.31
340.93	102.31
341.158	100.31
341.386	129.31
341.614	103.31
341.842	102.31
342.07	85.31
342.298	97.31
342.526	106.31
342.754	122.31
342.981	103.31
343.209	110.31
343.437	117.31
343.665	110.31
343.893	117.31
344.12	109.31
344.348	108.31
344.576	114.31
344.804	100.31
345.031	106.31
345.259	113.31
345.487	110.31
345.714	112.31
345.942	115.31
346.17	115.31
346.397	113.31
346.625	110.31
346.853	101.31
347.08	103.31
347.308	107.31
347.535	109.31
347.763	115.31
347.99	96.31
348.218	106.31
348.445	103.31
348.673	100.31
348.9	111.31
349.128	104.31
349.355	109.31
349.583	99.31
349.81	119.31
350.037	120.31
350.265	120.31
350.492	114.31
350.72	112.31
350.947	121.31
351.174	118.31
351.402	98.31
351.629	105.31
351.856	124.31
352.083	117.31
352.311	125.31
352.538	94.31
352.765	117.31
352.992	113.31
353.22	121.31
353.447	105.31
353.674	104.31
353.901	112.31
354.128	102.31
354.355	111.31
354.583	118.31
354.81	87.31
355.037	113.31
355.264	105.31
355.491	104.31
355.718	116.31
355.945	100.31
356.172	117.31
356.399	118.31
356.626	103.31
356.853	113.31
357.08	105.31
357.307	131.31
357.534	107.31
357.761	90.31
357.988	97.31
358.215	110.31
358.441	110.31
358.668	98.31
358.895	93.31
359.122	120.31
359.349	103.31
359.576	108.31
359.802	113.31
360.029	93.31
360.256	121.31
360.483	110.31
360.709	102.31
360.936	115.31
361.163	97.31
361.39	110.31
361.616	106.31
361.843	101.31
362.07	108.31
362.296	110.31
362.523	113.31
362.749	113.31
362.976	97.31
363.203	119.31
363.429	102.31
363.656	125.31
363.882	84.31
364.109	109.31
364.335	102.31
364.562	107.31
364.788	125.31
365.015	111.31
365.241	109.31
365.468	100.31
365.694	111.31
365.92	102.31
366.147	98.31
366.373	105.31
366.599	100.31
366.826	106.31
367.052	94.31
367.278	122.31
367.505	102.31
367.731	98.31
367.957	114.31
368.184	112.31
368.41	101.31
368.636	102.31
368.862	125.31
369.089	106.31
369.315	112.31
369.541	105.31
369.767	111.31
369.993	106.31
370.219	105.31
370.445	105.31
370.672	93.31
370.898	103.31
371.124	106.31
371.35	104.31
371.576	96.31
371.802	121.31
372.028	118.31
372.254	109.31
372.48	92.31
372.706	125.31
372.932	123.31
373.158	105.31
373.384	101.31
373.61	107.31
373.835	110.31
374.061	94.31
374.287	106.31
374.513	116.31
374.739	121.31
374.965	109.31
375.191	103.31
375.416	123.31
375.642	109.31
375.868	127.31
376.094	108.31
376.319	117.31
376.545	107.31
376.771	103.31
376.997	111.31
377.222	119.31
377.448	115.31
377.674	126.31
377.899	103.31
378.125	100.31
378.35	116.31
378.576	96.31
378.802	117.31
379.027	110.31
379.253	118.31
379.478	93.31
379.704	102.31
379.929	107.31
380.155	115.31
380.38	114.31
380.606	110.31
380.831	103.31
381.057	115.31
381.282	120.31
381.507	121.31
381.733	99.31
381.958	120.31
382.184	113.31
382.409	108.31
382.634	116.31
382.86	119.31
383.085	120.31
383.31	113.31
383.535	102.31
383.761	115.31
383.986	127.31
384.211	123.31
384.436	129.31
384.662	109.31
384.887	121.31
385.112	122.31
385.337	127.31
385.562	117.31
385.787	113.31
386.013	129.31
386.238	119.31
386.463	100.31
386.688	118.31
386.913	123.31
387.138	110.31
387.363	102.31
387.588	116.31
387.813	117.31
388.038	118.31
388.263	118.31
388.488	120.31
388.713	125.31
388.938	111.31
389.163	122.31
389.387	117.31
389.612	110.31
389.837	119.31
390.062	103.31
390.287	105.31
390.512	115.31
390.736	119.31
390.961	129.31
391.186	125.31
391.411	131.31
391.636	116.31
391.86	130.31
392.085	131.31
392.31	119.31
392.534	124.31
392.759	121.31
392.984	109.31
393.208	103.31
393.433	118.31
393.658	143.31
393.882	123.31
394.107	120.31
394.331	122.31
394.556	124.31
394.78	119.31
395.005	113.31
395.229	113.31
395.454	107.31
395.678	125.31
395.903	131.31
396.127	123.31
396.352	116.31
396.576	115.31
396.801	127.31
397.025	122.31
397.249	113.31
397.474	123.31
397.698	133.31
397.922	125.31
398.147	130.31
398.371	113.31
398.595	119.31
398.82	126.31
399.044	127.31
399.268	134.31
399.492	133.31
399.717	143.31
399.941	146.31
400.165	143.31
400.389	129.31
400.613	131.31
400.837	131.31
401.062	125.31
401.286	114.31
401.51	125.31
401.734	137.31
401.958	121.31
402.182	135.31
402.406	138.31
402.63	131.31
402.854	130.31
403.078	129.31
403.302	128.31
403.526	136.31
403.75	147.31
403.974	118.31
404.198	135.31
404.422	136.31
404.645	123.31
404.869	122.31
405.093	145.31
405.317	130.31
405.541	127.31
405.765	127.31
405.988	125.31
406.212	135.31
406.436	131.31
406.66	135.31
406.883	136.31
407.107	127.31
407.331	142.31
407.555	139.31
407.778	134.31
408.002	142.31
408.226	135.31
408.449	131.31
408.673	159.31
408.896	124.31
409.12	123.31
409.344	143.31
409.567	139.31
409.791	141.31
410.014	121.31
410.238	138.31
410.461	135.31
410.685	137.31
410.908	124.31
411.132	134.31
411.355	125.31
411.578	110.31
411.802	131.31
412.025	141.31
412.249	154.31
412.472	131.31
412.695	118.31
412.919	126.31
413.142	140.31
413.365	132.31
413.589	133.31
413.812	109.31
414.035	127.31
414.258	128.31
414.482	131.31
414.705	121.31
414.928	123.31
415.151	131.31
415.374	125.31
415.597	113.31
415.821	133.31
416.044	132.31
416.267	130.31
416.49	117.31
416.713	110.31
416.936	110.31
417.159	132.31
417.382	121.31
417.605	119.31
417.828	131.31
418.051	119.31
418.274	137.31
418.497	133.31
418.72	118.31
418.943	122.31
419.166	121.31
419.389	134.31
419.611	132.31
419.834	137.31
420.057	132.31
420.28	123.31
420.503	126.31
420.726	122.31
420.948	119.31
421.171	131.31
421.394	121.31
421.617	116.31
421.839	137.31
422.062	126.31
422.285	139.31
422.507	126.31
422.73	134.31
422.953	127.31
423.175	117.31
423.398	126.31
423.621	129.31
423.843	115.31
424.066	140.31
424.288	129.31
424.511	133.31
424.733	149.31
424.956	135.31
425.178	137.31
425.401	131.31
425.623	137.31
425.846	133.31
426.068	119.31
426.291	120.31
426.513	123.31
426.735	131.31
426.958	129.31
427.18	125.31
427.402	145.31
427.625	142.31
427.847	139.31
428.069	132.31
428.292	118.31
428.514	119.31
428.736	125.31
428.958	126.31
429.181	120.31
429.403	126.31
429.625	127.31
429.847	134.31
430.069	127.31
430.292	133.31
430.514	115.31
430.736	122.31
430.958	127.31
431.18	119.31
431.402	114.31
431.624	125.31
431.846	110.31
432.068	107.31
432.29	117.31
432.512	117.31
432.734	132.31
432.956	116.31
433.178	130.31
433.4	106.31
433.622	119.31
433.844	145.31
434.066	115.31
434.287	126.31
434.509	115.31
434.731	123.31
434.953	126.31
435.175	134.31
435.397	142.31
435.618	125.31
435.84	125.31
436.062	130.31
436.284	131.31
436.505	117.31
436.727	109.31
436.949	135.31
437.17	123.31
437.392	125.31
437.614	125.31
437.835	131.31
438.057	130.31
438.278	122.31
438.5	134.31
438.721	128.31
438.943	119.31
439.165	119.31
439.386	127.31
439.608	133.31
439.829	130.31
440.05	146.31
440.272	129.31
440.493	129.31
440.715	116.31
440.936	125.31
441.158	126.31
441.379	130.31
441.6	138.31
441.822	142.31
442.043	126.31
442.264	133.31
442.486	143.31
442.707	119.31
442.928	134.31
443.149	135.31
443.371	133.31
443.592	137.31
443.813	131.31
444.034	148.31
444.255	143.31
444.476	139.31
444.698	135.31
444.919	138.31
445.14	215.31
445.361	165.31
445.582	140.31
445.803	149.31
446.024	131.31
446.245	140.31
446.466	138.31
446.687	133.31
446.908	132.31
447.129	122.31
447.35	123.31
447.571	121.31
447.792	129.31
448.013	122.31
448.234	103.31
448.455	130.31
448.675	130.31
448.896	149.31
449.117	134.31
449.338	114.31
449.559	146.31
449.779	140.31
450	133.31
450.221	128.31
450.442	116.31
450.662	123.31
450.883	117.31
451.104	106.31
451.324	117.31
451.545	119.31
451.766	137.31
451.986	113.31
452.207	135.31
452.428	117.31
452.648	122.31
452.869	118.31
453.089	117.31
453.31	113.31
453.53	117.31
453.751	115.31
453.971	127.31
454.192	116.31
454.412	116.31
454.633	106.31
454.853	117.31
455.073	110.31
455.294	106.31
455.514	135.31
455.734	107.31
455.955	127.31
456.175	122.31
456.395	116.31
456.616	118.31
456.836	134.31
457.056	104.31
457.276	110.31
457.497	117.31
457.717	115.31
457.937	130.31
458.157	122.31
458.377	107.31
458.598	127.31
458.818	129.31
459.038	116.31
459.258	127.31
459.478	124.31
459.698	123.31
459.918	109.31
460.138	117.31
460.358	135.31
460.578	134.31
460.798	127.31
461.018	133.31
461.238	131.31
461.458	128.31
461.678	127.31
461.898	131.31
462.118	140.31
462.338	129.31
462.558	117.31
462.777	129.31
462.997	123.31
463.217	119.31
463.437	138.31
463.657	112.31
463.876	117.31
464.096	129.31
464.316	117.31
464.536	140.31
464.755	135.31
464.975	139.31
465.195	131.31
465.414	135.31
465.634	133.31
465.854	124.31
466.073	122.31
466.293	123.31
466.512	110.31
466.732	125.31
466.951	115.31
467.171	134.31
467.391	114.31
467.61	111.31
467.829	124.31
468.049	125.31
468.268	118.31
468.488	120.31
468.707	118.31
468.927	119.31
469.146	126.31
469.365	125.31
469.585	107.31
469.804	120.31
470.023	128.31
470.243	136.31
470.462	122.31
470.681	129.31
470.901	127.31
471.12	112.31
471.339	134.31
471.558	110.31
471.777	126.31
471.997	111.31
472.216	121.31
472.435	124.31
472.654	118.31
472.873	123.31
473.092	119.31
473.311	123.31
473.53	127.31
473.749	117.31
473.968	124.31
474.187	114.31
474.406	113.31
474.625	127.31
474.844	124.31
475.063	118.31
475.282	120.31
475.501	135.31
475.72	133.31
475.939	127.31
476.158	134.31
476.377	118.31
476.596	126.31
476.814	121.31
477.033	123.31
477.252	114.31
477.471	120.31
477.69	114.31
477.908	119.31
478.127	135.31
478.346	135.31
478.564	125.31
478.783	137.31
479.002	131.31
479.22	133.31
479.439	127.31
479.658	163.31
479.876	132.31
480.095	137.31
480.313	131.31
480.532	143.31
480.751	130.31
480.969	119.31
481.188	138.31
481.406	131.31
481.624	127.31
481.843	122.31
482.061	130.31
482.28	133.31
482.498	136.31
482.717	131.31
482.935	131.31
483.153	123.31
483.372	135.31
483.59	142.31
483.808	107.31
484.027	121.31
484.245	141.31
484.463	121.31
484.681	137.31
484.9	118.31
485.118	115.31
485.336	136.31
485.554	123.31
485.772	133.31
485.99	137.31
486.209	125.31
486.427	118.31
486.645	126.31
486.863	134.31
487.081	142.31
487.299	134.31
487.517	139.31
487.735	119.31
487.953	135.31
488.171	143.31
488.389	130.31
488.607	131.31
488.825	130.31
489.043	145.31
489.261	126.31
489.479	125.31
489.696	136.31
489.914	135.31
490.132	147.31
490.35	135.31
490.568	140.31
490.786	133.31
491.003	131.31
491.221	139.31
491.439	137.31
491.657	144.31
491.874	135.31
492.092	141.31
492.31	145.31
492.527	140.31
492.745	137.31
492.963	142.31
493.18	150.31
493.398	141.31
493.615	127.31
493.833	140.31
494.05	130.31
494.268	142.31
494.485	152.31
494.703	138.31
494.92	149.31
495.138	135.31
495.355	135.31
495.573	131.31
495.79	143.31
496.008	125.31
496.225	143.31
496.442	137.31
496.66	157.31
496.877	140.31
497.094	153.31
497.312	145.31
497.529	148.31
497.746	123.31
497.963	163.31
498.181	156.31
498.398	165.31
498.615	158.31
498.832	149.31
499.049	157.31
499.267	183.31
499.484	173.31
499.701	188.31
499.918	177.31
500.135	199.31
500.352	216.31
500.569	209.31
500.786	198.31
501.003	206.31
501.22	188.31
501.437	180.31
501.654	185.31
501.871	164.31
502.088	165.31
502.305	153.31
502.522	157.31
502.739	150.31
502.956	163.31
503.172	150.31
503.389	143.31
503.606	143.31
503.823	151.31
504.04	141.31
504.256	152.31
504.473	133.31
504.69	131.31
504.907	135.31
505.123	146.31
505.34	156.31
505.557	139.31
505.773	126.31
