Data from 1968.PennyLincolnUp.Lamp.En5.5.200Scan.071719.P1._HRD10591_14-49-47-969.txt Node
Date: Thu Jul 18 14:49:47 EDT 2019
User: cochatt
Spectrometer: HR+D1059
Trigger mode: 1
Integration Time (sec): 1.000000E-1
Scans to average: 1
Electric dark correction enabled: true
Nonlinearity correction enabled: false
Boxcar width: 0
XAxis mode: Wavelengths
Number of Pixels in Spectrum: 2048
>>>>>Begin Spectral Data<<<<<
223.165	-5.31
223.4	-5.31
223.635	-5.31
223.869	-26.31
224.104	-13.31
224.338	-7.31
224.573	-22.31
224.808	-11.31
225.042	-17.31
225.277	2.69
225.511	-5.31
225.746	14.69
225.98	-1.31
226.215	12.69
226.449	21.69
226.683	1.69
226.918	28.69
227.152	27.69
227.387	26.69
227.621	46.69
227.856	40.69
228.09	53.69
228.324	61.69
228.559	67.69
228.793	54.69
229.027	57.69
229.262	77.69
229.496	78.69
229.73	69.69
229.964	84.69
230.199	69.69
230.433	63.69
230.667	77.69
230.901	91.69
231.136	80.69
231.37	92.69
231.604	76.69
231.838	93.69
232.072	90.69
232.306	86.69
232.541	92.69
232.775	73.69
233.009	105.69
233.243	88.69
233.477	90.69
233.711	83.69
233.945	86.69
234.179	93.69
234.413	88.69
234.647	85.69
234.881	86.69
235.115	86.69
235.349	92.69
235.583	74.69
235.817	74.69
236.051	77.69
236.285	83.69
236.519	89.69
236.753	92.69
236.987	85.69
237.221	76.69
237.455	80.69
237.689	89.69
237.922	68.69
238.156	84.69
238.39	60.69
238.624	80.69
238.858	85.69
239.091	73.69
239.325	66.69
239.559	84.69
239.793	83.69
240.027	89.69
240.26	76.69
240.494	88.69
240.728	89.69
240.961	75.69
241.195	93.69
241.429	84.69
241.662	77.69
241.896	86.69
242.13	84.69
242.363	77.69
242.597	87.69
242.83	75.69
243.064	61.69
243.298	82.69
243.531	80.69
243.765	79.69
243.998	86.69
244.232	86.69
244.465	84.69
244.699	82.69
244.932	78.69
245.166	79.69
245.399	89.69
245.633	94.69
245.866	81.69
246.099	86.69
246.333	100.69
246.566	74.69
246.8	86.69
247.033	90.69
247.266	96.69
247.5	81.69
247.733	78.69
247.966	72.69
248.2	99.69
248.433	83.69
248.666	94.69
248.899	91.69
249.133	83.69
249.366	92.69
249.599	84.69
249.832	84.69
250.066	95.69
250.299	82.69
250.532	68.69
250.765	99.69
250.998	86.69
251.231	92.69
251.465	75.69
251.698	82.69
251.931	76.69
252.164	77.69
252.397	91.69
252.63	84.69
252.863	85.69
253.096	79.69
253.329	97.69
253.562	100.69
253.795	84.69
254.028	84.69
254.261	99.69
254.494	89.69
254.727	100.69
254.96	86.69
255.193	91.69
255.426	92.69
255.659	89.69
255.892	96.69
256.124	77.69
256.357	80.69
256.59	89.69
256.823	96.69
257.056	86.69
257.289	90.69
257.521	85.69
257.754	92.69
257.987	94.69
258.22	101.69
258.452	99.69
258.685	85.69
258.918	81.69
259.151	82.69
259.383	85.69
259.616	96.69
259.849	94.69
260.081	91.69
260.314	96.69
260.547	93.69
260.779	86.69
261.012	103.69
261.244	86.69
261.477	90.69
261.71	81.69
261.942	89.69
262.175	86.69
262.407	87.69
262.64	98.69
262.872	98.69
263.105	88.69
263.337	86.69
263.57	106.69
263.802	83.69
264.035	73.69
264.267	76.69
264.499	83.69
264.732	99.69
264.964	99.69
265.197	93.69
265.429	77.69
265.661	86.69
265.894	97.69
266.126	86.69
266.358	84.69
266.591	103.69
266.823	90.69
267.055	98.69
267.287	92.69
267.52	99.69
267.752	93.69
267.984	87.69
268.216	91.69
268.448	88.69
268.681	85.69
268.913	81.69
269.145	86.69
269.377	90.69
269.609	100.69
269.841	77.69
270.073	96.69
270.306	87.69
270.538	94.69
270.77	96.69
271.002	98.69
271.234	101.69
271.466	102.69
271.698	90.69
271.93	108.69
272.162	108.69
272.394	103.69
272.626	88.69
272.858	109.69
273.09	78.69
273.322	90.69
273.553	90.69
273.785	88.69
274.017	86.69
274.249	100.69
274.481	85.69
274.713	97.69
274.945	105.69
275.176	90.69
275.408	82.69
275.64	106.69
275.872	96.69
276.104	91.69
276.335	104.69
276.567	102.69
276.799	107.69
277.031	83.69
277.262	105.69
277.494	98.69
277.726	102.69
277.957	95.69
278.189	99.69
278.421	109.69
278.652	102.69
278.884	100.69
279.115	106.69
279.347	88.69
279.579	87.69
279.81	93.69
280.042	101.69
280.273	89.69
280.505	91.69
280.736	97.69
280.968	100.69
281.199	87.69
281.431	96.69
281.662	107.69
281.894	97.69
282.125	91.69
282.356	101.69
282.588	103.69
282.819	98.69
283.051	99.69
283.282	98.69
283.513	96.69
283.745	97.69
283.976	87.69
284.207	88.69
284.439	98.69
284.67	92.69
284.901	81.69
285.132	100.69
285.364	104.69
285.595	88.69
285.826	95.69
286.057	98.69
286.288	98.69
286.52	95.69
286.751	98.69
286.982	101.69
287.213	94.69
287.444	109.69
287.675	82.69
287.906	100.69
288.138	99.69
288.369	92.69
288.6	103.69
288.831	92.69
289.062	96.69
289.293	101.69
289.524	92.69
289.755	99.69
289.986	103.69
290.217	105.69
290.448	107.69
290.679	89.69
290.91	92.69
291.141	96.69
291.371	101.69
291.602	99.69
291.833	99.69
292.064	103.69
292.295	97.69
292.526	99.69
292.757	107.69
292.987	100.69
293.218	108.69
293.449	97.69
293.68	89.69
293.91	90.69
294.141	101.69
294.372	78.69
294.603	101.69
294.833	94.69
295.064	100.69
295.295	97.69
295.525	98.69
295.756	102.69
295.987	111.69
296.217	98.69
296.448	108.69
296.679	102.69
296.909	101.69
297.14	103.69
297.37	112.69
297.601	95.69
297.831	92.69
298.062	90.69
298.292	106.69
298.523	105.69
298.753	96.69
298.984	106.69
299.214	102.69
299.445	107.69
299.675	107.69
299.905	102.69
300.136	102.69
300.366	89.69
300.597	92.69
300.827	109.69
301.057	114.69
301.288	88.69
301.518	106.69
301.748	91.69
301.979	102.69
302.209	89.69
302.439	101.69
302.669	109.69
302.9	105.69
303.13	116.69
303.36	109.69
303.59	105.69
303.82	99.69
304.051	100.69
304.281	98.69
304.511	100.69
304.741	93.69
304.971	106.69
305.201	92.69
305.431	94.69
305.661	103.69
305.891	101.69
306.121	93.69
306.352	84.69
306.582	94.69
306.812	101.69
307.042	106.69
307.272	105.69
307.502	93.69
307.731	108.69
307.961	102.69
308.191	97.69
308.421	88.69
308.651	100.69
308.881	102.69
309.111	103.69
309.341	100.69
309.571	111.69
309.8	112.69
310.03	104.69
310.26	96.69
310.49	114.69
310.72	99.69
310.949	102.69
311.179	102.69
311.409	97.69
311.639	96.69
311.868	105.69
312.098	110.69
312.328	103.69
312.557	97.69
312.787	106.69
313.017	107.69
313.246	101.69
313.476	95.69
313.706	100.69
313.935	90.69
314.165	105.69
314.394	88.69
314.624	99.69
314.853	116.69
315.083	99.69
315.312	116.69
315.542	100.69
315.771	97.69
316.001	114.69
316.23	101.69
316.46	122.69
316.689	99.69
316.919	106.69
317.148	102.69
317.377	108.69
317.607	117.69
317.836	100.69
318.065	120.69
318.295	91.69
318.524	98.69
318.753	95.69
318.983	105.69
319.212	97.69
319.441	94.69
319.67	106.69
319.9	108.69
320.129	110.69
320.358	107.69
320.587	109.69
320.816	97.69
321.046	96.69
321.275	88.69
321.504	110.69
321.733	110.69
321.962	118.69
322.191	93.69
322.42	116.69
322.649	101.69
322.878	125.69
323.108	112.69
323.337	116.69
323.566	112.69
323.795	120.69
324.024	108.69
324.253	114.69
324.482	131.69
324.71	163.69
324.939	169.69
325.168	162.69
325.397	114.69
325.626	92.69
325.855	121.69
326.084	100.69
326.313	122.69
326.542	114.69
326.77	122.69
326.999	110.69
327.228	121.69
327.457	153.69
327.686	146.69
327.914	126.69
328.143	106.69
328.372	118.69
328.6	104.69
328.829	122.69
329.058	103.69
329.287	125.69
329.515	126.69
329.744	95.69
329.972	114.69
330.201	103.69
330.43	110.69
330.658	121.69
330.887	119.69
331.115	106.69
331.344	105.69
331.572	115.69
331.801	117.69
332.03	100.69
332.258	112.69
332.486	116.69
332.715	102.69
332.943	116.69
333.172	120.69
333.4	122.69
333.629	117.69
333.857	108.69
334.085	110.69
334.314	110.69
334.542	129.69
334.771	122.69
334.999	112.69
335.227	105.69
335.455	128.69
335.684	126.69
335.912	132.69
336.14	118.69
336.369	118.69
336.597	113.69
336.825	126.69
337.053	128.69
337.281	100.69
337.51	109.69
337.738	112.69
337.966	112.69
338.194	100.69
338.422	116.69
338.65	114.69
338.878	102.69
339.106	97.69
339.334	123.69
339.562	107.69
339.79	114.69
340.018	116.69
340.246	106.69
340.474	104.69
340.702	99.69
340.93	106.69
341.158	122.69
341.386	103.69
341.614	100.69
341.842	100.69
342.07	94.69
342.298	109.69
342.526	114.69
342.754	114.69
342.981	117.69
343.209	104.69
343.437	120.69
343.665	98.69
343.893	112.69
344.12	124.69
344.348	102.69
344.576	119.69
344.804	105.69
345.031	120.69
345.259	108.69
345.487	116.69
345.714	101.69
345.942	111.69
346.17	122.69
346.397	120.69
346.625	93.69
346.853	106.69
347.08	96.69
347.308	97.69
347.535	95.69
347.763	102.69
347.99	117.69
348.218	109.69
348.445	98.69
348.673	119.69
348.9	110.69
349.128	114.69
349.355	119.69
349.583	98.69
349.81	102.69
350.037	104.69
350.265	113.69
350.492	108.69
350.72	112.69
350.947	97.69
351.174	121.69
351.402	112.69
351.629	116.69
351.856	132.69
352.083	108.69
352.311	104.69
352.538	105.69
352.765	121.69
352.992	103.69
353.22	107.69
353.447	99.69
353.674	105.69
353.901	105.69
354.128	114.69
354.355	110.69
354.583	113.69
354.81	110.69
355.037	124.69
355.264	108.69
355.491	104.69
355.718	115.69
355.945	109.69
356.172	92.69
356.399	94.69
356.626	115.69
356.853	102.69
357.08	109.69
357.307	102.69
357.534	118.69
357.761	99.69
357.988	98.69
358.215	104.69
358.441	109.69
358.668	113.69
358.895	104.69
359.122	93.69
359.349	105.69
359.576	100.69
359.802	106.69
360.029	114.69
360.256	117.69
360.483	116.69
360.709	106.69
360.936	118.69
361.163	120.69
361.39	117.69
361.616	100.69
361.843	118.69
362.07	121.69
362.296	102.69
362.523	111.69
362.749	109.69
362.976	120.69
363.203	96.69
363.429	99.69
363.656	108.69
363.882	109.69
364.109	102.69
364.335	101.69
364.562	99.69
364.788	109.69
365.015	114.69
365.241	101.69
365.468	98.69
365.694	102.69
365.92	106.69
366.147	113.69
366.373	96.69
366.599	114.69
366.826	113.69
367.052	113.69
367.278	101.69
367.505	113.69
367.731	99.69
367.957	104.69
368.184	104.69
368.41	113.69
368.636	118.69
368.862	101.69
369.089	113.69
369.315	105.69
369.541	107.69
369.767	104.69
369.993	105.69
370.219	87.69
370.445	90.69
370.672	95.69
370.898	107.69
371.124	113.69
371.35	122.69
371.576	112.69
371.802	113.69
372.028	108.69
372.254	91.69
372.48	103.69
372.706	116.69
372.932	116.69
373.158	120.69
373.384	115.69
373.61	117.69
373.835	109.69
374.061	105.69
374.287	113.69
374.513	98.69
374.739	103.69
374.965	109.69
375.191	121.69
375.416	98.69
375.642	117.69
375.868	114.69
376.094	123.69
376.319	114.69
376.545	111.69
376.771	104.69
376.997	100.69
377.222	115.69
377.448	106.69
377.674	119.69
377.899	115.69
378.125	117.69
378.35	117.69
378.576	105.69
378.802	115.69
379.027	113.69
379.253	101.69
379.478	95.69
379.704	108.69
379.929	108.69
380.155	112.69
380.38	128.69
380.606	117.69
380.831	106.69
381.057	118.69
381.282	116.69
381.507	111.69
381.733	123.69
381.958	88.69
382.184	102.69
382.409	118.69
382.634	108.69
382.86	103.69
383.085	106.69
383.31	117.69
383.535	118.69
383.761	100.69
383.986	103.69
384.211	109.69
384.436	122.69
384.662	105.69
384.887	117.69
385.112	119.69
385.337	126.69
385.562	129.69
385.787	112.69
386.013	125.69
386.238	130.69
386.463	123.69
386.688	113.69
386.913	114.69
387.138	109.69
387.363	114.69
387.588	120.69
387.813	119.69
388.038	127.69
388.263	112.69
388.488	102.69
388.713	104.69
388.938	107.69
389.163	122.69
389.387	115.69
389.612	113.69
389.837	123.69
390.062	112.69
390.287	117.69
390.512	119.69
390.736	121.69
390.961	125.69
391.186	120.69
391.411	122.69
391.636	119.69
391.86	126.69
392.085	125.69
392.31	118.69
392.534	107.69
392.759	116.69
392.984	117.69
393.208	114.69
393.433	124.69
393.658	128.69
393.882	117.69
394.107	109.69
394.331	132.69
394.556	112.69
394.78	118.69
395.005	113.69
395.229	117.69
395.454	114.69
395.678	131.69
395.903	138.69
396.127	120.69
396.352	122.69
396.576	115.69
396.801	105.69
397.025	110.69
397.249	125.69
397.474	127.69
397.698	124.69
397.922	128.69
398.147	123.69
398.371	138.69
398.595	119.69
398.82	114.69
399.044	134.69
399.268	154.69
399.492	132.69
399.717	150.69
399.941	123.69
400.165	134.69
400.389	125.69
400.613	131.69
400.837	138.69
401.062	114.69
401.286	118.69
401.51	138.69
401.734	132.69
401.958	119.69
402.182	121.69
402.406	134.69
402.63	124.69
402.854	126.69
403.078	140.69
403.302	138.69
403.526	133.69
403.75	131.69
403.974	132.69
404.198	129.69
404.422	129.69
404.645	115.69
404.869	119.69
405.093	133.69
405.317	129.69
405.541	131.69
405.765	119.69
405.988	131.69
406.212	125.69
406.436	124.69
406.66	144.69
406.883	121.69
407.107	133.69
407.331	129.69
407.555	142.69
407.778	151.69
408.002	143.69
408.226	142.69
408.449	146.69
408.673	124.69
408.896	128.69
409.12	138.69
409.344	149.69
409.567	133.69
409.791	148.69
410.014	144.69
410.238	134.69
410.461	140.69
410.685	132.69
410.908	125.69
411.132	147.69
411.355	137.69
411.578	139.69
411.802	128.69
412.025	124.69
412.249	121.69
412.472	136.69
412.695	126.69
412.919	123.69
413.142	122.69
413.365	120.69
413.589	124.69
413.812	141.69
414.035	133.69
414.258	144.69
414.482	139.69
414.705	128.69
414.928	120.69
415.151	148.69
415.374	130.69
415.597	125.69
415.821	126.69
416.044	133.69
416.267	126.69
416.49	124.69
416.713	120.69
416.936	125.69
417.159	124.69
417.382	138.69
417.605	130.69
417.828	131.69
418.051	137.69
418.274	135.69
418.497	131.69
418.72	108.69
418.943	145.69
419.166	129.69
419.389	140.69
419.611	133.69
419.834	133.69
420.057	142.69
420.28	131.69
420.503	120.69
420.726	128.69
420.948	117.69
421.171	130.69
421.394	125.69
421.617	134.69
421.839	136.69
422.062	132.69
422.285	116.69
422.507	135.69
422.73	132.69
422.953	129.69
423.175	124.69
423.398	132.69
423.621	138.69
423.843	132.69
424.066	141.69
424.288	123.69
424.511	128.69
424.733	123.69
424.956	130.69
425.178	133.69
425.401	121.69
425.623	124.69
425.846	126.69
426.068	127.69
426.291	128.69
426.513	141.69
426.735	132.69
426.958	132.69
427.18	123.69
427.402	146.69
427.625	140.69
427.847	135.69
428.069	133.69
428.292	126.69
428.514	130.69
428.736	115.69
428.958	120.69
429.181	110.69
429.403	130.69
429.625	128.69
429.847	116.69
430.069	128.69
430.292	132.69
430.514	130.69
430.736	116.69
430.958	132.69
431.18	120.69
431.402	116.69
431.624	134.69
431.846	122.69
432.068	120.69
432.29	132.69
432.512	117.69
432.734	118.69
432.956	132.69
433.178	125.69
433.4	130.69
433.622	117.69
433.844	125.69
434.066	127.69
434.287	119.69
434.509	107.69
434.731	106.69
434.953	120.69
435.175	125.69
435.397	130.69
435.618	128.69
435.84	144.69
436.062	141.69
436.284	150.69
436.505	118.69
436.727	134.69
436.949	121.69
437.17	117.69
437.392	116.69
437.614	132.69
437.835	124.69
438.057	138.69
438.278	139.69
438.5	126.69
438.721	137.69
438.943	132.69
439.165	125.69
439.386	127.69
439.608	110.69
439.829	124.69
440.05	114.69
440.272	140.69
440.493	128.69
440.715	129.69
440.936	125.69
441.158	119.69
441.379	140.69
441.6	124.69
441.822	130.69
442.043	116.69
442.264	141.69
442.486	144.69
442.707	130.69
442.928	135.69
443.149	120.69
443.371	136.69
443.592	129.69
443.813	142.69
444.034	136.69
444.255	141.69
444.476	133.69
444.698	126.69
444.919	132.69
445.14	260.69
445.361	185.69
445.582	138.69
445.803	125.69
446.024	130.69
446.245	146.69
446.466	132.69
446.687	132.69
446.908	116.69
447.129	132.69
447.35	117.69
447.571	114.69
447.792	134.69
448.013	124.69
448.234	124.69
448.455	136.69
448.675	128.69
448.896	128.69
449.117	125.69
449.338	125.69
449.559	145.69
449.779	132.69
450	122.69
450.221	126.69
450.442	121.69
450.662	120.69
450.883	124.69
451.104	123.69
451.324	125.69
451.545	122.69
451.766	122.69
451.986	116.69
452.207	136.69
452.428	112.69
452.648	120.69
452.869	130.69
453.089	116.69
453.31	121.69
453.53	128.69
453.751	123.69
453.971	103.69
454.192	108.69
454.412	112.69
454.633	136.69
454.853	91.69
455.073	114.69
455.294	113.69
455.514	106.69
455.734	122.69
455.955	122.69
456.175	123.69
456.395	122.69
456.616	113.69
456.836	120.69
457.056	113.69
457.276	109.69
457.497	109.69
457.717	121.69
457.937	130.69
458.157	109.69
458.377	118.69
458.598	114.69
458.818	109.69
459.038	121.69
459.258	121.69
459.478	111.69
459.698	122.69
459.918	125.69
460.138	130.69
460.358	134.69
460.578	124.69
460.798	127.69
461.018	126.69
461.238	131.69
461.458	131.69
461.678	133.69
461.898	132.69
462.118	126.69
462.338	126.69
462.558	137.69
462.777	132.69
462.997	150.69
463.217	128.69
463.437	130.69
463.657	136.69
463.876	132.69
464.096	123.69
464.316	135.69
464.536	141.69
464.755	127.69
464.975	121.69
465.195	140.69
465.414	136.69
465.634	121.69
465.854	123.69
466.073	132.69
466.293	109.69
466.512	136.69
466.732	122.69
466.951	129.69
467.171	120.69
467.391	114.69
467.61	110.69
467.829	108.69
468.049	126.69
468.268	125.69
468.488	123.69
468.707	124.69
468.927	118.69
469.146	131.69
469.365	122.69
469.585	141.69
469.804	120.69
470.023	120.69
470.243	129.69
470.462	124.69
470.681	120.69
470.901	120.69
471.12	122.69
471.339	141.69
471.558	140.69
471.777	130.69
471.997	120.69
472.216	131.69
472.435	116.69
472.654	124.69
472.873	115.69
473.092	125.69
473.311	118.69
473.53	118.69
473.749	119.69
473.968	120.69
474.187	133.69
474.406	117.69
474.625	131.69
474.844	123.69
475.063	122.69
475.282	124.69
475.501	109.69
475.72	117.69
475.939	128.69
476.158	123.69
476.377	114.69
476.596	117.69
476.814	134.69
477.033	102.69
477.252	121.69
477.471	132.69
477.69	120.69
477.908	122.69
478.127	128.69
478.346	121.69
478.564	138.69
478.783	125.69
479.002	137.69
479.22	117.69
479.439	120.69
479.658	124.69
479.876	117.69
480.095	136.69
480.313	133.69
480.532	138.69
480.751	131.69
480.969	135.69
481.188	119.69
481.406	136.69
481.624	131.69
481.843	132.69
482.061	124.69
482.28	132.69
482.498	122.69
482.717	135.69
482.935	130.69
483.153	121.69
483.372	126.69
483.59	134.69
483.808	126.69
484.027	127.69
484.245	138.69
484.463	131.69
484.681	126.69
484.9	132.69
485.118	125.69
485.336	120.69
485.554	116.69
485.772	124.69
485.99	132.69
486.209	123.69
486.427	125.69
486.645	130.69
486.863	117.69
487.081	136.69
487.299	142.69
487.517	122.69
487.735	124.69
487.953	133.69
488.171	130.69
488.389	143.69
488.607	128.69
488.825	120.69
489.043	147.69
489.261	125.69
489.479	136.69
489.696	130.69
489.914	133.69
490.132	135.69
490.35	136.69
490.568	130.69
490.786	127.69
491.003	140.69
491.221	146.69
491.439	134.69
491.657	136.69
491.874	147.69
492.092	151.69
492.31	138.69
492.527	128.69
492.745	129.69
492.963	141.69
493.18	156.69
493.398	140.69
493.615	133.69
493.833	126.69
494.05	150.69
494.268	136.69
494.485	148.69
494.703	133.69
494.92	132.69
495.138	150.69
495.355	150.69
495.573	129.69
495.79	132.69
496.008	147.69
496.225	135.69
496.442	147.69
496.66	141.69
496.877	149.69
497.094	154.69
497.312	131.69
497.529	140.69
497.746	157.69
497.963	151.69
498.181	155.69
498.398	156.69
498.615	158.69
498.832	157.69
499.049	166.69
499.267	182.69
499.484	170.69
499.701	168.69
499.918	188.69
500.135	189.69
500.352	196.69
500.569	194.69
500.786	222.69
501.003	210.69
501.22	197.69
501.437	187.69
501.654	172.69
501.871	183.69
502.088	175.69
502.305	150.69
502.522	156.69
502.739	160.69
502.956	150.69
503.172	141.69
503.389	139.69
503.606	154.69
503.823	136.69
504.04	141.69
504.256	149.69
504.473	139.69
504.69	142.69
504.907	148.69
505.123	136.69
505.34	133.69
505.557	138.69
505.773	140.69
505.99	130.69
506.207	138.69
506.423	140.69
