Data from 1968.PennyLincolnUp.Lamp.En5.5.200Scan.071719.P1._HRD10591_14-49-27-968.txt Node
Date: Thu Jul 18 14:49:27 EDT 2019
User: cochatt
Spectrometer: HR+D1059
Trigger mode: 1
Integration Time (sec): 1.000000E-1
Scans to average: 1
Electric dark correction enabled: true
Nonlinearity correction enabled: false
Boxcar width: 0
XAxis mode: Wavelengths
Number of Pixels in Spectrum: 2048
>>>>>Begin Spectral Data<<<<<
223.165	-19.31
223.4	-19.31
223.635	-19.31
223.869	-18.31
224.104	-20.31
224.338	-23.31
224.573	-11.31
224.808	-19.31
225.042	-0.31
225.277	5.69
225.511	-4.31
225.746	10.69
225.98	15.69
226.215	8.69
226.449	8.69
226.683	17.69
226.918	27.69
227.152	21.69
227.387	35.69
227.621	43.69
227.856	40.69
228.09	52.69
228.324	52.69
228.559	53.69
228.793	56.69
229.027	67.69
229.262	87.69
229.496	71.69
229.73	62.69
229.964	78.69
230.199	71.69
230.433	73.69
230.667	87.69
230.901	64.69
231.136	89.69
231.37	84.69
231.604	87.69
231.838	93.69
232.072	81.69
232.306	77.69
232.541	86.69
232.775	93.69
233.009	94.69
233.243	92.69
233.477	76.69
233.711	90.69
233.945	78.69
234.179	77.69
234.413	89.69
234.647	83.69
234.881	79.69
235.115	79.69
235.349	83.69
235.583	76.69
235.817	93.69
236.051	89.69
236.285	78.69
236.519	92.69
236.753	81.69
236.987	78.69
237.221	67.69
237.455	79.69
237.689	85.69
237.922	73.69
238.156	78.69
238.39	81.69
238.624	72.69
238.858	81.69
239.091	71.69
239.325	72.69
239.559	86.69
239.793	89.69
240.027	95.69
240.26	76.69
240.494	84.69
240.728	85.69
240.961	83.69
241.195	81.69
241.429	88.69
241.662	90.69
241.896	84.69
242.13	88.69
242.363	88.69
242.597	95.69
242.83	86.69
243.064	87.69
243.298	96.69
243.531	69.69
243.765	78.69
243.998	94.69
244.232	89.69
244.465	88.69
244.699	101.69
244.932	88.69
245.166	83.69
245.399	80.69
245.633	81.69
245.866	99.69
246.099	89.69
246.333	78.69
246.566	88.69
246.8	101.69
247.033	85.69
247.266	84.69
247.5	95.69
247.733	91.69
247.966	90.69
248.2	78.69
248.433	69.69
248.666	90.69
248.899	83.69
249.133	81.69
249.366	90.69
249.599	85.69
249.832	84.69
250.066	85.69
250.299	87.69
250.532	85.69
250.765	83.69
250.998	92.69
251.231	76.69
251.465	99.69
251.698	87.69
251.931	90.69
252.164	81.69
252.397	86.69
252.63	86.69
252.863	94.69
253.096	88.69
253.329	93.69
253.562	88.69
253.795	88.69
254.028	109.69
254.261	79.69
254.494	94.69
254.727	83.69
254.96	94.69
255.193	109.69
255.426	88.69
255.659	85.69
255.892	101.69
256.124	99.69
256.357	81.69
256.59	98.69
256.823	82.69
257.056	93.69
257.289	98.69
257.521	98.69
257.754	84.69
257.987	84.69
258.22	78.69
258.452	87.69
258.685	88.69
258.918	90.69
259.151	87.69
259.383	97.69
259.616	101.69
259.849	90.69
260.081	84.69
260.314	91.69
260.547	93.69
260.779	110.69
261.012	98.69
261.244	103.69
261.477	92.69
261.71	88.69
261.942	91.69
262.175	95.69
262.407	100.69
262.64	93.69
262.872	97.69
263.105	94.69
263.337	92.69
263.57	99.69
263.802	89.69
264.035	85.69
264.267	93.69
264.499	95.69
264.732	92.69
264.964	87.69
265.197	109.69
265.429	97.69
265.661	75.69
265.894	87.69
266.126	97.69
266.358	95.69
266.591	97.69
266.823	90.69
267.055	98.69
267.287	93.69
267.52	101.69
267.752	92.69
267.984	112.69
268.216	109.69
268.448	94.69
268.681	105.69
268.913	108.69
269.145	100.69
269.377	96.69
269.609	97.69
269.841	90.69
270.073	98.69
270.306	96.69
270.538	84.69
270.77	88.69
271.002	87.69
271.234	89.69
271.466	99.69
271.698	101.69
271.93	92.69
272.162	97.69
272.394	103.69
272.626	91.69
272.858	89.69
273.09	92.69
273.322	104.69
273.553	85.69
273.785	97.69
274.017	84.69
274.249	89.69
274.481	92.69
274.713	115.69
274.945	104.69
275.176	92.69
275.408	107.69
275.64	105.69
275.872	95.69
276.104	105.69
276.335	82.69
276.567	96.69
276.799	95.69
277.031	99.69
277.262	107.69
277.494	91.69
277.726	96.69
277.957	117.69
278.189	107.69
278.421	89.69
278.652	96.69
278.884	87.69
279.115	86.69
279.347	94.69
279.579	100.69
279.81	106.69
280.042	89.69
280.273	96.69
280.505	93.69
280.736	101.69
280.968	105.69
281.199	104.69
281.431	101.69
281.662	102.69
281.894	92.69
282.125	107.69
282.356	99.69
282.588	96.69
282.819	89.69
283.051	89.69
283.282	97.69
283.513	90.69
283.745	101.69
283.976	107.69
284.207	103.69
284.439	96.69
284.67	111.69
284.901	113.69
285.132	110.69
285.364	99.69
285.595	105.69
285.826	97.69
286.057	112.69
286.288	102.69
286.52	102.69
286.751	106.69
286.982	106.69
287.213	99.69
287.444	109.69
287.675	107.69
287.906	108.69
288.138	101.69
288.369	90.69
288.6	100.69
288.831	100.69
289.062	108.69
289.293	104.69
289.524	103.69
289.755	95.69
289.986	91.69
290.217	104.69
290.448	103.69
290.679	101.69
290.91	115.69
291.141	100.69
291.371	100.69
291.602	98.69
291.833	98.69
292.064	100.69
292.295	90.69
292.526	103.69
292.757	102.69
292.987	120.69
293.218	95.69
293.449	96.69
293.68	104.69
293.91	94.69
294.141	104.69
294.372	105.69
294.603	113.69
294.833	107.69
295.064	91.69
295.295	93.69
295.525	91.69
295.756	100.69
295.987	113.69
296.217	113.69
296.448	104.69
296.679	104.69
296.909	110.69
297.14	102.69
297.37	111.69
297.601	95.69
297.831	94.69
298.062	108.69
298.292	101.69
298.523	115.69
298.753	112.69
298.984	93.69
299.214	109.69
299.445	102.69
299.675	107.69
299.905	109.69
300.136	90.69
300.366	106.69
300.597	94.69
300.827	105.69
301.057	110.69
301.288	117.69
301.518	112.69
301.748	103.69
301.979	105.69
302.209	111.69
302.439	105.69
302.669	108.69
302.9	110.69
303.13	108.69
303.36	92.69
303.59	110.69
303.82	98.69
304.051	102.69
304.281	102.69
304.511	106.69
304.741	107.69
304.971	101.69
305.201	113.69
305.431	107.69
305.661	110.69
305.891	102.69
306.121	102.69
306.352	108.69
306.582	97.69
306.812	100.69
307.042	101.69
307.272	104.69
307.502	110.69
307.731	126.69
307.961	107.69
308.191	115.69
308.421	92.69
308.651	99.69
308.881	109.69
309.111	107.69
309.341	104.69
309.571	102.69
309.8	116.69
310.03	107.69
310.26	103.69
310.49	107.69
310.72	111.69
310.949	99.69
311.179	112.69
311.409	111.69
311.639	108.69
311.868	122.69
312.098	114.69
312.328	105.69
312.557	109.69
312.787	102.69
313.017	121.69
313.246	115.69
313.476	109.69
313.706	113.69
313.935	91.69
314.165	96.69
314.394	127.69
314.624	96.69
314.853	99.69
315.083	115.69
315.312	112.69
315.542	105.69
315.771	110.69
316.001	100.69
316.23	113.69
316.46	103.69
316.689	103.69
316.919	116.69
317.148	92.69
317.377	89.69
317.607	119.69
317.836	116.69
318.065	109.69
318.295	102.69
318.524	114.69
318.753	95.69
318.983	105.69
319.212	106.69
319.441	101.69
319.67	105.69
319.9	102.69
320.129	94.69
320.358	112.69
320.587	107.69
320.816	105.69
321.046	115.69
321.275	114.69
321.504	105.69
321.733	115.69
321.962	103.69
322.191	108.69
322.42	109.69
322.649	102.69
322.878	106.69
323.108	106.69
323.337	100.69
323.566	127.69
323.795	115.69
324.024	102.69
324.253	127.69
324.482	132.69
324.71	144.69
324.939	153.69
325.168	154.69
325.397	127.69
325.626	113.69
325.855	125.69
326.084	103.69
326.313	118.69
326.542	118.69
326.77	120.69
326.999	124.69
327.228	123.69
327.457	152.69
327.686	139.69
327.914	131.69
328.143	125.69
328.372	123.69
328.6	112.69
328.829	117.69
329.058	112.69
329.287	117.69
329.515	107.69
329.744	124.69
329.972	127.69
330.201	132.69
330.43	111.69
330.658	115.69
330.887	129.69
331.115	109.69
331.344	111.69
331.572	114.69
331.801	127.69
332.03	112.69
332.258	122.69
332.486	115.69
332.715	117.69
332.943	108.69
333.172	109.69
333.4	116.69
333.629	123.69
333.857	129.69
334.085	127.69
334.314	113.69
334.542	115.69
334.771	108.69
334.999	127.69
335.227	117.69
335.455	116.69
335.684	103.69
335.912	105.69
336.14	109.69
336.369	114.69
336.597	127.69
336.825	116.69
337.053	122.69
337.281	111.69
337.51	120.69
337.738	108.69
337.966	123.69
338.194	119.69
338.422	117.69
338.65	116.69
338.878	119.69
339.106	112.69
339.334	107.69
339.562	108.69
339.79	116.69
340.018	115.69
340.246	102.69
340.474	108.69
340.702	107.69
340.93	112.69
341.158	116.69
341.386	115.69
341.614	115.69
341.842	126.69
342.07	112.69
342.298	127.69
342.526	94.69
342.754	106.69
342.981	98.69
343.209	108.69
343.437	117.69
343.665	122.69
343.893	108.69
344.12	108.69
344.348	126.69
344.576	115.69
344.804	106.69
345.031	112.69
345.259	108.69
345.487	126.69
345.714	121.69
345.942	106.69
346.17	107.69
346.397	105.69
346.625	102.69
346.853	112.69
347.08	106.69
347.308	107.69
347.535	118.69
347.763	102.69
347.99	113.69
348.218	116.69
348.445	113.69
348.673	102.69
348.9	122.69
349.128	115.69
349.355	101.69
349.583	107.69
349.81	107.69
350.037	111.69
350.265	122.69
350.492	115.69
350.72	98.69
350.947	119.69
351.174	117.69
351.402	118.69
351.629	115.69
351.856	101.69
352.083	124.69
352.311	118.69
352.538	122.69
352.765	104.69
352.992	109.69
353.22	106.69
353.447	112.69
353.674	107.69
353.901	108.69
354.128	119.69
354.355	115.69
354.583	121.69
354.81	112.69
355.037	120.69
355.264	109.69
355.491	107.69
355.718	110.69
355.945	97.69
356.172	108.69
356.399	104.69
356.626	105.69
356.853	105.69
357.08	118.69
357.307	127.69
357.534	102.69
357.761	108.69
357.988	125.69
358.215	117.69
358.441	118.69
358.668	117.69
358.895	118.69
359.122	112.69
359.349	117.69
359.576	102.69
359.802	111.69
360.029	117.69
360.256	115.69
360.483	114.69
360.709	106.69
360.936	115.69
361.163	106.69
361.39	113.69
361.616	109.69
361.843	108.69
362.07	119.69
362.296	112.69
362.523	95.69
362.749	112.69
362.976	106.69
363.203	102.69
363.429	117.69
363.656	117.69
363.882	122.69
364.109	124.69
364.335	118.69
364.562	108.69
364.788	112.69
365.015	116.69
365.241	113.69
365.468	116.69
365.694	107.69
365.92	110.69
366.147	111.69
366.373	110.69
366.599	119.69
366.826	117.69
367.052	110.69
367.278	106.69
367.505	106.69
367.731	121.69
367.957	111.69
368.184	100.69
368.41	119.69
368.636	101.69
368.862	114.69
369.089	108.69
369.315	110.69
369.541	116.69
369.767	107.69
369.993	120.69
370.219	119.69
370.445	101.69
370.672	122.69
370.898	109.69
371.124	115.69
371.35	121.69
371.576	115.69
371.802	121.69
372.028	120.69
372.254	120.69
372.48	113.69
372.706	107.69
372.932	108.69
373.158	124.69
373.384	133.69
373.61	124.69
373.835	111.69
374.061	109.69
374.287	105.69
374.513	122.69
374.739	108.69
374.965	119.69
375.191	115.69
375.416	129.69
375.642	100.69
375.868	123.69
376.094	115.69
376.319	111.69
376.545	111.69
376.771	121.69
376.997	108.69
377.222	112.69
377.448	127.69
377.674	111.69
377.899	116.69
378.125	119.69
378.35	110.69
378.576	123.69
378.802	115.69
379.027	103.69
379.253	119.69
379.478	117.69
379.704	108.69
379.929	110.69
380.155	115.69
380.38	108.69
380.606	104.69
380.831	125.69
381.057	131.69
381.282	121.69
381.507	111.69
381.733	110.69
381.958	110.69
382.184	123.69
382.409	111.69
382.634	115.69
382.86	114.69
383.085	103.69
383.31	115.69
383.535	123.69
383.761	109.69
383.986	119.69
384.211	125.69
384.436	131.69
384.662	119.69
384.887	115.69
385.112	115.69
385.337	127.69
385.562	130.69
385.787	118.69
386.013	126.69
386.238	116.69
386.463	105.69
386.688	123.69
386.913	117.69
387.138	122.69
387.363	121.69
387.588	123.69
387.813	119.69
388.038	124.69
388.263	106.69
388.488	109.69
388.713	116.69
388.938	113.69
389.163	109.69
389.387	117.69
389.612	115.69
389.837	107.69
390.062	116.69
390.287	131.69
390.512	119.69
390.736	111.69
390.961	117.69
391.186	132.69
391.411	127.69
391.636	103.69
391.86	127.69
392.085	112.69
392.31	124.69
392.534	119.69
392.759	127.69
392.984	130.69
393.208	118.69
393.433	126.69
393.658	134.69
393.882	110.69
394.107	121.69
394.331	122.69
394.556	126.69
394.78	110.69
395.005	135.69
395.229	129.69
395.454	128.69
395.678	124.69
395.903	125.69
396.127	133.69
396.352	118.69
396.576	127.69
396.801	119.69
397.025	123.69
397.249	142.69
397.474	127.69
397.698	135.69
397.922	122.69
398.147	131.69
398.371	123.69
398.595	107.69
398.82	151.69
399.044	132.69
399.268	132.69
399.492	156.69
399.717	153.69
399.941	143.69
400.165	126.69
400.389	139.69
400.613	122.69
400.837	153.69
401.062	140.69
401.286	143.69
401.51	119.69
401.734	130.69
401.958	118.69
402.182	139.69
402.406	121.69
402.63	139.69
402.854	135.69
403.078	134.69
403.302	122.69
403.526	147.69
403.75	143.69
403.974	141.69
404.198	141.69
404.422	135.69
404.645	136.69
404.869	148.69
405.093	127.69
405.317	133.69
405.541	134.69
405.765	135.69
405.988	123.69
406.212	133.69
406.436	126.69
406.66	137.69
406.883	128.69
407.107	125.69
407.331	136.69
407.555	142.69
407.778	143.69
408.002	153.69
408.226	152.69
408.449	147.69
408.673	133.69
408.896	137.69
409.12	141.69
409.344	123.69
409.567	137.69
409.791	135.69
410.014	115.69
410.238	128.69
410.461	110.69
410.685	117.69
410.908	127.69
411.132	144.69
411.355	131.69
411.578	141.69
411.802	128.69
412.025	124.69
412.249	123.69
412.472	138.69
412.695	141.69
412.919	142.69
413.142	130.69
413.365	127.69
413.589	133.69
413.812	123.69
414.035	129.69
414.258	122.69
414.482	109.69
414.705	151.69
414.928	128.69
415.151	140.69
415.374	124.69
415.597	133.69
415.821	120.69
416.044	107.69
416.267	126.69
416.49	128.69
416.713	128.69
416.936	127.69
417.159	126.69
417.382	126.69
417.605	140.69
417.828	127.69
418.051	109.69
418.274	135.69
418.497	130.69
418.72	143.69
418.943	139.69
419.166	150.69
419.389	124.69
419.611	145.69
419.834	135.69
420.057	144.69
420.28	120.69
420.503	116.69
420.726	119.69
420.948	121.69
421.171	135.69
421.394	136.69
421.617	121.69
421.839	128.69
422.062	139.69
422.285	119.69
422.507	121.69
422.73	144.69
422.953	133.69
423.175	122.69
423.398	139.69
423.621	146.69
423.843	136.69
424.066	138.69
424.288	140.69
424.511	122.69
424.733	133.69
424.956	141.69
425.178	148.69
425.401	164.69
425.623	151.69
425.846	133.69
426.068	117.69
426.291	130.69
426.513	121.69
426.735	139.69
426.958	137.69
427.18	140.69
427.402	139.69
427.625	140.69
427.847	124.69
428.069	109.69
428.292	130.69
428.514	138.69
428.736	129.69
428.958	120.69
429.181	133.69
429.403	133.69
429.625	129.69
429.847	126.69
430.069	118.69
430.292	133.69
430.514	119.69
430.736	128.69
430.958	126.69
431.18	135.69
431.402	109.69
431.624	128.69
431.846	98.69
432.068	121.69
432.29	129.69
432.512	142.69
432.734	106.69
432.956	124.69
433.178	123.69
433.4	118.69
433.622	135.69
433.844	114.69
434.066	137.69
434.287	128.69
434.509	134.69
434.731	129.69
434.953	136.69
435.175	123.69
435.397	131.69
435.618	125.69
435.84	135.69
436.062	135.69
436.284	133.69
436.505	117.69
436.727	122.69
436.949	126.69
437.17	128.69
437.392	110.69
437.614	133.69
437.835	128.69
438.057	127.69
438.278	124.69
438.5	125.69
438.721	136.69
438.943	121.69
439.165	119.69
439.386	124.69
439.608	135.69
439.829	143.69
440.05	139.69
440.272	128.69
440.493	121.69
440.715	129.69
440.936	124.69
441.158	139.69
441.379	129.69
441.6	139.69
441.822	149.69
442.043	129.69
442.264	156.69
442.486	140.69
442.707	143.69
442.928	141.69
443.149	126.69
443.371	137.69
443.592	127.69
443.813	129.69
444.034	136.69
444.255	133.69
444.476	145.69
444.698	131.69
444.919	142.69
445.14	270.69
445.361	198.69
445.582	136.69
445.803	148.69
446.024	133.69
446.245	136.69
446.466	141.69
446.687	131.69
446.908	127.69
447.129	117.69
447.35	129.69
447.571	126.69
447.792	125.69
448.013	127.69
448.234	136.69
448.455	135.69
448.675	129.69
448.896	143.69
449.117	129.69
449.338	125.69
449.559	128.69
449.779	149.69
450	141.69
450.221	127.69
450.442	119.69
450.662	135.69
450.883	127.69
451.104	108.69
451.324	119.69
451.545	116.69
451.766	133.69
451.986	118.69
452.207	122.69
452.428	124.69
452.648	127.69
452.869	116.69
453.089	128.69
453.31	110.69
453.53	125.69
453.751	120.69
453.971	123.69
454.192	127.69
454.412	132.69
454.633	124.69
454.853	122.69
455.073	132.69
455.294	133.69
455.514	135.69
455.734	131.69
455.955	128.69
456.175	114.69
456.395	127.69
456.616	128.69
456.836	118.69
457.056	128.69
457.276	108.69
457.497	119.69
457.717	102.69
457.937	110.69
458.157	127.69
458.377	120.69
458.598	116.69
458.818	129.69
459.038	132.69
459.258	129.69
459.478	129.69
459.698	115.69
459.918	129.69
460.138	133.69
460.358	129.69
460.578	125.69
460.798	131.69
461.018	128.69
461.238	120.69
461.458	132.69
461.678	128.69
461.898	132.69
462.118	126.69
462.338	121.69
462.558	133.69
462.777	127.69
462.997	123.69
463.217	147.69
463.437	152.69
463.657	141.69
463.876	136.69
464.096	142.69
464.316	123.69
464.536	137.69
464.755	135.69
464.975	125.69
465.195	135.69
465.414	132.69
465.634	122.69
465.854	125.69
466.073	122.69
466.293	123.69
466.512	131.69
466.732	115.69
466.951	106.69
467.171	131.69
467.391	120.69
467.61	122.69
467.829	135.69
468.049	130.69
468.268	137.69
468.488	125.69
468.707	111.69
468.927	131.69
469.146	133.69
469.365	124.69
469.585	132.69
469.804	128.69
470.023	135.69
470.243	116.69
470.462	125.69
470.681	107.69
470.901	133.69
471.12	113.69
471.339	142.69
471.558	128.69
471.777	137.69
471.997	124.69
472.216	118.69
472.435	121.69
472.654	143.69
472.873	128.69
473.092	134.69
473.311	124.69
473.53	118.69
473.749	113.69
473.968	135.69
474.187	126.69
474.406	128.69
474.625	125.69
474.844	129.69
475.063	124.69
475.282	127.69
475.501	130.69
475.72	131.69
475.939	111.69
476.158	129.69
476.377	115.69
476.596	116.69
476.814	127.69
477.033	124.69
477.252	118.69
477.471	118.69
477.69	129.69
477.908	121.69
478.127	136.69
478.346	137.69
478.564	126.69
478.783	130.69
479.002	127.69
479.22	123.69
479.439	128.69
479.658	125.69
479.876	125.69
480.095	125.69
480.313	138.69
480.532	139.69
480.751	135.69
480.969	149.69
481.188	141.69
481.406	137.69
481.624	129.69
481.843	128.69
482.061	139.69
482.28	133.69
482.498	129.69
482.717	124.69
482.935	126.69
483.153	124.69
483.372	134.69
483.59	128.69
483.808	136.69
484.027	143.69
484.245	119.69
484.463	135.69
484.681	144.69
484.9	143.69
485.118	136.69
485.336	138.69
485.554	141.69
485.772	138.69
485.99	120.69
486.209	135.69
486.427	117.69
486.645	127.69
486.863	144.69
487.081	141.69
487.299	129.69
487.517	131.69
487.735	139.69
487.953	155.69
488.171	142.69
488.389	139.69
488.607	146.69
488.825	142.69
489.043	127.69
489.261	134.69
489.479	127.69
489.696	149.69
489.914	133.69
490.132	122.69
490.35	128.69
490.568	132.69
490.786	140.69
491.003	145.69
491.221	146.69
491.439	131.69
491.657	149.69
491.874	147.69
492.092	140.69
492.31	148.69
492.527	156.69
492.745	153.69
492.963	140.69
493.18	167.69
493.398	164.69
493.615	130.69
493.833	135.69
494.05	152.69
494.268	136.69
494.485	140.69
494.703	154.69
494.92	143.69
495.138	143.69
495.355	145.69
495.573	155.69
495.79	148.69
496.008	153.69
496.225	143.69
496.442	145.69
496.66	152.69
496.877	124.69
497.094	164.69
497.312	147.69
497.529	148.69
497.746	151.69
497.963	171.69
498.181	134.69
498.398	157.69
498.615	157.69
498.832	173.69
499.049	158.69
499.267	163.69
499.484	163.69
499.701	201.69
499.918	186.69
500.135	207.69
500.352	210.69
500.569	204.69
500.786	204.69
501.003	225.69
501.22	194.69
501.437	187.69
501.654	184.69
501.871	167.69
502.088	160.69
502.305	174.69
502.522	155.69
502.739	160.69
502.956	153.69
503.172	147.69
503.389	142.69
503.606	158.69
503.823	156.69
504.04	142.69
504.256	139.69
504.473	145.69
504.69	155.69
504.907	148.69
505.123	153.69
505.34	139.69
