Data from 1968.PennyLincolnUp.Lamp.En5.5.200Scan.071719.P1._HRD10591_14-49-19-969.txt Node
Date: Thu Jul 18 14:49:19 EDT 2019
User: cochatt
Spectrometer: HR+D1059
Trigger mode: 1
Integration Time (sec): 1.000000E-1
Scans to average: 1
Electric dark correction enabled: true
Nonlinearity correction enabled: false
Boxcar width: 0
XAxis mode: Wavelengths
Number of Pixels in Spectrum: 2048
>>>>>Begin Spectral Data<<<<<
223.165	-15
223.4	-15
223.635	-15
223.869	-18
224.104	-11
224.338	-14
224.573	-15
224.808	-11
225.042	-18
225.277	-3
225.511	2
225.746	-7
225.98	-3
226.215	17
226.449	22
226.683	8
226.918	31
227.152	35
227.387	30
227.621	39
227.856	30
228.09	45
228.324	34
228.559	65
228.793	58
229.027	69
229.262	69
229.496	65
229.73	67
229.964	92
230.199	85
230.433	82
230.667	85
230.901	73
231.136	72
231.37	74
231.604	63
231.838	86
232.072	95
232.306	90
232.541	92
232.775	83
233.009	73
233.243	85
233.477	88
233.711	97
233.945	92
234.179	93
234.413	96
234.647	78
234.881	83
235.115	77
235.349	85
235.583	92
235.817	90
236.051	89
236.285	89
236.519	91
236.753	79
236.987	86
237.221	82
237.455	78
237.689	89
237.922	80
238.156	77
238.39	79
238.624	85
238.858	87
239.091	89
239.325	85
239.559	82
239.793	82
240.027	78
240.26	69
240.494	91
240.728	84
240.961	78
241.195	79
241.429	82
241.662	87
241.896	97
242.13	72
242.363	95
242.597	99
242.83	99
243.064	82
243.298	99
243.531	79
243.765	82
243.998	81
244.232	84
244.465	80
244.699	83
244.932	73
245.166	74
245.399	96
245.633	100
245.866	97
246.099	85
246.333	71
246.566	78
246.8	73
247.033	80
247.266	98
247.5	90
247.733	74
247.966	91
248.2	97
248.433	86
248.666	95
248.899	78
249.133	88
249.366	92
249.599	77
249.832	87
250.066	102
250.299	78
250.532	97
250.765	95
250.998	86
251.231	84
251.465	84
251.698	99
251.931	92
252.164	107
252.397	105
252.63	77
252.863	92
253.096	87
253.329	104
253.562	82
253.795	105
254.028	98
254.261	94
254.494	98
254.727	98
254.96	92
255.193	90
255.426	92
255.659	103
255.892	103
256.124	79
256.357	96
256.59	105
256.823	98
257.056	78
257.289	90
257.521	106
257.754	97
257.987	92
258.22	83
258.452	99
258.685	95
258.918	104
259.151	104
259.383	98
259.616	92
259.849	94
260.081	118
260.314	82
260.547	88
260.779	87
261.012	82
261.244	108
261.477	98
261.71	91
261.942	110
262.175	92
262.407	88
262.64	79
262.872	99
263.105	98
263.337	93
263.57	97
263.802	100
264.035	93
264.267	91
264.499	90
264.732	98
264.964	80
265.197	90
265.429	103
265.661	93
265.894	87
266.126	94
266.358	80
266.591	82
266.823	98
267.055	98
267.287	106
267.52	82
267.752	79
267.984	101
268.216	112
268.448	95
268.681	99
268.913	98
269.145	91
269.377	85
269.609	107
269.841	109
270.073	94
270.306	98
270.538	88
270.77	105
271.002	108
271.234	106
271.466	102
271.698	100
271.93	98
272.162	99
272.394	104
272.626	108
272.858	99
273.09	88
273.322	83
273.553	101
273.785	83
274.017	95
274.249	107
274.481	101
274.713	89
274.945	89
275.176	91
275.408	103
275.64	104
275.872	93
276.104	104
276.335	103
276.567	90
276.799	114
277.031	98
277.262	111
277.494	101
277.726	91
277.957	107
278.189	106
278.421	107
278.652	103
278.884	105
279.115	100
279.347	105
279.579	103
279.81	101
280.042	99
280.273	106
280.505	95
280.736	94
280.968	95
281.199	94
281.431	113
281.662	101
281.894	103
282.125	101
282.356	94
282.588	110
282.819	109
283.051	95
283.282	105
283.513	110
283.745	110
283.976	103
284.207	102
284.439	109
284.67	102
284.901	97
285.132	104
285.364	101
285.595	110
285.826	117
286.057	111
286.288	104
286.52	109
286.751	113
286.982	89
287.213	103
287.444	96
287.675	107
287.906	115
288.138	112
288.369	110
288.6	111
288.831	125
289.062	99
289.293	108
289.524	106
289.755	98
289.986	85
290.217	93
290.448	105
290.679	111
290.91	100
291.141	101
291.371	105
291.602	95
291.833	108
292.064	113
292.295	98
292.526	111
292.757	100
292.987	117
293.218	111
293.449	110
293.68	97
293.91	104
294.141	103
294.372	109
294.603	109
294.833	103
295.064	112
295.295	111
295.525	121
295.756	99
295.987	108
296.217	103
296.448	118
296.679	113
296.909	101
297.14	109
297.37	105
297.601	112
297.831	108
298.062	109
298.292	123
298.523	92
298.753	109
298.984	104
299.214	111
299.445	106
299.675	109
299.905	108
300.136	113
300.366	112
300.597	124
300.827	95
301.057	113
301.288	112
301.518	98
301.748	109
301.979	110
302.209	113
302.439	109
302.669	101
302.9	120
303.13	88
303.36	123
303.59	106
303.82	107
304.051	116
304.281	107
304.511	112
304.741	93
304.971	108
305.201	121
305.431	114
305.661	114
305.891	99
306.121	97
306.352	99
306.582	114
306.812	113
307.042	108
307.272	103
307.502	118
307.731	110
307.961	90
308.191	106
308.421	106
308.651	99
308.881	97
309.111	106
309.341	104
309.571	92
309.8	103
310.03	107
310.26	105
310.49	114
310.72	103
310.949	121
311.179	112
311.409	106
311.639	100
311.868	118
312.098	109
312.328	102
312.557	122
312.787	105
313.017	120
313.246	94
313.476	120
313.706	110
313.935	123
314.165	102
314.394	113
314.624	105
314.853	113
315.083	125
315.312	113
315.542	116
315.771	114
316.001	111
316.23	106
316.46	108
316.689	131
316.919	109
317.148	112
317.377	106
317.607	111
317.836	107
318.065	112
318.295	103
318.524	122
318.753	97
318.983	127
319.212	113
319.441	107
319.67	112
319.9	110
320.129	119
320.358	121
320.587	117
320.816	121
321.046	123
321.275	106
321.504	128
321.733	121
321.962	107
322.191	126
322.42	115
322.649	113
322.878	112
323.108	127
323.337	107
323.566	123
323.795	112
324.024	109
324.253	115
324.482	122
324.71	134
324.939	159
325.168	161
325.397	120
325.626	112
325.855	115
326.084	115
326.313	102
326.542	107
326.77	119
326.999	128
327.228	129
327.457	146
327.686	139
327.914	139
328.143	126
328.372	120
328.6	112
328.829	115
329.058	120
329.287	120
329.515	108
329.744	109
329.972	128
330.201	119
330.43	121
330.658	114
330.887	123
331.115	110
331.344	117
331.572	115
331.801	113
332.03	122
332.258	128
332.486	119
332.715	117
332.943	128
333.172	127
333.4	140
333.629	123
333.857	123
334.085	115
334.314	128
334.542	123
334.771	125
334.999	120
335.227	128
335.455	121
335.684	126
335.912	131
336.14	124
336.369	115
336.597	111
336.825	120
337.053	116
337.281	120
337.51	107
337.738	111
337.966	123
338.194	115
338.422	125
338.65	129
338.878	113
339.106	123
339.334	113
339.562	117
339.79	117
340.018	95
340.246	107
340.474	113
340.702	118
340.93	115
341.158	130
341.386	115
341.614	112
341.842	122
342.07	113
342.298	137
342.526	109
342.754	121
342.981	118
343.209	129
343.437	112
343.665	128
343.893	121
344.12	118
344.348	129
344.576	95
344.804	112
345.031	123
345.259	119
345.487	112
345.714	111
345.942	118
346.17	114
346.397	108
346.625	113
346.853	101
347.08	101
347.308	118
347.535	117
347.763	111
347.99	112
348.218	103
348.445	119
348.673	106
348.9	116
349.128	124
349.355	122
349.583	114
349.81	110
350.037	125
350.265	131
350.492	114
350.72	106
350.947	121
351.174	107
351.402	129
351.629	117
351.856	114
352.083	101
352.311	102
352.538	114
352.765	122
352.992	109
353.22	119
353.447	118
353.674	114
353.901	109
354.128	109
354.355	122
354.583	111
354.81	114
355.037	129
355.264	121
355.491	115
355.718	113
355.945	103
356.172	112
356.399	108
356.626	109
356.853	123
357.08	119
357.307	123
357.534	106
357.761	113
357.988	122
358.215	118
358.441	111
358.668	111
358.895	118
359.122	121
359.349	130
359.576	118
359.802	121
360.029	112
360.256	106
360.483	103
360.709	116
360.936	110
361.163	115
361.39	115
361.616	124
361.843	109
362.07	112
362.296	120
362.523	128
362.749	106
362.976	103
363.203	109
363.429	117
363.656	103
363.882	110
364.109	121
364.335	123
364.562	113
364.788	118
365.015	117
365.241	104
365.468	120
365.694	104
365.92	135
366.147	97
366.373	109
366.599	117
366.826	115
367.052	120
367.278	109
367.505	117
367.731	114
367.957	106
368.184	118
368.41	118
368.636	109
368.862	112
369.089	95
369.315	108
369.541	107
369.767	113
369.993	115
370.219	108
370.445	113
370.672	112
370.898	118
371.124	116
371.35	118
371.576	111
371.802	102
372.028	113
372.254	127
372.48	124
372.706	121
372.932	123
373.158	122
373.384	115
373.61	131
373.835	117
374.061	109
374.287	121
374.513	121
374.739	116
374.965	122
375.191	130
375.416	122
375.642	127
375.868	122
376.094	112
376.319	101
376.545	109
376.771	120
376.997	129
377.222	108
377.448	111
377.674	115
377.899	109
378.125	119
378.35	118
378.576	110
378.802	115
379.027	116
379.253	118
379.478	117
379.704	112
379.929	131
380.155	128
380.38	123
380.606	120
380.831	123
381.057	113
381.282	130
381.507	119
381.733	114
381.958	119
382.184	114
382.409	105
382.634	129
382.86	124
383.085	134
383.31	119
383.535	121
383.761	125
383.986	125
384.211	117
384.436	101
384.662	125
384.887	129
385.112	119
385.337	124
385.562	126
385.787	127
386.013	110
386.238	121
386.463	125
386.688	128
386.913	129
387.138	104
387.363	113
387.588	121
387.813	122
388.038	121
388.263	125
388.488	121
388.713	103
388.938	128
389.163	127
389.387	99
389.612	117
389.837	115
390.062	129
390.287	125
390.512	124
390.736	131
390.961	110
391.186	124
391.411	131
391.636	137
391.86	133
392.085	135
392.31	121
392.534	122
392.759	121
392.984	129
393.208	138
393.433	114
393.658	122
393.882	127
394.107	133
394.331	113
394.556	107
394.78	113
395.005	120
395.229	119
395.454	118
395.678	143
395.903	137
396.127	141
396.352	105
396.576	129
396.801	125
397.025	123
397.249	128
397.474	134
397.698	139
397.922	118
398.147	129
398.371	127
398.595	127
398.82	133
399.044	143
399.268	153
399.492	165
399.717	161
399.941	149
400.165	157
400.389	137
400.613	136
400.837	135
401.062	143
401.286	135
401.51	142
401.734	137
401.958	129
402.182	120
402.406	122
402.63	122
402.854	148
403.078	135
403.302	121
403.526	135
403.75	138
403.974	130
404.198	126
404.422	130
404.645	145
404.869	135
405.093	129
405.317	127
405.541	148
405.765	133
405.988	141
406.212	132
406.436	136
406.66	146
406.883	137
407.107	130
407.331	143
407.555	136
407.778	139
408.002	143
408.226	138
408.449	139
408.673	139
408.896	136
409.12	148
409.344	129
409.567	119
409.791	137
410.014	137
410.238	137
410.461	150
410.685	139
410.908	127
411.132	136
411.355	143
411.578	119
411.802	143
412.025	133
412.249	126
412.472	128
412.695	125
412.919	128
413.142	139
413.365	135
413.589	116
413.812	141
414.035	129
414.258	128
414.482	125
414.705	125
414.928	148
415.151	125
415.374	128
415.597	130
415.821	123
416.044	112
416.267	124
416.49	128
416.713	123
416.936	127
417.159	149
417.382	126
417.605	141
417.828	136
418.051	122
418.274	137
418.497	135
418.72	111
418.943	134
419.166	143
419.389	138
419.611	135
419.834	133
420.057	137
420.28	126
420.503	126
420.726	128
420.948	139
421.171	141
421.394	124
421.617	138
421.839	122
422.062	121
422.285	126
422.507	130
422.73	141
422.953	146
423.175	130
423.398	128
423.621	131
423.843	140
424.066	148
424.288	121
424.511	133
424.733	133
424.956	151
425.178	151
425.401	153
425.623	144
425.846	137
426.068	136
426.291	135
426.513	140
426.735	139
426.958	131
427.18	135
427.402	137
427.625	156
427.847	152
428.069	131
428.292	109
428.514	122
428.736	133
428.958	125
429.181	118
429.403	135
429.625	129
429.847	142
430.069	133
430.292	126
430.514	135
430.736	126
430.958	137
431.18	136
431.402	127
431.624	136
431.846	131
432.068	115
432.29	130
432.512	139
432.734	127
432.956	123
433.178	111
433.4	138
433.622	129
433.844	128
434.066	131
434.287	125
434.509	126
434.731	131
434.953	130
435.175	133
435.397	123
435.618	134
435.84	126
436.062	140
436.284	145
436.505	125
436.727	137
436.949	128
437.17	122
437.392	123
437.614	136
437.835	133
438.057	138
438.278	130
438.5	129
438.721	140
438.943	140
439.165	135
439.386	127
439.608	127
439.829	134
440.05	126
440.272	159
440.493	141
440.715	129
440.936	137
441.158	135
441.379	141
441.6	139
441.822	151
442.043	135
442.264	133
442.486	132
442.707	131
442.928	138
443.149	127
443.371	129
443.592	136
443.813	146
444.034	154
444.255	142
444.476	146
444.698	135
444.919	154
445.14	275
445.361	199
445.582	156
445.803	131
446.024	142
446.245	153
446.466	112
446.687	119
446.908	133
447.129	128
447.35	131
447.571	139
447.792	123
448.013	128
448.234	123
448.455	125
448.675	143
448.896	142
449.117	144
449.338	127
449.559	122
449.779	143
450	130
450.221	145
450.442	128
450.662	129
450.883	135
451.104	111
451.324	125
451.545	124
451.766	121
451.986	118
452.207	125
452.428	114
452.648	131
452.869	126
453.089	128
453.31	126
453.53	120
453.751	117
453.971	117
454.192	108
454.412	114
454.633	126
454.853	121
455.073	126
455.294	127
455.514	121
455.734	118
455.955	123
456.175	123
456.395	121
456.616	118
456.836	120
457.056	131
457.276	119
457.497	125
457.717	113
457.937	117
458.157	121
458.377	128
458.598	127
458.818	131
459.038	125
459.258	141
459.478	130
459.698	126
459.918	114
460.138	139
460.358	135
460.578	132
460.798	123
461.018	148
461.238	143
461.458	118
461.678	127
461.898	121
462.118	133
462.338	147
462.558	136
462.777	139
462.997	131
463.217	147
463.437	150
463.657	136
463.876	135
464.096	143
464.316	123
464.536	124
464.755	144
464.975	129
465.195	145
465.414	144
465.634	128
465.854	121
466.073	116
466.293	105
466.512	114
466.732	114
466.951	132
467.171	129
467.391	136
467.61	135
467.829	119
468.049	141
468.268	129
468.488	132
468.707	117
468.927	111
469.146	137
469.365	123
469.585	124
469.804	114
470.023	131
470.243	123
470.462	142
470.681	135
470.901	134
471.12	129
471.339	139
471.558	132
471.777	119
471.997	130
472.216	139
472.435	134
472.654	128
472.873	122
473.092	131
473.311	121
473.53	129
473.749	123
473.968	122
474.187	128
474.406	131
474.625	127
474.844	126
475.063	116
475.282	119
475.501	129
475.72	117
475.939	125
476.158	146
476.377	127
476.596	121
476.814	139
477.033	112
477.252	128
477.471	124
477.69	136
477.908	129
478.127	130
478.346	127
478.564	137
478.783	131
479.002	147
479.22	130
479.439	128
479.658	131
479.876	143
480.095	137
480.313	135
480.532	137
480.751	138
480.969	142
481.188	139
481.406	130
481.624	129
481.843	123
482.061	121
482.28	138
482.498	136
482.717	130
482.935	145
483.153	129
483.372	108
483.59	126
483.808	139
484.027	129
484.245	119
484.463	124
484.681	137
484.9	141
485.118	129
485.336	137
485.554	125
485.772	133
485.99	137
486.209	125
486.427	145
486.645	138
486.863	127
487.081	152
487.299	146
487.517	143
487.735	145
487.953	148
488.171	141
488.389	143
488.607	133
488.825	123
489.043	129
489.261	121
489.479	138
489.696	135
489.914	145
490.132	148
490.35	138
490.568	142
490.786	137
491.003	140
491.221	155
491.439	143
491.657	146
491.874	141
492.092	156
492.31	155
492.527	163
492.745	147
492.963	153
493.18	132
493.398	151
493.615	159
493.833	151
494.05	148
494.268	141
494.485	157
494.703	155
494.92	153
495.138	152
495.355	160
495.573	145
495.79	149
496.008	145
496.225	139
496.442	146
496.66	152
496.877	141
497.094	151
497.312	161
497.529	159
497.746	171
497.963	145
498.181	160
498.398	153
498.615	155
498.832	152
499.049	163
499.267	170
499.484	182
499.701	182
499.918	186
500.135	212
500.352	223
500.569	216
500.786	217
501.003	210
501.22	210
501.437	194
501.654	185
501.871	179
502.088	169
502.305	181
502.522	160
502.739	149
502.956	157
503.172	143
503.389	160
503.606	149
503.823	146
504.04	159
504.256	149
504.473	142
504.69	148
504.907	135
505.123	145
505.34	141
505.557	142
505.773	153
505.99	141
506.207	122
506.423	125
506.64	147
506.856	134
507.073	146
507.289	143
507.506	126
507.722	140
507.939	123
508.155	132
508.372	129
508.588	134
508.805	127
509.021	129
509.238	139
509.454	134
509.67	135
509.887	123
510.103	135
510.319	130
510.536	139
510.752	147
510.968	141
511.184	135
511.401	133
511.617	125
511.833	128
512.049	109
512.265	122
512.481	128
512.698	134
512.914	137
513.13	130
513.346	135
513.562	128
513.778	113
513.994	135
514.21	133
514.426	138
514.642	138
514.858	136
515.074	144
515.29	137
515.506	144
515.721	135
515.937	143
516.153	129
516.369	131
516.585	142
516.801	139
517.016	149
517.232	147
517.448	137
517.664	156
517.879	149
518.095	161
518.311	148
518.527	150
518.742	136
518.958	137
519.173	147
519.389	134
519.605	139
519.82	139
520.036	135
520.251	153
520.467	149
520.682	123
520.898	152
521.113	126
521.329	120
521.544	130
521.76	138
521.975	159
522.19	159
522.406	126
522.621	126
522.836	125
523.052	123
523.267	139
523.482	124
523.698	133
523.913	120
524.128	144
524.343	113
524.559	121
524.774	122
524.989	121
525.204	118
525.419	142
525.634	120
525.849	122
526.064	113
526.28	127
526.495	122
526.71	123
526.925	129
527.14	123
527.355	130
527.57	122
527.785	137
527.999	121
528.214	128
528.429	126
528.644	124
528.859	133
529.074	125
529.289	118
529.503	136
529.718	122
529.933	149
530.148	124
530.363	127
530.577	124
530.792	133
531.007	122
531.221	119
531.436	118
531.651	125
531.865	121
532.08	124
532.295	119
532.509	123
532.724	111
532.938	130
533.153	131
533.367	137
533.582	128
533.796	125
534.011	117
534.225	125
534.44	135
534.654	134
534.868	124
535.083	121
535.297	113
535.511	104
535.726	132
535.94	122
536.154	139
536.369	129
536.583	113
536.797	130
537.011	142
537.225	117
537.44	106
537.654	115
537.868	129
538.082	120
538.296	135
538.51	126
538.724	129
538.938	128
539.153	129
539.367	128
539.581	104
539.795	121
540.009	127
540.222	107
540.436	133
540.65	128
540.864	121
541.078	139
541.292	123
541.506	138
541.72	121
541.934	127
542.147	137
542.361	142
542.575	145
542.789	146
543.002	125
543.216	131
543.43	129
543.644	147
543.857	146
544.071	161
544.285	153
544.498	148
544.712	133
544.925	134
545.139	149
545.352	142
545.566	137
545.779	130
545.993	137
546.206	141
546.42	137
546.633	130
546.847	134
547.06	119
547.274	129
547.487	131
547.7	133
547.914	146
548.127	129
548.34	125
548.554	129
548.767	138
548.98	137
549.193	131
549.407	125
549.62	119
549.833	145
550.046	138
550.259	125
550.473	131
550.686	141
550.899	140
551.112	138
551.325	129
551.538	130
551.751	110
551.964	139
552.177	128
552.39	141
552.603	137
552.816	137
553.029	118
553.242	133
553.455	128
553.667	137
553.88	138
554.093	155
554.306	123
554.519	126
554.732	142
554.944	122
555.157	109
555.37	126
555.583	137
555.795	130
556.008	109
556.221	131
556.433	135
556.646	129
556.859	133
557.071	114
557.284	120
557.496	117
557.709	134
557.921	112
558.134	127
558.346	126
558.559	122
558.771	117
558.984	126
559.196	133
559.409	128
559.621	121
559.833	119
560.046	124
560.258	124
560.47	130
560.683	127
560.895	115
561.107	123
561.32	114
561.532	119
561.744	114
561.956	125
562.168	114
562.381	119
562.593	128
562.805	122
563.017	117
563.229	108
563.441	120
563.653	127
563.865	127
564.077	122
564.289	125
564.501	122
564.713	125
564.925	104
565.137	133
565.349	124
565.561	121
565.773	128
565.985	135
566.197	133
566.408	126
566.62	135
566.832	137
567.044	141
