Data from 1968.PennyLincolnUp.Lamp.En5.5.200Scan.071719.P1._HRD10591_14-51-19-969.txt Node
Date: Thu Jul 18 14:51:19 EDT 2019
User: cochatt
Spectrometer: HR+D1059
Trigger mode: 1
Integration Time (sec): 1.000000E-1
Scans to average: 1
Electric dark correction enabled: true
Nonlinearity correction enabled: false
Boxcar width: 0
XAxis mode: Wavelengths
Number of Pixels in Spectrum: 2048
>>>>>Begin Spectral Data<<<<<
223.165	-16
223.4	-16
223.635	-16
223.869	-18
224.104	-23
224.338	-9
224.573	-16
224.808	-6
225.042	-11
225.277	-9
225.511	9
225.746	3
225.98	12
226.215	16
226.449	13
226.683	21
226.918	26
227.152	8
227.387	36
227.621	34
227.856	30
228.09	34
228.324	40
228.559	58
228.793	68
229.027	64
229.262	53
229.496	59
229.73	63
229.964	70
230.199	76
230.433	70
230.667	86
230.901	74
231.136	68
231.37	77
231.604	79
231.838	87
232.072	82
232.306	89
232.541	68
232.775	100
233.009	87
233.243	76
233.477	90
233.711	83
233.945	78
234.179	90
234.413	97
234.647	87
234.881	81
235.115	67
235.349	84
235.583	81
235.817	78
236.051	78
236.285	85
236.519	80
236.753	86
236.987	89
237.221	84
237.455	83
237.689	93
237.922	87
238.156	82
238.39	66
238.624	64
238.858	67
239.091	72
239.325	87
239.559	64
239.793	100
240.027	71
240.26	83
240.494	84
240.728	70
240.961	82
241.195	77
241.429	74
241.662	77
241.896	101
242.13	84
242.363	73
242.597	86
242.83	87
243.064	79
243.298	77
243.531	85
243.765	81
243.998	91
244.232	71
244.465	76
244.699	93
244.932	72
245.166	95
245.399	72
245.633	76
245.866	86
246.099	89
246.333	92
246.566	91
246.8	74
247.033	90
247.266	85
247.5	92
247.733	86
247.966	84
248.2	75
248.433	86
248.666	79
248.899	84
249.133	97
249.366	81
249.599	98
249.832	87
250.066	100
250.299	91
250.532	78
250.765	95
250.998	79
251.231	88
251.465	79
251.698	83
251.931	95
252.164	90
252.397	84
252.63	83
252.863	87
253.096	84
253.329	101
253.562	95
253.795	95
254.028	88
254.261	94
254.494	93
254.727	100
254.96	93
255.193	98
255.426	86
255.659	80
255.892	95
256.124	74
256.357	84
256.59	95
256.823	73
257.056	89
257.289	88
257.521	100
257.754	86
257.987	82
258.22	91
258.452	88
258.685	77
258.918	83
259.151	88
259.383	79
259.616	75
259.849	86
260.081	92
260.314	81
260.547	102
260.779	96
261.012	96
261.244	89
261.477	91
261.71	83
261.942	75
262.175	88
262.407	86
262.64	80
262.872	83
263.105	92
263.337	91
263.57	86
263.802	98
264.035	83
264.267	99
264.499	85
264.732	92
264.964	94
265.197	88
265.429	95
265.661	97
265.894	94
266.126	102
266.358	83
266.591	89
266.823	86
267.055	88
267.287	88
267.52	91
267.752	87
267.984	82
268.216	95
268.448	74
268.681	95
268.913	76
269.145	95
269.377	93
269.609	95
269.841	93
270.073	91
270.306	87
270.538	91
270.77	90
271.002	93
271.234	87
271.466	94
271.698	96
271.93	100
272.162	90
272.394	83
272.626	94
272.858	107
273.09	89
273.322	102
273.553	106
273.785	96
274.017	103
274.249	91
274.481	90
274.713	93
274.945	93
275.176	97
275.408	90
275.64	97
275.872	90
276.104	87
276.335	85
276.567	95
276.799	106
277.031	102
277.262	113
277.494	98
277.726	112
277.957	110
278.189	99
278.421	98
278.652	102
278.884	87
279.115	99
279.347	100
279.579	99
279.81	88
280.042	102
280.273	96
280.505	79
280.736	91
280.968	103
281.199	95
281.431	92
281.662	100
281.894	101
282.125	90
282.356	78
282.588	102
282.819	92
283.051	106
283.282	102
283.513	86
283.745	103
283.976	88
284.207	90
284.439	87
284.67	110
284.901	96
285.132	96
285.364	88
285.595	76
285.826	97
286.057	112
286.288	95
286.52	99
286.751	86
286.982	107
287.213	101
287.444	106
287.675	101
287.906	124
288.138	91
288.369	94
288.6	103
288.831	112
289.062	101
289.293	100
289.524	95
289.755	108
289.986	106
290.217	90
290.448	96
290.679	115
290.91	84
291.141	85
291.371	98
291.602	110
291.833	107
292.064	91
292.295	87
292.526	86
292.757	89
292.987	103
293.218	94
293.449	91
293.68	90
293.91	112
294.141	96
294.372	100
294.603	109
294.833	97
295.064	105
295.295	113
295.525	106
295.756	94
295.987	97
296.217	91
296.448	108
296.679	98
296.909	99
297.14	101
297.37	86
297.601	98
297.831	85
298.062	108
298.292	96
298.523	88
298.753	98
298.984	87
299.214	104
299.445	113
299.675	114
299.905	99
300.136	79
300.366	90
300.597	112
300.827	113
301.057	92
301.288	104
301.518	90
301.748	109
301.979	111
302.209	103
302.439	114
302.669	92
302.9	113
303.13	111
303.36	86
303.59	109
303.82	98
304.051	103
304.281	103
304.511	101
304.741	99
304.971	105
305.201	113
305.431	101
305.661	108
305.891	106
306.121	104
306.352	102
306.582	121
306.812	98
307.042	112
307.272	95
307.502	111
307.731	89
307.961	103
308.191	105
308.421	106
308.651	103
308.881	113
309.111	103
309.341	95
309.571	97
309.8	107
310.03	121
310.26	113
310.49	112
310.72	100
310.949	106
311.179	99
311.409	100
311.639	105
311.868	97
312.098	112
312.328	105
312.557	102
312.787	94
313.017	116
313.246	110
313.476	106
313.706	102
313.935	118
314.165	107
314.394	118
314.624	100
314.853	116
315.083	81
315.312	100
315.542	117
315.771	106
316.001	110
316.23	112
316.46	96
316.689	110
316.919	93
317.148	116
317.377	118
317.607	104
317.836	107
318.065	103
318.295	110
318.524	103
318.753	94
318.983	113
319.212	100
319.441	99
319.67	110
319.9	112
320.129	102
320.358	112
320.587	114
320.816	92
321.046	116
321.275	103
321.504	122
321.733	105
321.962	93
322.191	104
322.42	110
322.649	116
322.878	121
323.108	113
323.337	112
323.566	113
323.795	118
324.024	108
324.253	114
324.482	128
324.71	151
324.939	192
325.168	163
325.397	123
325.626	120
325.855	104
326.084	110
326.313	104
326.542	110
326.77	122
326.999	120
327.228	129
327.457	136
327.686	161
327.914	128
328.143	118
328.372	129
328.6	124
328.829	105
329.058	112
329.287	114
329.515	113
329.744	103
329.972	116
330.201	120
330.43	111
330.658	118
330.887	122
331.115	108
331.344	122
331.572	98
331.801	108
332.03	108
332.258	99
332.486	119
332.715	120
332.943	112
333.172	121
333.4	107
333.629	103
333.857	117
334.085	112
334.314	122
334.542	130
334.771	121
334.999	136
335.227	119
335.455	108
335.684	103
335.912	111
336.14	114
336.369	114
336.597	111
336.825	107
337.053	114
337.281	103
337.51	114
337.738	116
337.966	116
338.194	111
338.422	110
338.65	116
338.878	99
339.106	117
339.334	118
339.562	124
339.79	113
340.018	96
340.246	108
340.474	122
340.702	120
340.93	114
341.158	96
341.386	117
341.614	122
341.842	114
342.07	104
342.298	108
342.526	97
342.754	110
342.981	118
343.209	112
343.437	103
343.665	118
343.893	122
344.12	115
344.348	122
344.576	108
344.804	113
345.031	123
345.259	91
345.487	96
345.714	103
345.942	117
346.17	110
346.397	100
346.625	100
346.853	97
347.08	110
347.308	109
347.535	94
347.763	122
347.99	113
348.218	121
348.445	120
348.673	117
348.9	115
349.128	107
349.355	118
349.583	96
349.81	104
350.037	115
350.265	103
350.492	94
350.72	112
350.947	114
351.174	105
351.402	110
351.629	104
351.856	107
352.083	94
352.311	107
352.538	106
352.765	98
352.992	109
353.22	119
353.447	104
353.674	102
353.901	107
354.128	111
354.355	111
354.583	115
354.81	112
355.037	107
355.264	104
355.491	104
355.718	102
355.945	103
356.172	117
356.399	103
356.626	80
356.853	105
357.08	102
357.307	102
357.534	114
357.761	115
357.988	107
358.215	108
358.441	103
358.668	122
358.895	106
359.122	112
359.349	110
359.576	116
359.802	112
360.029	103
360.256	111
360.483	84
360.709	108
360.936	114
361.163	101
361.39	107
361.616	102
361.843	106
362.07	112
362.296	100
362.523	106
362.749	108
362.976	116
363.203	95
363.429	103
363.656	103
363.882	102
364.109	98
364.335	102
364.562	107
364.788	111
365.015	102
365.241	118
365.468	117
365.694	107
365.92	110
366.147	124
366.373	102
366.599	102
366.826	95
367.052	93
367.278	112
367.505	110
367.731	108
367.957	95
368.184	116
368.41	106
368.636	99
368.862	114
369.089	114
369.315	108
369.541	120
369.767	107
369.993	118
370.219	101
370.445	108
370.672	105
370.898	104
371.124	103
371.35	121
371.576	114
371.802	110
372.028	105
372.254	109
372.48	125
372.706	100
372.932	122
373.158	103
373.384	105
373.61	108
373.835	110
374.061	105
374.287	115
374.513	110
374.739	105
374.965	100
375.191	121
375.416	110
375.642	120
375.868	121
376.094	93
376.319	111
376.545	90
376.771	110
376.997	131
377.222	123
377.448	124
377.674	119
377.899	98
378.125	106
378.35	124
378.576	117
378.802	115
379.027	113
379.253	102
379.478	126
379.704	108
379.929	109
380.155	104
380.38	114
380.606	108
380.831	115
381.057	128
381.282	116
381.507	108
381.733	110
381.958	118
382.184	113
382.409	107
382.634	108
382.86	107
383.085	104
383.31	110
383.535	107
383.761	108
383.986	119
384.211	110
384.436	110
384.662	99
384.887	108
385.112	111
385.337	119
385.562	110
385.787	114
386.013	118
386.238	121
386.463	114
386.688	115
386.913	117
387.138	107
387.363	116
387.588	113
387.813	119
388.038	134
388.263	116
388.488	122
388.713	122
388.938	111
389.163	115
389.387	105
389.612	118
389.837	119
390.062	107
390.287	106
390.512	126
390.736	120
390.961	107
391.186	121
391.411	124
391.636	123
391.86	122
392.085	112
392.31	123
392.534	115
392.759	128
392.984	115
393.208	122
393.433	101
393.658	126
393.882	115
394.107	106
394.331	124
394.556	126
394.78	131
395.005	123
395.229	126
395.454	122
395.678	116
395.903	118
396.127	117
396.352	122
396.576	129
396.801	124
397.025	129
397.249	118
397.474	130
397.698	120
397.922	120
398.147	124
398.371	124
398.595	120
398.82	123
399.044	129
399.268	126
399.492	122
399.717	140
399.941	156
400.165	150
400.389	136
400.613	132
400.837	116
401.062	125
401.286	122
401.51	128
401.734	112
401.958	125
402.182	129
402.406	140
402.63	118
402.854	128
403.078	122
403.302	120
403.526	123
403.75	123
403.974	133
404.198	133
404.422	103
404.645	131
404.869	135
405.093	145
405.317	131
405.541	141
405.765	134
405.988	135
406.212	128
406.436	140
406.66	122
406.883	127
407.107	137
407.331	134
407.555	139
407.778	148
408.002	138
408.226	135
408.449	146
408.673	136
408.896	131
409.12	128
409.344	148
409.567	130
409.791	126
410.014	145
410.238	130
410.461	133
410.685	140
410.908	120
411.132	132
411.355	138
411.578	136
411.802	121
412.025	132
412.249	120
412.472	131
412.695	132
412.919	118
413.142	132
413.365	119
413.589	122
413.812	120
414.035	141
414.258	116
414.482	121
414.705	123
414.928	115
415.151	131
415.374	132
415.597	137
415.821	121
416.044	115
416.267	121
416.49	124
416.713	128
416.936	122
417.159	122
417.382	127
417.605	127
417.828	124
418.051	127
418.274	123
418.497	119
418.72	122
418.943	117
419.166	136
419.389	146
419.611	140
419.834	130
420.057	131
420.28	124
420.503	131
420.726	117
420.948	117
421.171	138
421.394	135
421.617	126
421.839	131
422.062	133
422.285	118
422.507	139
422.73	135
422.953	118
423.175	129
423.398	132
423.621	143
423.843	123
424.066	133
424.288	131
424.511	128
424.733	132
424.956	136
425.178	140
425.401	134
425.623	123
425.846	126
426.068	125
426.291	119
426.513	126
426.735	131
426.958	138
427.18	137
427.402	132
427.625	161
427.847	120
428.069	134
428.292	118
428.514	124
428.736	134
428.958	120
429.181	118
429.403	131
429.625	123
429.847	125
430.069	128
430.292	129
430.514	125
430.736	125
430.958	128
431.18	126
431.402	126
431.624	117
431.846	120
432.068	113
432.29	114
432.512	123
432.734	122
432.956	128
433.178	118
433.4	134
433.622	135
433.844	117
434.066	122
434.287	100
434.509	127
434.731	121
434.953	130
435.175	139
435.397	129
435.618	136
435.84	137
436.062	134
436.284	120
436.505	130
436.727	110
436.949	116
437.17	130
437.392	122
437.614	113
437.835	118
438.057	138
438.278	138
438.5	139
438.721	141
438.943	130
439.165	135
439.386	123
439.608	116
439.829	129
440.05	120
440.272	132
440.493	121
440.715	123
440.936	141
441.158	120
441.379	123
441.6	132
441.822	122
442.043	136
442.264	140
442.486	128
442.707	126
442.928	131
443.149	130
443.371	134
443.592	124
443.813	153
444.034	150
444.255	149
444.476	140
444.698	139
444.919	143
445.14	223
445.361	181
445.582	136
445.803	140
446.024	138
446.245	132
446.466	136
446.687	114
446.908	120
447.129	123
447.35	119
447.571	108
447.792	121
448.013	112
448.234	131
448.455	126
448.675	138
448.896	126
449.117	126
449.338	129
449.559	144
449.779	130
450	130
450.221	122
450.442	123
450.662	119
450.883	113
451.104	126
451.324	119
451.545	118
451.766	114
451.986	127
452.207	113
452.428	112
452.648	119
452.869	113
453.089	116
453.31	126
453.53	121
453.751	113
453.971	111
454.192	122
454.412	120
454.633	108
454.853	114
455.073	118
455.294	116
455.514	114
455.734	107
455.955	107
456.175	123
456.395	118
456.616	112
456.836	104
457.056	112
457.276	127
457.497	115
457.717	104
457.937	103
458.157	118
458.377	115
458.598	106
458.818	118
459.038	116
459.258	120
459.478	134
459.698	132
459.918	122
460.138	136
460.358	130
460.578	122
460.798	117
461.018	129
461.238	130
461.458	123
461.678	146
461.898	144
462.118	114
462.338	119
462.558	146
462.777	127
462.997	146
463.217	127
463.437	170
463.657	130
463.876	137
464.096	126
464.316	127
464.536	139
464.755	131
464.975	129
465.195	122
465.414	135
465.634	126
465.854	117
466.073	119
466.293	131
466.512	120
466.732	105
466.951	120
467.171	123
467.391	100
467.61	119
467.829	124
468.049	130
468.268	120
468.488	118
468.707	126
468.927	105
469.146	114
469.365	128
469.585	116
469.804	123
470.023	118
470.243	130
470.462	133
470.681	132
470.901	113
471.12	110
471.339	112
471.558	113
471.777	126
471.997	120
472.216	118
472.435	130
472.654	132
472.873	123
473.092	132
473.311	121
473.53	111
473.749	112
473.968	116
474.187	131
474.406	117
474.625	119
474.844	129
475.063	115
475.282	125
475.501	107
475.72	112
475.939	122
476.158	122
476.377	129
476.596	124
476.814	124
477.033	122
477.252	132
477.471	123
477.69	119
477.908	132
478.127	134
478.346	144
478.564	124
478.783	133
479.002	120
479.22	128
479.439	121
479.658	125
479.876	128
480.095	140
480.313	132
480.532	138
480.751	127
480.969	118
481.188	148
481.406	146
481.624	120
481.843	118
482.061	129
482.28	124
482.498	124
482.717	127
482.935	132
483.153	126
483.372	134
483.59	126
483.808	122
484.027	124
484.245	129
484.463	134
484.681	125
484.9	129
485.118	139
485.336	135
485.554	119
485.772	135
485.99	142
486.209	138
486.427	144
486.645	133
486.863	130
487.081	155
487.299	133
487.517	149
487.735	140
487.953	131
488.171	138
488.389	134
488.607	127
488.825	127
489.043	140
489.261	128
489.479	140
489.696	128
489.914	138
490.132	127
490.35	128
490.568	132
490.786	150
491.003	122
491.221	134
491.439	145
491.657	150
491.874	150
492.092	143
492.31	139
492.527	158
492.745	150
492.963	130
493.18	150
493.398	138
493.615	141
493.833	134
494.05	143
494.268	130
494.485	119
494.703	141
494.92	133
495.138	139
495.355	129
495.573	148
495.79	139
496.008	146
496.225	144
496.442	155
496.66	146
496.877	162
497.094	159
497.312	143
497.529	146
497.746	126
497.963	138
498.181	147
498.398	163
498.615	153
498.832	146
499.049	178
499.267	160
499.484	175
499.701	175
499.918	186
500.135	203
500.352	206
500.569	204
500.786	222
501.003	219
501.22	193
501.437	182
501.654	162
501.871	158
502.088	152
502.305	177
502.522	162
502.739	171
502.956	150
503.172	144
503.389	143
503.606	138
503.823	153
504.04	144
504.256	143
504.473	142
504.69	144
504.907	151
505.123	136
505.34	146
505.557	136
505.773	140
505.99	127
506.207	125
506.423	138
506.64	133
506.856	136
507.073	126
507.289	144
507.506	135
507.722	135
507.939	131
508.155	154
508.372	124
508.588	122
508.805	134
509.021	123
509.238	132
509.454	130
509.67	123
509.887	117
510.103	130
510.319	122
510.536	137
510.752	171
510.968	160
511.184	132
511.401	128
511.617	117
511.833	126
512.049	133
512.265	120
512.481	125
512.698	116
512.914	119
513.13	128
513.346	120
513.562	138
513.778	119
513.994	128
514.21	120
514.426	138
514.642	124
514.858	128
515.074	131
515.29	140
515.506	176
515.721	154
515.937	129
516.153	140
516.369	136
516.585	135
516.801	133
517.016	137
517.232	145
517.448	151
517.664	162
517.879	129
518.095	143
518.311	124
518.527	130
518.742	136
518.958	115
519.173	135
519.389	128
519.605	135
519.82	116
520.036	141
520.251	141
520.467	122
520.682	123
520.898	130
521.113	141
521.329	145
521.544	127
521.76	143
521.975	182
522.19	176
522.406	138
522.621	140
522.836	147
523.052	144
523.267	107
523.482	120
523.698	141
523.913	127
524.128	122
524.343	128
524.559	116
524.774	103
524.989	122
525.204	113
525.419	113
525.634	120
525.849	116
526.064	118
526.28	118
526.495	131
526.71	117
526.925	104
527.14	109
527.355	112
527.57	122
527.785	122
527.999	121
528.214	126
528.429	114
528.644	131
528.859	123
529.074	110
529.289	122
529.503	122
529.718	127
529.933	122
530.148	128
530.363	120
530.577	115
530.792	116
531.007	107
531.221	116
531.436	120
531.651	105
531.865	116
532.08	124
532.295	123
532.509	132
532.724	99
532.938	122
533.153	124
533.367	127
533.582	106
533.796	110
534.011	123
534.225	132
534.44	125
534.654	118
534.868	117
535.083	123
535.297	115
535.511	110
535.726	126
535.94	125
536.154	117
536.369	112
536.583	116
536.797	116
537.011	115
537.225	130
537.44	115
537.654	107
537.868	115
538.082	104
538.296	120
538.51	110
538.724	117
538.938	122
539.153	119
539.367	122
539.581	130
539.795	121
540.009	99
540.222	124
540.436	112
540.65	119
540.864	130
541.078	124
541.292	120
541.506	120
541.72	123
541.934	111
542.147	131
542.361	132
542.575	124
542.789	119
543.002	151
543.216	135
543.43	128
543.644	124
543.857	132
544.071	136
544.285	127
544.498	135
544.712	123
544.925	124
545.139	118
545.352	130
545.566	125
545.779	123
545.993	129
546.206	144
546.42	144
546.633	126
546.847	119
547.06	112
547.274	123
547.487	120
547.7	139
547.914	118
548.127	123
548.34	133
548.554	119
548.767	122
548.98	130
549.193	118
549.407	104
549.62	154
549.833	128
550.046	129
550.259	124
550.473	123
550.686	138
550.899	121
551.112	131
551.325	121
551.538	124
551.751	110
551.964	115
552.177	122
552.39	120
552.603	131
552.816	126
553.029	112
553.242	126
553.455	121
553.667	141
553.88	124
554.093	118
554.306	119
554.519	126
554.732	116
554.944	120
555.157	90
555.37	132
555.583	117
555.795	124
556.008	119
556.221	127
556.433	104
556.646	117
556.859	112
557.071	120
557.284	116
557.496	115
557.709	107
557.921	111
558.134	100
558.346	122
558.559	104
558.771	106
558.984	116
559.196	112
559.409	106
559.621	101
559.833	104
560.046	104
560.258	127
560.47	123
560.683	112
560.895	96
561.107	114
561.32	120
561.532	108
561.744	121
561.956	123
562.168	123
562.381	108
562.593	108
562.805	123
563.017	120
563.229	110
563.441	108
563.653	110
563.865	115
564.077	117
564.289	123
564.501	112
564.713	125
564.925	116
565.137	112
565.349	114
565.561	128
565.773	135
565.985	145
566.197	132
566.408	125
566.62	117
566.832	139
567.044	136
567.255	132
567.467	128
567.679	121
567.891	151
568.102	125
568.314	130
568.526	136
