Data from 1968.PennyLincolnUp.Lamp.En5.5.200Scan.071719.P1._HRD10591_14-51-12-969.txt Node
Date: Thu Jul 18 14:51:12 EDT 2019
User: cochatt
Spectrometer: HR+D1059
Trigger mode: 1
Integration Time (sec): 1.000000E-1
Scans to average: 1
Electric dark correction enabled: true
Nonlinearity correction enabled: false
Boxcar width: 0
XAxis mode: Wavelengths
Number of Pixels in Spectrum: 2048
>>>>>Begin Spectral Data<<<<<
223.165	-10.75
223.4	-10.75
223.635	-10.75
223.869	-14.75
224.104	-2.75
224.338	-12.75
224.573	-12.75
224.808	-12.75
225.042	-3.75
225.277	-9.75
225.511	0.25
225.746	7.25
225.98	3.25
226.215	-2.75
226.449	4.25
226.683	24.25
226.918	32.25
227.152	11.25
227.387	35.25
227.621	56.25
227.856	38.25
228.09	41.25
228.324	53.25
228.559	51.25
228.793	64.25
229.027	61.25
229.262	68.25
229.496	59.25
229.73	84.25
229.964	75.25
230.199	76.25
230.433	73.25
230.667	63.25
230.901	71.25
231.136	81.25
231.37	77.25
231.604	100.25
231.838	100.25
232.072	74.25
232.306	86.25
232.541	81.25
232.775	86.25
233.009	83.25
233.243	96.25
233.477	101.25
233.711	97.25
233.945	85.25
234.179	91.25
234.413	93.25
234.647	91.25
234.881	80.25
235.115	89.25
235.349	67.25
235.583	88.25
235.817	83.25
236.051	92.25
236.285	69.25
236.519	73.25
236.753	91.25
236.987	84.25
237.221	75.25
237.455	83.25
237.689	82.25
237.922	67.25
238.156	91.25
238.39	92.25
238.624	81.25
238.858	83.25
239.091	70.25
239.325	68.25
239.559	73.25
239.793	75.25
240.027	81.25
240.26	87.25
240.494	85.25
240.728	77.25
240.961	88.25
241.195	85.25
241.429	87.25
241.662	74.25
241.896	86.25
242.13	81.25
242.363	71.25
242.597	74.25
242.83	88.25
243.064	78.25
243.298	74.25
243.531	75.25
243.765	87.25
243.998	83.25
244.232	74.25
244.465	85.25
244.699	77.25
244.932	86.25
245.166	76.25
245.399	81.25
245.633	109.25
245.866	100.25
246.099	85.25
246.333	92.25
246.566	83.25
246.8	79.25
247.033	97.25
247.266	87.25
247.5	80.25
247.733	86.25
247.966	97.25
248.2	92.25
248.433	85.25
248.666	94.25
248.899	81.25
249.133	85.25
249.366	100.25
249.599	93.25
249.832	77.25
250.066	94.25
250.299	80.25
250.532	73.25
250.765	103.25
250.998	105.25
251.231	91.25
251.465	80.25
251.698	78.25
251.931	89.25
252.164	76.25
252.397	103.25
252.63	78.25
252.863	90.25
253.096	88.25
253.329	88.25
253.562	94.25
253.795	91.25
254.028	89.25
254.261	79.25
254.494	89.25
254.727	85.25
254.96	92.25
255.193	104.25
255.426	111.25
255.659	84.25
255.892	104.25
256.124	77.25
256.357	91.25
256.59	93.25
256.823	84.25
257.056	90.25
257.289	88.25
257.521	87.25
257.754	90.25
257.987	89.25
258.22	106.25
258.452	90.25
258.685	95.25
258.918	83.25
259.151	95.25
259.383	89.25
259.616	85.25
259.849	99.25
260.081	108.25
260.314	89.25
260.547	110.25
260.779	82.25
261.012	102.25
261.244	79.25
261.477	104.25
261.71	87.25
261.942	100.25
262.175	103.25
262.407	105.25
262.64	88.25
262.872	77.25
263.105	91.25
263.337	88.25
263.57	90.25
263.802	92.25
264.035	107.25
264.267	93.25
264.499	111.25
264.732	95.25
264.964	106.25
265.197	85.25
265.429	87.25
265.661	85.25
265.894	84.25
266.126	83.25
266.358	80.25
266.591	93.25
266.823	91.25
267.055	90.25
267.287	94.25
267.52	99.25
267.752	90.25
267.984	108.25
268.216	102.25
268.448	104.25
268.681	97.25
268.913	94.25
269.145	106.25
269.377	102.25
269.609	96.25
269.841	96.25
270.073	107.25
270.306	96.25
270.538	92.25
270.77	83.25
271.002	95.25
271.234	96.25
271.466	105.25
271.698	89.25
271.93	103.25
272.162	110.25
272.394	90.25
272.626	102.25
272.858	86.25
273.09	98.25
273.322	102.25
273.553	99.25
273.785	92.25
274.017	95.25
274.249	95.25
274.481	86.25
274.713	93.25
274.945	102.25
275.176	106.25
275.408	98.25
275.64	106.25
275.872	92.25
276.104	105.25
276.335	98.25
276.567	91.25
276.799	90.25
277.031	101.25
277.262	105.25
277.494	112.25
277.726	101.25
277.957	103.25
278.189	99.25
278.421	105.25
278.652	93.25
278.884	100.25
279.115	116.25
279.347	103.25
279.579	96.25
279.81	109.25
280.042	110.25
280.273	110.25
280.505	112.25
280.736	115.25
280.968	94.25
281.199	103.25
281.431	99.25
281.662	93.25
281.894	96.25
282.125	103.25
282.356	111.25
282.588	88.25
282.819	88.25
283.051	119.25
283.282	98.25
283.513	94.25
283.745	99.25
283.976	103.25
284.207	90.25
284.439	108.25
284.67	110.25
284.901	107.25
285.132	113.25
285.364	101.25
285.595	101.25
285.826	90.25
286.057	96.25
286.288	92.25
286.52	104.25
286.751	101.25
286.982	104.25
287.213	94.25
287.444	100.25
287.675	85.25
287.906	98.25
288.138	106.25
288.369	103.25
288.6	109.25
288.831	94.25
289.062	108.25
289.293	102.25
289.524	112.25
289.755	110.25
289.986	109.25
290.217	108.25
290.448	103.25
290.679	120.25
290.91	109.25
291.141	105.25
291.371	105.25
291.602	101.25
291.833	112.25
292.064	99.25
292.295	113.25
292.526	104.25
292.757	99.25
292.987	107.25
293.218	112.25
293.449	101.25
293.68	101.25
293.91	94.25
294.141	104.25
294.372	106.25
294.603	95.25
294.833	100.25
295.064	106.25
295.295	121.25
295.525	110.25
295.756	88.25
295.987	97.25
296.217	100.25
296.448	113.25
296.679	101.25
296.909	120.25
297.14	97.25
297.37	104.25
297.601	109.25
297.831	87.25
298.062	108.25
298.292	110.25
298.523	102.25
298.753	107.25
298.984	101.25
299.214	105.25
299.445	96.25
299.675	107.25
299.905	96.25
300.136	98.25
300.366	113.25
300.597	125.25
300.827	117.25
301.057	116.25
301.288	89.25
301.518	100.25
301.748	116.25
301.979	110.25
302.209	99.25
302.439	110.25
302.669	102.25
302.9	116.25
303.13	91.25
303.36	101.25
303.59	97.25
303.82	97.25
304.051	106.25
304.281	99.25
304.511	115.25
304.741	116.25
304.971	105.25
305.201	105.25
305.431	107.25
305.661	101.25
305.891	104.25
306.121	94.25
306.352	104.25
306.582	103.25
306.812	98.25
307.042	111.25
307.272	112.25
307.502	109.25
307.731	103.25
307.961	99.25
308.191	118.25
308.421	112.25
308.651	122.25
308.881	116.25
309.111	113.25
309.341	114.25
309.571	101.25
309.8	98.25
310.03	109.25
310.26	119.25
310.49	106.25
310.72	125.25
310.949	115.25
311.179	105.25
311.409	101.25
311.639	122.25
311.868	110.25
312.098	98.25
312.328	118.25
312.557	98.25
312.787	119.25
313.017	109.25
313.246	102.25
313.476	112.25
313.706	108.25
313.935	96.25
314.165	119.25
314.394	116.25
314.624	119.25
314.853	112.25
315.083	97.25
315.312	117.25
315.542	100.25
315.771	112.25
316.001	107.25
316.23	105.25
316.46	105.25
316.689	108.25
316.919	111.25
317.148	116.25
317.377	121.25
317.607	104.25
317.836	108.25
318.065	99.25
318.295	113.25
318.524	100.25
318.753	110.25
318.983	118.25
319.212	123.25
319.441	104.25
319.67	121.25
319.9	119.25
320.129	120.25
320.358	103.25
320.587	123.25
320.816	121.25
321.046	120.25
321.275	104.25
321.504	104.25
321.733	98.25
321.962	106.25
322.191	105.25
322.42	102.25
322.649	117.25
322.878	120.25
323.108	106.25
323.337	113.25
323.566	123.25
323.795	123.25
324.024	122.25
324.253	129.25
324.482	133.25
324.71	165.25
324.939	194.25
325.168	153.25
325.397	123.25
325.626	112.25
325.855	127.25
326.084	131.25
326.313	120.25
326.542	120.25
326.77	121.25
326.999	130.25
327.228	146.25
327.457	144.25
327.686	153.25
327.914	130.25
328.143	109.25
328.372	126.25
328.6	121.25
328.829	128.25
329.058	118.25
329.287	129.25
329.515	108.25
329.744	112.25
329.972	116.25
330.201	127.25
330.43	125.25
330.658	103.25
330.887	117.25
331.115	115.25
331.344	98.25
331.572	125.25
331.801	113.25
332.03	116.25
332.258	112.25
332.486	111.25
332.715	125.25
332.943	113.25
333.172	107.25
333.4	127.25
333.629	129.25
333.857	128.25
334.085	113.25
334.314	117.25
334.542	137.25
334.771	132.25
334.999	117.25
335.227	117.25
335.455	121.25
335.684	127.25
335.912	117.25
336.14	96.25
336.369	129.25
336.597	116.25
336.825	118.25
337.053	113.25
337.281	115.25
337.51	117.25
337.738	126.25
337.966	124.25
338.194	112.25
338.422	118.25
338.65	112.25
338.878	137.25
339.106	121.25
339.334	121.25
339.562	106.25
339.79	99.25
340.018	106.25
340.246	109.25
340.474	136.25
340.702	110.25
340.93	110.25
341.158	120.25
341.386	126.25
341.614	118.25
341.842	136.25
342.07	113.25
342.298	129.25
342.526	102.25
342.754	112.25
342.981	133.25
343.209	111.25
343.437	108.25
343.665	104.25
343.893	113.25
344.12	115.25
344.348	117.25
344.576	105.25
344.804	109.25
345.031	118.25
345.259	120.25
345.487	125.25
345.714	103.25
345.942	116.25
346.17	117.25
346.397	112.25
346.625	113.25
346.853	129.25
347.08	120.25
347.308	97.25
347.535	127.25
347.763	106.25
347.99	121.25
348.218	115.25
348.445	121.25
348.673	124.25
348.9	117.25
349.128	131.25
349.355	112.25
349.583	117.25
349.81	104.25
350.037	107.25
350.265	119.25
350.492	109.25
350.72	126.25
350.947	115.25
351.174	106.25
351.402	122.25
351.629	97.25
351.856	111.25
352.083	107.25
352.311	110.25
352.538	111.25
352.765	109.25
352.992	116.25
353.22	127.25
353.447	104.25
353.674	116.25
353.901	121.25
354.128	106.25
354.355	102.25
354.583	111.25
354.81	87.25
355.037	112.25
355.264	106.25
355.491	101.25
355.718	109.25
355.945	110.25
356.172	126.25
356.399	114.25
356.626	108.25
356.853	103.25
357.08	116.25
357.307	111.25
357.534	112.25
357.761	105.25
357.988	111.25
358.215	96.25
358.441	123.25
358.668	116.25
358.895	109.25
359.122	106.25
359.349	127.25
359.576	113.25
359.802	120.25
360.029	117.25
360.256	125.25
360.483	111.25
360.709	117.25
360.936	137.25
361.163	102.25
361.39	110.25
361.616	127.25
361.843	110.25
362.07	124.25
362.296	117.25
362.523	126.25
362.749	108.25
362.976	113.25
363.203	120.25
363.429	111.25
363.656	121.25
363.882	129.25
364.109	129.25
364.335	109.25
364.562	111.25
364.788	117.25
365.015	112.25
365.241	109.25
365.468	111.25
365.694	115.25
365.92	94.25
366.147	106.25
366.373	101.25
366.599	107.25
366.826	112.25
367.052	101.25
367.278	117.25
367.505	114.25
367.731	98.25
367.957	119.25
368.184	119.25
368.41	120.25
368.636	112.25
368.862	125.25
369.089	115.25
369.315	112.25
369.541	99.25
369.767	117.25
369.993	105.25
370.219	104.25
370.445	106.25
370.672	101.25
370.898	107.25
371.124	109.25
371.35	107.25
371.576	110.25
371.802	117.25
372.028	115.25
372.254	117.25
372.48	116.25
372.706	109.25
372.932	115.25
373.158	114.25
373.384	127.25
373.61	116.25
373.835	108.25
374.061	112.25
374.287	120.25
374.513	117.25
374.739	112.25
374.965	127.25
375.191	118.25
375.416	111.25
375.642	120.25
375.868	121.25
376.094	124.25
376.319	113.25
376.545	107.25
376.771	121.25
376.997	124.25
377.222	111.25
377.448	112.25
377.674	125.25
377.899	120.25
378.125	110.25
378.35	102.25
378.576	107.25
378.802	123.25
379.027	120.25
379.253	121.25
379.478	117.25
379.704	134.25
379.929	121.25
380.155	128.25
380.38	129.25
380.606	108.25
380.831	115.25
381.057	112.25
381.282	108.25
381.507	126.25
381.733	107.25
381.958	114.25
382.184	124.25
382.409	111.25
382.634	117.25
382.86	113.25
383.085	122.25
383.31	115.25
383.535	130.25
383.761	122.25
383.986	133.25
384.211	115.25
384.436	112.25
384.662	101.25
384.887	126.25
385.112	117.25
385.337	133.25
385.562	110.25
385.787	133.25
386.013	125.25
386.238	129.25
386.463	110.25
386.688	111.25
386.913	116.25
387.138	126.25
387.363	127.25
387.588	112.25
387.813	110.25
388.038	102.25
388.263	104.25
388.488	123.25
388.713	112.25
388.938	117.25
389.163	129.25
389.387	126.25
389.612	112.25
389.837	110.25
390.062	115.25
390.287	126.25
390.512	131.25
390.736	117.25
390.961	115.25
391.186	127.25
391.411	127.25
391.636	130.25
391.86	130.25
392.085	120.25
392.31	124.25
392.534	132.25
392.759	118.25
392.984	121.25
393.208	124.25
393.433	125.25
393.658	126.25
393.882	124.25
394.107	115.25
394.331	143.25
394.556	122.25
394.78	123.25
395.005	127.25
395.229	121.25
395.454	126.25
395.678	129.25
395.903	121.25
396.127	135.25
396.352	140.25
396.576	111.25
396.801	122.25
397.025	137.25
397.249	120.25
397.474	120.25
397.698	123.25
397.922	121.25
398.147	126.25
398.371	118.25
398.595	115.25
398.82	131.25
399.044	130.25
399.268	138.25
399.492	153.25
399.717	137.25
399.941	146.25
400.165	139.25
400.389	132.25
400.613	141.25
400.837	138.25
401.062	129.25
401.286	127.25
401.51	131.25
401.734	116.25
401.958	125.25
402.182	129.25
402.406	139.25
402.63	143.25
402.854	130.25
403.078	134.25
403.302	128.25
403.526	144.25
403.75	140.25
403.974	127.25
404.198	131.25
404.422	129.25
404.645	124.25
404.869	156.25
405.093	146.25
405.317	134.25
405.541	135.25
405.765	143.25
405.988	133.25
406.212	126.25
406.436	133.25
406.66	131.25
406.883	141.25
407.107	150.25
407.331	145.25
407.555	148.25
407.778	132.25
408.002	142.25
408.226	136.25
408.449	131.25
408.673	132.25
408.896	133.25
409.12	136.25
409.344	130.25
409.567	139.25
409.791	128.25
410.014	136.25
410.238	150.25
410.461	134.25
410.685	128.25
410.908	145.25
411.132	133.25
411.355	135.25
411.578	144.25
411.802	132.25
412.025	122.25
412.249	127.25
412.472	124.25
412.695	129.25
412.919	128.25
413.142	127.25
413.365	123.25
413.589	119.25
413.812	126.25
414.035	132.25
414.258	145.25
414.482	136.25
414.705	123.25
414.928	129.25
415.151	135.25
415.374	128.25
415.597	133.25
415.821	126.25
416.044	137.25
416.267	126.25
416.49	131.25
416.713	131.25
416.936	137.25
417.159	115.25
417.382	126.25
417.605	125.25
417.828	136.25
418.051	156.25
418.274	121.25
418.497	121.25
418.72	124.25
418.943	140.25
419.166	138.25
419.389	143.25
419.611	134.25
419.834	125.25
420.057	134.25
420.28	127.25
420.503	120.25
420.726	131.25
420.948	141.25
421.171	149.25
421.394	131.25
421.617	140.25
421.839	121.25
422.062	140.25
422.285	125.25
422.507	138.25
422.73	135.25
422.953	136.25
423.175	138.25
423.398	147.25
423.621	137.25
423.843	135.25
424.066	141.25
424.288	126.25
424.511	138.25
424.733	142.25
424.956	152.25
425.178	141.25
425.401	142.25
425.623	137.25
425.846	133.25
426.068	133.25
426.291	135.25
426.513	144.25
426.735	139.25
426.958	139.25
427.18	148.25
427.402	150.25
427.625	155.25
427.847	144.25
428.069	144.25
428.292	122.25
428.514	117.25
428.736	133.25
428.958	133.25
429.181	124.25
429.403	126.25
429.625	132.25
429.847	131.25
430.069	131.25
430.292	129.25
430.514	123.25
430.736	122.25
430.958	130.25
431.18	117.25
431.402	129.25
431.624	120.25
431.846	134.25
432.068	129.25
432.29	126.25
432.512	131.25
432.734	125.25
432.956	135.25
433.178	128.25
433.4	119.25
433.622	127.25
433.844	127.25
434.066	134.25
434.287	123.25
434.509	131.25
434.731	131.25
434.953	117.25
435.175	111.25
435.397	139.25
435.618	134.25
435.84	130.25
436.062	139.25
436.284	122.25
436.505	129.25
436.727	131.25
436.949	118.25
437.17	108.25
437.392	127.25
437.614	129.25
437.835	130.25
438.057	125.25
438.278	133.25
438.5	119.25
438.721	136.25
438.943	144.25
439.165	126.25
439.386	120.25
439.608	127.25
439.829	126.25
440.05	134.25
440.272	134.25
440.493	134.25
440.715	136.25
440.936	132.25
441.158	142.25
441.379	130.25
441.6	137.25
441.822	134.25
442.043	150.25
442.264	134.25
442.486	131.25
442.707	131.25
442.928	129.25
443.149	129.25
443.371	141.25
443.592	150.25
443.813	128.25
444.034	151.25
444.255	153.25
444.476	148.25
444.698	133.25
444.919	147.25
445.14	222.25
445.361	176.25
445.582	131.25
445.803	137.25
446.024	148.25
446.245	146.25
446.466	147.25
446.687	128.25
446.908	127.25
447.129	129.25
447.35	132.25
447.571	126.25
447.792	124.25
448.013	136.25
448.234	131.25
448.455	121.25
448.675	137.25
448.896	144.25
449.117	122.25
449.338	128.25
449.559	140.25
449.779	143.25
450	141.25
450.221	125.25
450.442	116.25
450.662	119.25
450.883	125.25
451.104	125.25
451.324	113.25
451.545	121.25
451.766	104.25
451.986	116.25
452.207	127.25
452.428	133.25
452.648	117.25
452.869	134.25
453.089	123.25
453.31	121.25
453.53	118.25
453.751	129.25
453.971	123.25
454.192	121.25
454.412	127.25
454.633	109.25
454.853	119.25
455.073	122.25
455.294	118.25
455.514	129.25
455.734	121.25
455.955	126.25
456.175	116.25
456.395	121.25
456.616	129.25
456.836	127.25
457.056	113.25
457.276	130.25
457.497	123.25
457.717	108.25
457.937	116.25
458.157	106.25
458.377	109.25
458.598	128.25
458.818	109.25
459.038	123.25
459.258	128.25
459.478	151.25
459.698	128.25
459.918	139.25
460.138	127.25
460.358	127.25
460.578	140.25
460.798	139.25
461.018	127.25
461.238	125.25
461.458	121.25
461.678	120.25
461.898	126.25
462.118	133.25
462.338	130.25
462.558	132.25
462.777	117.25
462.997	133.25
463.217	124.25
463.437	142.25
463.657	147.25
463.876	136.25
464.096	143.25
464.316	128.25
464.536	146.25
464.755	135.25
464.975	136.25
465.195	148.25
465.414	141.25
465.634	127.25
465.854	132.25
466.073	120.25
466.293	132.25
466.512	139.25
466.732	121.25
466.951	128.25
467.171	132.25
467.391	122.25
467.61	131.25
467.829	117.25
468.049	124.25
468.268	124.25
468.488	121.25
468.707	119.25
468.927	126.25
469.146	128.25
469.365	118.25
469.585	121.25
469.804	129.25
470.023	141.25
470.243	141.25
470.462	123.25
470.681	124.25
470.901	128.25
471.12	127.25
471.339	142.25
471.558	133.25
471.777	122.25
471.997	139.25
472.216	135.25
472.435	137.25
472.654	124.25
472.873	111.25
473.092	111.25
473.311	119.25
473.53	111.25
473.749	136.25
473.968	133.25
474.187	117.25
474.406	136.25
474.625	124.25
474.844	115.25
475.063	122.25
475.282	114.25
475.501	118.25
475.72	125.25
475.939	125.25
476.158	122.25
476.377	125.25
476.596	136.25
476.814	107.25
477.033	118.25
477.252	137.25
477.471	128.25
477.69	127.25
477.908	123.25
478.127	129.25
478.346	136.25
478.564	122.25
478.783	131.25
479.002	133.25
479.22	130.25
479.439	138.25
479.658	120.25
479.876	126.25
480.095	131.25
480.313	138.25
480.532	138.25
480.751	138.25
480.969	142.25
481.188	160.25
481.406	152.25
481.624	134.25
481.843	131.25
482.061	127.25
482.28	123.25
482.498	126.25
482.717	129.25
482.935	127.25
483.153	120.25
483.372	131.25
483.59	126.25
483.808	136.25
484.027	133.25
484.245	129.25
484.463	137.25
484.681	142.25
484.9	140.25
485.118	139.25
485.336	140.25
485.554	132.25
485.772	136.25
485.99	147.25
486.209	128.25
486.427	136.25
486.645	133.25
486.863	131.25
487.081	118.25
487.299	132.25
487.517	119.25
487.735	129.25
487.953	138.25
488.171	155.25
488.389	148.25
488.607	131.25
488.825	135.25
489.043	127.25
489.261	139.25
489.479	136.25
489.696	136.25
489.914	136.25
490.132	136.25
490.35	142.25
490.568	135.25
490.786	128.25
491.003	139.25
491.221	135.25
491.439	141.25
491.657	128.25
491.874	154.25
492.092	144.25
492.31	149.25
492.527	155.25
492.745	146.25
492.963	146.25
493.18	125.25
493.398	145.25
493.615	171.25
493.833	148.25
494.05	144.25
494.268	140.25
494.485	152.25
494.703	145.25
494.92	137.25
495.138	136.25
495.355	151.25
495.573	140.25
495.79	150.25
496.008	141.25
496.225	135.25
496.442	141.25
496.66	143.25
496.877	149.25
497.094	139.25
497.312	143.25
497.529	137.25
497.746	152.25
497.963	141.25
498.181	155.25
498.398	160.25
498.615	164.25
498.832	152.25
499.049	155.25
499.267	154.25
499.484	186.25
499.701	180.25
499.918	203.25
500.135	198.25
500.352	213.25
500.569	210.25
500.786	206.25
501.003	208.25
501.22	212.25
501.437	200.25
501.654	188.25
501.871	170.25
502.088	171.25
502.305	168.25
502.522	163.25
502.739	180.25
502.956	153.25
503.172	160.25
503.389	142.25
503.606	155.25
503.823	134.25
504.04	151.25
504.256	153.25
504.473	144.25
504.69	147.25
504.907	147.25
505.123	140.25
