Data from 1968.PennyLincolnUp.Lamp.En5.5.200Scan.071719.P1._HRD10591_14-50-47-969.txt Node
Date: Thu Jul 18 14:50:47 EDT 2019
User: cochatt
Spectrometer: HR+D1059
Trigger mode: 1
Integration Time (sec): 1.000000E-1
Scans to average: 1
Electric dark correction enabled: true
Nonlinearity correction enabled: false
Boxcar width: 0
XAxis mode: Wavelengths
Number of Pixels in Spectrum: 2048
>>>>>Begin Spectral Data<<<<<
223.165	-9.88
223.4	-9.88
223.635	-9.88
223.869	-16.88
224.104	-23.88
224.338	-5.88
224.573	-20.88
224.808	-10.88
225.042	-8.88
225.277	-12.88
225.511	3.12
225.746	20.12
225.98	1.12
226.215	16.12
226.449	14.12
226.683	17.12
226.918	11.12
227.152	27.12
227.387	32.12
227.621	44.12
227.856	37.12
228.09	39.12
228.324	69.12
228.559	55.12
228.793	63.12
229.027	68.12
229.262	71.12
229.496	70.12
229.73	93.12
229.964	65.12
230.199	77.12
230.433	77.12
230.667	88.12
230.901	71.12
231.136	77.12
231.37	84.12
231.604	83.12
231.838	99.12
232.072	88.12
232.306	87.12
232.541	85.12
232.775	85.12
233.009	96.12
233.243	90.12
233.477	83.12
233.711	96.12
233.945	95.12
234.179	108.12
234.413	81.12
234.647	92.12
234.881	78.12
235.115	78.12
235.349	86.12
235.583	97.12
235.817	83.12
236.051	83.12
236.285	81.12
236.519	77.12
236.753	81.12
236.987	92.12
237.221	89.12
237.455	91.12
237.689	83.12
237.922	76.12
238.156	94.12
238.39	92.12
238.624	81.12
238.858	76.12
239.091	95.12
239.325	80.12
239.559	80.12
239.793	89.12
240.027	83.12
240.26	90.12
240.494	98.12
240.728	79.12
240.961	75.12
241.195	91.12
241.429	85.12
241.662	85.12
241.896	80.12
242.13	108.12
242.363	91.12
242.597	94.12
242.83	85.12
243.064	78.12
243.298	95.12
243.531	93.12
243.765	90.12
243.998	90.12
244.232	87.12
244.465	81.12
244.699	85.12
244.932	83.12
245.166	74.12
245.399	96.12
245.633	89.12
245.866	91.12
246.099	89.12
246.333	87.12
246.566	93.12
246.8	78.12
247.033	81.12
247.266	89.12
247.5	81.12
247.733	95.12
247.966	83.12
248.2	82.12
248.433	83.12
248.666	97.12
248.899	97.12
249.133	86.12
249.366	101.12
249.599	81.12
249.832	93.12
250.066	99.12
250.299	101.12
250.532	95.12
250.765	90.12
250.998	99.12
251.231	100.12
251.465	99.12
251.698	83.12
251.931	96.12
252.164	95.12
252.397	99.12
252.63	101.12
252.863	103.12
253.096	93.12
253.329	104.12
253.562	82.12
253.795	81.12
254.028	84.12
254.261	89.12
254.494	80.12
254.727	107.12
254.96	80.12
255.193	103.12
255.426	105.12
255.659	96.12
255.892	90.12
256.124	96.12
256.357	107.12
256.59	86.12
256.823	103.12
257.056	95.12
257.289	86.12
257.521	85.12
257.754	87.12
257.987	96.12
258.22	102.12
258.452	99.12
258.685	99.12
258.918	95.12
259.151	80.12
259.383	91.12
259.616	93.12
259.849	91.12
260.081	102.12
260.314	92.12
260.547	83.12
260.779	97.12
261.012	101.12
261.244	106.12
261.477	91.12
261.71	92.12
261.942	100.12
262.175	95.12
262.407	89.12
262.64	100.12
262.872	87.12
263.105	92.12
263.337	86.12
263.57	76.12
263.802	100.12
264.035	107.12
264.267	98.12
264.499	85.12
264.732	95.12
264.964	84.12
265.197	93.12
265.429	98.12
265.661	102.12
265.894	106.12
266.126	98.12
266.358	97.12
266.591	104.12
266.823	99.12
267.055	91.12
267.287	93.12
267.52	104.12
267.752	82.12
267.984	112.12
268.216	88.12
268.448	92.12
268.681	101.12
268.913	112.12
269.145	101.12
269.377	116.12
269.609	81.12
269.841	99.12
270.073	103.12
270.306	97.12
270.538	104.12
270.77	95.12
271.002	85.12
271.234	107.12
271.466	98.12
271.698	99.12
271.93	92.12
272.162	83.12
272.394	109.12
272.626	101.12
272.858	100.12
273.09	94.12
273.322	99.12
273.553	100.12
273.785	104.12
274.017	86.12
274.249	99.12
274.481	88.12
274.713	123.12
274.945	116.12
275.176	97.12
275.408	104.12
275.64	98.12
275.872	87.12
276.104	95.12
276.335	93.12
276.567	92.12
276.799	91.12
277.031	104.12
277.262	112.12
277.494	97.12
277.726	105.12
277.957	105.12
278.189	113.12
278.421	94.12
278.652	101.12
278.884	103.12
279.115	103.12
279.347	105.12
279.579	109.12
279.81	101.12
280.042	107.12
280.273	87.12
280.505	96.12
280.736	102.12
280.968	85.12
281.199	102.12
281.431	94.12
281.662	100.12
281.894	84.12
282.125	108.12
282.356	96.12
282.588	92.12
282.819	93.12
283.051	104.12
283.282	84.12
283.513	104.12
283.745	102.12
283.976	94.12
284.207	101.12
284.439	98.12
284.67	103.12
284.901	125.12
285.132	103.12
285.364	112.12
285.595	96.12
285.826	89.12
286.057	96.12
286.288	118.12
286.52	97.12
286.751	111.12
286.982	94.12
287.213	100.12
287.444	115.12
287.675	99.12
287.906	106.12
288.138	108.12
288.369	95.12
288.6	100.12
288.831	109.12
289.062	110.12
289.293	96.12
289.524	108.12
289.755	108.12
289.986	103.12
290.217	112.12
290.448	111.12
290.679	96.12
290.91	112.12
291.141	113.12
291.371	105.12
291.602	118.12
291.833	109.12
292.064	100.12
292.295	108.12
292.526	108.12
292.757	116.12
292.987	93.12
293.218	91.12
293.449	99.12
293.68	107.12
293.91	99.12
294.141	109.12
294.372	111.12
294.603	111.12
294.833	95.12
295.064	102.12
295.295	101.12
295.525	104.12
295.756	110.12
295.987	107.12
296.217	100.12
296.448	113.12
296.679	95.12
296.909	87.12
297.14	136.12
297.37	113.12
297.601	102.12
297.831	111.12
298.062	124.12
298.292	117.12
298.523	120.12
298.753	105.12
298.984	112.12
299.214	107.12
299.445	112.12
299.675	112.12
299.905	108.12
300.136	103.12
300.366	119.12
300.597	104.12
300.827	117.12
301.057	110.12
301.288	102.12
301.518	115.12
301.748	95.12
301.979	98.12
302.209	102.12
302.439	100.12
302.669	106.12
302.9	94.12
303.13	96.12
303.36	113.12
303.59	126.12
303.82	126.12
304.051	101.12
304.281	119.12
304.511	104.12
304.741	103.12
304.971	105.12
305.201	111.12
305.431	120.12
305.661	116.12
305.891	101.12
306.121	103.12
306.352	112.12
306.582	112.12
306.812	101.12
307.042	119.12
307.272	123.12
307.502	104.12
307.731	124.12
307.961	104.12
308.191	99.12
308.421	102.12
308.651	111.12
308.881	115.12
309.111	112.12
309.341	98.12
309.571	104.12
309.8	97.12
310.03	108.12
310.26	104.12
310.49	110.12
310.72	109.12
310.949	113.12
311.179	98.12
311.409	115.12
311.639	107.12
311.868	104.12
312.098	95.12
312.328	103.12
312.557	120.12
312.787	120.12
313.017	108.12
313.246	119.12
313.476	111.12
313.706	111.12
313.935	116.12
314.165	97.12
314.394	90.12
314.624	106.12
314.853	127.12
315.083	115.12
315.312	109.12
315.542	104.12
315.771	126.12
316.001	106.12
316.23	107.12
316.46	115.12
316.689	96.12
316.919	117.12
317.148	109.12
317.377	119.12
317.607	109.12
317.836	108.12
318.065	118.12
318.295	123.12
318.524	115.12
318.753	118.12
318.983	110.12
319.212	128.12
319.441	111.12
319.67	110.12
319.9	101.12
320.129	115.12
320.358	123.12
320.587	113.12
320.816	102.12
321.046	101.12
321.275	119.12
321.504	96.12
321.733	116.12
321.962	96.12
322.191	115.12
322.42	120.12
322.649	122.12
322.878	117.12
323.108	106.12
323.337	107.12
323.566	119.12
323.795	131.12
324.024	111.12
324.253	115.12
324.482	135.12
324.71	156.12
324.939	215.12
325.168	174.12
325.397	137.12
325.626	122.12
325.855	115.12
326.084	126.12
326.313	122.12
326.542	104.12
326.77	137.12
326.999	126.12
327.228	143.12
327.457	171.12
327.686	160.12
327.914	136.12
328.143	132.12
328.372	119.12
328.6	114.12
328.829	118.12
329.058	123.12
329.287	115.12
329.515	107.12
329.744	123.12
329.972	116.12
330.201	116.12
330.43	121.12
330.658	119.12
330.887	118.12
331.115	127.12
331.344	118.12
331.572	124.12
331.801	140.12
332.03	125.12
332.258	116.12
332.486	115.12
332.715	129.12
332.943	127.12
333.172	118.12
333.4	117.12
333.629	126.12
333.857	125.12
334.085	119.12
334.314	115.12
334.542	126.12
334.771	102.12
334.999	118.12
335.227	111.12
335.455	123.12
335.684	108.12
335.912	121.12
336.14	125.12
336.369	121.12
336.597	125.12
336.825	121.12
337.053	112.12
337.281	121.12
337.51	120.12
337.738	108.12
337.966	109.12
338.194	111.12
338.422	132.12
338.65	126.12
338.878	126.12
339.106	129.12
339.334	117.12
339.562	112.12
339.79	127.12
340.018	106.12
340.246	108.12
340.474	124.12
340.702	129.12
340.93	119.12
341.158	120.12
341.386	124.12
341.614	109.12
341.842	111.12
342.07	117.12
342.298	111.12
342.526	109.12
342.754	119.12
342.981	115.12
343.209	121.12
343.437	126.12
343.665	115.12
343.893	117.12
344.12	125.12
344.348	118.12
344.576	111.12
344.804	120.12
345.031	125.12
345.259	126.12
345.487	110.12
345.714	120.12
345.942	120.12
346.17	102.12
346.397	100.12
346.625	116.12
346.853	109.12
347.08	125.12
347.308	111.12
347.535	109.12
347.763	122.12
347.99	108.12
348.218	106.12
348.445	108.12
348.673	111.12
348.9	120.12
349.128	109.12
349.355	102.12
349.583	111.12
349.81	123.12
350.037	121.12
350.265	113.12
350.492	116.12
350.72	111.12
350.947	124.12
351.174	110.12
351.402	113.12
351.629	112.12
351.856	112.12
352.083	120.12
352.311	124.12
352.538	110.12
352.765	106.12
352.992	107.12
353.22	107.12
353.447	107.12
353.674	110.12
353.901	119.12
354.128	116.12
354.355	117.12
354.583	126.12
354.81	111.12
355.037	117.12
355.264	124.12
355.491	120.12
355.718	102.12
355.945	101.12
356.172	112.12
356.399	112.12
356.626	104.12
356.853	121.12
357.08	105.12
357.307	122.12
357.534	119.12
357.761	97.12
357.988	117.12
358.215	109.12
358.441	100.12
358.668	109.12
358.895	124.12
359.122	119.12
359.349	117.12
359.576	114.12
359.802	116.12
360.029	113.12
360.256	118.12
360.483	116.12
360.709	110.12
360.936	135.12
361.163	109.12
361.39	112.12
361.616	110.12
361.843	111.12
362.07	111.12
362.296	105.12
362.523	110.12
362.749	113.12
362.976	106.12
363.203	117.12
363.429	124.12
363.656	113.12
363.882	124.12
364.109	127.12
364.335	127.12
364.562	117.12
364.788	109.12
365.015	120.12
365.241	99.12
365.468	111.12
365.694	120.12
365.92	122.12
366.147	123.12
366.373	106.12
366.599	119.12
366.826	111.12
367.052	107.12
367.278	107.12
367.505	111.12
367.731	113.12
367.957	125.12
368.184	112.12
368.41	109.12
368.636	115.12
368.862	105.12
369.089	116.12
369.315	103.12
369.541	108.12
369.767	110.12
369.993	118.12
370.219	104.12
370.445	106.12
370.672	122.12
370.898	112.12
371.124	110.12
371.35	120.12
371.576	127.12
371.802	119.12
372.028	125.12
372.254	132.12
372.48	103.12
372.706	113.12
372.932	108.12
373.158	121.12
373.384	115.12
373.61	122.12
373.835	112.12
374.061	113.12
374.287	103.12
374.513	120.12
374.739	135.12
374.965	110.12
375.191	121.12
375.416	117.12
375.642	115.12
375.868	118.12
376.094	120.12
376.319	121.12
376.545	113.12
376.771	113.12
376.997	101.12
377.222	93.12
377.448	122.12
377.674	110.12
377.899	116.12
378.125	123.12
378.35	119.12
378.576	101.12
378.802	116.12
379.027	105.12
379.253	108.12
379.478	110.12
379.704	90.12
379.929	123.12
380.155	127.12
380.38	112.12
380.606	119.12
380.831	121.12
381.057	135.12
381.282	114.12
381.507	131.12
381.733	124.12
381.958	120.12
382.184	127.12
382.409	119.12
382.634	106.12
382.86	118.12
383.085	106.12
383.31	115.12
383.535	110.12
383.761	123.12
383.986	115.12
384.211	126.12
384.436	127.12
384.662	107.12
384.887	127.12
385.112	110.12
385.337	120.12
385.562	129.12
385.787	127.12
386.013	133.12
386.238	128.12
386.463	124.12
386.688	127.12
386.913	122.12
387.138	125.12
387.363	125.12
387.588	124.12
387.813	112.12
388.038	125.12
388.263	126.12
388.488	130.12
388.713	118.12
388.938	112.12
389.163	110.12
389.387	119.12
389.612	97.12
389.837	135.12
390.062	107.12
390.287	121.12
390.512	125.12
390.736	122.12
390.961	127.12
391.186	125.12
391.411	129.12
391.636	132.12
391.86	120.12
392.085	123.12
392.31	123.12
392.534	131.12
392.759	117.12
392.984	133.12
393.208	135.12
393.433	125.12
393.658	117.12
393.882	104.12
394.107	120.12
394.331	118.12
394.556	121.12
394.78	116.12
395.005	131.12
395.229	128.12
395.454	124.12
395.678	110.12
395.903	139.12
396.127	140.12
396.352	127.12
396.576	123.12
396.801	129.12
397.025	109.12
397.249	141.12
397.474	125.12
397.698	138.12
397.922	139.12
398.147	124.12
398.371	123.12
398.595	131.12
398.82	130.12
399.044	132.12
399.268	136.12
399.492	151.12
399.717	158.12
399.941	146.12
400.165	136.12
400.389	151.12
400.613	133.12
400.837	127.12
401.062	116.12
401.286	131.12
401.51	133.12
401.734	124.12
401.958	142.12
402.182	133.12
402.406	126.12
402.63	128.12
402.854	137.12
403.078	128.12
403.302	127.12
403.526	128.12
403.75	149.12
403.974	135.12
404.198	141.12
404.422	135.12
404.645	128.12
404.869	135.12
405.093	127.12
405.317	138.12
405.541	146.12
405.765	146.12
405.988	132.12
406.212	122.12
406.436	145.12
406.66	132.12
406.883	132.12
407.107	135.12
407.331	132.12
407.555	158.12
407.778	140.12
408.002	155.12
408.226	147.12
408.449	143.12
408.673	139.12
408.896	130.12
409.12	127.12
409.344	140.12
409.567	133.12
409.791	132.12
410.014	152.12
410.238	130.12
410.461	139.12
410.685	138.12
410.908	140.12
411.132	133.12
411.355	140.12
411.578	128.12
411.802	129.12
412.025	142.12
412.249	127.12
412.472	135.12
412.695	135.12
412.919	130.12
413.142	146.12
413.365	145.12
413.589	131.12
413.812	139.12
414.035	122.12
414.258	122.12
414.482	131.12
414.705	133.12
414.928	136.12
415.151	123.12
415.374	129.12
415.597	137.12
415.821	144.12
416.044	121.12
416.267	115.12
416.49	121.12
416.713	138.12
416.936	129.12
417.159	124.12
417.382	132.12
417.605	128.12
417.828	134.12
418.051	120.12
418.274	137.12
418.497	131.12
418.72	135.12
418.943	151.12
419.166	138.12
419.389	144.12
419.611	137.12
419.834	120.12
420.057	122.12
420.28	131.12
420.503	144.12
420.726	122.12
420.948	148.12
421.171	129.12
421.394	131.12
421.617	129.12
421.839	132.12
422.062	119.12
422.285	138.12
422.507	128.12
422.73	137.12
422.953	140.12
423.175	139.12
423.398	128.12
423.621	165.12
423.843	147.12
424.066	145.12
424.288	119.12
424.511	121.12
424.733	135.12
424.956	139.12
425.178	151.12
425.401	137.12
425.623	123.12
425.846	130.12
426.068	152.12
426.291	127.12
426.513	139.12
426.735	127.12
426.958	139.12
427.18	133.12
427.402	144.12
427.625	153.12
427.847	140.12
428.069	129.12
428.292	133.12
428.514	126.12
428.736	128.12
428.958	103.12
429.181	123.12
429.403	125.12
429.625	119.12
429.847	123.12
430.069	134.12
430.292	128.12
430.514	123.12
430.736	131.12
430.958	117.12
431.18	133.12
431.402	124.12
431.624	123.12
431.846	123.12
432.068	137.12
432.29	139.12
432.512	130.12
432.734	127.12
432.956	129.12
433.178	142.12
433.4	124.12
433.622	138.12
433.844	119.12
434.066	138.12
434.287	135.12
434.509	120.12
434.731	133.12
434.953	121.12
435.175	120.12
435.397	133.12
435.618	136.12
435.84	132.12
436.062	158.12
436.284	131.12
436.505	119.12
436.727	126.12
436.949	125.12
437.17	138.12
437.392	124.12
437.614	118.12
437.835	129.12
438.057	148.12
438.278	138.12
438.5	137.12
438.721	157.12
438.943	148.12
439.165	146.12
439.386	127.12
439.608	132.12
439.829	133.12
440.05	129.12
440.272	132.12
440.493	135.12
440.715	125.12
440.936	125.12
441.158	151.12
441.379	133.12
441.6	124.12
441.822	137.12
442.043	129.12
442.264	148.12
442.486	143.12
442.707	141.12
442.928	128.12
443.149	139.12
443.371	142.12
443.592	156.12
443.813	145.12
444.034	149.12
444.255	138.12
444.476	136.12
444.698	133.12
444.919	143.12
445.14	230.12
445.361	185.12
445.582	147.12
445.803	139.12
446.024	145.12
446.245	147.12
446.466	145.12
446.687	138.12
446.908	124.12
447.129	132.12
447.35	123.12
447.571	120.12
447.792	126.12
448.013	132.12
448.234	128.12
448.455	132.12
448.675	137.12
448.896	139.12
449.117	129.12
449.338	139.12
449.559	163.12
449.779	136.12
450	127.12
450.221	139.12
450.442	112.12
450.662	120.12
450.883	132.12
451.104	112.12
451.324	136.12
451.545	123.12
451.766	128.12
451.986	131.12
452.207	123.12
452.428	131.12
452.648	133.12
452.869	125.12
453.089	128.12
453.31	109.12
453.53	124.12
453.751	119.12
453.971	120.12
454.192	119.12
454.412	126.12
454.633	112.12
454.853	113.12
455.073	126.12
455.294	125.12
455.514	120.12
455.734	137.12
455.955	131.12
456.175	122.12
456.395	114.12
456.616	124.12
456.836	131.12
457.056	135.12
457.276	130.12
457.497	106.12
457.717	112.12
457.937	128.12
458.157	127.12
458.377	121.12
458.598	125.12
458.818	127.12
459.038	131.12
459.258	137.12
459.478	128.12
459.698	125.12
459.918	138.12
460.138	129.12
460.358	133.12
460.578	128.12
460.798	127.12
461.018	133.12
461.238	144.12
461.458	143.12
461.678	123.12
461.898	128.12
462.118	123.12
462.338	130.12
462.558	134.12
462.777	136.12
462.997	144.12
463.217	141.12
463.437	151.12
463.657	146.12
463.876	149.12
464.096	137.12
464.316	143.12
464.536	145.12
464.755	133.12
464.975	127.12
465.195	137.12
465.414	128.12
465.634	121.12
465.854	133.12
466.073	115.12
466.293	119.12
466.512	129.12
466.732	108.12
466.951	133.12
467.171	127.12
467.391	130.12
467.61	113.12
467.829	126.12
468.049	117.12
468.268	132.12
468.488	124.12
468.707	120.12
468.927	128.12
469.146	129.12
469.365	135.12
469.585	127.12
469.804	118.12
470.023	117.12
470.243	128.12
470.462	124.12
470.681	116.12
470.901	126.12
471.12	130.12
471.339	119.12
471.558	120.12
471.777	132.12
471.997	125.12
472.216	129.12
472.435	129.12
472.654	128.12
472.873	122.12
473.092	124.12
473.311	111.12
473.53	131.12
473.749	129.12
473.968	129.12
474.187	136.12
474.406	119.12
474.625	127.12
474.844	124.12
475.063	115.12
475.282	130.12
475.501	119.12
475.72	141.12
475.939	119.12
476.158	134.12
476.377	134.12
476.596	135.12
476.814	124.12
477.033	123.12
477.252	136.12
477.471	128.12
477.69	120.12
477.908	142.12
478.127	131.12
478.346	131.12
478.564	139.12
478.783	132.12
479.002	129.12
479.22	133.12
479.439	139.12
479.658	138.12
479.876	118.12
480.095	135.12
480.313	141.12
480.532	141.12
480.751	136.12
480.969	139.12
481.188	151.12
481.406	127.12
481.624	144.12
481.843	135.12
482.061	129.12
482.28	132.12
482.498	138.12
482.717	123.12
482.935	140.12
483.153	134.12
483.372	127.12
483.59	135.12
483.808	136.12
484.027	128.12
484.245	126.12
484.463	123.12
484.681	144.12
484.9	133.12
485.118	136.12
485.336	140.12
485.554	137.12
485.772	134.12
485.99	128.12
486.209	136.12
486.427	139.12
486.645	133.12
486.863	149.12
487.081	136.12
487.299	146.12
487.517	133.12
487.735	133.12
487.953	155.12
488.171	145.12
488.389	149.12
488.607	134.12
488.825	133.12
489.043	136.12
489.261	160.12
489.479	140.12
489.696	134.12
489.914	152.12
490.132	140.12
490.35	145.12
490.568	137.12
490.786	145.12
491.003	134.12
491.221	161.12
491.439	145.12
491.657	135.12
491.874	148.12
492.092	155.12
492.31	151.12
492.527	149.12
492.745	145.12
492.963	154.12
493.18	155.12
493.398	145.12
493.615	154.12
493.833	149.12
494.05	138.12
494.268	143.12
494.485	148.12
494.703	139.12
494.92	144.12
495.138	144.12
495.355	151.12
495.573	150.12
495.79	123.12
496.008	155.12
496.225	144.12
496.442	148.12
496.66	156.12
496.877	159.12
497.094	166.12
497.312	158.12
497.529	149.12
497.746	146.12
497.963	161.12
498.181	172.12
498.398	150.12
498.615	159.12
498.832	158.12
499.049	170.12
499.267	170.12
499.484	147.12
499.701	179.12
499.918	198.12
500.135	199.12
500.352	214.12
500.569	204.12
500.786	201.12
501.003	193.12
501.22	200.12
501.437	183.12
501.654	188.12
501.871	173.12
502.088	172.12
502.305	162.12
502.522	159.12
502.739	158.12
502.956	157.12
503.172	142.12
503.389	152.12
503.606	151.12
503.823	146.12
504.04	153.12
504.256	171.12
504.473	163.12
504.69	155.12
504.907	163.12
