Data from 1968.PennyLincolnUp.Lamp.En5.5.200Scan.071719.P1._HRD10591_14-50-19-970.txt Node
Date: Thu Jul 18 14:50:19 EDT 2019
User: cochatt
Spectrometer: HR+D1059
Trigger mode: 1
Integration Time (sec): 1.000000E-1
Scans to average: 1
Electric dark correction enabled: true
Nonlinearity correction enabled: false
Boxcar width: 0
XAxis mode: Wavelengths
Number of Pixels in Spectrum: 2048
>>>>>Begin Spectral Data<<<<<
223.165	-16.56
223.4	-16.56
223.635	-16.56
223.869	-20.56
224.104	-7.56
224.338	-5.56
224.573	-13.56
224.808	-32.56
225.042	-3.56
225.277	-4.56
225.511	-18.56
225.746	-0.56
225.98	17.44
226.215	8.44
226.449	21.44
226.683	26.44
226.918	21.44
227.152	28.44
227.387	32.44
227.621	47.44
227.856	42.44
228.09	34.44
228.324	41.44
228.559	67.44
228.793	53.44
229.027	69.44
229.262	53.44
229.496	76.44
229.73	69.44
229.964	64.44
230.199	80.44
230.433	77.44
230.667	81.44
230.901	77.44
231.136	70.44
231.37	74.44
231.604	88.44
231.838	86.44
232.072	77.44
232.306	81.44
232.541	90.44
232.775	84.44
233.009	89.44
233.243	71.44
233.477	94.44
233.711	73.44
233.945	76.44
234.179	65.44
234.413	79.44
234.647	81.44
234.881	80.44
235.115	94.44
235.349	72.44
235.583	99.44
235.817	76.44
236.051	85.44
236.285	90.44
236.519	77.44
236.753	87.44
236.987	80.44
237.221	83.44
237.455	85.44
237.689	77.44
237.922	81.44
238.156	84.44
238.39	78.44
238.624	82.44
238.858	82.44
239.091	64.44
239.325	59.44
239.559	75.44
239.793	86.44
240.027	75.44
240.26	84.44
240.494	76.44
240.728	70.44
240.961	72.44
241.195	69.44
241.429	69.44
241.662	70.44
241.896	86.44
242.13	71.44
242.363	81.44
242.597	84.44
242.83	89.44
243.064	80.44
243.298	73.44
243.531	74.44
243.765	79.44
243.998	96.44
244.232	80.44
244.465	80.44
244.699	82.44
244.932	69.44
245.166	76.44
245.399	73.44
245.633	90.44
245.866	95.44
246.099	67.44
246.333	75.44
246.566	93.44
246.8	83.44
247.033	80.44
247.266	73.44
247.5	93.44
247.733	82.44
247.966	69.44
248.2	84.44
248.433	85.44
248.666	84.44
248.899	75.44
249.133	88.44
249.366	91.44
249.599	87.44
249.832	81.44
250.066	92.44
250.299	83.44
250.532	82.44
250.765	83.44
250.998	81.44
251.231	80.44
251.465	86.44
251.698	89.44
251.931	87.44
252.164	105.44
252.397	90.44
252.63	97.44
252.863	77.44
253.096	88.44
253.329	73.44
253.562	84.44
253.795	82.44
254.028	91.44
254.261	89.44
254.494	92.44
254.727	78.44
254.96	99.44
255.193	103.44
255.426	103.44
255.659	84.44
255.892	81.44
256.124	84.44
256.357	87.44
256.59	104.44
256.823	92.44
257.056	88.44
257.289	80.44
257.521	81.44
257.754	88.44
257.987	102.44
258.22	100.44
258.452	100.44
258.685	85.44
258.918	84.44
259.151	99.44
259.383	97.44
259.616	81.44
259.849	85.44
260.081	84.44
260.314	81.44
260.547	91.44
260.779	90.44
261.012	89.44
261.244	87.44
261.477	102.44
261.71	82.44
261.942	96.44
262.175	95.44
262.407	95.44
262.64	95.44
262.872	95.44
263.105	87.44
263.337	101.44
263.57	79.44
263.802	81.44
264.035	91.44
264.267	86.44
264.499	98.44
264.732	95.44
264.964	91.44
265.197	92.44
265.429	96.44
265.661	86.44
265.894	82.44
266.126	102.44
266.358	90.44
266.591	108.44
266.823	100.44
267.055	92.44
267.287	96.44
267.52	89.44
267.752	91.44
267.984	102.44
268.216	93.44
268.448	94.44
268.681	91.44
268.913	103.44
269.145	91.44
269.377	89.44
269.609	94.44
269.841	85.44
270.073	87.44
270.306	106.44
270.538	108.44
270.77	85.44
271.002	96.44
271.234	101.44
271.466	98.44
271.698	97.44
271.93	95.44
272.162	96.44
272.394	105.44
272.626	104.44
272.858	86.44
273.09	87.44
273.322	106.44
273.553	101.44
273.785	103.44
274.017	95.44
274.249	104.44
274.481	94.44
274.713	91.44
274.945	87.44
275.176	93.44
275.408	89.44
275.64	77.44
275.872	101.44
276.104	94.44
276.335	84.44
276.567	91.44
276.799	83.44
277.031	97.44
277.262	103.44
277.494	98.44
277.726	107.44
277.957	101.44
278.189	97.44
278.421	88.44
278.652	91.44
278.884	104.44
279.115	99.44
279.347	85.44
279.579	99.44
279.81	89.44
280.042	95.44
280.273	83.44
280.505	78.44
280.736	83.44
280.968	100.44
281.199	100.44
281.431	97.44
281.662	96.44
281.894	93.44
282.125	98.44
282.356	108.44
282.588	108.44
282.819	89.44
283.051	85.44
283.282	99.44
283.513	93.44
283.745	87.44
283.976	100.44
284.207	96.44
284.439	103.44
284.67	90.44
284.901	91.44
285.132	93.44
285.364	89.44
285.595	96.44
285.826	93.44
286.057	97.44
286.288	109.44
286.52	104.44
286.751	93.44
286.982	103.44
287.213	97.44
287.444	93.44
287.675	95.44
287.906	95.44
288.138	88.44
288.369	109.44
288.6	107.44
288.831	93.44
289.062	96.44
289.293	105.44
289.524	104.44
289.755	101.44
289.986	101.44
290.217	88.44
290.448	99.44
290.679	97.44
290.91	108.44
291.141	120.44
291.371	107.44
291.602	97.44
291.833	102.44
292.064	91.44
292.295	84.44
292.526	91.44
292.757	104.44
292.987	91.44
293.218	80.44
293.449	111.44
293.68	96.44
293.91	107.44
294.141	95.44
294.372	100.44
294.603	102.44
294.833	105.44
295.064	92.44
295.295	81.44
295.525	101.44
295.756	105.44
295.987	91.44
296.217	92.44
296.448	111.44
296.679	108.44
296.909	113.44
297.14	121.44
297.37	118.44
297.601	111.44
297.831	118.44
298.062	96.44
298.292	95.44
298.523	96.44
298.753	96.44
298.984	103.44
299.214	102.44
299.445	92.44
299.675	104.44
299.905	111.44
300.136	106.44
300.366	98.44
300.597	99.44
300.827	98.44
301.057	110.44
301.288	116.44
301.518	101.44
301.748	104.44
301.979	91.44
302.209	98.44
302.439	103.44
302.669	103.44
302.9	98.44
303.13	98.44
303.36	105.44
303.59	111.44
303.82	107.44
304.051	103.44
304.281	113.44
304.511	120.44
304.741	126.44
304.971	99.44
305.201	103.44
305.431	93.44
305.661	113.44
305.891	106.44
306.121	97.44
306.352	118.44
306.582	104.44
306.812	106.44
307.042	104.44
307.272	101.44
307.502	99.44
307.731	96.44
307.961	110.44
308.191	94.44
308.421	101.44
308.651	99.44
308.881	107.44
309.111	120.44
309.341	112.44
309.571	88.44
309.8	115.44
310.03	97.44
310.26	92.44
310.49	102.44
310.72	104.44
310.949	100.44
311.179	107.44
311.409	112.44
311.639	115.44
311.868	110.44
312.098	100.44
312.328	107.44
312.557	109.44
312.787	120.44
313.017	105.44
313.246	108.44
313.476	106.44
313.706	114.44
313.935	106.44
314.165	103.44
314.394	103.44
314.624	101.44
314.853	88.44
315.083	101.44
315.312	100.44
315.542	104.44
315.771	114.44
316.001	101.44
316.23	117.44
316.46	98.44
316.689	99.44
316.919	106.44
317.148	106.44
317.377	119.44
317.607	97.44
317.836	114.44
318.065	112.44
318.295	108.44
318.524	117.44
318.753	107.44
318.983	107.44
319.212	104.44
319.441	106.44
319.67	99.44
319.9	91.44
320.129	108.44
320.358	117.44
320.587	95.44
320.816	95.44
321.046	101.44
321.275	120.44
321.504	88.44
321.733	99.44
321.962	105.44
322.191	113.44
322.42	102.44
322.649	119.44
322.878	124.44
323.108	101.44
323.337	105.44
323.566	112.44
323.795	111.44
324.024	112.44
324.253	127.44
324.482	132.44
324.71	135.44
324.939	185.44
325.168	145.44
325.397	121.44
325.626	118.44
325.855	97.44
326.084	107.44
326.313	116.44
326.542	108.44
326.77	116.44
326.999	102.44
327.228	121.44
327.457	149.44
327.686	141.44
327.914	123.44
328.143	128.44
328.372	122.44
328.6	108.44
328.829	121.44
329.058	117.44
329.287	114.44
329.515	93.44
329.744	106.44
329.972	111.44
330.201	116.44
330.43	110.44
330.658	111.44
330.887	114.44
331.115	119.44
331.344	97.44
331.572	119.44
331.801	95.44
332.03	119.44
332.258	111.44
332.486	107.44
332.715	119.44
332.943	109.44
333.172	117.44
333.4	113.44
333.629	124.44
333.857	125.44
334.085	123.44
334.314	112.44
334.542	117.44
334.771	112.44
334.999	114.44
335.227	104.44
335.455	123.44
335.684	109.44
335.912	120.44
336.14	118.44
336.369	113.44
336.597	115.44
336.825	122.44
337.053	112.44
337.281	106.44
337.51	129.44
337.738	104.44
337.966	119.44
338.194	110.44
338.422	112.44
338.65	122.44
338.878	106.44
339.106	105.44
339.334	102.44
339.562	118.44
339.79	123.44
340.018	112.44
340.246	93.44
340.474	101.44
340.702	106.44
340.93	95.44
341.158	99.44
341.386	106.44
341.614	125.44
341.842	109.44
342.07	106.44
342.298	107.44
342.526	106.44
342.754	109.44
342.981	118.44
343.209	115.44
343.437	118.44
343.665	113.44
343.893	104.44
344.12	113.44
344.348	113.44
344.576	105.44
344.804	113.44
345.031	102.44
345.259	89.44
345.487	92.44
345.714	111.44
345.942	104.44
346.17	100.44
346.397	114.44
346.625	112.44
346.853	118.44
347.08	106.44
347.308	112.44
347.535	100.44
347.763	113.44
347.99	102.44
348.218	102.44
348.445	109.44
348.673	103.44
348.9	118.44
349.128	100.44
349.355	100.44
349.583	104.44
349.81	111.44
350.037	111.44
350.265	109.44
350.492	106.44
350.72	108.44
350.947	99.44
351.174	118.44
351.402	106.44
351.629	108.44
351.856	93.44
352.083	94.44
352.311	104.44
352.538	95.44
352.765	109.44
352.992	100.44
353.22	116.44
353.447	110.44
353.674	102.44
353.901	100.44
354.128	121.44
354.355	108.44
354.583	108.44
354.81	114.44
355.037	108.44
355.264	113.44
355.491	127.44
355.718	112.44
355.945	100.44
356.172	100.44
356.399	104.44
356.626	100.44
356.853	109.44
357.08	98.44
357.307	95.44
357.534	96.44
357.761	90.44
357.988	100.44
358.215	103.44
358.441	128.44
358.668	106.44
358.895	123.44
359.122	101.44
359.349	101.44
359.576	100.44
359.802	116.44
360.029	113.44
360.256	117.44
360.483	108.44
360.709	93.44
360.936	119.44
361.163	104.44
361.39	108.44
361.616	106.44
361.843	95.44
362.07	111.44
362.296	95.44
362.523	98.44
362.749	111.44
362.976	110.44
363.203	104.44
363.429	103.44
363.656	108.44
363.882	119.44
364.109	106.44
364.335	114.44
364.562	100.44
364.788	114.44
365.015	102.44
365.241	91.44
365.468	115.44
365.694	120.44
365.92	105.44
366.147	101.44
366.373	98.44
366.599	101.44
366.826	94.44
367.052	103.44
367.278	107.44
367.505	105.44
367.731	117.44
367.957	116.44
368.184	113.44
368.41	120.44
368.636	103.44
368.862	98.44
369.089	104.44
369.315	106.44
369.541	118.44
369.767	105.44
369.993	119.44
370.219	119.44
370.445	110.44
370.672	108.44
370.898	106.44
371.124	104.44
371.35	98.44
371.576	105.44
371.802	107.44
372.028	106.44
372.254	115.44
372.48	112.44
372.706	114.44
372.932	107.44
373.158	100.44
373.384	131.44
373.61	115.44
373.835	109.44
374.061	113.44
374.287	103.44
374.513	105.44
374.739	116.44
374.965	111.44
375.191	103.44
375.416	100.44
375.642	127.44
375.868	123.44
376.094	112.44
376.319	115.44
376.545	106.44
376.771	120.44
376.997	121.44
377.222	104.44
377.448	111.44
377.674	127.44
377.899	106.44
378.125	110.44
378.35	111.44
378.576	99.44
378.802	104.44
379.027	104.44
379.253	116.44
379.478	115.44
379.704	108.44
379.929	108.44
380.155	119.44
380.38	104.44
380.606	107.44
380.831	117.44
381.057	129.44
381.282	112.44
381.507	117.44
381.733	124.44
381.958	112.44
382.184	104.44
382.409	103.44
382.634	109.44
382.86	116.44
383.085	99.44
383.31	93.44
383.535	123.44
383.761	98.44
383.986	113.44
384.211	127.44
384.436	115.44
384.662	112.44
384.887	124.44
385.112	114.44
385.337	114.44
385.562	112.44
385.787	105.44
386.013	115.44
386.238	107.44
386.463	117.44
386.688	127.44
386.913	101.44
387.138	119.44
387.363	112.44
387.588	115.44
387.813	118.44
388.038	120.44
388.263	120.44
388.488	113.44
388.713	107.44
388.938	115.44
389.163	123.44
389.387	109.44
389.612	119.44
389.837	111.44
390.062	96.44
390.287	110.44
390.512	115.44
390.736	120.44
390.961	100.44
391.186	100.44
391.411	122.44
391.636	115.44
391.86	109.44
392.085	127.44
392.31	106.44
392.534	117.44
392.759	123.44
392.984	123.44
393.208	108.44
393.433	100.44
393.658	121.44
393.882	121.44
394.107	115.44
394.331	113.44
394.556	131.44
394.78	121.44
395.005	127.44
395.229	108.44
395.454	106.44
395.678	121.44
395.903	126.44
396.127	116.44
396.352	119.44
396.576	101.44
396.801	117.44
397.025	113.44
397.249	120.44
397.474	115.44
397.698	103.44
397.922	117.44
398.147	121.44
398.371	116.44
398.595	124.44
398.82	121.44
399.044	123.44
399.268	130.44
399.492	141.44
399.717	150.44
399.941	140.44
400.165	127.44
400.389	132.44
400.613	133.44
400.837	122.44
401.062	124.44
401.286	128.44
401.51	135.44
401.734	140.44
401.958	130.44
402.182	123.44
402.406	123.44
402.63	120.44
402.854	125.44
403.078	139.44
403.302	117.44
403.526	122.44
403.75	134.44
403.974	132.44
404.198	134.44
404.422	125.44
404.645	133.44
404.869	115.44
405.093	126.44
405.317	131.44
405.541	147.44
405.765	140.44
405.988	127.44
406.212	115.44
406.436	132.44
406.66	135.44
406.883	136.44
407.107	134.44
407.331	138.44
407.555	136.44
407.778	140.44
408.002	130.44
408.226	147.44
408.449	126.44
408.673	139.44
408.896	140.44
409.12	141.44
409.344	147.44
409.567	130.44
409.791	134.44
410.014	135.44
410.238	130.44
410.461	127.44
410.685	127.44
410.908	138.44
411.132	124.44
411.355	133.44
411.578	121.44
411.802	131.44
412.025	114.44
412.249	118.44
412.472	123.44
412.695	128.44
412.919	130.44
413.142	131.44
413.365	134.44
413.589	119.44
413.812	118.44
414.035	128.44
414.258	127.44
414.482	128.44
414.705	139.44
414.928	123.44
415.151	128.44
415.374	134.44
415.597	140.44
415.821	108.44
416.044	125.44
416.267	126.44
416.49	128.44
416.713	123.44
416.936	125.44
417.159	140.44
417.382	117.44
417.605	118.44
417.828	121.44
418.051	106.44
418.274	129.44
418.497	139.44
418.72	116.44
418.943	117.44
419.166	120.44
419.389	118.44
419.611	127.44
419.834	153.44
420.057	129.44
420.28	123.44
420.503	133.44
420.726	130.44
420.948	124.44
421.171	130.44
421.394	133.44
421.617	147.44
421.839	123.44
422.062	118.44
422.285	131.44
422.507	132.44
422.73	123.44
422.953	112.44
423.175	133.44
423.398	144.44
423.621	128.44
423.843	132.44
424.066	140.44
424.288	120.44
424.511	141.44
424.733	130.44
424.956	121.44
425.178	141.44
425.401	151.44
425.623	135.44
425.846	123.44
426.068	121.44
426.291	116.44
426.513	127.44
426.735	114.44
426.958	136.44
427.18	125.44
427.402	145.44
427.625	135.44
427.847	134.44
428.069	121.44
428.292	137.44
428.514	128.44
428.736	123.44
428.958	105.44
429.181	139.44
429.403	111.44
429.625	124.44
429.847	136.44
430.069	128.44
430.292	122.44
430.514	129.44
430.736	117.44
430.958	122.44
431.18	120.44
431.402	128.44
431.624	135.44
431.846	114.44
432.068	131.44
432.29	114.44
432.512	131.44
432.734	123.44
432.956	120.44
433.178	117.44
433.4	120.44
433.622	131.44
433.844	121.44
434.066	115.44
434.287	118.44
434.509	124.44
434.731	139.44
434.953	129.44
435.175	114.44
435.397	125.44
435.618	122.44
435.84	148.44
436.062	138.44
436.284	146.44
436.505	139.44
436.727	135.44
436.949	116.44
437.17	117.44
437.392	125.44
437.614	111.44
437.835	122.44
438.057	134.44
438.278	147.44
438.5	131.44
438.721	138.44
438.943	142.44
439.165	131.44
439.386	124.44
439.608	121.44
439.829	128.44
440.05	123.44
440.272	142.44
440.493	117.44
440.715	113.44
440.936	109.44
441.158	124.44
441.379	122.44
441.6	115.44
441.822	132.44
442.043	118.44
442.264	131.44
442.486	128.44
442.707	127.44
442.928	128.44
443.149	140.44
443.371	127.44
443.592	137.44
443.813	142.44
444.034	137.44
444.255	137.44
444.476	129.44
444.698	157.44
444.919	127.44
445.14	248.44
445.361	189.44
445.582	153.44
445.803	118.44
446.024	133.44
446.245	145.44
446.466	127.44
446.687	120.44
446.908	115.44
447.129	128.44
447.35	132.44
447.571	123.44
447.792	129.44
448.013	118.44
448.234	115.44
448.455	133.44
448.675	135.44
448.896	120.44
449.117	144.44
449.338	136.44
449.559	141.44
449.779	143.44
450	131.44
450.221	127.44
450.442	115.44
450.662	120.44
450.883	104.44
451.104	123.44
451.324	113.44
451.545	126.44
451.766	119.44
451.986	120.44
452.207	120.44
452.428	127.44
452.648	115.44
452.869	98.44
453.089	115.44
453.31	127.44
453.53	118.44
453.751	111.44
453.971	117.44
454.192	108.44
454.412	122.44
454.633	111.44
454.853	104.44
455.073	114.44
455.294	104.44
455.514	121.44
455.734	122.44
455.955	121.44
456.175	113.44
456.395	110.44
456.616	119.44
456.836	121.44
457.056	114.44
457.276	120.44
457.497	116.44
457.717	130.44
457.937	109.44
458.157	111.44
458.377	117.44
458.598	115.44
458.818	126.44
459.038	121.44
459.258	129.44
459.478	121.44
459.698	129.44
459.918	142.44
460.138	124.44
460.358	133.44
460.578	125.44
460.798	133.44
461.018	130.44
461.238	120.44
461.458	123.44
461.678	111.44
461.898	128.44
462.118	117.44
462.338	131.44
462.558	138.44
462.777	124.44
462.997	135.44
463.217	127.44
463.437	136.44
463.657	122.44
463.876	131.44
464.096	134.44
464.316	140.44
464.536	122.44
464.755	133.44
464.975	135.44
465.195	128.44
465.414	125.44
465.634	118.44
465.854	117.44
466.073	111.44
466.293	126.44
466.512	119.44
466.732	109.44
466.951	139.44
467.171	136.44
467.391	128.44
467.61	121.44
467.829	117.44
468.049	109.44
468.268	113.44
468.488	106.44
468.707	111.44
468.927	113.44
469.146	121.44
469.365	123.44
469.585	127.44
469.804	125.44
470.023	129.44
470.243	116.44
470.462	121.44
470.681	124.44
470.901	127.44
471.12	117.44
471.339	125.44
471.558	133.44
471.777	131.44
471.997	132.44
472.216	124.44
472.435	118.44
472.654	134.44
472.873	117.44
473.092	122.44
473.311	123.44
473.53	124.44
473.749	101.44
473.968	123.44
474.187	136.44
474.406	115.44
474.625	121.44
474.844	115.44
475.063	125.44
475.282	121.44
475.501	123.44
475.72	113.44
475.939	121.44
476.158	121.44
476.377	112.44
476.596	131.44
476.814	121.44
477.033	118.44
477.252	120.44
477.471	128.44
477.69	116.44
477.908	125.44
478.127	124.44
478.346	130.44
478.564	131.44
478.783	125.44
479.002	123.44
479.22	125.44
479.439	129.44
479.658	137.44
479.876	121.44
480.095	117.44
480.313	148.44
480.532	126.44
480.751	142.44
480.969	129.44
481.188	117.44
481.406	135.44
481.624	127.44
481.843	118.44
482.061	131.44
482.28	132.44
482.498	121.44
482.717	140.44
482.935	136.44
483.153	136.44
483.372	137.44
483.59	124.44
483.808	120.44
484.027	140.44
484.245	129.44
484.463	125.44
484.681	126.44
484.9	133.44
485.118	136.44
485.336	129.44
485.554	135.44
485.772	113.44
485.99	103.44
486.209	143.44
486.427	135.44
486.645	134.44
486.863	130.44
487.081	139.44
487.299	122.44
487.517	132.44
487.735	135.44
487.953	137.44
488.171	145.44
488.389	127.44
488.607	124.44
488.825	132.44
489.043	129.44
489.261	127.44
489.479	145.44
489.696	125.44
489.914	119.44
490.132	130.44
490.35	141.44
490.568	135.44
490.786	136.44
491.003	130.44
491.221	133.44
491.439	134.44
491.657	150.44
491.874	154.44
492.092	146.44
492.31	135.44
492.527	135.44
492.745	144.44
492.963	154.44
493.18	157.44
493.398	139.44
493.615	132.44
493.833	138.44
494.05	130.44
494.268	135.44
494.485	142.44
494.703	149.44
494.92	138.44
495.138	140.44
495.355	146.44
495.573	149.44
495.79	146.44
496.008	153.44
496.225	145.44
496.442	142.44
496.66	149.44
496.877	144.44
497.094	162.44
497.312	155.44
497.529	148.44
497.746	151.44
497.963	147.44
498.181	140.44
498.398	161.44
498.615	160.44
498.832	151.44
499.049	166.44
499.267	155.44
499.484	179.44
499.701	169.44
499.918	171.44
500.135	198.44
500.352	203.44
500.569	188.44
500.786	211.44
501.003	196.44
501.22	177.44
501.437	186.44
501.654	168.44
501.871	161.44
502.088	167.44
502.305	149.44
502.522	151.44
502.739	147.44
502.956	151.44
503.172	152.44
503.389	130.44
503.606	139.44
503.823	139.44
504.04	140.44
504.256	142.44
504.473	139.44
504.69	133.44
504.907	139.44
505.123	144.44
505.34	140.44
505.557	137.44
505.773	140.44
505.99	130.44
