Data from 1968.PennyLincolnUp.Lamp.En5.5.200Scan.071719.P1._HRD10591_14-50-32-970.txt Node
Date: Thu Jul 18 14:50:32 EDT 2019
User: cochatt
Spectrometer: HR+D1059
Trigger mode: 1
Integration Time (sec): 1.000000E-1
Scans to average: 1
Electric dark correction enabled: true
Nonlinearity correction enabled: false
Boxcar width: 0
XAxis mode: Wavelengths
Number of Pixels in Spectrum: 2048
>>>>>Begin Spectral Data<<<<<
223.165	-33.06
223.4	-33.06
223.635	-33.06
223.869	-17.06
224.104	-15.06
224.338	-20.06
224.573	-14.06
224.808	-16.06
225.042	-6.06
225.277	-6.06
225.511	5.94
225.746	-9.06
225.98	2.94
226.215	8.94
226.449	22.94
226.683	19.94
226.918	26.94
227.152	48.94
227.387	13.94
227.621	36.94
227.856	30.94
228.09	45.94
228.324	48.94
228.559	52.94
228.793	57.94
229.027	58.94
229.262	60.94
229.496	67.94
229.73	73.94
229.964	75.94
230.199	85.94
230.433	72.94
230.667	73.94
230.901	68.94
231.136	80.94
231.37	81.94
231.604	78.94
231.838	87.94
232.072	71.94
232.306	77.94
232.541	80.94
232.775	69.94
233.009	86.94
233.243	76.94
233.477	70.94
233.711	73.94
233.945	70.94
234.179	81.94
234.413	73.94
234.647	71.94
234.881	81.94
235.115	80.94
235.349	74.94
235.583	81.94
235.817	72.94
236.051	77.94
236.285	88.94
236.519	92.94
236.753	76.94
236.987	91.94
237.221	84.94
237.455	92.94
237.689	88.94
237.922	77.94
238.156	65.94
238.39	74.94
238.624	81.94
238.858	72.94
239.091	79.94
239.325	73.94
239.559	81.94
239.793	86.94
240.027	89.94
240.26	75.94
240.494	89.94
240.728	78.94
240.961	84.94
241.195	77.94
241.429	78.94
241.662	88.94
241.896	73.94
242.13	80.94
242.363	84.94
242.597	82.94
242.83	67.94
243.064	80.94
243.298	72.94
243.531	58.94
243.765	81.94
243.998	81.94
244.232	72.94
244.465	89.94
244.699	75.94
244.932	72.94
245.166	84.94
245.399	97.94
245.633	84.94
245.866	73.94
246.099	87.94
246.333	91.94
246.566	87.94
246.8	82.94
247.033	74.94
247.266	73.94
247.5	82.94
247.733	82.94
247.966	93.94
248.2	72.94
248.433	85.94
248.666	89.94
248.899	88.94
249.133	78.94
249.366	92.94
249.599	95.94
249.832	92.94
250.066	80.94
250.299	81.94
250.532	89.94
250.765	85.94
250.998	100.94
251.231	98.94
251.465	95.94
251.698	78.94
251.931	85.94
252.164	92.94
252.397	88.94
252.63	97.94
252.863	81.94
253.096	89.94
253.329	105.94
253.562	86.94
253.795	81.94
254.028	93.94
254.261	65.94
254.494	82.94
254.727	89.94
254.96	106.94
255.193	105.94
255.426	101.94
255.659	89.94
255.892	86.94
256.124	92.94
256.357	88.94
256.59	90.94
256.823	77.94
257.056	86.94
257.289	92.94
257.521	93.94
257.754	96.94
257.987	87.94
258.22	89.94
258.452	81.94
258.685	88.94
258.918	98.94
259.151	82.94
259.383	82.94
259.616	90.94
259.849	91.94
260.081	81.94
260.314	84.94
260.547	71.94
260.779	98.94
261.012	83.94
261.244	109.94
261.477	103.94
261.71	80.94
261.942	85.94
262.175	86.94
262.407	82.94
262.64	77.94
262.872	94.94
263.105	97.94
263.337	85.94
263.57	83.94
263.802	90.94
264.035	88.94
264.267	91.94
264.499	99.94
264.732	87.94
264.964	87.94
265.197	90.94
265.429	95.94
265.661	90.94
265.894	96.94
266.126	91.94
266.358	91.94
266.591	81.94
266.823	100.94
267.055	92.94
267.287	77.94
267.52	87.94
267.752	104.94
267.984	103.94
268.216	105.94
268.448	77.94
268.681	88.94
268.913	79.94
269.145	85.94
269.377	98.94
269.609	96.94
269.841	79.94
270.073	95.94
270.306	78.94
270.538	90.94
270.77	88.94
271.002	93.94
271.234	96.94
271.466	109.94
271.698	104.94
271.93	111.94
272.162	103.94
272.394	104.94
272.626	91.94
272.858	92.94
273.09	92.94
273.322	112.94
273.553	103.94
273.785	96.94
274.017	108.94
274.249	99.94
274.481	95.94
274.713	86.94
274.945	100.94
275.176	102.94
275.408	89.94
275.64	90.94
275.872	97.94
276.104	78.94
276.335	84.94
276.567	99.94
276.799	79.94
277.031	95.94
277.262	109.94
277.494	104.94
277.726	92.94
277.957	98.94
278.189	103.94
278.421	119.94
278.652	85.94
278.884	99.94
279.115	98.94
279.347	101.94
279.579	105.94
279.81	105.94
280.042	98.94
280.273	93.94
280.505	87.94
280.736	100.94
280.968	93.94
281.199	93.94
281.431	88.94
281.662	96.94
281.894	95.94
282.125	86.94
282.356	113.94
282.588	98.94
282.819	98.94
283.051	103.94
283.282	99.94
283.513	108.94
283.745	86.94
283.976	92.94
284.207	117.94
284.439	111.94
284.67	92.94
284.901	95.94
285.132	105.94
285.364	85.94
285.595	82.94
285.826	95.94
286.057	96.94
286.288	95.94
286.52	88.94
286.751	98.94
286.982	95.94
287.213	87.94
287.444	115.94
287.675	93.94
287.906	108.94
288.138	96.94
288.369	82.94
288.6	102.94
288.831	102.94
289.062	83.94
289.293	96.94
289.524	100.94
289.755	97.94
289.986	101.94
290.217	96.94
290.448	101.94
290.679	97.94
290.91	95.94
291.141	111.94
291.371	117.94
291.602	100.94
291.833	100.94
292.064	103.94
292.295	111.94
292.526	96.94
292.757	97.94
292.987	100.94
293.218	101.94
293.449	99.94
293.68	99.94
293.91	114.94
294.141	87.94
294.372	113.94
294.603	116.94
294.833	100.94
295.064	107.94
295.295	112.94
295.525	107.94
295.756	90.94
295.987	97.94
296.217	104.94
296.448	94.94
296.679	105.94
296.909	110.94
297.14	118.94
297.37	91.94
297.601	106.94
297.831	96.94
298.062	103.94
298.292	98.94
298.523	113.94
298.753	100.94
298.984	104.94
299.214	93.94
299.445	101.94
299.675	87.94
299.905	99.94
300.136	108.94
300.366	114.94
300.597	105.94
300.827	88.94
301.057	100.94
301.288	92.94
301.518	99.94
301.748	93.94
301.979	95.94
302.209	114.94
302.439	106.94
302.669	122.94
302.9	111.94
303.13	111.94
303.36	106.94
303.59	113.94
303.82	105.94
304.051	99.94
304.281	104.94
304.511	111.94
304.741	91.94
304.971	101.94
305.201	107.94
305.431	119.94
305.661	115.94
305.891	115.94
306.121	109.94
306.352	107.94
306.582	104.94
306.812	95.94
307.042	92.94
307.272	100.94
307.502	107.94
307.731	96.94
307.961	100.94
308.191	103.94
308.421	103.94
308.651	106.94
308.881	103.94
309.111	104.94
309.341	95.94
309.571	107.94
309.8	97.94
310.03	98.94
310.26	102.94
310.49	96.94
310.72	100.94
310.949	107.94
311.179	114.94
311.409	106.94
311.639	117.94
311.868	94.94
312.098	102.94
312.328	92.94
312.557	109.94
312.787	109.94
313.017	107.94
313.246	115.94
313.476	89.94
313.706	111.94
313.935	97.94
314.165	105.94
314.394	105.94
314.624	105.94
314.853	89.94
315.083	119.94
315.312	116.94
315.542	118.94
315.771	112.94
316.001	114.94
316.23	108.94
316.46	112.94
316.689	109.94
316.919	101.94
317.148	104.94
317.377	118.94
317.607	119.94
317.836	103.94
318.065	125.94
318.295	118.94
318.524	113.94
318.753	109.94
318.983	106.94
319.212	106.94
319.441	106.94
319.67	107.94
319.9	101.94
320.129	97.94
320.358	109.94
320.587	95.94
320.816	107.94
321.046	109.94
321.275	112.94
321.504	91.94
321.733	106.94
321.962	94.94
322.191	124.94
322.42	123.94
322.649	103.94
322.878	107.94
323.108	92.94
323.337	95.94
323.566	120.94
323.795	112.94
324.024	124.94
324.253	120.94
324.482	124.94
324.71	152.94
324.939	177.94
325.168	156.94
325.397	117.94
325.626	121.94
325.855	95.94
326.084	119.94
326.313	108.94
326.542	108.94
326.77	108.94
326.999	120.94
327.228	111.94
327.457	136.94
327.686	145.94
327.914	131.94
328.143	111.94
328.372	95.94
328.6	96.94
328.829	115.94
329.058	107.94
329.287	105.94
329.515	114.94
329.744	95.94
329.972	120.94
330.201	112.94
330.43	93.94
330.658	104.94
330.887	102.94
331.115	105.94
331.344	113.94
331.572	118.94
331.801	114.94
332.03	127.94
332.258	127.94
332.486	119.94
332.715	109.94
332.943	121.94
333.172	114.94
333.4	116.94
333.629	114.94
333.857	121.94
334.085	118.94
334.314	115.94
334.542	113.94
334.771	116.94
334.999	106.94
335.227	125.94
335.455	117.94
335.684	123.94
335.912	109.94
336.14	119.94
336.369	102.94
336.597	100.94
336.825	122.94
337.053	111.94
337.281	120.94
337.51	109.94
337.738	125.94
337.966	116.94
338.194	110.94
338.422	113.94
338.65	119.94
338.878	108.94
339.106	121.94
339.334	108.94
339.562	111.94
339.79	114.94
340.018	106.94
340.246	119.94
340.474	119.94
340.702	106.94
340.93	108.94
341.158	108.94
341.386	101.94
341.614	114.94
341.842	113.94
342.07	120.94
342.298	112.94
342.526	115.94
342.754	108.94
342.981	107.94
343.209	119.94
343.437	108.94
343.665	114.94
343.893	114.94
344.12	117.94
344.348	119.94
344.576	108.94
344.804	108.94
345.031	114.94
345.259	119.94
345.487	100.94
345.714	118.94
345.942	108.94
346.17	115.94
346.397	104.94
346.625	104.94
346.853	98.94
347.08	123.94
347.308	103.94
347.535	110.94
347.763	119.94
347.99	97.94
348.218	108.94
348.445	113.94
348.673	108.94
348.9	106.94
349.128	110.94
349.355	101.94
349.583	108.94
349.81	102.94
350.037	116.94
350.265	101.94
350.492	109.94
350.72	116.94
350.947	113.94
351.174	107.94
351.402	114.94
351.629	123.94
351.856	106.94
352.083	104.94
352.311	120.94
352.538	98.94
352.765	128.94
352.992	121.94
353.22	124.94
353.447	108.94
353.674	111.94
353.901	110.94
354.128	115.94
354.355	115.94
354.583	116.94
354.81	111.94
355.037	96.94
355.264	123.94
355.491	109.94
355.718	101.94
355.945	105.94
356.172	130.94
356.399	95.94
356.626	110.94
356.853	113.94
357.08	106.94
357.307	109.94
357.534	96.94
357.761	104.94
357.988	112.94
358.215	108.94
358.441	113.94
358.668	104.94
358.895	103.94
359.122	111.94
359.349	104.94
359.576	104.94
359.802	113.94
360.029	120.94
360.256	100.94
360.483	106.94
360.709	103.94
360.936	116.94
361.163	97.94
361.39	120.94
361.616	99.94
361.843	109.94
362.07	103.94
362.296	100.94
362.523	114.94
362.749	113.94
362.976	115.94
363.203	115.94
363.429	119.94
363.656	104.94
363.882	108.94
364.109	100.94
364.335	106.94
364.562	113.94
364.788	107.94
365.015	110.94
365.241	125.94
365.468	128.94
365.694	115.94
365.92	114.94
366.147	111.94
366.373	99.94
366.599	118.94
366.826	104.94
367.052	113.94
367.278	107.94
367.505	99.94
367.731	96.94
367.957	91.94
368.184	101.94
368.41	111.94
368.636	101.94
368.862	119.94
369.089	105.94
369.315	113.94
369.541	115.94
369.767	120.94
369.993	101.94
370.219	115.94
370.445	112.94
370.672	113.94
370.898	98.94
371.124	122.94
371.35	104.94
371.576	108.94
371.802	108.94
372.028	101.94
372.254	107.94
372.48	115.94
372.706	110.94
372.932	119.94
373.158	107.94
373.384	116.94
373.61	115.94
373.835	117.94
374.061	89.94
374.287	103.94
374.513	108.94
374.739	107.94
374.965	106.94
375.191	98.94
375.416	108.94
375.642	103.94
375.868	118.94
376.094	112.94
376.319	120.94
376.545	105.94
376.771	97.94
376.997	114.94
377.222	113.94
377.448	100.94
377.674	115.94
377.899	118.94
378.125	120.94
378.35	125.94
378.576	103.94
378.802	105.94
379.027	106.94
379.253	119.94
379.478	99.94
379.704	120.94
379.929	111.94
380.155	100.94
380.38	106.94
380.606	99.94
380.831	113.94
381.057	115.94
381.282	98.94
381.507	122.94
381.733	100.94
381.958	111.94
382.184	113.94
382.409	110.94
382.634	109.94
382.86	115.94
383.085	115.94
383.31	98.94
383.535	110.94
383.761	105.94
383.986	122.94
384.211	106.94
384.436	125.94
384.662	131.94
384.887	117.94
385.112	122.94
385.337	114.94
385.562	121.94
385.787	106.94
386.013	119.94
386.238	122.94
386.463	119.94
386.688	114.94
386.913	99.94
387.138	91.94
387.363	102.94
387.588	114.94
387.813	120.94
388.038	113.94
388.263	111.94
388.488	124.94
388.713	110.94
388.938	111.94
389.163	138.94
389.387	111.94
389.612	108.94
389.837	113.94
390.062	120.94
390.287	116.94
390.512	109.94
390.736	135.94
390.961	115.94
391.186	116.94
391.411	120.94
391.636	105.94
391.86	132.94
392.085	117.94
392.31	125.94
392.534	116.94
392.759	125.94
392.984	97.94
393.208	121.94
393.433	117.94
393.658	107.94
393.882	102.94
394.107	116.94
394.331	123.94
394.556	131.94
394.78	115.94
395.005	128.94
395.229	123.94
395.454	109.94
395.678	119.94
395.903	118.94
396.127	123.94
396.352	123.94
396.576	116.94
396.801	113.94
397.025	104.94
397.249	120.94
397.474	121.94
397.698	121.94
397.922	108.94
398.147	132.94
398.371	124.94
398.595	115.94
398.82	119.94
399.044	130.94
399.268	141.94
399.492	142.94
399.717	150.94
399.941	154.94
400.165	145.94
400.389	135.94
400.613	127.94
400.837	133.94
401.062	129.94
401.286	134.94
401.51	125.94
401.734	127.94
401.958	123.94
402.182	124.94
402.406	124.94
402.63	112.94
402.854	131.94
403.078	122.94
403.302	120.94
403.526	136.94
403.75	125.94
403.974	125.94
404.198	126.94
404.422	132.94
404.645	135.94
404.869	128.94
405.093	117.94
405.317	135.94
405.541	135.94
405.765	127.94
405.988	141.94
406.212	134.94
406.436	139.94
406.66	137.94
406.883	147.94
407.107	137.94
407.331	133.94
407.555	144.94
407.778	146.94
408.002	136.94
408.226	141.94
408.449	133.94
408.673	138.94
408.896	129.94
409.12	130.94
409.344	135.94
409.567	126.94
409.791	127.94
410.014	125.94
410.238	127.94
410.461	113.94
410.685	137.94
410.908	145.94
411.132	130.94
411.355	129.94
411.578	121.94
411.802	123.94
412.025	117.94
412.249	130.94
412.472	139.94
412.695	119.94
412.919	139.94
413.142	133.94
413.365	125.94
413.589	136.94
413.812	136.94
414.035	125.94
414.258	117.94
414.482	123.94
414.705	141.94
414.928	121.94
415.151	122.94
415.374	115.94
415.597	127.94
415.821	129.94
416.044	141.94
416.267	127.94
416.49	133.94
416.713	119.94
416.936	134.94
417.159	118.94
417.382	140.94
417.605	123.94
417.828	131.94
418.051	132.94
418.274	121.94
418.497	124.94
418.72	118.94
418.943	142.94
419.166	98.94
419.389	123.94
419.611	140.94
419.834	142.94
420.057	131.94
420.28	133.94
420.503	121.94
420.726	129.94
420.948	136.94
421.171	134.94
421.394	136.94
421.617	135.94
421.839	137.94
422.062	111.94
422.285	115.94
422.507	131.94
422.73	138.94
422.953	126.94
423.175	113.94
423.398	125.94
423.621	131.94
423.843	131.94
424.066	120.94
424.288	114.94
424.511	130.94
424.733	130.94
424.956	133.94
425.178	109.94
425.401	128.94
425.623	120.94
425.846	134.94
426.068	128.94
426.291	138.94
426.513	123.94
426.735	127.94
426.958	122.94
427.18	135.94
427.402	141.94
427.625	141.94
427.847	141.94
428.069	125.94
428.292	114.94
428.514	106.94
428.736	111.94
428.958	118.94
429.181	128.94
429.403	105.94
429.625	115.94
429.847	121.94
430.069	129.94
430.292	156.94
430.514	131.94
430.736	116.94
430.958	127.94
431.18	121.94
431.402	132.94
431.624	126.94
431.846	124.94
432.068	118.94
432.29	135.94
432.512	135.94
432.734	120.94
432.956	124.94
433.178	129.94
433.4	125.94
433.622	117.94
433.844	124.94
434.066	119.94
434.287	121.94
434.509	117.94
434.731	133.94
434.953	136.94
435.175	128.94
435.397	135.94
435.618	123.94
435.84	135.94
436.062	147.94
436.284	139.94
436.505	135.94
436.727	131.94
436.949	132.94
437.17	135.94
437.392	113.94
437.614	127.94
437.835	131.94
438.057	137.94
438.278	120.94
438.5	132.94
438.721	147.94
438.943	134.94
439.165	143.94
439.386	124.94
439.608	115.94
439.829	108.94
440.05	127.94
440.272	125.94
440.493	133.94
440.715	117.94
440.936	126.94
441.158	112.94
441.379	123.94
441.6	130.94
441.822	129.94
442.043	128.94
442.264	139.94
442.486	130.94
442.707	137.94
442.928	132.94
443.149	127.94
443.371	137.94
443.592	142.94
443.813	131.94
444.034	139.94
444.255	130.94
444.476	147.94
444.698	139.94
444.919	133.94
445.14	249.94
445.361	166.94
445.582	135.94
445.803	151.94
446.024	154.94
446.245	135.94
446.466	125.94
446.687	130.94
446.908	117.94
447.129	134.94
447.35	124.94
447.571	133.94
447.792	124.94
448.013	131.94
448.234	119.94
448.455	102.94
448.675	132.94
448.896	122.94
449.117	115.94
449.338	122.94
449.559	131.94
449.779	138.94
450	132.94
450.221	111.94
450.442	125.94
450.662	124.94
450.883	121.94
451.104	124.94
451.324	116.94
451.545	124.94
451.766	106.94
451.986	121.94
452.207	111.94
452.428	124.94
452.648	123.94
452.869	114.94
453.089	114.94
453.31	111.94
453.53	100.94
453.751	116.94
453.971	111.94
454.192	103.94
454.412	121.94
454.633	112.94
454.853	108.94
455.073	130.94
455.294	111.94
455.514	108.94
455.734	127.94
455.955	111.94
456.175	114.94
456.395	117.94
456.616	131.94
456.836	108.94
457.056	123.94
457.276	118.94
457.497	118.94
457.717	114.94
457.937	121.94
458.157	106.94
458.377	106.94
458.598	117.94
458.818	112.94
459.038	127.94
459.258	122.94
459.478	127.94
459.698	125.94
459.918	124.94
460.138	125.94
460.358	116.94
460.578	131.94
460.798	105.94
461.018	123.94
461.238	127.94
461.458	136.94
461.678	139.94
461.898	126.94
462.118	141.94
462.338	127.94
462.558	132.94
462.777	141.94
462.997	129.94
463.217	147.94
463.437	143.94
463.657	131.94
463.876	117.94
464.096	119.94
464.316	118.94
464.536	136.94
464.755	131.94
464.975	129.94
465.195	120.94
465.414	119.94
465.634	125.94
465.854	121.94
466.073	117.94
466.293	120.94
466.512	131.94
466.732	105.94
466.951	125.94
467.171	124.94
467.391	127.94
467.61	123.94
467.829	115.94
468.049	121.94
468.268	129.94
468.488	117.94
468.707	124.94
468.927	109.94
469.146	119.94
469.365	110.94
469.585	127.94
469.804	101.94
470.023	121.94
470.243	119.94
470.462	123.94
470.681	122.94
470.901	125.94
471.12	118.94
471.339	135.94
471.558	128.94
471.777	110.94
471.997	113.94
472.216	121.94
472.435	124.94
472.654	115.94
472.873	121.94
473.092	121.94
473.311	114.94
473.53	97.94
473.749	113.94
473.968	120.94
474.187	118.94
474.406	128.94
474.625	126.94
474.844	108.94
475.063	128.94
475.282	129.94
475.501	116.94
475.72	127.94
475.939	120.94
476.158	111.94
476.377	119.94
476.596	118.94
476.814	114.94
477.033	124.94
477.252	115.94
477.471	119.94
477.69	123.94
477.908	139.94
478.127	139.94
478.346	140.94
478.564	133.94
478.783	118.94
479.002	108.94
479.22	126.94
479.439	129.94
479.658	120.94
479.876	127.94
480.095	139.94
480.313	135.94
480.532	137.94
480.751	147.94
480.969	125.94
481.188	124.94
481.406	129.94
481.624	131.94
481.843	124.94
482.061	140.94
482.28	125.94
482.498	119.94
482.717	134.94
482.935	123.94
483.153	110.94
483.372	132.94
483.59	120.94
483.808	129.94
484.027	125.94
484.245	128.94
484.463	132.94
484.681	144.94
484.9	123.94
485.118	135.94
485.336	125.94
485.554	125.94
485.772	136.94
485.99	127.94
486.209	123.94
486.427	125.94
486.645	140.94
486.863	145.94
487.081	134.94
487.299	122.94
487.517	120.94
487.735	138.94
487.953	130.94
488.171	139.94
488.389	146.94
488.607	128.94
488.825	132.94
489.043	117.94
489.261	124.94
489.479	132.94
489.696	135.94
489.914	141.94
490.132	120.94
490.35	136.94
490.568	120.94
490.786	139.94
491.003	131.94
491.221	145.94
491.439	127.94
491.657	135.94
491.874	162.94
492.092	146.94
492.31	153.94
492.527	138.94
492.745	127.94
492.963	151.94
493.18	126.94
493.398	146.94
493.615	135.94
493.833	142.94
494.05	143.94
494.268	143.94
494.485	148.94
494.703	158.94
494.92	150.94
495.138	125.94
495.355	137.94
495.573	149.94
495.79	134.94
496.008	125.94
496.225	123.94
496.442	124.94
496.66	140.94
496.877	135.94
497.094	149.94
497.312	149.94
497.529	156.94
497.746	135.94
497.963	137.94
498.181	159.94
498.398	140.94
498.615	155.94
498.832	142.94
499.049	169.94
499.267	164.94
499.484	173.94
499.701	175.94
499.918	193.94
500.135	203.94
500.352	210.94
500.569	208.94
500.786	200.94
501.003	213.94
501.22	194.94
501.437	201.94
501.654	177.94
501.871	174.94
502.088	172.94
502.305	161.94
502.522	145.94
502.739	141.94
502.956	154.94
503.172	138.94
503.389	142.94
503.606	131.94
503.823	122.94
504.04	126.94
504.256	163.94
504.473	135.94
504.69	138.94
504.907	155.94
505.123	151.94
505.34	142.94
505.557	123.94
505.773	121.94
505.99	158.94
