Data from 1968.PennyLincolnUp.Lamp.En5.5.200Scan.071719.P1._HRD10591_14-52-04-970.txt Node
Date: Thu Jul 18 14:52:04 EDT 2019
User: cochatt
Spectrometer: HR+D1059
Trigger mode: 1
Integration Time (sec): 1.000000E-1
Scans to average: 1
Electric dark correction enabled: true
Nonlinearity correction enabled: false
Boxcar width: 0
XAxis mode: Wavelengths
Number of Pixels in Spectrum: 2048
>>>>>Begin Spectral Data<<<<<
223.165	-20.75
223.4	-20.75
223.635	-20.75
223.869	-15.75
224.104	-16.75
224.338	-13.75
224.573	-21.75
224.808	-13.75
225.042	5.25
225.277	-1.75
225.511	-0.75
225.746	-0.75
225.98	19.25
226.215	0.25
226.449	14.25
226.683	20.25
226.918	21.25
227.152	25.25
227.387	30.25
227.621	33.25
227.856	36.25
228.09	48.25
228.324	45.25
228.559	53.25
228.793	57.25
229.027	66.25
229.262	74.25
229.496	76.25
229.73	78.25
229.964	82.25
230.199	74.25
230.433	71.25
230.667	83.25
230.901	89.25
231.136	74.25
231.37	84.25
231.604	97.25
231.838	82.25
232.072	83.25
232.306	94.25
232.541	83.25
232.775	69.25
233.009	79.25
233.243	86.25
233.477	85.25
233.711	85.25
233.945	83.25
234.179	74.25
234.413	102.25
234.647	94.25
234.881	87.25
235.115	76.25
235.349	92.25
235.583	89.25
235.817	77.25
236.051	80.25
236.285	89.25
236.519	101.25
236.753	84.25
236.987	84.25
237.221	79.25
237.455	79.25
237.689	76.25
237.922	74.25
238.156	76.25
238.39	91.25
238.624	79.25
238.858	72.25
239.091	69.25
239.325	82.25
239.559	80.25
239.793	71.25
240.027	75.25
240.26	87.25
240.494	78.25
240.728	78.25
240.961	78.25
241.195	90.25
241.429	88.25
241.662	71.25
241.896	83.25
242.13	76.25
242.363	69.25
242.597	76.25
242.83	86.25
243.064	88.25
243.298	83.25
243.531	75.25
243.765	86.25
243.998	94.25
244.232	91.25
244.465	73.25
244.699	84.25
244.932	86.25
245.166	89.25
245.399	86.25
245.633	89.25
245.866	77.25
246.099	79.25
246.333	83.25
246.566	97.25
246.8	82.25
247.033	94.25
247.266	85.25
247.5	94.25
247.733	96.25
247.966	98.25
248.2	92.25
248.433	83.25
248.666	83.25
248.899	87.25
249.133	84.25
249.366	103.25
249.599	96.25
249.832	89.25
250.066	85.25
250.299	89.25
250.532	95.25
250.765	97.25
250.998	92.25
251.231	99.25
251.465	89.25
251.698	83.25
251.931	91.25
252.164	72.25
252.397	88.25
252.63	83.25
252.863	88.25
253.096	91.25
253.329	86.25
253.562	90.25
253.795	84.25
254.028	87.25
254.261	74.25
254.494	85.25
254.727	97.25
254.96	108.25
255.193	95.25
255.426	95.25
255.659	89.25
255.892	92.25
256.124	97.25
256.357	91.25
256.59	71.25
256.823	84.25
257.056	84.25
257.289	105.25
257.521	92.25
257.754	101.25
257.987	103.25
258.22	108.25
258.452	83.25
258.685	103.25
258.918	86.25
259.151	104.25
259.383	100.25
259.616	88.25
259.849	96.25
260.081	86.25
260.314	85.25
260.547	77.25
260.779	100.25
261.012	95.25
261.244	94.25
261.477	90.25
261.71	80.25
261.942	88.25
262.175	102.25
262.407	115.25
262.64	88.25
262.872	100.25
263.105	93.25
263.337	98.25
263.57	85.25
263.802	73.25
264.035	98.25
264.267	78.25
264.499	86.25
264.732	108.25
264.964	107.25
265.197	94.25
265.429	91.25
265.661	95.25
265.894	86.25
266.126	84.25
266.358	96.25
266.591	78.25
266.823	92.25
267.055	79.25
267.287	104.25
267.52	93.25
267.752	93.25
267.984	102.25
268.216	91.25
268.448	93.25
268.681	93.25
268.913	88.25
269.145	99.25
269.377	100.25
269.609	94.25
269.841	103.25
270.073	98.25
270.306	82.25
270.538	98.25
270.77	109.25
271.002	88.25
271.234	94.25
271.466	90.25
271.698	100.25
271.93	101.25
272.162	85.25
272.394	93.25
272.626	99.25
272.858	98.25
273.09	87.25
273.322	104.25
273.553	103.25
273.785	119.25
274.017	90.25
274.249	100.25
274.481	97.25
274.713	99.25
274.945	88.25
275.176	88.25
275.408	117.25
275.64	84.25
275.872	93.25
276.104	97.25
276.335	86.25
276.567	99.25
276.799	110.25
277.031	93.25
277.262	110.25
277.494	95.25
277.726	114.25
277.957	103.25
278.189	96.25
278.421	107.25
278.652	114.25
278.884	100.25
279.115	87.25
279.347	78.25
279.579	104.25
279.81	109.25
280.042	95.25
280.273	102.25
280.505	110.25
280.736	103.25
280.968	96.25
281.199	98.25
281.431	98.25
281.662	99.25
281.894	102.25
282.125	89.25
282.356	102.25
282.588	98.25
282.819	110.25
283.051	100.25
283.282	119.25
283.513	99.25
283.745	96.25
283.976	101.25
284.207	84.25
284.439	103.25
284.67	108.25
284.901	103.25
285.132	103.25
285.364	96.25
285.595	102.25
285.826	94.25
286.057	107.25
286.288	90.25
286.52	101.25
286.751	98.25
286.982	99.25
287.213	96.25
287.444	99.25
287.675	100.25
287.906	106.25
288.138	109.25
288.369	103.25
288.6	97.25
288.831	97.25
289.062	100.25
289.293	95.25
289.524	99.25
289.755	106.25
289.986	107.25
290.217	108.25
290.448	101.25
290.679	102.25
290.91	131.25
291.141	118.25
291.371	94.25
291.602	93.25
291.833	89.25
292.064	103.25
292.295	87.25
292.526	100.25
292.757	99.25
292.987	102.25
293.218	104.25
293.449	99.25
293.68	100.25
293.91	87.25
294.141	105.25
294.372	107.25
294.603	96.25
294.833	94.25
295.064	108.25
295.295	101.25
295.525	96.25
295.756	108.25
295.987	105.25
296.217	102.25
296.448	109.25
296.679	90.25
296.909	103.25
297.14	117.25
297.37	110.25
297.601	110.25
297.831	114.25
298.062	116.25
298.292	99.25
298.523	88.25
298.753	91.25
298.984	122.25
299.214	85.25
299.445	110.25
299.675	95.25
299.905	99.25
300.136	110.25
300.366	106.25
300.597	112.25
300.827	106.25
301.057	112.25
301.288	108.25
301.518	93.25
301.748	102.25
301.979	104.25
302.209	110.25
302.439	112.25
302.669	115.25
302.9	111.25
303.13	101.25
303.36	110.25
303.59	105.25
303.82	95.25
304.051	111.25
304.281	118.25
304.511	105.25
304.741	104.25
304.971	99.25
305.201	102.25
305.431	96.25
305.661	101.25
305.891	98.25
306.121	98.25
306.352	108.25
306.582	102.25
306.812	108.25
307.042	121.25
307.272	104.25
307.502	101.25
307.731	96.25
307.961	111.25
308.191	108.25
308.421	107.25
308.651	105.25
308.881	102.25
309.111	105.25
309.341	110.25
309.571	118.25
309.8	114.25
310.03	84.25
310.26	112.25
310.49	99.25
310.72	106.25
310.949	95.25
311.179	107.25
311.409	102.25
311.639	107.25
311.868	98.25
312.098	123.25
312.328	100.25
312.557	105.25
312.787	95.25
313.017	99.25
313.246	105.25
313.476	93.25
313.706	101.25
313.935	101.25
314.165	104.25
314.394	99.25
314.624	106.25
314.853	116.25
315.083	107.25
315.312	98.25
315.542	96.25
315.771	116.25
316.001	103.25
316.23	114.25
316.46	111.25
316.689	112.25
316.919	110.25
317.148	103.25
317.377	110.25
317.607	100.25
317.836	101.25
318.065	104.25
318.295	128.25
318.524	122.25
318.753	101.25
318.983	118.25
319.212	123.25
319.441	125.25
319.67	106.25
319.9	104.25
320.129	119.25
320.358	102.25
320.587	108.25
320.816	104.25
321.046	105.25
321.275	115.25
321.504	95.25
321.733	118.25
321.962	114.25
322.191	110.25
322.42	122.25
322.649	124.25
322.878	134.25
323.108	130.25
323.337	114.25
323.566	114.25
323.795	110.25
324.024	124.25
324.253	134.25
324.482	148.25
324.71	155.25
324.939	203.25
325.168	168.25
325.397	131.25
325.626	125.25
325.855	112.25
326.084	121.25
326.313	100.25
326.542	119.25
326.77	122.25
326.999	132.25
327.228	138.25
327.457	162.25
327.686	161.25
327.914	135.25
328.143	137.25
328.372	118.25
328.6	111.25
328.829	107.25
329.058	122.25
329.287	126.25
329.515	109.25
329.744	116.25
329.972	110.25
330.201	110.25
330.43	108.25
330.658	126.25
330.887	107.25
331.115	115.25
331.344	124.25
331.572	106.25
331.801	120.25
332.03	119.25
332.258	119.25
332.486	103.25
332.715	120.25
332.943	120.25
333.172	122.25
333.4	110.25
333.629	114.25
333.857	122.25
334.085	121.25
334.314	118.25
334.542	116.25
334.771	125.25
334.999	114.25
335.227	114.25
335.455	119.25
335.684	125.25
335.912	115.25
336.14	110.25
336.369	116.25
336.597	125.25
336.825	120.25
337.053	124.25
337.281	118.25
337.51	111.25
337.738	123.25
337.966	114.25
338.194	92.25
338.422	118.25
338.65	130.25
338.878	112.25
339.106	126.25
339.334	118.25
339.562	105.25
339.79	119.25
340.018	120.25
340.246	109.25
340.474	112.25
340.702	123.25
340.93	118.25
341.158	125.25
341.386	99.25
341.614	109.25
341.842	122.25
342.07	106.25
342.298	107.25
342.526	109.25
342.754	116.25
342.981	118.25
343.209	110.25
343.437	99.25
343.665	120.25
343.893	117.25
344.12	110.25
344.348	118.25
344.576	102.25
344.804	122.25
345.031	114.25
345.259	116.25
345.487	123.25
345.714	105.25
345.942	117.25
346.17	122.25
346.397	107.25
346.625	111.25
346.853	115.25
347.08	111.25
347.308	108.25
347.535	114.25
347.763	119.25
347.99	106.25
348.218	118.25
348.445	117.25
348.673	96.25
348.9	110.25
349.128	124.25
349.355	98.25
349.583	110.25
349.81	123.25
350.037	111.25
350.265	111.25
350.492	106.25
350.72	114.25
350.947	106.25
351.174	109.25
351.402	108.25
351.629	111.25
351.856	99.25
352.083	120.25
352.311	99.25
352.538	99.25
352.765	116.25
352.992	121.25
353.22	114.25
353.447	119.25
353.674	119.25
353.901	110.25
354.128	114.25
354.355	121.25
354.583	121.25
354.81	95.25
355.037	116.25
355.264	114.25
355.491	125.25
355.718	114.25
355.945	98.25
356.172	104.25
356.399	109.25
356.626	123.25
356.853	115.25
357.08	118.25
357.307	125.25
357.534	120.25
357.761	122.25
357.988	107.25
358.215	120.25
358.441	108.25
358.668	113.25
358.895	106.25
359.122	101.25
359.349	94.25
359.576	117.25
359.802	111.25
360.029	115.25
360.256	114.25
360.483	112.25
360.709	119.25
360.936	122.25
361.163	119.25
361.39	108.25
361.616	105.25
361.843	119.25
362.07	124.25
362.296	115.25
362.523	114.25
362.749	108.25
362.976	114.25
363.203	103.25
363.429	110.25
363.656	110.25
363.882	105.25
364.109	120.25
364.335	109.25
364.562	116.25
364.788	101.25
365.015	121.25
365.241	104.25
365.468	107.25
365.694	116.25
365.92	108.25
366.147	111.25
366.373	109.25
366.599	115.25
366.826	110.25
367.052	104.25
367.278	123.25
367.505	97.25
367.731	111.25
367.957	121.25
368.184	124.25
368.41	108.25
368.636	118.25
368.862	120.25
369.089	108.25
369.315	104.25
369.541	119.25
369.767	120.25
369.993	123.25
370.219	99.25
370.445	101.25
370.672	123.25
370.898	129.25
371.124	116.25
371.35	119.25
371.576	123.25
371.802	100.25
372.028	105.25
372.254	105.25
372.48	95.25
372.706	107.25
372.932	110.25
373.158	120.25
373.384	100.25
373.61	124.25
373.835	119.25
374.061	114.25
374.287	117.25
374.513	115.25
374.739	107.25
374.965	110.25
375.191	119.25
375.416	123.25
375.642	126.25
375.868	132.25
376.094	130.25
376.319	119.25
376.545	116.25
376.771	98.25
376.997	118.25
377.222	116.25
377.448	116.25
377.674	126.25
377.899	131.25
378.125	101.25
378.35	114.25
378.576	107.25
378.802	126.25
379.027	120.25
379.253	117.25
379.478	114.25
379.704	118.25
379.929	120.25
380.155	109.25
380.38	116.25
380.606	122.25
380.831	109.25
381.057	109.25
381.282	99.25
381.507	113.25
381.733	105.25
381.958	118.25
382.184	115.25
382.409	103.25
382.634	109.25
382.86	119.25
383.085	119.25
383.31	124.25
383.535	124.25
383.761	118.25
383.986	111.25
384.211	99.25
384.436	116.25
384.662	126.25
384.887	129.25
385.112	129.25
385.337	120.25
385.562	120.25
385.787	121.25
386.013	118.25
386.238	128.25
386.463	98.25
386.688	117.25
386.913	115.25
387.138	122.25
387.363	130.25
387.588	122.25
387.813	117.25
388.038	122.25
388.263	121.25
388.488	130.25
388.713	126.25
388.938	114.25
389.163	128.25
389.387	119.25
389.612	123.25
389.837	115.25
390.062	124.25
390.287	121.25
390.512	123.25
390.736	103.25
390.961	100.25
391.186	122.25
391.411	119.25
391.636	109.25
391.86	123.25
392.085	120.25
392.31	128.25
392.534	128.25
392.759	126.25
392.984	133.25
393.208	126.25
393.433	125.25
393.658	112.25
393.882	129.25
394.107	116.25
394.331	123.25
394.556	118.25
394.78	137.25
395.005	127.25
395.229	127.25
395.454	125.25
395.678	125.25
395.903	116.25
396.127	139.25
396.352	119.25
396.576	116.25
396.801	125.25
397.025	134.25
397.249	130.25
397.474	122.25
397.698	121.25
397.922	126.25
398.147	129.25
398.371	132.25
398.595	119.25
398.82	129.25
399.044	124.25
399.268	130.25
399.492	134.25
399.717	147.25
399.941	143.25
400.165	144.25
400.389	126.25
400.613	137.25
400.837	133.25
401.062	119.25
401.286	123.25
401.51	127.25
401.734	132.25
401.958	137.25
402.182	141.25
402.406	132.25
402.63	120.25
402.854	136.25
403.078	131.25
403.302	123.25
403.526	146.25
403.75	135.25
403.974	142.25
404.198	150.25
404.422	144.25
404.645	129.25
404.869	138.25
405.093	136.25
405.317	137.25
405.541	150.25
405.765	124.25
405.988	144.25
406.212	122.25
406.436	135.25
406.66	134.25
406.883	127.25
407.107	146.25
407.331	144.25
407.555	149.25
407.778	132.25
408.002	152.25
408.226	127.25
408.449	146.25
408.673	138.25
408.896	137.25
409.12	123.25
409.344	130.25
409.567	139.25
409.791	126.25
410.014	144.25
410.238	133.25
410.461	135.25
410.685	120.25
410.908	131.25
411.132	138.25
411.355	138.25
411.578	127.25
411.802	146.25
412.025	131.25
412.249	120.25
412.472	126.25
412.695	148.25
412.919	142.25
413.142	141.25
413.365	127.25
413.589	132.25
413.812	126.25
414.035	120.25
414.258	130.25
414.482	122.25
414.705	138.25
414.928	137.25
415.151	137.25
415.374	127.25
415.597	129.25
415.821	129.25
416.044	110.25
416.267	130.25
416.49	130.25
416.713	136.25
416.936	126.25
417.159	120.25
417.382	143.25
417.605	139.25
417.828	133.25
418.051	127.25
418.274	133.25
418.497	127.25
418.72	139.25
418.943	119.25
419.166	132.25
419.389	135.25
419.611	131.25
419.834	133.25
420.057	128.25
420.28	134.25
420.503	124.25
420.726	131.25
420.948	149.25
421.171	139.25
421.394	148.25
421.617	133.25
421.839	148.25
422.062	134.25
422.285	138.25
422.507	135.25
422.73	145.25
422.953	148.25
423.175	133.25
423.398	134.25
423.621	123.25
423.843	140.25
424.066	134.25
424.288	137.25
424.511	136.25
424.733	148.25
424.956	140.25
425.178	130.25
425.401	138.25
425.623	125.25
425.846	144.25
426.068	121.25
426.291	130.25
426.513	135.25
426.735	134.25
426.958	137.25
427.18	131.25
427.402	158.25
427.625	160.25
427.847	148.25
428.069	142.25
428.292	123.25
428.514	133.25
428.736	125.25
428.958	130.25
429.181	131.25
429.403	109.25
429.625	119.25
429.847	123.25
430.069	126.25
430.292	139.25
430.514	129.25
430.736	121.25
430.958	115.25
431.18	128.25
431.402	130.25
431.624	124.25
431.846	123.25
432.068	118.25
432.29	127.25
432.512	126.25
432.734	135.25
432.956	136.25
433.178	127.25
433.4	117.25
433.622	130.25
433.844	134.25
434.066	134.25
434.287	120.25
434.509	117.25
434.731	124.25
434.953	134.25
435.175	138.25
435.397	134.25
435.618	140.25
435.84	128.25
436.062	144.25
436.284	150.25
436.505	144.25
436.727	124.25
436.949	120.25
437.17	124.25
437.392	118.25
437.614	128.25
437.835	129.25
438.057	139.25
438.278	115.25
438.5	138.25
438.721	154.25
438.943	137.25
439.165	147.25
439.386	122.25
439.608	123.25
439.829	134.25
440.05	130.25
440.272	138.25
440.493	142.25
440.715	116.25
440.936	121.25
441.158	140.25
441.379	133.25
441.6	139.25
441.822	132.25
442.043	128.25
442.264	139.25
442.486	130.25
442.707	134.25
442.928	131.25
443.149	139.25
443.371	139.25
443.592	139.25
443.813	136.25
444.034	149.25
444.255	154.25
444.476	139.25
444.698	135.25
444.919	134.25
445.14	271.25
445.361	195.25
445.582	142.25
445.803	141.25
446.024	120.25
446.245	152.25
446.466	132.25
446.687	126.25
446.908	117.25
447.129	137.25
447.35	125.25
447.571	127.25
447.792	109.25
448.013	123.25
448.234	124.25
448.455	140.25
448.675	134.25
448.896	140.25
449.117	134.25
449.338	122.25
449.559	136.25
449.779	146.25
450	127.25
450.221	130.25
450.442	123.25
450.662	122.25
450.883	121.25
451.104	139.25
451.324	138.25
451.545	133.25
451.766	124.25
451.986	114.25
452.207	124.25
452.428	119.25
452.648	130.25
452.869	123.25
453.089	124.25
453.31	113.25
453.53	112.25
453.751	115.25
453.971	122.25
454.192	123.25
454.412	115.25
454.633	122.25
454.853	120.25
455.073	111.25
455.294	125.25
455.514	116.25
455.734	131.25
455.955	124.25
456.175	113.25
456.395	120.25
456.616	121.25
456.836	124.25
457.056	118.25
457.276	117.25
457.497	117.25
457.717	114.25
457.937	119.25
458.157	123.25
458.377	123.25
458.598	115.25
458.818	127.25
459.038	134.25
459.258	128.25
459.478	130.25
459.698	129.25
459.918	125.25
460.138	126.25
460.358	123.25
460.578	144.25
460.798	134.25
461.018	137.25
461.238	117.25
461.458	116.25
461.678	122.25
461.898	120.25
462.118	133.25
462.338	139.25
462.558	139.25
462.777	138.25
462.997	140.25
463.217	144.25
463.437	152.25
463.657	152.25
463.876	143.25
464.096	120.25
464.316	134.25
464.536	149.25
464.755	149.25
464.975	144.25
465.195	122.25
465.414	131.25
465.634	120.25
465.854	135.25
466.073	127.25
466.293	126.25
466.512	126.25
466.732	134.25
466.951	127.25
467.171	132.25
467.391	117.25
467.61	109.25
467.829	108.25
468.049	130.25
468.268	126.25
468.488	120.25
468.707	126.25
468.927	128.25
469.146	123.25
469.365	130.25
469.585	120.25
469.804	124.25
470.023	115.25
470.243	130.25
470.462	133.25
470.681	123.25
470.901	130.25
471.12	126.25
471.339	134.25
471.558	139.25
471.777	116.25
471.997	120.25
472.216	126.25
472.435	107.25
472.654	130.25
472.873	128.25
473.092	123.25
473.311	128.25
473.53	117.25
473.749	107.25
473.968	134.25
474.187	122.25
474.406	135.25
474.625	134.25
474.844	122.25
475.063	130.25
475.282	114.25
475.501	118.25
475.72	140.25
475.939	138.25
476.158	120.25
476.377	109.25
476.596	128.25
476.814	135.25
477.033	134.25
477.252	127.25
477.471	130.25
477.69	110.25
477.908	124.25
478.127	138.25
478.346	138.25
478.564	136.25
478.783	120.25
479.002	124.25
479.22	141.25
479.439	122.25
479.658	136.25
479.876	128.25
480.095	120.25
480.313	131.25
480.532	146.25
480.751	143.25
480.969	142.25
481.188	127.25
481.406	145.25
481.624	131.25
481.843	134.25
482.061	128.25
482.28	138.25
482.498	124.25
482.717	135.25
482.935	143.25
483.153	135.25
483.372	129.25
483.59	127.25
483.808	130.25
484.027	150.25
484.245	127.25
484.463	128.25
484.681	137.25
484.9	152.25
485.118	140.25
485.336	126.25
485.554	129.25
485.772	136.25
485.99	139.25
486.209	115.25
486.427	134.25
486.645	141.25
486.863	142.25
487.081	127.25
487.299	140.25
487.517	126.25
487.735	130.25
487.953	140.25
488.171	152.25
488.389	116.25
488.607	135.25
488.825	143.25
489.043	132.25
489.261	137.25
489.479	130.25
489.696	135.25
489.914	150.25
490.132	146.25
490.35	133.25
490.568	138.25
490.786	137.25
491.003	137.25
491.221	144.25
491.439	130.25
491.657	136.25
491.874	150.25
492.092	146.25
492.31	166.25
492.527	150.25
492.745	143.25
492.963	154.25
493.18	146.25
493.398	139.25
493.615	149.25
493.833	148.25
494.05	163.25
494.268	150.25
494.485	154.25
494.703	146.25
494.92	158.25
495.138	146.25
495.355	159.25
495.573	144.25
495.79	147.25
496.008	155.25
496.225	141.25
496.442	152.25
496.66	152.25
496.877	147.25
497.094	142.25
497.312	139.25
497.529	160.25
497.746	164.25
497.963	171.25
498.181	148.25
498.398	162.25
498.615	161.25
498.832	158.25
499.049	172.25
499.267	162.25
499.484	174.25
499.701	186.25
499.918	194.25
500.135	218.25
500.352	223.25
500.569	223.25
500.786	220.25
501.003	203.25
501.22	199.25
501.437	198.25
501.654	176.25
501.871	172.25
502.088	166.25
502.305	165.25
502.522	180.25
502.739	140.25
502.956	143.25
503.172	158.25
503.389	152.25
503.606	144.25
503.823	141.25
504.04	159.25
504.256	139.25
504.473	162.25
504.69	149.25
504.907	146.25
505.123	142.25
505.34	154.25
505.557	139.25
