Data from 1968.PennyLincolnUp.Lamp.En5.5.200Scan.071719.P1._HRD10591_14-50-43-970.txt Node
Date: Thu Jul 18 14:50:43 EDT 2019
User: cochatt
Spectrometer: HR+D1059
Trigger mode: 1
Integration Time (sec): 1.000000E-1
Scans to average: 1
Electric dark correction enabled: true
Nonlinearity correction enabled: false
Boxcar width: 0
XAxis mode: Wavelengths
Number of Pixels in Spectrum: 2048
>>>>>Begin Spectral Data<<<<<
223.165	-19.38
223.4	-19.38
223.635	-19.38
223.869	-6.38
224.104	-20.38
224.338	-4.38
224.573	-8.38
224.808	-17.38
225.042	-16.38
225.277	-1.38
225.511	-12.38
225.746	1.62
225.98	10.62
226.215	5.62
226.449	8.62
226.683	17.62
226.918	26.62
227.152	35.62
227.387	25.62
227.621	25.62
227.856	59.62
228.09	49.62
228.324	48.62
228.559	66.62
228.793	55.62
229.027	66.62
229.262	73.62
229.496	70.62
229.73	87.62
229.964	69.62
230.199	69.62
230.433	70.62
230.667	76.62
230.901	64.62
231.136	63.62
231.37	65.62
231.604	70.62
231.838	95.62
232.072	98.62
232.306	76.62
232.541	85.62
232.775	99.62
233.009	87.62
233.243	73.62
233.477	78.62
233.711	79.62
233.945	97.62
234.179	81.62
234.413	85.62
234.647	79.62
234.881	100.62
235.115	93.62
235.349	70.62
235.583	85.62
235.817	76.62
236.051	87.62
236.285	74.62
236.519	71.62
236.753	82.62
236.987	73.62
237.221	85.62
237.455	84.62
237.689	74.62
237.922	70.62
238.156	90.62
238.39	67.62
238.624	68.62
238.858	75.62
239.091	84.62
239.325	87.62
239.559	75.62
239.793	82.62
240.027	77.62
240.26	82.62
240.494	67.62
240.728	74.62
240.961	90.62
241.195	73.62
241.429	87.62
241.662	95.62
241.896	89.62
242.13	66.62
242.363	72.62
242.597	82.62
242.83	69.62
243.064	91.62
243.298	77.62
243.531	85.62
243.765	78.62
243.998	93.62
244.232	86.62
244.465	104.62
244.699	74.62
244.932	72.62
245.166	88.62
245.399	79.62
245.633	75.62
245.866	79.62
246.099	92.62
246.333	71.62
246.566	70.62
246.8	86.62
247.033	87.62
247.266	80.62
247.5	78.62
247.733	85.62
247.966	94.62
248.2	84.62
248.433	81.62
248.666	79.62
248.899	76.62
249.133	98.62
249.366	79.62
249.599	84.62
249.832	86.62
250.066	71.62
250.299	92.62
250.532	74.62
250.765	88.62
250.998	85.62
251.231	82.62
251.465	86.62
251.698	99.62
251.931	88.62
252.164	92.62
252.397	89.62
252.63	95.62
252.863	98.62
253.096	96.62
253.329	77.62
253.562	86.62
253.795	93.62
254.028	98.62
254.261	89.62
254.494	82.62
254.727	83.62
254.96	82.62
255.193	91.62
255.426	91.62
255.659	110.62
255.892	87.62
256.124	79.62
256.357	84.62
256.59	103.62
256.823	97.62
257.056	91.62
257.289	93.62
257.521	91.62
257.754	85.62
257.987	94.62
258.22	75.62
258.452	79.62
258.685	92.62
258.918	92.62
259.151	89.62
259.383	93.62
259.616	91.62
259.849	85.62
260.081	104.62
260.314	106.62
260.547	96.62
260.779	91.62
261.012	92.62
261.244	87.62
261.477	100.62
261.71	98.62
261.942	92.62
262.175	98.62
262.407	86.62
262.64	97.62
262.872	97.62
263.105	90.62
263.337	95.62
263.57	93.62
263.802	95.62
264.035	92.62
264.267	100.62
264.499	89.62
264.732	85.62
264.964	83.62
265.197	79.62
265.429	85.62
265.661	91.62
265.894	91.62
266.126	91.62
266.358	95.62
266.591	98.62
266.823	94.62
267.055	77.62
267.287	97.62
267.52	87.62
267.752	98.62
267.984	90.62
268.216	88.62
268.448	88.62
268.681	107.62
268.913	104.62
269.145	96.62
269.377	82.62
269.609	100.62
269.841	93.62
270.073	90.62
270.306	89.62
270.538	102.62
270.77	113.62
271.002	96.62
271.234	104.62
271.466	100.62
271.698	100.62
271.93	97.62
272.162	105.62
272.394	96.62
272.626	107.62
272.858	98.62
273.09	101.62
273.322	84.62
273.553	103.62
273.785	84.62
274.017	106.62
274.249	89.62
274.481	107.62
274.713	98.62
274.945	91.62
275.176	83.62
275.408	97.62
275.64	100.62
275.872	104.62
276.104	97.62
276.335	98.62
276.567	103.62
276.799	101.62
277.031	75.62
277.262	112.62
277.494	99.62
277.726	109.62
277.957	113.62
278.189	79.62
278.421	103.62
278.652	100.62
278.884	96.62
279.115	94.62
279.347	106.62
279.579	87.62
279.81	83.62
280.042	102.62
280.273	86.62
280.505	89.62
280.736	114.62
280.968	102.62
281.199	91.62
281.431	86.62
281.662	93.62
281.894	100.62
282.125	108.62
282.356	98.62
282.588	97.62
282.819	96.62
283.051	101.62
283.282	94.62
283.513	113.62
283.745	97.62
283.976	87.62
284.207	105.62
284.439	97.62
284.67	114.62
284.901	97.62
285.132	97.62
285.364	89.62
285.595	104.62
285.826	98.62
286.057	104.62
286.288	98.62
286.52	97.62
286.751	98.62
286.982	118.62
287.213	98.62
287.444	99.62
287.675	102.62
287.906	102.62
288.138	105.62
288.369	98.62
288.6	101.62
288.831	105.62
289.062	89.62
289.293	99.62
289.524	100.62
289.755	98.62
289.986	101.62
290.217	98.62
290.448	95.62
290.679	108.62
290.91	95.62
291.141	106.62
291.371	115.62
291.602	119.62
291.833	101.62
292.064	104.62
292.295	111.62
292.526	95.62
292.757	101.62
292.987	99.62
293.218	105.62
293.449	105.62
293.68	116.62
293.91	121.62
294.141	102.62
294.372	102.62
294.603	105.62
294.833	93.62
295.064	98.62
295.295	97.62
295.525	109.62
295.756	95.62
295.987	107.62
296.217	102.62
296.448	98.62
296.679	109.62
296.909	92.62
297.14	105.62
297.37	93.62
297.601	90.62
297.831	105.62
298.062	119.62
298.292	91.62
298.523	106.62
298.753	98.62
298.984	97.62
299.214	105.62
299.445	111.62
299.675	101.62
299.905	105.62
300.136	110.62
300.366	98.62
300.597	91.62
300.827	110.62
301.057	104.62
301.288	98.62
301.518	103.62
301.748	103.62
301.979	114.62
302.209	106.62
302.439	117.62
302.669	98.62
302.9	110.62
303.13	98.62
303.36	97.62
303.59	100.62
303.82	109.62
304.051	110.62
304.281	99.62
304.511	122.62
304.741	104.62
304.971	97.62
305.201	100.62
305.431	107.62
305.661	117.62
305.891	104.62
306.121	106.62
306.352	103.62
306.582	90.62
306.812	101.62
307.042	104.62
307.272	95.62
307.502	97.62
307.731	109.62
307.961	108.62
308.191	89.62
308.421	102.62
308.651	95.62
308.881	103.62
309.111	106.62
309.341	103.62
309.571	97.62
309.8	121.62
310.03	92.62
310.26	92.62
310.49	118.62
310.72	104.62
310.949	103.62
311.179	133.62
311.409	97.62
311.639	106.62
311.868	118.62
312.098	97.62
312.328	116.62
312.557	110.62
312.787	107.62
313.017	102.62
313.246	113.62
313.476	91.62
313.706	114.62
313.935	105.62
314.165	106.62
314.394	131.62
314.624	113.62
314.853	112.62
315.083	121.62
315.312	107.62
315.542	110.62
315.771	108.62
316.001	105.62
316.23	114.62
316.46	123.62
316.689	113.62
316.919	114.62
317.148	107.62
317.377	106.62
317.607	117.62
317.836	121.62
318.065	109.62
318.295	95.62
318.524	114.62
318.753	109.62
318.983	107.62
319.212	105.62
319.441	108.62
319.67	100.62
319.9	118.62
320.129	115.62
320.358	102.62
320.587	108.62
320.816	116.62
321.046	115.62
321.275	112.62
321.504	94.62
321.733	92.62
321.962	105.62
322.191	111.62
322.42	125.62
322.649	104.62
322.878	108.62
323.108	99.62
323.337	130.62
323.566	110.62
323.795	116.62
324.024	112.62
324.253	130.62
324.482	133.62
324.71	145.62
324.939	183.62
325.168	159.62
325.397	126.62
325.626	107.62
325.855	87.62
326.084	123.62
326.313	121.62
326.542	116.62
326.77	107.62
326.999	125.62
327.228	133.62
327.457	144.62
327.686	149.62
327.914	135.62
328.143	122.62
328.372	96.62
328.6	108.62
328.829	114.62
329.058	123.62
329.287	103.62
329.515	120.62
329.744	109.62
329.972	117.62
330.201	120.62
330.43	114.62
330.658	120.62
330.887	120.62
331.115	109.62
331.344	124.62
331.572	129.62
331.801	111.62
332.03	96.62
332.258	122.62
332.486	107.62
332.715	116.62
332.943	121.62
333.172	119.62
333.4	122.62
333.629	112.62
333.857	114.62
334.085	113.62
334.314	129.62
334.542	123.62
334.771	116.62
334.999	124.62
335.227	98.62
335.455	113.62
335.684	112.62
335.912	128.62
336.14	108.62
336.369	124.62
336.597	112.62
336.825	107.62
337.053	105.62
337.281	110.62
337.51	120.62
337.738	117.62
337.966	110.62
338.194	114.62
338.422	102.62
338.65	122.62
338.878	121.62
339.106	123.62
339.334	95.62
339.562	107.62
339.79	105.62
340.018	116.62
340.246	124.62
340.474	116.62
340.702	109.62
340.93	113.62
341.158	113.62
341.386	102.62
341.614	121.62
341.842	123.62
342.07	110.62
342.298	95.62
342.526	117.62
342.754	120.62
342.981	108.62
343.209	111.62
343.437	119.62
343.665	119.62
343.893	118.62
344.12	134.62
344.348	114.62
344.576	120.62
344.804	123.62
345.031	123.62
345.259	118.62
345.487	115.62
345.714	114.62
345.942	103.62
346.17	110.62
346.397	109.62
346.625	125.62
346.853	115.62
347.08	92.62
347.308	119.62
347.535	107.62
347.763	103.62
347.99	116.62
348.218	106.62
348.445	109.62
348.673	123.62
348.9	119.62
349.128	117.62
349.355	122.62
349.583	110.62
349.81	116.62
350.037	107.62
350.265	122.62
350.492	121.62
350.72	110.62
350.947	103.62
351.174	110.62
351.402	112.62
351.629	113.62
351.856	103.62
352.083	109.62
352.311	101.62
352.538	121.62
352.765	101.62
352.992	116.62
353.22	105.62
353.447	113.62
353.674	123.62
353.901	107.62
354.128	113.62
354.355	101.62
354.583	106.62
354.81	115.62
355.037	109.62
355.264	98.62
355.491	99.62
355.718	118.62
355.945	114.62
356.172	118.62
356.399	117.62
356.626	100.62
356.853	109.62
357.08	113.62
357.307	98.62
357.534	113.62
357.761	119.62
357.988	132.62
358.215	120.62
358.441	119.62
358.668	109.62
358.895	122.62
359.122	93.62
359.349	106.62
359.576	107.62
359.802	116.62
360.029	120.62
360.256	127.62
360.483	116.62
360.709	102.62
360.936	119.62
361.163	110.62
361.39	100.62
361.616	113.62
361.843	113.62
362.07	115.62
362.296	108.62
362.523	121.62
362.749	118.62
362.976	119.62
363.203	121.62
363.429	100.62
363.656	113.62
363.882	99.62
364.109	113.62
364.335	116.62
364.562	101.62
364.788	108.62
365.015	114.62
365.241	118.62
365.468	113.62
365.694	108.62
365.92	121.62
366.147	100.62
366.373	89.62
366.599	113.62
366.826	100.62
367.052	119.62
367.278	109.62
367.505	123.62
367.731	108.62
367.957	103.62
368.184	122.62
368.41	119.62
368.636	118.62
368.862	105.62
369.089	119.62
369.315	115.62
369.541	123.62
369.767	115.62
369.993	107.62
370.219	115.62
370.445	118.62
370.672	105.62
370.898	97.62
371.124	104.62
371.35	125.62
371.576	111.62
371.802	121.62
372.028	110.62
372.254	113.62
372.48	103.62
372.706	93.62
372.932	108.62
373.158	118.62
373.384	116.62
373.61	103.62
373.835	110.62
374.061	105.62
374.287	113.62
374.513	108.62
374.739	126.62
374.965	119.62
375.191	117.62
375.416	106.62
375.642	115.62
375.868	117.62
376.094	114.62
376.319	117.62
376.545	115.62
376.771	110.62
376.997	118.62
377.222	92.62
377.448	109.62
377.674	109.62
377.899	109.62
378.125	114.62
378.35	117.62
378.576	117.62
378.802	120.62
379.027	117.62
379.253	123.62
379.478	103.62
379.704	125.62
379.929	115.62
380.155	120.62
380.38	112.62
380.606	109.62
380.831	102.62
381.057	110.62
381.282	108.62
381.507	102.62
381.733	123.62
381.958	104.62
382.184	104.62
382.409	118.62
382.634	115.62
382.86	105.62
383.085	115.62
383.31	106.62
383.535	118.62
383.761	100.62
383.986	111.62
384.211	119.62
384.436	123.62
384.662	99.62
384.887	123.62
385.112	103.62
385.337	131.62
385.562	109.62
385.787	117.62
386.013	126.62
386.238	126.62
386.463	108.62
386.688	124.62
386.913	124.62
387.138	119.62
387.363	122.62
387.588	109.62
387.813	121.62
388.038	109.62
388.263	107.62
388.488	119.62
388.713	123.62
388.938	123.62
389.163	115.62
389.387	126.62
389.612	118.62
389.837	124.62
390.062	120.62
390.287	117.62
390.512	115.62
390.736	119.62
390.961	114.62
391.186	106.62
391.411	125.62
391.636	126.62
391.86	116.62
392.085	115.62
392.31	112.62
392.534	120.62
392.759	127.62
392.984	114.62
393.208	130.62
393.433	125.62
393.658	121.62
393.882	102.62
394.107	122.62
394.331	105.62
394.556	121.62
394.78	117.62
395.005	111.62
395.229	129.62
395.454	122.62
395.678	115.62
395.903	121.62
396.127	118.62
396.352	115.62
396.576	133.62
396.801	110.62
397.025	108.62
397.249	133.62
397.474	123.62
397.698	129.62
397.922	124.62
398.147	123.62
398.371	124.62
398.595	132.62
398.82	118.62
399.044	127.62
399.268	126.62
399.492	121.62
399.717	146.62
399.941	135.62
400.165	147.62
400.389	156.62
400.613	147.62
400.837	127.62
401.062	125.62
401.286	131.62
401.51	135.62
401.734	131.62
401.958	136.62
402.182	128.62
402.406	130.62
402.63	122.62
402.854	138.62
403.078	136.62
403.302	131.62
403.526	131.62
403.75	134.62
403.974	116.62
404.198	121.62
404.422	134.62
404.645	137.62
404.869	144.62
405.093	145.62
405.317	144.62
405.541	141.62
405.765	132.62
405.988	129.62
406.212	127.62
406.436	130.62
406.66	140.62
406.883	129.62
407.107	146.62
407.331	127.62
407.555	161.62
407.778	159.62
408.002	147.62
408.226	131.62
408.449	138.62
408.673	132.62
408.896	140.62
409.12	143.62
409.344	126.62
409.567	135.62
409.791	128.62
410.014	132.62
410.238	136.62
410.461	121.62
410.685	132.62
410.908	134.62
411.132	134.62
411.355	140.62
411.578	134.62
411.802	135.62
412.025	121.62
412.249	137.62
412.472	133.62
412.695	125.62
412.919	139.62
413.142	122.62
413.365	125.62
413.589	135.62
413.812	130.62
414.035	137.62
414.258	134.62
414.482	139.62
414.705	116.62
414.928	119.62
415.151	140.62
415.374	120.62
415.597	124.62
415.821	113.62
416.044	117.62
416.267	132.62
416.49	153.62
416.713	135.62
416.936	129.62
417.159	121.62
417.382	138.62
417.605	127.62
417.828	127.62
418.051	145.62
418.274	135.62
418.497	129.62
418.72	127.62
418.943	120.62
419.166	132.62
419.389	141.62
419.611	138.62
419.834	123.62
420.057	137.62
420.28	130.62
420.503	119.62
420.726	126.62
420.948	119.62
421.171	121.62
421.394	119.62
421.617	136.62
421.839	126.62
422.062	126.62
422.285	132.62
422.507	135.62
422.73	143.62
422.953	135.62
423.175	129.62
423.398	124.62
423.621	121.62
423.843	118.62
424.066	139.62
424.288	155.62
424.511	149.62
424.733	137.62
424.956	137.62
425.178	140.62
425.401	154.62
425.623	128.62
425.846	131.62
426.068	138.62
426.291	143.62
426.513	124.62
426.735	129.62
426.958	130.62
427.18	126.62
427.402	147.62
427.625	135.62
427.847	133.62
428.069	133.62
428.292	131.62
428.514	118.62
428.736	128.62
428.958	119.62
429.181	122.62
429.403	124.62
429.625	123.62
429.847	131.62
430.069	106.62
430.292	118.62
430.514	119.62
430.736	138.62
430.958	135.62
431.18	138.62
431.402	128.62
431.624	125.62
431.846	115.62
432.068	124.62
432.29	125.62
432.512	123.62
432.734	123.62
432.956	124.62
433.178	116.62
433.4	129.62
433.622	119.62
433.844	119.62
434.066	124.62
434.287	121.62
434.509	121.62
434.731	132.62
434.953	129.62
435.175	130.62
435.397	121.62
435.618	127.62
435.84	131.62
436.062	137.62
436.284	125.62
436.505	134.62
436.727	128.62
436.949	129.62
437.17	123.62
437.392	131.62
437.614	107.62
437.835	123.62
438.057	123.62
438.278	115.62
438.5	130.62
438.721	134.62
438.943	131.62
439.165	130.62
439.386	129.62
439.608	146.62
439.829	128.62
440.05	139.62
440.272	132.62
440.493	143.62
440.715	132.62
440.936	141.62
441.158	126.62
441.379	141.62
441.6	148.62
441.822	147.62
442.043	136.62
442.264	136.62
442.486	138.62
442.707	128.62
442.928	134.62
443.149	137.62
443.371	128.62
443.592	132.62
443.813	146.62
444.034	147.62
444.255	129.62
444.476	137.62
444.698	136.62
444.919	143.62
445.14	235.62
445.361	159.62
445.582	138.62
445.803	131.62
446.024	139.62
446.245	140.62
446.466	137.62
446.687	121.62
446.908	118.62
447.129	124.62
447.35	119.62
447.571	135.62
447.792	127.62
448.013	124.62
448.234	119.62
448.455	132.62
448.675	129.62
448.896	140.62
449.117	119.62
449.338	126.62
449.559	138.62
449.779	123.62
450	136.62
450.221	124.62
450.442	118.62
450.662	125.62
450.883	117.62
451.104	138.62
451.324	119.62
451.545	130.62
451.766	101.62
451.986	131.62
452.207	114.62
452.428	110.62
452.648	129.62
452.869	121.62
453.089	107.62
453.31	129.62
453.53	124.62
453.751	142.62
453.971	126.62
454.192	118.62
454.412	117.62
454.633	118.62
454.853	121.62
455.073	131.62
455.294	106.62
455.514	138.62
455.734	119.62
455.955	122.62
456.175	109.62
456.395	117.62
456.616	120.62
456.836	122.62
457.056	115.62
457.276	119.62
457.497	129.62
457.717	113.62
457.937	125.62
458.157	114.62
458.377	112.62
458.598	119.62
458.818	131.62
459.038	145.62
459.258	119.62
459.478	125.62
459.698	122.62
459.918	124.62
460.138	124.62
460.358	136.62
460.578	126.62
460.798	138.62
461.018	125.62
461.238	118.62
461.458	128.62
461.678	123.62
461.898	119.62
462.118	137.62
462.338	141.62
462.558	128.62
462.777	140.62
462.997	127.62
463.217	143.62
463.437	122.62
463.657	135.62
463.876	134.62
464.096	149.62
464.316	134.62
464.536	151.62
464.755	122.62
464.975	126.62
465.195	130.62
465.414	137.62
465.634	142.62
465.854	129.62
466.073	122.62
466.293	110.62
466.512	135.62
466.732	123.62
466.951	129.62
467.171	134.62
467.391	121.62
467.61	116.62
467.829	110.62
468.049	121.62
468.268	136.62
468.488	109.62
468.707	129.62
468.927	123.62
469.146	126.62
469.365	97.62
469.585	107.62
469.804	125.62
470.023	108.62
470.243	141.62
470.462	125.62
470.681	129.62
470.901	114.62
471.12	124.62
471.339	129.62
471.558	127.62
471.777	119.62
471.997	122.62
472.216	109.62
472.435	117.62
472.654	123.62
472.873	139.62
473.092	114.62
473.311	117.62
473.53	126.62
473.749	129.62
473.968	130.62
474.187	130.62
474.406	118.62
474.625	124.62
474.844	119.62
475.063	124.62
475.282	118.62
475.501	112.62
475.72	106.62
475.939	116.62
476.158	122.62
476.377	137.62
476.596	126.62
476.814	134.62
477.033	119.62
477.252	115.62
477.471	121.62
477.69	128.62
477.908	123.62
478.127	140.62
478.346	124.62
478.564	140.62
478.783	128.62
479.002	133.62
479.22	131.62
479.439	131.62
479.658	129.62
479.876	137.62
480.095	125.62
480.313	137.62
480.532	139.62
480.751	126.62
480.969	150.62
481.188	139.62
481.406	149.62
481.624	145.62
481.843	127.62
482.061	131.62
482.28	125.62
482.498	118.62
482.717	120.62
482.935	134.62
483.153	129.62
483.372	133.62
483.59	128.62
483.808	134.62
484.027	130.62
484.245	142.62
484.463	106.62
484.681	135.62
484.9	115.62
485.118	130.62
485.336	132.62
485.554	131.62
485.772	126.62
485.99	118.62
486.209	135.62
486.427	137.62
486.645	130.62
486.863	135.62
487.081	113.62
487.299	131.62
487.517	133.62
487.735	124.62
487.953	146.62
488.171	151.62
488.389	127.62
488.607	141.62
488.825	150.62
489.043	131.62
489.261	155.62
489.479	133.62
489.696	142.62
489.914	141.62
490.132	133.62
490.35	146.62
490.568	137.62
490.786	135.62
491.003	144.62
491.221	131.62
491.439	141.62
491.657	144.62
491.874	141.62
492.092	124.62
492.31	157.62
492.527	141.62
492.745	144.62
492.963	144.62
493.18	136.62
493.398	133.62
493.615	136.62
493.833	147.62
494.05	145.62
494.268	134.62
494.485	146.62
494.703	135.62
494.92	137.62
495.138	141.62
495.355	146.62
495.573	144.62
495.79	130.62
496.008	146.62
496.225	135.62
496.442	157.62
496.66	164.62
496.877	138.62
497.094	142.62
497.312	156.62
497.529	145.62
497.746	169.62
497.963	141.62
498.181	152.62
498.398	147.62
498.615	159.62
498.832	152.62
499.049	157.62
499.267	163.62
499.484	163.62
499.701	179.62
499.918	177.62
500.135	188.62
500.352	211.62
500.569	215.62
500.786	210.62
501.003	190.62
501.22	199.62
501.437	182.62
501.654	171.62
501.871	160.62
502.088	158.62
502.305	155.62
502.522	178.62
502.739	158.62
502.956	160.62
503.172	160.62
503.389	160.62
503.606	135.62
503.823	138.62
504.04	158.62
504.256	140.62
504.473	137.62
504.69	141.62
504.907	149.62
505.123	139.62
505.34	141.62
505.557	139.62
505.773	148.62
