Data from 1968.PennyLincolnUp.Lamp.En5.5.200Scan.071719.P1._HRD10591_14-51-39-970.txt Node
Date: Thu Jul 18 14:51:39 EDT 2019
User: cochatt
Spectrometer: HR+D1059
Trigger mode: 1
Integration Time (sec): 1.000000E-1
Scans to average: 1
Electric dark correction enabled: true
Nonlinearity correction enabled: false
Boxcar width: 0
XAxis mode: Wavelengths
Number of Pixels in Spectrum: 2048
>>>>>Begin Spectral Data<<<<<
223.165	1.94
223.4	1.94
223.635	1.94
223.869	-15.06
224.104	-5.06
224.338	-27.06
224.573	-12.06
224.808	-1.06
225.042	-20.06
225.277	-14.06
225.511	3.94
225.746	1.94
225.98	-2.06
226.215	11.94
226.449	18.94
226.683	21.94
226.918	11.94
227.152	23.94
227.387	39.94
227.621	43.94
227.856	48.94
228.09	39.94
228.324	45.94
228.559	56.94
228.793	59.94
229.027	57.94
229.262	85.94
229.496	76.94
229.73	70.94
229.964	75.94
230.199	72.94
230.433	85.94
230.667	96.94
230.901	67.94
231.136	87.94
231.37	100.94
231.604	91.94
231.838	91.94
232.072	93.94
232.306	81.94
232.541	93.94
232.775	87.94
233.009	77.94
233.243	82.94
233.477	96.94
233.711	68.94
233.945	78.94
234.179	92.94
234.413	86.94
234.647	90.94
234.881	89.94
235.115	87.94
235.349	74.94
235.583	93.94
235.817	76.94
236.051	82.94
236.285	80.94
236.519	82.94
236.753	75.94
236.987	89.94
237.221	83.94
237.455	81.94
237.689	67.94
237.922	80.94
238.156	79.94
238.39	81.94
238.624	87.94
238.858	76.94
239.091	75.94
239.325	80.94
239.559	86.94
239.793	78.94
240.027	79.94
240.26	82.94
240.494	77.94
240.728	60.94
240.961	85.94
241.195	91.94
241.429	90.94
241.662	83.94
241.896	90.94
242.13	77.94
242.363	88.94
242.597	81.94
242.83	78.94
243.064	76.94
243.298	93.94
243.531	73.94
243.765	80.94
243.998	86.94
244.232	91.94
244.465	87.94
244.699	98.94
244.932	86.94
245.166	87.94
245.399	89.94
245.633	87.94
245.866	80.94
246.099	99.94
246.333	80.94
246.566	90.94
246.8	98.94
247.033	94.94
247.266	73.94
247.5	79.94
247.733	89.94
247.966	82.94
248.2	84.94
248.433	71.94
248.666	86.94
248.899	95.94
249.133	91.94
249.366	82.94
249.599	85.94
249.832	87.94
250.066	86.94
250.299	87.94
250.532	97.94
250.765	80.94
250.998	95.94
251.231	96.94
251.465	82.94
251.698	86.94
251.931	84.94
252.164	79.94
252.397	92.94
252.63	84.94
252.863	85.94
253.096	79.94
253.329	92.94
253.562	96.94
253.795	77.94
254.028	92.94
254.261	92.94
254.494	91.94
254.727	90.94
254.96	78.94
255.193	90.94
255.426	83.94
255.659	90.94
255.892	96.94
256.124	77.94
256.357	96.94
256.59	83.94
256.823	104.94
257.056	97.94
257.289	75.94
257.521	96.94
257.754	81.94
257.987	111.94
258.22	89.94
258.452	97.94
258.685	101.94
258.918	77.94
259.151	108.94
259.383	93.94
259.616	90.94
259.849	90.94
260.081	99.94
260.314	84.94
260.547	88.94
260.779	90.94
261.012	88.94
261.244	96.94
261.477	96.94
261.71	74.94
261.942	95.94
262.175	86.94
262.407	81.94
262.64	99.94
262.872	86.94
263.105	93.94
263.337	109.94
263.57	97.94
263.802	87.94
264.035	101.94
264.267	92.94
264.499	104.94
264.732	86.94
264.964	89.94
265.197	103.94
265.429	100.94
265.661	75.94
265.894	93.94
266.126	73.94
266.358	95.94
266.591	94.94
266.823	88.94
267.055	86.94
267.287	86.94
267.52	93.94
267.752	91.94
267.984	100.94
268.216	95.94
268.448	100.94
268.681	93.94
268.913	86.94
269.145	93.94
269.377	94.94
269.609	102.94
269.841	101.94
270.073	83.94
270.306	96.94
270.538	106.94
270.77	100.94
271.002	104.94
271.234	103.94
271.466	100.94
271.698	92.94
271.93	91.94
272.162	85.94
272.394	101.94
272.626	104.94
272.858	107.94
273.09	101.94
273.322	103.94
273.553	91.94
273.785	103.94
274.017	118.94
274.249	105.94
274.481	90.94
274.713	91.94
274.945	88.94
275.176	90.94
275.408	92.94
275.64	105.94
275.872	85.94
276.104	84.94
276.335	95.94
276.567	109.94
276.799	107.94
277.031	92.94
277.262	101.94
277.494	97.94
277.726	85.94
277.957	112.94
278.189	86.94
278.421	103.94
278.652	107.94
278.884	92.94
279.115	101.94
279.347	93.94
279.579	93.94
279.81	97.94
280.042	106.94
280.273	95.94
280.505	97.94
280.736	111.94
280.968	101.94
281.199	100.94
281.431	84.94
281.662	90.94
281.894	109.94
282.125	81.94
282.356	100.94
282.588	114.94
282.819	95.94
283.051	87.94
283.282	95.94
283.513	104.94
283.745	90.94
283.976	105.94
284.207	89.94
284.439	108.94
284.67	94.94
284.901	119.94
285.132	106.94
285.364	97.94
285.595	121.94
285.826	107.94
286.057	98.94
286.288	100.94
286.52	108.94
286.751	95.94
286.982	88.94
287.213	88.94
287.444	90.94
287.675	106.94
287.906	86.94
288.138	100.94
288.369	117.94
288.6	96.94
288.831	99.94
289.062	102.94
289.293	104.94
289.524	91.94
289.755	111.94
289.986	98.94
290.217	115.94
290.448	111.94
290.679	100.94
290.91	113.94
291.141	113.94
291.371	102.94
291.602	88.94
291.833	103.94
292.064	87.94
292.295	110.94
292.526	101.94
292.757	108.94
292.987	103.94
293.218	103.94
293.449	88.94
293.68	100.94
293.91	104.94
294.141	99.94
294.372	104.94
294.603	95.94
294.833	111.94
295.064	107.94
295.295	107.94
295.525	109.94
295.756	106.94
295.987	122.94
296.217	92.94
296.448	102.94
296.679	105.94
296.909	105.94
297.14	108.94
297.37	110.94
297.601	109.94
297.831	101.94
298.062	104.94
298.292	101.94
298.523	99.94
298.753	94.94
298.984	118.94
299.214	124.94
299.445	108.94
299.675	105.94
299.905	99.94
300.136	102.94
300.366	101.94
300.597	108.94
300.827	104.94
301.057	96.94
301.288	108.94
301.518	106.94
301.748	108.94
301.979	112.94
302.209	102.94
302.439	100.94
302.669	116.94
302.9	110.94
303.13	115.94
303.36	93.94
303.59	103.94
303.82	101.94
304.051	100.94
304.281	93.94
304.511	115.94
304.741	103.94
304.971	108.94
305.201	109.94
305.431	101.94
305.661	97.94
305.891	94.94
306.121	107.94
306.352	117.94
306.582	111.94
306.812	103.94
307.042	103.94
307.272	119.94
307.502	107.94
307.731	109.94
307.961	106.94
308.191	107.94
308.421	105.94
308.651	110.94
308.881	105.94
309.111	95.94
309.341	111.94
309.571	111.94
309.8	112.94
310.03	111.94
310.26	112.94
310.49	120.94
310.72	92.94
310.949	104.94
311.179	117.94
311.409	103.94
311.639	111.94
311.868	114.94
312.098	103.94
312.328	117.94
312.557	112.94
312.787	105.94
313.017	112.94
313.246	102.94
313.476	111.94
313.706	116.94
313.935	111.94
314.165	110.94
314.394	110.94
314.624	110.94
314.853	115.94
315.083	111.94
315.312	103.94
315.542	115.94
315.771	104.94
316.001	134.94
316.23	113.94
316.46	119.94
316.689	99.94
316.919	119.94
317.148	118.94
317.377	108.94
317.607	96.94
317.836	117.94
318.065	119.94
318.295	98.94
318.524	109.94
318.753	96.94
318.983	97.94
319.212	111.94
319.441	108.94
319.67	119.94
319.9	95.94
320.129	99.94
320.358	98.94
320.587	107.94
320.816	110.94
321.046	92.94
321.275	119.94
321.504	105.94
321.733	107.94
321.962	104.94
322.191	102.94
322.42	113.94
322.649	103.94
322.878	106.94
323.108	101.94
323.337	104.94
323.566	114.94
323.795	112.94
324.024	110.94
324.253	128.94
324.482	141.94
324.71	165.94
324.939	192.94
325.168	173.94
325.397	128.94
325.626	119.94
325.855	125.94
326.084	111.94
326.313	108.94
326.542	120.94
326.77	108.94
326.999	122.94
327.228	127.94
327.457	171.94
327.686	161.94
327.914	116.94
328.143	135.94
328.372	104.94
328.6	105.94
328.829	123.94
329.058	122.94
329.287	121.94
329.515	108.94
329.744	115.94
329.972	110.94
330.201	107.94
330.43	121.94
330.658	118.94
330.887	117.94
331.115	118.94
331.344	109.94
331.572	112.94
331.801	128.94
332.03	121.94
332.258	118.94
332.486	123.94
332.715	129.94
332.943	112.94
333.172	125.94
333.4	125.94
333.629	129.94
333.857	107.94
334.085	115.94
334.314	123.94
334.542	121.94
334.771	119.94
334.999	113.94
335.227	125.94
335.455	125.94
335.684	112.94
335.912	108.94
336.14	115.94
336.369	120.94
336.597	125.94
336.825	134.94
337.053	105.94
337.281	108.94
337.51	108.94
337.738	118.94
337.966	120.94
338.194	96.94
338.422	123.94
338.65	124.94
338.878	115.94
339.106	101.94
339.334	123.94
339.562	115.94
339.79	110.94
340.018	115.94
340.246	110.94
340.474	108.94
340.702	125.94
340.93	121.94
341.158	116.94
341.386	120.94
341.614	115.94
341.842	103.94
342.07	109.94
342.298	111.94
342.526	120.94
342.754	104.94
342.981	106.94
343.209	125.94
343.437	115.94
343.665	110.94
343.893	127.94
344.12	108.94
344.348	121.94
344.576	105.94
344.804	115.94
345.031	115.94
345.259	113.94
345.487	112.94
345.714	109.94
345.942	117.94
346.17	108.94
346.397	105.94
346.625	105.94
346.853	119.94
347.08	102.94
347.308	119.94
347.535	101.94
347.763	108.94
347.99	116.94
348.218	111.94
348.445	95.94
348.673	103.94
348.9	112.94
349.128	126.94
349.355	107.94
349.583	91.94
349.81	113.94
350.037	108.94
350.265	105.94
350.492	109.94
350.72	107.94
350.947	106.94
351.174	102.94
351.402	99.94
351.629	110.94
351.856	128.94
352.083	108.94
352.311	125.94
352.538	122.94
352.765	110.94
352.992	121.94
353.22	115.94
353.447	118.94
353.674	128.94
353.901	103.94
354.128	104.94
354.355	118.94
354.583	111.94
354.81	105.94
355.037	100.94
355.264	95.94
355.491	102.94
355.718	106.94
355.945	106.94
356.172	105.94
356.399	117.94
356.626	104.94
356.853	110.94
357.08	110.94
357.307	106.94
357.534	113.94
357.761	112.94
357.988	115.94
358.215	124.94
358.441	107.94
358.668	117.94
358.895	103.94
359.122	113.94
359.349	121.94
359.576	124.94
359.802	96.94
360.029	113.94
360.256	122.94
360.483	107.94
360.709	115.94
360.936	119.94
361.163	107.94
361.39	117.94
361.616	94.94
361.843	103.94
362.07	112.94
362.296	103.94
362.523	112.94
362.749	104.94
362.976	100.94
363.203	112.94
363.429	125.94
363.656	121.94
363.882	101.94
364.109	115.94
364.335	100.94
364.562	103.94
364.788	110.94
365.015	110.94
365.241	109.94
365.468	105.94
365.694	113.94
365.92	107.94
366.147	105.94
366.373	110.94
366.599	110.94
366.826	98.94
367.052	122.94
367.278	103.94
367.505	123.94
367.731	106.94
367.957	120.94
368.184	110.94
368.41	106.94
368.636	107.94
368.862	119.94
369.089	114.94
369.315	127.94
369.541	127.94
369.767	121.94
369.993	125.94
370.219	111.94
370.445	114.94
370.672	123.94
370.898	101.94
371.124	97.94
371.35	108.94
371.576	122.94
371.802	109.94
372.028	123.94
372.254	114.94
372.48	114.94
372.706	124.94
372.932	108.94
373.158	105.94
373.384	112.94
373.61	120.94
373.835	124.94
374.061	112.94
374.287	103.94
374.513	117.94
374.739	106.94
374.965	109.94
375.191	119.94
375.416	122.94
375.642	108.94
375.868	119.94
376.094	113.94
376.319	121.94
376.545	109.94
376.771	108.94
376.997	107.94
377.222	109.94
377.448	91.94
377.674	113.94
377.899	122.94
378.125	107.94
378.35	118.94
378.576	116.94
378.802	112.94
379.027	124.94
379.253	120.94
379.478	112.94
379.704	116.94
379.929	95.94
380.155	108.94
380.38	118.94
380.606	113.94
380.831	127.94
381.057	115.94
381.282	108.94
381.507	124.94
381.733	120.94
381.958	115.94
382.184	109.94
382.409	121.94
382.634	112.94
382.86	109.94
383.085	119.94
383.31	116.94
383.535	123.94
383.761	117.94
383.986	103.94
384.211	119.94
384.436	117.94
384.662	123.94
384.887	115.94
385.112	107.94
385.337	108.94
385.562	112.94
385.787	128.94
386.013	129.94
386.238	107.94
386.463	103.94
386.688	118.94
386.913	114.94
387.138	110.94
387.363	122.94
387.588	129.94
387.813	118.94
388.038	117.94
388.263	121.94
388.488	121.94
388.713	104.94
388.938	109.94
389.163	123.94
389.387	123.94
389.612	124.94
389.837	120.94
390.062	114.94
390.287	124.94
390.512	113.94
390.736	122.94
390.961	107.94
391.186	122.94
391.411	123.94
391.636	132.94
391.86	115.94
392.085	124.94
392.31	129.94
392.534	112.94
392.759	129.94
392.984	127.94
393.208	124.94
393.433	118.94
393.658	116.94
393.882	125.94
394.107	122.94
394.331	117.94
394.556	125.94
394.78	124.94
395.005	120.94
395.229	124.94
395.454	128.94
395.678	123.94
395.903	127.94
396.127	128.94
396.352	125.94
396.576	112.94
396.801	125.94
397.025	128.94
397.249	124.94
397.474	112.94
397.698	127.94
397.922	126.94
398.147	115.94
398.371	124.94
398.595	131.94
398.82	138.94
399.044	142.94
399.268	148.94
399.492	156.94
399.717	152.94
399.941	142.94
400.165	126.94
400.389	132.94
400.613	124.94
400.837	124.94
401.062	126.94
401.286	112.94
401.51	142.94
401.734	143.94
401.958	119.94
402.182	133.94
402.406	112.94
402.63	128.94
402.854	126.94
403.078	116.94
403.302	131.94
403.526	128.94
403.75	135.94
403.974	149.94
404.198	133.94
404.422	137.94
404.645	122.94
404.869	130.94
405.093	135.94
405.317	133.94
405.541	143.94
405.765	146.94
405.988	135.94
406.212	128.94
406.436	124.94
406.66	123.94
406.883	136.94
407.107	140.94
407.331	131.94
407.555	134.94
407.778	146.94
408.002	149.94
408.226	141.94
408.449	137.94
408.673	138.94
408.896	140.94
409.12	141.94
409.344	149.94
409.567	139.94
409.791	143.94
410.014	140.94
410.238	135.94
410.461	125.94
410.685	136.94
410.908	120.94
411.132	132.94
411.355	131.94
411.578	136.94
411.802	135.94
412.025	115.94
412.249	137.94
412.472	137.94
412.695	132.94
412.919	129.94
413.142	120.94
413.365	131.94
413.589	130.94
413.812	132.94
414.035	113.94
414.258	143.94
414.482	135.94
414.705	123.94
414.928	128.94
415.151	145.94
415.374	138.94
415.597	139.94
415.821	122.94
416.044	137.94
416.267	135.94
416.49	121.94
416.713	142.94
416.936	135.94
417.159	133.94
417.382	132.94
417.605	115.94
417.828	144.94
418.051	140.94
418.274	131.94
418.497	129.94
418.72	137.94
418.943	126.94
419.166	141.94
419.389	137.94
419.611	129.94
419.834	113.94
420.057	137.94
420.28	135.94
420.503	132.94
420.726	136.94
420.948	132.94
421.171	120.94
421.394	133.94
421.617	143.94
421.839	131.94
422.062	131.94
422.285	140.94
422.507	136.94
422.73	155.94
422.953	137.94
423.175	128.94
423.398	119.94
423.621	118.94
423.843	133.94
424.066	137.94
424.288	136.94
424.511	124.94
424.733	134.94
424.956	128.94
425.178	141.94
425.401	138.94
425.623	143.94
425.846	135.94
426.068	132.94
426.291	123.94
426.513	118.94
426.735	133.94
426.958	128.94
427.18	135.94
427.402	133.94
427.625	158.94
427.847	127.94
428.069	124.94
428.292	137.94
428.514	150.94
428.736	127.94
428.958	148.94
429.181	137.94
429.403	132.94
429.625	139.94
429.847	120.94
430.069	140.94
430.292	149.94
430.514	129.94
430.736	127.94
430.958	139.94
431.18	104.94
431.402	115.94
431.624	133.94
431.846	129.94
432.068	108.94
432.29	123.94
432.512	127.94
432.734	101.94
432.956	122.94
433.178	128.94
433.4	116.94
433.622	119.94
433.844	132.94
434.066	126.94
434.287	119.94
434.509	121.94
434.731	131.94
434.953	124.94
435.175	123.94
435.397	125.94
435.618	127.94
435.84	142.94
436.062	145.94
436.284	140.94
436.505	137.94
436.727	127.94
436.949	121.94
437.17	109.94
437.392	135.94
437.614	128.94
437.835	132.94
438.057	121.94
438.278	143.94
438.5	135.94
438.721	151.94
438.943	157.94
439.165	140.94
439.386	138.94
439.608	123.94
439.829	119.94
440.05	133.94
440.272	127.94
440.493	133.94
440.715	137.94
440.936	133.94
441.158	128.94
441.379	139.94
441.6	118.94
441.822	129.94
442.043	139.94
442.264	145.94
442.486	139.94
442.707	142.94
442.928	124.94
443.149	142.94
443.371	141.94
443.592	138.94
443.813	140.94
444.034	134.94
444.255	147.94
444.476	140.94
444.698	131.94
444.919	143.94
445.14	271.94
445.361	199.94
445.582	149.94
445.803	137.94
446.024	140.94
446.245	135.94
446.466	144.94
446.687	134.94
446.908	129.94
447.129	123.94
447.35	118.94
447.571	122.94
447.792	131.94
448.013	133.94
448.234	129.94
448.455	135.94
448.675	141.94
448.896	144.94
449.117	129.94
449.338	121.94
449.559	141.94
449.779	147.94
450	150.94
450.221	131.94
450.442	123.94
450.662	133.94
450.883	125.94
451.104	132.94
451.324	102.94
451.545	128.94
451.766	123.94
451.986	113.94
452.207	119.94
452.428	121.94
452.648	126.94
452.869	115.94
453.089	119.94
453.31	117.94
453.53	117.94
453.751	112.94
453.971	127.94
454.192	126.94
454.412	115.94
454.633	103.94
454.853	125.94
455.073	124.94
455.294	111.94
455.514	124.94
455.734	118.94
455.955	123.94
456.175	112.94
456.395	121.94
456.616	117.94
456.836	122.94
457.056	120.94
457.276	106.94
457.497	122.94
457.717	112.94
457.937	115.94
458.157	127.94
458.377	122.94
458.598	110.94
458.818	118.94
459.038	127.94
459.258	132.94
459.478	123.94
459.698	118.94
459.918	144.94
460.138	136.94
460.358	128.94
460.578	119.94
460.798	134.94
461.018	127.94
461.238	122.94
461.458	132.94
461.678	126.94
461.898	123.94
462.118	116.94
462.338	137.94
462.558	136.94
462.777	127.94
462.997	131.94
463.217	145.94
463.437	146.94
463.657	159.94
463.876	123.94
464.096	127.94
464.316	139.94
464.536	138.94
464.755	143.94
464.975	133.94
465.195	128.94
465.414	130.94
465.634	128.94
465.854	132.94
466.073	111.94
466.293	129.94
466.512	125.94
466.732	120.94
466.951	132.94
467.171	119.94
467.391	117.94
467.61	133.94
467.829	131.94
468.049	127.94
468.268	116.94
468.488	125.94
468.707	127.94
468.927	122.94
469.146	128.94
469.365	124.94
469.585	127.94
469.804	120.94
470.023	128.94
470.243	121.94
470.462	135.94
470.681	152.94
470.901	123.94
471.12	137.94
471.339	133.94
471.558	134.94
471.777	133.94
471.997	108.94
472.216	130.94
472.435	127.94
472.654	124.94
472.873	116.94
473.092	120.94
473.311	126.94
473.53	131.94
473.749	130.94
473.968	126.94
474.187	135.94
474.406	123.94
474.625	127.94
474.844	128.94
475.063	129.94
475.282	126.94
475.501	109.94
475.72	117.94
475.939	133.94
476.158	136.94
476.377	127.94
476.596	120.94
476.814	110.94
477.033	129.94
477.252	119.94
477.471	129.94
477.69	140.94
477.908	143.94
478.127	131.94
478.346	122.94
478.564	131.94
478.783	142.94
479.002	144.94
479.22	125.94
479.439	143.94
479.658	136.94
479.876	137.94
480.095	141.94
480.313	115.94
480.532	120.94
480.751	142.94
480.969	122.94
481.188	123.94
481.406	142.94
481.624	134.94
481.843	122.94
482.061	131.94
482.28	126.94
482.498	131.94
482.717	130.94
482.935	125.94
483.153	129.94
483.372	127.94
483.59	125.94
483.808	131.94
484.027	153.94
484.245	136.94
484.463	135.94
484.681	133.94
484.9	128.94
485.118	138.94
485.336	134.94
485.554	133.94
485.772	125.94
485.99	147.94
486.209	129.94
486.427	137.94
486.645	149.94
486.863	136.94
487.081	128.94
487.299	134.94
487.517	124.94
487.735	128.94
487.953	131.94
488.171	147.94
488.389	151.94
488.607	132.94
488.825	143.94
489.043	128.94
489.261	138.94
489.479	125.94
489.696	151.94
489.914	121.94
490.132	130.94
490.35	144.94
490.568	131.94
490.786	149.94
491.003	135.94
491.221	137.94
491.439	159.94
491.657	154.94
491.874	146.94
492.092	171.94
492.31	149.94
492.527	145.94
492.745	147.94
492.963	159.94
493.18	137.94
493.398	151.94
493.615	139.94
493.833	141.94
494.05	151.94
494.268	159.94
494.485	142.94
494.703	144.94
494.92	139.94
495.138	132.94
495.355	158.94
495.573	143.94
495.79	153.94
496.008	133.94
496.225	155.94
496.442	135.94
496.66	141.94
496.877	140.94
497.094	155.94
497.312	133.94
497.529	152.94
497.746	160.94
497.963	137.94
498.181	151.94
498.398	153.94
498.615	149.94
498.832	160.94
499.049	157.94
499.267	171.94
499.484	177.94
499.701	175.94
499.918	175.94
500.135	194.94
500.352	204.94
500.569	203.94
500.786	209.94
501.003	211.94
501.22	206.94
501.437	189.94
501.654	197.94
501.871	165.94
502.088	159.94
502.305	157.94
502.522	161.94
502.739	163.94
502.956	178.94
503.172	145.94
503.389	156.94
503.606	151.94
503.823	145.94
504.04	149.94
504.256	155.94
504.473	149.94
504.69	144.94
504.907	155.94
505.123	145.94
505.34	143.94
