Data from 1968.PennyLincolnUp.Lamp.En5.5.200Scan.071719.P1._HRD10591_14-51-05-969.txt Node
Date: Thu Jul 18 14:51:05 EDT 2019
User: cochatt
Spectrometer: HR+D1059
Trigger mode: 1
Integration Time (sec): 1.000000E-1
Scans to average: 1
Electric dark correction enabled: true
Nonlinearity correction enabled: false
Boxcar width: 0
XAxis mode: Wavelengths
Number of Pixels in Spectrum: 2048
>>>>>Begin Spectral Data<<<<<
223.165	-31.56
223.4	-31.56
223.635	-31.56
223.869	-13.56
224.104	-30.56
224.338	-5.56
224.573	-9.56
224.808	-23.56
225.042	1.44
225.277	-2.56
225.511	12.44
225.746	7.44
225.98	8.44
226.215	6.44
226.449	24.44
226.683	19.44
226.918	14.44
227.152	22.44
227.387	44.44
227.621	46.44
227.856	45.44
228.09	46.44
228.324	35.44
228.559	62.44
228.793	55.44
229.027	58.44
229.262	73.44
229.496	61.44
229.73	77.44
229.964	89.44
230.199	78.44
230.433	74.44
230.667	80.44
230.901	66.44
231.136	74.44
231.37	92.44
231.604	81.44
231.838	86.44
232.072	84.44
232.306	72.44
232.541	87.44
232.775	89.44
233.009	96.44
233.243	81.44
233.477	87.44
233.711	75.44
233.945	100.44
234.179	95.44
234.413	87.44
234.647	87.44
234.881	98.44
235.115	76.44
235.349	85.44
235.583	86.44
235.817	93.44
236.051	92.44
236.285	89.44
236.519	94.44
236.753	85.44
236.987	86.44
237.221	93.44
237.455	83.44
237.689	79.44
237.922	77.44
238.156	87.44
238.39	82.44
238.624	83.44
238.858	73.44
239.091	79.44
239.325	89.44
239.559	82.44
239.793	79.44
240.027	99.44
240.26	80.44
240.494	77.44
240.728	80.44
240.961	100.44
241.195	76.44
241.429	85.44
241.662	82.44
241.896	82.44
242.13	103.44
242.363	82.44
242.597	77.44
242.83	75.44
243.064	78.44
243.298	84.44
243.531	85.44
243.765	79.44
243.998	85.44
244.232	76.44
244.465	84.44
244.699	94.44
244.932	87.44
245.166	72.44
245.399	78.44
245.633	95.44
245.866	91.44
246.099	81.44
246.333	78.44
246.566	83.44
246.8	77.44
247.033	86.44
247.266	102.44
247.5	86.44
247.733	100.44
247.966	78.44
248.2	85.44
248.433	85.44
248.666	82.44
248.899	91.44
249.133	91.44
249.366	92.44
249.599	90.44
249.832	103.44
250.066	86.44
250.299	80.44
250.532	86.44
250.765	83.44
250.998	85.44
251.231	87.44
251.465	84.44
251.698	80.44
251.931	80.44
252.164	103.44
252.397	86.44
252.63	94.44
252.863	91.44
253.096	83.44
253.329	77.44
253.562	96.44
253.795	89.44
254.028	91.44
254.261	87.44
254.494	93.44
254.727	83.44
254.96	85.44
255.193	88.44
255.426	102.44
255.659	98.44
255.892	87.44
256.124	94.44
256.357	101.44
256.59	95.44
256.823	93.44
257.056	94.44
257.289	96.44
257.521	86.44
257.754	94.44
257.987	112.44
258.22	106.44
258.452	97.44
258.685	96.44
258.918	81.44
259.151	96.44
259.383	88.44
259.616	90.44
259.849	80.44
260.081	88.44
260.314	110.44
260.547	100.44
260.779	95.44
261.012	96.44
261.244	86.44
261.477	99.44
261.71	90.44
261.942	90.44
262.175	90.44
262.407	100.44
262.64	95.44
262.872	104.44
263.105	85.44
263.337	93.44
263.57	94.44
263.802	85.44
264.035	85.44
264.267	87.44
264.499	105.44
264.732	98.44
264.964	96.44
265.197	84.44
265.429	90.44
265.661	99.44
265.894	92.44
266.126	95.44
266.358	100.44
266.591	107.44
266.823	101.44
267.055	100.44
267.287	97.44
267.52	100.44
267.752	94.44
267.984	105.44
268.216	107.44
268.448	95.44
268.681	89.44
268.913	102.44
269.145	105.44
269.377	98.44
269.609	84.44
269.841	99.44
270.073	106.44
270.306	102.44
270.538	118.44
270.77	98.44
271.002	96.44
271.234	95.44
271.466	101.44
271.698	112.44
271.93	97.44
272.162	89.44
272.394	104.44
272.626	90.44
272.858	103.44
273.09	89.44
273.322	96.44
273.553	95.44
273.785	102.44
274.017	87.44
274.249	94.44
274.481	98.44
274.713	107.44
274.945	112.44
275.176	104.44
275.408	113.44
275.64	106.44
275.872	83.44
276.104	113.44
276.335	96.44
276.567	103.44
276.799	92.44
277.031	106.44
277.262	87.44
277.494	107.44
277.726	96.44
277.957	106.44
278.189	93.44
278.421	94.44
278.652	97.44
278.884	119.44
279.115	111.44
279.347	90.44
279.579	104.44
279.81	79.44
280.042	105.44
280.273	106.44
280.505	104.44
280.736	94.44
280.968	97.44
281.199	99.44
281.431	87.44
281.662	96.44
281.894	108.44
282.125	100.44
282.356	110.44
282.588	101.44
282.819	103.44
283.051	110.44
283.282	90.44
283.513	108.44
283.745	83.44
283.976	98.44
284.207	93.44
284.439	98.44
284.67	96.44
284.901	103.44
285.132	118.44
285.364	95.44
285.595	119.44
285.826	106.44
286.057	94.44
286.288	101.44
286.52	89.44
286.751	103.44
286.982	112.44
287.213	106.44
287.444	92.44
287.675	93.44
287.906	111.44
288.138	100.44
288.369	92.44
288.6	91.44
288.831	108.44
289.062	102.44
289.293	108.44
289.524	108.44
289.755	103.44
289.986	94.44
290.217	95.44
290.448	105.44
290.679	118.44
290.91	98.44
291.141	99.44
291.371	99.44
291.602	111.44
291.833	91.44
292.064	108.44
292.295	111.44
292.526	115.44
292.757	107.44
292.987	92.44
293.218	103.44
293.449	101.44
293.68	98.44
293.91	98.44
294.141	103.44
294.372	99.44
294.603	111.44
294.833	104.44
295.064	114.44
295.295	101.44
295.525	103.44
295.756	97.44
295.987	96.44
296.217	103.44
296.448	103.44
296.679	109.44
296.909	106.44
297.14	105.44
297.37	109.44
297.601	112.44
297.831	90.44
298.062	98.44
298.292	97.44
298.523	93.44
298.753	118.44
298.984	118.44
299.214	109.44
299.445	96.44
299.675	99.44
299.905	111.44
300.136	120.44
300.366	95.44
300.597	111.44
300.827	110.44
301.057	102.44
301.288	102.44
301.518	116.44
301.748	113.44
301.979	122.44
302.209	107.44
302.439	96.44
302.669	111.44
302.9	99.44
303.13	98.44
303.36	99.44
303.59	111.44
303.82	117.44
304.051	98.44
304.281	119.44
304.511	122.44
304.741	93.44
304.971	84.44
305.201	116.44
305.431	95.44
305.661	101.44
305.891	100.44
306.121	108.44
306.352	95.44
306.582	101.44
306.812	112.44
307.042	99.44
307.272	95.44
307.502	118.44
307.731	107.44
307.961	100.44
308.191	103.44
308.421	114.44
308.651	110.44
308.881	101.44
309.111	108.44
309.341	119.44
309.571	100.44
309.8	110.44
310.03	122.44
310.26	116.44
310.49	114.44
310.72	107.44
310.949	114.44
311.179	114.44
311.409	98.44
311.639	91.44
311.868	115.44
312.098	111.44
312.328	117.44
312.557	108.44
312.787	103.44
313.017	113.44
313.246	104.44
313.476	111.44
313.706	110.44
313.935	115.44
314.165	116.44
314.394	104.44
314.624	105.44
314.853	98.44
315.083	111.44
315.312	103.44
315.542	95.44
315.771	102.44
316.001	102.44
316.23	103.44
316.46	112.44
316.689	118.44
316.919	106.44
317.148	114.44
317.377	109.44
317.607	111.44
317.836	96.44
318.065	107.44
318.295	110.44
318.524	114.44
318.753	104.44
318.983	119.44
319.212	114.44
319.441	110.44
319.67	128.44
319.9	118.44
320.129	112.44
320.358	114.44
320.587	107.44
320.816	112.44
321.046	107.44
321.275	115.44
321.504	126.44
321.733	103.44
321.962	99.44
322.191	114.44
322.42	106.44
322.649	116.44
322.878	109.44
323.108	103.44
323.337	116.44
323.566	116.44
323.795	123.44
324.024	126.44
324.253	133.44
324.482	144.44
324.71	156.44
324.939	183.44
325.168	161.44
325.397	120.44
325.626	110.44
325.855	133.44
326.084	116.44
326.313	111.44
326.542	120.44
326.77	116.44
326.999	134.44
327.228	144.44
327.457	147.44
327.686	159.44
327.914	141.44
328.143	134.44
328.372	133.44
328.6	101.44
328.829	97.44
329.058	112.44
329.287	118.44
329.515	117.44
329.744	115.44
329.972	104.44
330.201	116.44
330.43	111.44
330.658	120.44
330.887	108.44
331.115	118.44
331.344	109.44
331.572	114.44
331.801	126.44
332.03	126.44
332.258	116.44
332.486	110.44
332.715	128.44
332.943	122.44
333.172	123.44
333.4	104.44
333.629	132.44
333.857	119.44
334.085	119.44
334.314	125.44
334.542	126.44
334.771	122.44
334.999	113.44
335.227	110.44
335.455	122.44
335.684	130.44
335.912	111.44
336.14	122.44
336.369	125.44
336.597	118.44
336.825	111.44
337.053	110.44
337.281	104.44
337.51	100.44
337.738	131.44
337.966	117.44
338.194	130.44
338.422	123.44
338.65	123.44
338.878	118.44
339.106	126.44
339.334	108.44
339.562	116.44
339.79	109.44
340.018	119.44
340.246	108.44
340.474	114.44
340.702	122.44
340.93	112.44
341.158	125.44
341.386	106.44
341.614	118.44
341.842	116.44
342.07	120.44
342.298	118.44
342.526	111.44
342.754	111.44
342.981	119.44
343.209	116.44
343.437	127.44
343.665	118.44
343.893	106.44
344.12	121.44
344.348	103.44
344.576	114.44
344.804	111.44
345.031	116.44
345.259	111.44
345.487	109.44
345.714	119.44
345.942	122.44
346.17	111.44
346.397	114.44
346.625	106.44
346.853	103.44
347.08	123.44
347.308	111.44
347.535	118.44
347.763	108.44
347.99	116.44
348.218	116.44
348.445	113.44
348.673	118.44
348.9	128.44
349.128	115.44
349.355	107.44
349.583	116.44
349.81	123.44
350.037	118.44
350.265	102.44
350.492	96.44
350.72	119.44
350.947	114.44
351.174	111.44
351.402	109.44
351.629	99.44
351.856	119.44
352.083	95.44
352.311	103.44
352.538	102.44
352.765	122.44
352.992	127.44
353.22	117.44
353.447	122.44
353.674	90.44
353.901	113.44
354.128	101.44
354.355	106.44
354.583	91.44
354.81	100.44
355.037	111.44
355.264	111.44
355.491	103.44
355.718	110.44
355.945	103.44
356.172	105.44
356.399	120.44
356.626	113.44
356.853	122.44
357.08	120.44
357.307	111.44
357.534	117.44
357.761	114.44
357.988	115.44
358.215	107.44
358.441	97.44
358.668	109.44
358.895	122.44
359.122	122.44
359.349	107.44
359.576	120.44
359.802	121.44
360.029	118.44
360.256	117.44
360.483	119.44
360.709	120.44
360.936	125.44
361.163	116.44
361.39	107.44
361.616	103.44
361.843	122.44
362.07	118.44
362.296	111.44
362.523	111.44
362.749	118.44
362.976	104.44
363.203	121.44
363.429	101.44
363.656	120.44
363.882	110.44
364.109	118.44
364.335	116.44
364.562	108.44
364.788	114.44
365.015	114.44
365.241	86.44
365.468	117.44
365.694	119.44
365.92	112.44
366.147	128.44
366.373	129.44
366.599	106.44
366.826	118.44
367.052	116.44
367.278	112.44
367.505	130.44
367.731	120.44
367.957	121.44
368.184	121.44
368.41	108.44
368.636	112.44
368.862	110.44
369.089	101.44
369.315	119.44
369.541	124.44
369.767	133.44
369.993	120.44
370.219	116.44
370.445	103.44
370.672	97.44
370.898	129.44
371.124	116.44
371.35	106.44
371.576	104.44
371.802	122.44
372.028	102.44
372.254	104.44
372.48	114.44
372.706	138.44
372.932	114.44
373.158	114.44
373.384	130.44
373.61	120.44
373.835	112.44
374.061	122.44
374.287	102.44
374.513	101.44
374.739	130.44
374.965	106.44
375.191	121.44
375.416	118.44
375.642	107.44
375.868	128.44
376.094	107.44
376.319	115.44
376.545	118.44
376.771	117.44
376.997	107.44
377.222	122.44
377.448	131.44
377.674	119.44
377.899	122.44
378.125	97.44
378.35	118.44
378.576	110.44
378.802	114.44
379.027	115.44
379.253	112.44
379.478	102.44
379.704	101.44
379.929	113.44
380.155	106.44
380.38	109.44
380.606	123.44
380.831	107.44
381.057	125.44
381.282	105.44
381.507	115.44
381.733	136.44
381.958	119.44
382.184	105.44
382.409	111.44
382.634	127.44
382.86	112.44
383.085	118.44
383.31	126.44
383.535	119.44
383.761	111.44
383.986	115.44
384.211	118.44
384.436	130.44
384.662	119.44
384.887	134.44
385.112	132.44
385.337	119.44
385.562	124.44
385.787	116.44
386.013	119.44
386.238	132.44
386.463	114.44
386.688	127.44
386.913	117.44
387.138	112.44
387.363	108.44
387.588	116.44
387.813	116.44
388.038	110.44
388.263	124.44
388.488	118.44
388.713	118.44
388.938	131.44
389.163	108.44
389.387	121.44
389.612	110.44
389.837	120.44
390.062	107.44
390.287	130.44
390.512	108.44
390.736	101.44
390.961	127.44
391.186	116.44
391.411	138.44
391.636	114.44
391.86	100.44
392.085	126.44
392.31	124.44
392.534	127.44
392.759	108.44
392.984	123.44
393.208	134.44
393.433	122.44
393.658	108.44
393.882	107.44
394.107	102.44
394.331	105.44
394.556	132.44
394.78	115.44
395.005	130.44
395.229	125.44
395.454	134.44
395.678	122.44
395.903	138.44
396.127	129.44
396.352	114.44
396.576	128.44
396.801	119.44
397.025	125.44
397.249	133.44
397.474	116.44
397.698	138.44
397.922	133.44
398.147	116.44
398.371	134.44
398.595	131.44
398.82	125.44
399.044	127.44
399.268	142.44
399.492	135.44
399.717	152.44
399.941	138.44
400.165	136.44
400.389	150.44
400.613	142.44
400.837	130.44
401.062	138.44
401.286	131.44
401.51	134.44
401.734	120.44
401.958	104.44
402.182	124.44
402.406	138.44
402.63	126.44
402.854	131.44
403.078	124.44
403.302	120.44
403.526	130.44
403.75	135.44
403.974	114.44
404.198	115.44
404.422	132.44
404.645	138.44
404.869	140.44
405.093	155.44
405.317	132.44
405.541	139.44
405.765	143.44
405.988	134.44
406.212	124.44
406.436	140.44
406.66	131.44
406.883	139.44
407.107	149.44
407.331	135.44
407.555	136.44
407.778	139.44
408.002	124.44
408.226	144.44
408.449	134.44
408.673	142.44
408.896	143.44
409.12	141.44
409.344	132.44
409.567	140.44
409.791	125.44
410.014	130.44
410.238	138.44
410.461	123.44
410.685	121.44
410.908	125.44
411.132	130.44
411.355	138.44
411.578	134.44
411.802	125.44
412.025	139.44
412.249	136.44
412.472	132.44
412.695	124.44
412.919	132.44
413.142	127.44
413.365	145.44
413.589	130.44
413.812	122.44
414.035	134.44
414.258	139.44
414.482	120.44
414.705	123.44
414.928	130.44
415.151	128.44
415.374	131.44
415.597	123.44
415.821	130.44
416.044	136.44
416.267	135.44
416.49	131.44
416.713	126.44
416.936	135.44
417.159	134.44
417.382	121.44
417.605	134.44
417.828	136.44
418.051	121.44
418.274	121.44
418.497	135.44
418.72	125.44
418.943	145.44
419.166	141.44
419.389	145.44
419.611	129.44
419.834	127.44
420.057	129.44
420.28	119.44
420.503	128.44
420.726	138.44
420.948	126.44
421.171	127.44
421.394	125.44
421.617	117.44
421.839	128.44
422.062	138.44
422.285	139.44
422.507	136.44
422.73	143.44
422.953	146.44
423.175	143.44
423.398	132.44
423.621	119.44
423.843	131.44
424.066	121.44
424.288	130.44
424.511	130.44
424.733	134.44
424.956	149.44
425.178	136.44
425.401	136.44
425.623	143.44
425.846	134.44
426.068	125.44
426.291	126.44
426.513	110.44
426.735	119.44
426.958	120.44
427.18	151.44
427.402	138.44
427.625	141.44
427.847	137.44
428.069	129.44
428.292	121.44
428.514	122.44
428.736	122.44
428.958	132.44
429.181	122.44
429.403	126.44
429.625	129.44
429.847	132.44
430.069	149.44
430.292	143.44
430.514	136.44
430.736	144.44
430.958	128.44
431.18	119.44
431.402	127.44
431.624	124.44
431.846	118.44
432.068	121.44
432.29	112.44
432.512	126.44
432.734	124.44
432.956	128.44
433.178	129.44
433.4	126.44
433.622	122.44
433.844	124.44
434.066	145.44
434.287	134.44
434.509	123.44
434.731	127.44
434.953	130.44
435.175	146.44
435.397	129.44
435.618	131.44
435.84	137.44
436.062	134.44
436.284	138.44
436.505	125.44
436.727	139.44
436.949	140.44
437.17	105.44
437.392	108.44
437.614	132.44
437.835	140.44
438.057	139.44
438.278	145.44
438.5	127.44
438.721	153.44
438.943	131.44
439.165	129.44
439.386	128.44
439.608	122.44
439.829	130.44
440.05	129.44
440.272	139.44
440.493	136.44
440.715	133.44
440.936	119.44
441.158	136.44
441.379	127.44
441.6	123.44
441.822	134.44
442.043	130.44
442.264	134.44
442.486	143.44
442.707	132.44
442.928	134.44
443.149	130.44
443.371	120.44
443.592	125.44
443.813	126.44
444.034	143.44
444.255	143.44
444.476	138.44
444.698	126.44
444.919	136.44
445.14	233.44
445.361	178.44
445.582	144.44
445.803	128.44
446.024	136.44
446.245	149.44
446.466	142.44
446.687	128.44
446.908	125.44
447.129	125.44
447.35	106.44
447.571	132.44
447.792	118.44
448.013	124.44
448.234	129.44
448.455	126.44
448.675	126.44
448.896	153.44
449.117	132.44
449.338	123.44
449.559	147.44
449.779	143.44
450	145.44
450.221	132.44
450.442	123.44
450.662	136.44
450.883	132.44
451.104	127.44
451.324	113.44
451.545	128.44
451.766	127.44
451.986	118.44
452.207	116.44
452.428	114.44
452.648	121.44
452.869	122.44
453.089	95.44
453.31	133.44
453.53	122.44
453.751	134.44
453.971	138.44
454.192	134.44
454.412	120.44
454.633	126.44
454.853	114.44
455.073	138.44
455.294	119.44
455.514	127.44
455.734	109.44
455.955	109.44
456.175	127.44
456.395	125.44
456.616	123.44
456.836	111.44
457.056	128.44
457.276	124.44
457.497	122.44
457.717	122.44
457.937	130.44
458.157	106.44
458.377	123.44
458.598	107.44
458.818	120.44
459.038	142.44
459.258	119.44
459.478	134.44
459.698	137.44
459.918	111.44
460.138	124.44
460.358	130.44
460.578	127.44
460.798	122.44
461.018	116.44
461.238	118.44
461.458	130.44
461.678	127.44
461.898	132.44
462.118	131.44
462.338	144.44
462.558	128.44
462.777	136.44
462.997	143.44
463.217	136.44
463.437	137.44
463.657	124.44
463.876	133.44
464.096	140.44
464.316	143.44
464.536	120.44
464.755	130.44
464.975	138.44
465.195	130.44
465.414	125.44
465.634	128.44
465.854	129.44
466.073	126.44
466.293	128.44
466.512	123.44
466.732	111.44
466.951	124.44
467.171	126.44
467.391	133.44
467.61	118.44
467.829	127.44
468.049	105.44
468.268	119.44
468.488	130.44
468.707	125.44
468.927	114.44
469.146	102.44
469.365	128.44
469.585	121.44
469.804	128.44
470.023	125.44
470.243	123.44
470.462	118.44
470.681	123.44
470.901	135.44
471.12	122.44
471.339	127.44
471.558	111.44
471.777	111.44
471.997	136.44
472.216	128.44
472.435	121.44
472.654	109.44
472.873	145.44
473.092	108.44
473.311	126.44
473.53	114.44
473.749	126.44
473.968	117.44
474.187	132.44
474.406	136.44
474.625	126.44
474.844	115.44
475.063	118.44
475.282	116.44
475.501	119.44
475.72	126.44
475.939	140.44
476.158	130.44
476.377	129.44
476.596	116.44
476.814	121.44
477.033	122.44
477.252	140.44
477.471	111.44
477.69	128.44
477.908	136.44
478.127	134.44
478.346	134.44
478.564	132.44
478.783	136.44
479.002	121.44
479.22	131.44
479.439	138.44
479.658	122.44
479.876	131.44
480.095	130.44
480.313	142.44
480.532	138.44
480.751	133.44
480.969	133.44
481.188	147.44
481.406	144.44
481.624	134.44
481.843	130.44
482.061	136.44
482.28	120.44
482.498	103.44
482.717	125.44
482.935	122.44
483.153	121.44
483.372	127.44
483.59	140.44
483.808	157.44
484.027	131.44
484.245	142.44
484.463	139.44
484.681	135.44
484.9	139.44
485.118	139.44
485.336	123.44
485.554	134.44
485.772	127.44
485.99	140.44
486.209	134.44
486.427	124.44
486.645	143.44
486.863	132.44
487.081	130.44
487.299	144.44
487.517	140.44
487.735	143.44
487.953	146.44
488.171	136.44
488.389	139.44
488.607	147.44
488.825	141.44
489.043	133.44
489.261	123.44
489.479	125.44
489.696	140.44
489.914	134.44
490.132	137.44
490.35	140.44
490.568	149.44
490.786	150.44
491.003	144.44
491.221	142.44
491.439	163.44
491.657	142.44
491.874	145.44
492.092	153.44
492.31	154.44
492.527	154.44
492.745	159.44
492.963	155.44
493.18	151.44
493.398	161.44
493.615	142.44
493.833	148.44
494.05	136.44
494.268	145.44
494.485	132.44
494.703	136.44
494.92	142.44
495.138	157.44
495.355	153.44
495.573	153.44
495.79	142.44
496.008	139.44
496.225	150.44
496.442	143.44
496.66	162.44
496.877	143.44
497.094	158.44
497.312	146.44
497.529	158.44
497.746	162.44
497.963	140.44
498.181	138.44
498.398	158.44
498.615	167.44
498.832	163.44
499.049	169.44
499.267	164.44
499.484	172.44
499.701	154.44
499.918	190.44
500.135	194.44
500.352	217.44
500.569	204.44
500.786	195.44
501.003	221.44
501.22	200.44
501.437	184.44
501.654	167.44
501.871	173.44
502.088	172.44
502.305	162.44
502.522	150.44
502.739	137.44
502.956	152.44
503.172	154.44
503.389	157.44
503.606	158.44
503.823	157.44
504.04	152.44
504.256	147.44
504.473	129.44
504.69	160.44
504.907	149.44
505.123	134.44
505.34	150.44
