Data from 1968.PennyLincolnUp.Lamp.En5.5.200Scan.071719.P1._HRD10591_14-50-20-969.txt Node
Date: Thu Jul 18 14:50:20 EDT 2019
User: cochatt
Spectrometer: HR+D1059
Trigger mode: 1
Integration Time (sec): 1.000000E-1
Scans to average: 1
Electric dark correction enabled: true
Nonlinearity correction enabled: false
Boxcar width: 0
XAxis mode: Wavelengths
Number of Pixels in Spectrum: 2048
>>>>>Begin Spectral Data<<<<<
223.165	-17.44
223.4	-17.44
223.635	-17.44
223.869	-14.44
224.104	-18.44
224.338	-5.44
224.573	-17.44
224.808	-3.44
225.042	5.56
225.277	6.56
225.511	-9.44
225.746	-3.44
225.98	-2.44
226.215	9.56
226.449	11.56
226.683	20.56
226.918	12.56
227.152	25.56
227.387	29.56
227.621	26.56
227.856	53.56
228.09	50.56
228.324	50.56
228.559	67.56
228.793	58.56
229.027	56.56
229.262	65.56
229.496	66.56
229.73	75.56
229.964	74.56
230.199	72.56
230.433	83.56
230.667	68.56
230.901	77.56
231.136	76.56
231.37	79.56
231.604	78.56
231.838	77.56
232.072	82.56
232.306	93.56
232.541	70.56
232.775	85.56
233.009	70.56
233.243	88.56
233.477	91.56
233.711	79.56
233.945	87.56
234.179	90.56
234.413	85.56
234.647	78.56
234.881	94.56
235.115	67.56
235.349	87.56
235.583	92.56
235.817	69.56
236.051	67.56
236.285	80.56
236.519	82.56
236.753	66.56
236.987	75.56
237.221	77.56
237.455	76.56
237.689	62.56
237.922	77.56
238.156	73.56
238.39	83.56
238.624	84.56
238.858	67.56
239.091	79.56
239.325	71.56
239.559	74.56
239.793	77.56
240.027	89.56
240.26	74.56
240.494	92.56
240.728	86.56
240.961	81.56
241.195	92.56
241.429	83.56
241.662	74.56
241.896	93.56
242.13	83.56
242.363	86.56
242.597	86.56
242.83	86.56
243.064	73.56
243.298	84.56
243.531	100.56
243.765	76.56
243.998	88.56
244.232	78.56
244.465	74.56
244.699	81.56
244.932	68.56
245.166	77.56
245.399	85.56
245.633	104.56
245.866	85.56
246.099	78.56
246.333	93.56
246.566	71.56
246.8	89.56
247.033	86.56
247.266	80.56
247.5	91.56
247.733	77.56
247.966	78.56
248.2	81.56
248.433	94.56
248.666	86.56
248.899	72.56
249.133	89.56
249.366	84.56
249.599	88.56
249.832	89.56
250.066	97.56
250.299	96.56
250.532	95.56
250.765	93.56
250.998	82.56
251.231	78.56
251.465	98.56
251.698	79.56
251.931	75.56
252.164	79.56
252.397	87.56
252.63	93.56
252.863	79.56
253.096	81.56
253.329	90.56
253.562	94.56
253.795	73.56
254.028	80.56
254.261	85.56
254.494	79.56
254.727	91.56
254.96	99.56
255.193	97.56
255.426	80.56
255.659	83.56
255.892	98.56
256.124	91.56
256.357	84.56
256.59	95.56
256.823	87.56
257.056	92.56
257.289	97.56
257.521	97.56
257.754	91.56
257.987	115.56
258.22	87.56
258.452	94.56
258.685	106.56
258.918	84.56
259.151	102.56
259.383	107.56
259.616	101.56
259.849	92.56
260.081	86.56
260.314	78.56
260.547	78.56
260.779	96.56
261.012	86.56
261.244	89.56
261.477	104.56
261.71	98.56
261.942	89.56
262.175	92.56
262.407	92.56
262.64	89.56
262.872	89.56
263.105	85.56
263.337	97.56
263.57	93.56
263.802	90.56
264.035	90.56
264.267	90.56
264.499	99.56
264.732	94.56
264.964	85.56
265.197	85.56
265.429	91.56
265.661	87.56
265.894	102.56
266.126	102.56
266.358	103.56
266.591	89.56
266.823	77.56
267.055	83.56
267.287	89.56
267.52	99.56
267.752	79.56
267.984	101.56
268.216	82.56
268.448	94.56
268.681	98.56
268.913	91.56
269.145	98.56
269.377	102.56
269.609	84.56
269.841	94.56
270.073	87.56
270.306	95.56
270.538	98.56
270.77	91.56
271.002	85.56
271.234	101.56
271.466	93.56
271.698	105.56
271.93	90.56
272.162	102.56
272.394	97.56
272.626	106.56
272.858	94.56
273.09	98.56
273.322	104.56
273.553	107.56
273.785	102.56
274.017	100.56
274.249	90.56
274.481	89.56
274.713	97.56
274.945	86.56
275.176	94.56
275.408	100.56
275.64	98.56
275.872	107.56
276.104	103.56
276.335	91.56
276.567	92.56
276.799	94.56
277.031	95.56
277.262	102.56
277.494	94.56
277.726	93.56
277.957	88.56
278.189	105.56
278.421	103.56
278.652	98.56
278.884	106.56
279.115	90.56
279.347	104.56
279.579	102.56
279.81	97.56
280.042	88.56
280.273	102.56
280.505	96.56
280.736	83.56
280.968	98.56
281.199	90.56
281.431	93.56
281.662	92.56
281.894	89.56
282.125	97.56
282.356	94.56
282.588	115.56
282.819	93.56
283.051	98.56
283.282	115.56
283.513	106.56
283.745	92.56
283.976	100.56
284.207	94.56
284.439	110.56
284.67	109.56
284.901	97.56
285.132	103.56
285.364	99.56
285.595	109.56
285.826	92.56
286.057	118.56
286.288	97.56
286.52	107.56
286.751	101.56
286.982	98.56
287.213	105.56
287.444	103.56
287.675	89.56
287.906	86.56
288.138	98.56
288.369	106.56
288.6	94.56
288.831	110.56
289.062	98.56
289.293	103.56
289.524	114.56
289.755	97.56
289.986	107.56
290.217	112.56
290.448	107.56
290.679	121.56
290.91	93.56
291.141	88.56
291.371	98.56
291.602	91.56
291.833	98.56
292.064	109.56
292.295	97.56
292.526	104.56
292.757	100.56
292.987	106.56
293.218	106.56
293.449	98.56
293.68	98.56
293.91	104.56
294.141	116.56
294.372	113.56
294.603	109.56
294.833	104.56
295.064	85.56
295.295	90.56
295.525	105.56
295.756	109.56
295.987	92.56
296.217	91.56
296.448	100.56
296.679	110.56
296.909	92.56
297.14	105.56
297.37	116.56
297.601	99.56
297.831	104.56
298.062	105.56
298.292	106.56
298.523	107.56
298.753	114.56
298.984	115.56
299.214	98.56
299.445	94.56
299.675	111.56
299.905	109.56
300.136	103.56
300.366	115.56
300.597	100.56
300.827	113.56
301.057	92.56
301.288	107.56
301.518	102.56
301.748	111.56
301.979	100.56
302.209	90.56
302.439	100.56
302.669	114.56
302.9	104.56
303.13	110.56
303.36	109.56
303.59	97.56
303.82	87.56
304.051	104.56
304.281	101.56
304.511	113.56
304.741	107.56
304.971	120.56
305.201	112.56
305.431	102.56
305.661	104.56
305.891	107.56
306.121	114.56
306.352	105.56
306.582	105.56
306.812	106.56
307.042	102.56
307.272	107.56
307.502	94.56
307.731	111.56
307.961	87.56
308.191	102.56
308.421	119.56
308.651	108.56
308.881	91.56
309.111	91.56
309.341	91.56
309.571	113.56
309.8	132.56
310.03	119.56
310.26	104.56
310.49	111.56
310.72	111.56
310.949	103.56
311.179	109.56
311.409	109.56
311.639	111.56
311.868	116.56
312.098	103.56
312.328	102.56
312.557	94.56
312.787	103.56
313.017	94.56
313.246	121.56
313.476	96.56
313.706	89.56
313.935	100.56
314.165	100.56
314.394	111.56
314.624	116.56
314.853	103.56
315.083	109.56
315.312	101.56
315.542	106.56
315.771	110.56
316.001	99.56
316.23	102.56
316.46	102.56
316.689	112.56
316.919	109.56
317.148	102.56
317.377	110.56
317.607	117.56
317.836	114.56
318.065	89.56
318.295	98.56
318.524	119.56
318.753	108.56
318.983	106.56
319.212	123.56
319.441	107.56
319.67	106.56
319.9	99.56
320.129	93.56
320.358	102.56
320.587	100.56
320.816	104.56
321.046	113.56
321.275	100.56
321.504	117.56
321.733	105.56
321.962	112.56
322.191	128.56
322.42	113.56
322.649	110.56
322.878	117.56
323.108	129.56
323.337	116.56
323.566	99.56
323.795	108.56
324.024	134.56
324.253	120.56
324.482	143.56
324.71	150.56
324.939	181.56
325.168	158.56
325.397	127.56
325.626	120.56
325.855	94.56
326.084	95.56
326.313	110.56
326.542	115.56
326.77	117.56
326.999	119.56
327.228	151.56
327.457	159.56
327.686	160.56
327.914	126.56
328.143	115.56
328.372	108.56
328.6	117.56
328.829	105.56
329.058	110.56
329.287	109.56
329.515	135.56
329.744	107.56
329.972	115.56
330.201	109.56
330.43	113.56
330.658	128.56
330.887	122.56
331.115	116.56
331.344	110.56
331.572	121.56
331.801	115.56
332.03	105.56
332.258	121.56
332.486	117.56
332.715	118.56
332.943	112.56
333.172	122.56
333.4	116.56
333.629	106.56
333.857	115.56
334.085	109.56
334.314	115.56
334.542	117.56
334.771	111.56
334.999	116.56
335.227	119.56
335.455	115.56
335.684	122.56
335.912	119.56
336.14	121.56
336.369	121.56
336.597	119.56
336.825	100.56
337.053	107.56
337.281	93.56
337.51	114.56
337.738	113.56
337.966	102.56
338.194	115.56
338.422	108.56
338.65	119.56
338.878	105.56
339.106	116.56
339.334	118.56
339.562	113.56
339.79	109.56
340.018	105.56
340.246	110.56
340.474	113.56
340.702	109.56
340.93	118.56
341.158	106.56
341.386	121.56
341.614	104.56
341.842	108.56
342.07	96.56
342.298	116.56
342.526	110.56
342.754	119.56
342.981	101.56
343.209	115.56
343.437	119.56
343.665	104.56
343.893	119.56
344.12	125.56
344.348	125.56
344.576	110.56
344.804	102.56
345.031	94.56
345.259	113.56
345.487	119.56
345.714	110.56
345.942	107.56
346.17	115.56
346.397	107.56
346.625	116.56
346.853	109.56
347.08	102.56
347.308	123.56
347.535	104.56
347.763	124.56
347.99	106.56
348.218	120.56
348.445	97.56
348.673	118.56
348.9	115.56
349.128	116.56
349.355	98.56
349.583	105.56
349.81	100.56
350.037	110.56
350.265	116.56
350.492	86.56
350.72	117.56
350.947	113.56
351.174	124.56
351.402	116.56
351.629	122.56
351.856	100.56
352.083	109.56
352.311	113.56
352.538	116.56
352.765	109.56
352.992	106.56
353.22	101.56
353.447	99.56
353.674	107.56
353.901	108.56
354.128	111.56
354.355	117.56
354.583	97.56
354.81	107.56
355.037	109.56
355.264	118.56
355.491	115.56
355.718	108.56
355.945	124.56
356.172	112.56
356.399	102.56
356.626	115.56
356.853	119.56
357.08	114.56
357.307	104.56
357.534	120.56
357.761	113.56
357.988	100.56
358.215	107.56
358.441	116.56
358.668	113.56
358.895	96.56
359.122	100.56
359.349	107.56
359.576	109.56
359.802	106.56
360.029	117.56
360.256	107.56
360.483	98.56
360.709	108.56
360.936	117.56
361.163	110.56
361.39	104.56
361.616	103.56
361.843	113.56
362.07	114.56
362.296	120.56
362.523	121.56
362.749	109.56
362.976	103.56
363.203	109.56
363.429	94.56
363.656	101.56
363.882	109.56
364.109	115.56
364.335	101.56
364.562	104.56
364.788	103.56
365.015	121.56
365.241	108.56
365.468	115.56
365.694	107.56
365.92	118.56
366.147	119.56
366.373	100.56
366.599	107.56
366.826	111.56
367.052	90.56
367.278	107.56
367.505	120.56
367.731	117.56
367.957	115.56
368.184	113.56
368.41	116.56
368.636	105.56
368.862	117.56
369.089	106.56
369.315	97.56
369.541	118.56
369.767	109.56
369.993	115.56
370.219	99.56
370.445	117.56
370.672	117.56
370.898	114.56
371.124	100.56
371.35	111.56
371.576	110.56
371.802	124.56
372.028	117.56
372.254	112.56
372.48	109.56
372.706	117.56
372.932	106.56
373.158	127.56
373.384	122.56
373.61	116.56
373.835	105.56
374.061	103.56
374.287	104.56
374.513	108.56
374.739	107.56
374.965	109.56
375.191	126.56
375.416	99.56
375.642	113.56
375.868	119.56
376.094	122.56
376.319	97.56
376.545	115.56
376.771	127.56
376.997	109.56
377.222	119.56
377.448	116.56
377.674	109.56
377.899	105.56
378.125	108.56
378.35	119.56
378.576	114.56
378.802	118.56
379.027	106.56
379.253	113.56
379.478	117.56
379.704	110.56
379.929	119.56
380.155	92.56
380.38	107.56
380.606	116.56
380.831	95.56
381.057	125.56
381.282	125.56
381.507	108.56
381.733	123.56
381.958	117.56
382.184	115.56
382.409	115.56
382.634	125.56
382.86	105.56
383.085	111.56
383.31	112.56
383.535	125.56
383.761	124.56
383.986	114.56
384.211	100.56
384.436	110.56
384.662	115.56
384.887	117.56
385.112	130.56
385.337	121.56
385.562	119.56
385.787	123.56
386.013	120.56
386.238	124.56
386.463	134.56
386.688	104.56
386.913	133.56
387.138	118.56
387.363	112.56
387.588	114.56
387.813	117.56
388.038	108.56
388.263	113.56
388.488	133.56
388.713	115.56
388.938	132.56
389.163	108.56
389.387	108.56
389.612	117.56
389.837	120.56
390.062	122.56
390.287	126.56
390.512	106.56
390.736	124.56
390.961	125.56
391.186	136.56
391.411	117.56
391.636	122.56
391.86	122.56
392.085	130.56
392.31	125.56
392.534	119.56
392.759	121.56
392.984	121.56
393.208	120.56
393.433	109.56
393.658	118.56
393.882	113.56
394.107	116.56
394.331	119.56
394.556	105.56
394.78	121.56
395.005	123.56
395.229	129.56
395.454	109.56
395.678	117.56
395.903	118.56
396.127	118.56
396.352	124.56
396.576	109.56
396.801	121.56
397.025	116.56
397.249	125.56
397.474	131.56
397.698	130.56
397.922	127.56
398.147	110.56
398.371	120.56
398.595	123.56
398.82	127.56
399.044	132.56
399.268	146.56
399.492	124.56
399.717	146.56
399.941	139.56
400.165	147.56
400.389	128.56
400.613	134.56
400.837	136.56
401.062	121.56
401.286	116.56
401.51	128.56
401.734	125.56
401.958	122.56
402.182	122.56
402.406	115.56
402.63	134.56
402.854	135.56
403.078	138.56
403.302	119.56
403.526	135.56
403.75	141.56
403.974	125.56
404.198	132.56
404.422	150.56
404.645	132.56
404.869	125.56
405.093	150.56
405.317	135.56
405.541	134.56
405.765	138.56
405.988	143.56
406.212	158.56
406.436	130.56
406.66	147.56
406.883	145.56
407.107	129.56
407.331	141.56
407.555	140.56
407.778	143.56
408.002	133.56
408.226	139.56
408.449	143.56
408.673	133.56
408.896	141.56
409.12	137.56
409.344	129.56
409.567	125.56
409.791	126.56
410.014	129.56
410.238	121.56
410.461	131.56
410.685	148.56
410.908	131.56
411.132	135.56
411.355	136.56
411.578	147.56
411.802	126.56
412.025	140.56
412.249	128.56
412.472	121.56
412.695	140.56
412.919	136.56
413.142	132.56
413.365	148.56
413.589	121.56
413.812	125.56
414.035	129.56
414.258	123.56
414.482	125.56
414.705	118.56
414.928	136.56
415.151	126.56
415.374	136.56
415.597	135.56
415.821	138.56
416.044	122.56
416.267	136.56
416.49	133.56
416.713	124.56
416.936	122.56
417.159	123.56
417.382	127.56
417.605	124.56
417.828	132.56
418.051	133.56
418.274	111.56
418.497	133.56
418.72	114.56
418.943	137.56
419.166	129.56
419.389	130.56
419.611	133.56
419.834	120.56
420.057	133.56
420.28	128.56
420.503	124.56
420.726	133.56
420.948	139.56
421.171	127.56
421.394	125.56
421.617	116.56
421.839	138.56
422.062	134.56
422.285	129.56
422.507	126.56
422.73	145.56
422.953	137.56
423.175	122.56
423.398	135.56
423.621	138.56
423.843	131.56
424.066	126.56
424.288	137.56
424.511	123.56
424.733	145.56
424.956	137.56
425.178	134.56
425.401	136.56
425.623	129.56
425.846	133.56
426.068	138.56
426.291	129.56
426.513	129.56
426.735	139.56
426.958	129.56
427.18	122.56
427.402	137.56
427.625	133.56
427.847	134.56
428.069	123.56
428.292	117.56
428.514	114.56
428.736	133.56
428.958	133.56
429.181	122.56
429.403	124.56
429.625	115.56
429.847	137.56
430.069	117.56
430.292	119.56
430.514	138.56
430.736	125.56
430.958	137.56
431.18	128.56
431.402	121.56
431.624	104.56
431.846	117.56
432.068	113.56
432.29	116.56
432.512	122.56
432.734	124.56
432.956	120.56
433.178	118.56
433.4	120.56
433.622	120.56
433.844	119.56
434.066	125.56
434.287	118.56
434.509	103.56
434.731	129.56
434.953	139.56
435.175	127.56
435.397	139.56
435.618	123.56
435.84	136.56
436.062	141.56
436.284	135.56
436.505	127.56
436.727	133.56
436.949	125.56
437.17	124.56
437.392	119.56
437.614	137.56
437.835	127.56
438.057	131.56
438.278	129.56
438.5	119.56
438.721	130.56
438.943	136.56
439.165	135.56
439.386	131.56
439.608	130.56
439.829	126.56
440.05	136.56
440.272	125.56
440.493	113.56
440.715	123.56
440.936	122.56
441.158	133.56
441.379	125.56
441.6	120.56
441.822	130.56
442.043	138.56
442.264	149.56
442.486	132.56
442.707	146.56
442.928	118.56
443.149	127.56
443.371	128.56
443.592	147.56
443.813	150.56
444.034	147.56
444.255	134.56
444.476	131.56
444.698	140.56
444.919	137.56
445.14	261.56
445.361	194.56
445.582	147.56
445.803	136.56
446.024	141.56
446.245	142.56
446.466	127.56
446.687	125.56
446.908	126.56
447.129	125.56
447.35	119.56
447.571	141.56
447.792	115.56
448.013	119.56
448.234	125.56
448.455	143.56
448.675	134.56
448.896	130.56
449.117	132.56
449.338	125.56
449.559	132.56
449.779	129.56
450	119.56
450.221	134.56
450.442	125.56
450.662	129.56
450.883	146.56
451.104	127.56
451.324	125.56
451.545	125.56
451.766	121.56
451.986	105.56
452.207	129.56
452.428	118.56
452.648	122.56
452.869	124.56
453.089	136.56
453.31	111.56
453.53	104.56
453.751	127.56
453.971	117.56
454.192	112.56
454.412	114.56
454.633	120.56
454.853	116.56
455.073	113.56
455.294	119.56
455.514	129.56
455.734	133.56
455.955	135.56
456.175	113.56
456.395	121.56
456.616	120.56
456.836	119.56
457.056	111.56
457.276	121.56
457.497	122.56
457.717	135.56
457.937	126.56
458.157	113.56
458.377	117.56
458.598	106.56
458.818	112.56
459.038	124.56
459.258	119.56
459.478	134.56
459.698	131.56
459.918	129.56
460.138	124.56
460.358	121.56
460.578	130.56
460.798	126.56
461.018	126.56
461.238	133.56
461.458	119.56
461.678	124.56
461.898	124.56
462.118	133.56
462.338	126.56
462.558	137.56
462.777	139.56
462.997	142.56
463.217	124.56
463.437	146.56
463.657	141.56
463.876	147.56
464.096	131.56
464.316	136.56
464.536	137.56
464.755	130.56
464.975	129.56
465.195	135.56
465.414	133.56
465.634	126.56
465.854	127.56
466.073	124.56
466.293	131.56
466.512	123.56
466.732	109.56
466.951	115.56
467.171	124.56
467.391	128.56
467.61	125.56
467.829	124.56
468.049	133.56
468.268	110.56
468.488	111.56
468.707	122.56
468.927	115.56
469.146	119.56
469.365	129.56
469.585	117.56
469.804	114.56
470.023	117.56
470.243	114.56
470.462	127.56
470.681	115.56
470.901	126.56
471.12	118.56
471.339	129.56
471.558	125.56
471.777	133.56
471.997	133.56
472.216	125.56
472.435	121.56
472.654	124.56
472.873	128.56
473.092	125.56
473.311	125.56
473.53	126.56
473.749	111.56
473.968	117.56
474.187	133.56
474.406	124.56
474.625	118.56
474.844	125.56
475.063	129.56
475.282	122.56
475.501	123.56
475.72	124.56
475.939	124.56
476.158	130.56
476.377	129.56
476.596	127.56
476.814	127.56
477.033	126.56
477.252	120.56
477.471	141.56
477.69	128.56
477.908	133.56
478.127	139.56
478.346	117.56
478.564	143.56
478.783	134.56
479.002	121.56
479.22	130.56
479.439	140.56
479.658	132.56
479.876	133.56
480.095	141.56
480.313	148.56
480.532	136.56
480.751	125.56
480.969	127.56
481.188	141.56
481.406	140.56
481.624	131.56
481.843	134.56
482.061	119.56
482.28	130.56
482.498	137.56
482.717	121.56
482.935	139.56
483.153	125.56
483.372	137.56
483.59	125.56
483.808	137.56
484.027	139.56
484.245	138.56
484.463	121.56
484.681	135.56
484.9	130.56
485.118	132.56
485.336	128.56
485.554	134.56
485.772	138.56
485.99	132.56
486.209	137.56
486.427	117.56
486.645	135.56
486.863	143.56
487.081	134.56
487.299	137.56
487.517	129.56
487.735	161.56
487.953	134.56
488.171	141.56
488.389	132.56
488.607	148.56
488.825	137.56
489.043	149.56
489.261	127.56
489.479	145.56
489.696	125.56
489.914	143.56
490.132	132.56
490.35	129.56
490.568	128.56
490.786	120.56
491.003	146.56
491.221	145.56
491.439	144.56
491.657	149.56
491.874	157.56
492.092	142.56
492.31	166.56
492.527	144.56
492.745	152.56
492.963	155.56
493.18	127.56
493.398	153.56
493.615	156.56
493.833	140.56
494.05	157.56
494.268	144.56
494.485	146.56
494.703	146.56
494.92	139.56
495.138	140.56
495.355	143.56
495.573	143.56
495.79	149.56
496.008	146.56
496.225	151.56
496.442	134.56
496.66	153.56
496.877	158.56
497.094	137.56
497.312	132.56
497.529	156.56
497.746	156.56
497.963	160.56
498.181	144.56
498.398	162.56
498.615	165.56
498.832	161.56
499.049	153.56
499.267	171.56
499.484	173.56
499.701	177.56
499.918	192.56
500.135	203.56
500.352	213.56
500.569	215.56
500.786	202.56
501.003	197.56
501.22	195.56
501.437	205.56
501.654	183.56
501.871	173.56
502.088	179.56
502.305	185.56
502.522	160.56
502.739	152.56
502.956	153.56
503.172	153.56
503.389	162.56
503.606	149.56
503.823	141.56
504.04	154.56
504.256	149.56
504.473	143.56
504.69	144.56
504.907	147.56
505.123	138.56
505.34	127.56
505.557	127.56
505.773	134.56
