Data from 1968.PennyLincolnUp.Lamp.En5.5.200Scan.071719.P1._HRD10591_14-51-48-970.txt Node
Date: Thu Jul 18 14:51:48 EDT 2019
User: cochatt
Spectrometer: HR+D1059
Trigger mode: 1
Integration Time (sec): 1.000000E-1
Scans to average: 1
Electric dark correction enabled: true
Nonlinearity correction enabled: false
Boxcar width: 0
XAxis mode: Wavelengths
Number of Pixels in Spectrum: 2048
>>>>>Begin Spectral Data<<<<<
223.165	-10.94
223.4	-10.94
223.635	-10.94
223.869	-19.94
224.104	-27.94
224.338	-2.94
224.573	-9.94
224.808	-22.94
225.042	-11.94
225.277	13.06
225.511	-6.94
225.746	-1.94
225.98	7.06
226.215	5.06
226.449	21.06
226.683	31.06
226.918	15.06
227.152	23.06
227.387	27.06
227.621	39.06
227.856	55.06
228.09	33.06
228.324	61.06
228.559	63.06
228.793	55.06
229.027	57.06
229.262	69.06
229.496	68.06
229.73	69.06
229.964	76.06
230.199	76.06
230.433	80.06
230.667	75.06
230.901	76.06
231.136	84.06
231.37	86.06
231.604	88.06
231.838	82.06
232.072	75.06
232.306	79.06
232.541	74.06
232.775	83.06
233.009	75.06
233.243	78.06
233.477	82.06
233.711	99.06
233.945	87.06
234.179	82.06
234.413	98.06
234.647	99.06
234.881	85.06
235.115	96.06
235.349	76.06
235.583	95.06
235.817	84.06
236.051	94.06
236.285	91.06
236.519	96.06
236.753	92.06
236.987	93.06
237.221	78.06
237.455	85.06
237.689	86.06
237.922	82.06
238.156	69.06
238.39	79.06
238.624	74.06
238.858	71.06
239.091	84.06
239.325	69.06
239.559	80.06
239.793	99.06
240.027	80.06
240.26	88.06
240.494	78.06
240.728	76.06
240.961	72.06
241.195	77.06
241.429	82.06
241.662	76.06
241.896	73.06
242.13	79.06
242.363	75.06
242.597	91.06
242.83	84.06
243.064	81.06
243.298	86.06
243.531	96.06
243.765	67.06
243.998	83.06
244.232	88.06
244.465	75.06
244.699	71.06
244.932	68.06
245.166	90.06
245.399	85.06
245.633	77.06
245.866	76.06
246.099	78.06
246.333	89.06
246.566	79.06
246.8	85.06
247.033	96.06
247.266	85.06
247.5	93.06
247.733	96.06
247.966	87.06
248.2	80.06
248.433	85.06
248.666	77.06
248.899	91.06
249.133	87.06
249.366	86.06
249.599	83.06
249.832	76.06
250.066	80.06
250.299	96.06
250.532	73.06
250.765	81.06
250.998	81.06
251.231	82.06
251.465	91.06
251.698	84.06
251.931	82.06
252.164	90.06
252.397	83.06
252.63	87.06
252.863	95.06
253.096	81.06
253.329	92.06
253.562	82.06
253.795	95.06
254.028	85.06
254.261	99.06
254.494	83.06
254.727	78.06
254.96	88.06
255.193	82.06
255.426	85.06
255.659	100.06
255.892	94.06
256.124	98.06
256.357	94.06
256.59	80.06
256.823	84.06
257.056	82.06
257.289	75.06
257.521	85.06
257.754	84.06
257.987	85.06
258.22	99.06
258.452	87.06
258.685	84.06
258.918	94.06
259.151	96.06
259.383	91.06
259.616	86.06
259.849	99.06
260.081	100.06
260.314	91.06
260.547	101.06
260.779	94.06
261.012	94.06
261.244	101.06
261.477	89.06
261.71	89.06
261.942	85.06
262.175	94.06
262.407	94.06
262.64	92.06
262.872	84.06
263.105	84.06
263.337	99.06
263.57	98.06
263.802	97.06
264.035	95.06
264.267	81.06
264.499	86.06
264.732	82.06
264.964	80.06
265.197	92.06
265.429	93.06
265.661	97.06
265.894	87.06
266.126	92.06
266.358	101.06
266.591	82.06
266.823	89.06
267.055	92.06
267.287	98.06
267.52	79.06
267.752	102.06
267.984	102.06
268.216	80.06
268.448	103.06
268.681	99.06
268.913	99.06
269.145	99.06
269.377	95.06
269.609	100.06
269.841	90.06
270.073	95.06
270.306	99.06
270.538	92.06
270.77	94.06
271.002	96.06
271.234	81.06
271.466	95.06
271.698	102.06
271.93	97.06
272.162	99.06
272.394	88.06
272.626	92.06
272.858	90.06
273.09	83.06
273.322	100.06
273.553	89.06
273.785	90.06
274.017	95.06
274.249	94.06
274.481	92.06
274.713	89.06
274.945	91.06
275.176	91.06
275.408	104.06
275.64	98.06
275.872	98.06
276.104	102.06
276.335	103.06
276.567	119.06
276.799	103.06
277.031	106.06
277.262	99.06
277.494	103.06
277.726	102.06
277.957	89.06
278.189	97.06
278.421	110.06
278.652	97.06
278.884	107.06
279.115	103.06
279.347	91.06
279.579	94.06
279.81	84.06
280.042	101.06
280.273	89.06
280.505	84.06
280.736	113.06
280.968	101.06
281.199	105.06
281.431	90.06
281.662	100.06
281.894	100.06
282.125	106.06
282.356	111.06
282.588	97.06
282.819	111.06
283.051	99.06
283.282	107.06
283.513	119.06
283.745	106.06
283.976	90.06
284.207	103.06
284.439	84.06
284.67	88.06
284.901	108.06
285.132	92.06
285.364	95.06
285.595	102.06
285.826	100.06
286.057	101.06
286.288	100.06
286.52	102.06
286.751	94.06
286.982	93.06
287.213	113.06
287.444	105.06
287.675	112.06
287.906	102.06
288.138	109.06
288.369	102.06
288.6	96.06
288.831	107.06
289.062	90.06
289.293	107.06
289.524	107.06
289.755	97.06
289.986	98.06
290.217	100.06
290.448	93.06
290.679	106.06
290.91	113.06
291.141	106.06
291.371	97.06
291.602	105.06
291.833	104.06
292.064	106.06
292.295	95.06
292.526	96.06
292.757	108.06
292.987	103.06
293.218	100.06
293.449	110.06
293.68	113.06
293.91	92.06
294.141	107.06
294.372	103.06
294.603	109.06
294.833	116.06
295.064	91.06
295.295	106.06
295.525	98.06
295.756	104.06
295.987	109.06
296.217	110.06
296.448	94.06
296.679	106.06
296.909	116.06
297.14	99.06
297.37	102.06
297.601	121.06
297.831	105.06
298.062	110.06
298.292	85.06
298.523	114.06
298.753	95.06
298.984	101.06
299.214	94.06
299.445	107.06
299.675	94.06
299.905	105.06
300.136	99.06
300.366	107.06
300.597	102.06
300.827	98.06
301.057	107.06
301.288	97.06
301.518	99.06
301.748	108.06
301.979	101.06
302.209	106.06
302.439	129.06
302.669	119.06
302.9	104.06
303.13	100.06
303.36	90.06
303.59	101.06
303.82	112.06
304.051	110.06
304.281	102.06
304.511	106.06
304.741	96.06
304.971	108.06
305.201	95.06
305.431	99.06
305.661	95.06
305.891	100.06
306.121	107.06
306.352	117.06
306.582	106.06
306.812	98.06
307.042	111.06
307.272	117.06
307.502	106.06
307.731	91.06
307.961	121.06
308.191	100.06
308.421	105.06
308.651	109.06
308.881	102.06
309.111	103.06
309.341	99.06
309.571	99.06
309.8	107.06
310.03	103.06
310.26	104.06
310.49	105.06
310.72	96.06
310.949	97.06
311.179	105.06
311.409	103.06
311.639	113.06
311.868	109.06
312.098	109.06
312.328	102.06
312.557	118.06
312.787	105.06
313.017	113.06
313.246	118.06
313.476	103.06
313.706	114.06
313.935	106.06
314.165	102.06
314.394	96.06
314.624	112.06
314.853	113.06
315.083	95.06
315.312	129.06
315.542	115.06
315.771	109.06
316.001	119.06
316.23	106.06
316.46	108.06
316.689	110.06
316.919	103.06
317.148	103.06
317.377	106.06
317.607	116.06
317.836	104.06
318.065	104.06
318.295	104.06
318.524	97.06
318.753	121.06
318.983	100.06
319.212	107.06
319.441	99.06
319.67	96.06
319.9	105.06
320.129	108.06
320.358	108.06
320.587	103.06
320.816	123.06
321.046	98.06
321.275	102.06
321.504	107.06
321.733	122.06
321.962	103.06
322.191	104.06
322.42	105.06
322.649	115.06
322.878	95.06
323.108	120.06
323.337	104.06
323.566	101.06
323.795	109.06
324.024	109.06
324.253	115.06
324.482	135.06
324.71	158.06
324.939	205.06
325.168	168.06
325.397	109.06
325.626	108.06
325.855	103.06
326.084	109.06
326.313	129.06
326.542	124.06
326.77	121.06
326.999	136.06
327.228	143.06
327.457	146.06
327.686	157.06
327.914	123.06
328.143	118.06
328.372	104.06
328.6	121.06
328.829	119.06
329.058	126.06
329.287	118.06
329.515	113.06
329.744	116.06
329.972	119.06
330.201	120.06
330.43	118.06
330.658	105.06
330.887	109.06
331.115	124.06
331.344	113.06
331.572	117.06
331.801	113.06
332.03	118.06
332.258	116.06
332.486	118.06
332.715	106.06
332.943	123.06
333.172	113.06
333.4	113.06
333.629	123.06
333.857	114.06
334.085	114.06
334.314	146.06
334.542	119.06
334.771	119.06
334.999	123.06
335.227	94.06
335.455	110.06
335.684	121.06
335.912	103.06
336.14	117.06
336.369	115.06
336.597	119.06
336.825	123.06
337.053	116.06
337.281	107.06
337.51	115.06
337.738	115.06
337.966	129.06
338.194	116.06
338.422	125.06
338.65	107.06
338.878	113.06
339.106	105.06
339.334	107.06
339.562	123.06
339.79	108.06
340.018	111.06
340.246	109.06
340.474	105.06
340.702	114.06
340.93	118.06
341.158	106.06
341.386	110.06
341.614	114.06
341.842	111.06
342.07	99.06
342.298	124.06
342.526	114.06
342.754	124.06
342.981	125.06
343.209	119.06
343.437	132.06
343.665	111.06
343.893	106.06
344.12	118.06
344.348	115.06
344.576	112.06
344.804	103.06
345.031	114.06
345.259	118.06
345.487	118.06
345.714	114.06
345.942	98.06
346.17	109.06
346.397	105.06
346.625	112.06
346.853	107.06
347.08	99.06
347.308	129.06
347.535	113.06
347.763	94.06
347.99	106.06
348.218	98.06
348.445	100.06
348.673	121.06
348.9	122.06
349.128	113.06
349.355	97.06
349.583	97.06
349.81	105.06
350.037	109.06
350.265	114.06
350.492	113.06
350.72	102.06
350.947	108.06
351.174	132.06
351.402	119.06
351.629	99.06
351.856	108.06
352.083	99.06
352.311	103.06
352.538	113.06
352.765	113.06
352.992	102.06
353.22	117.06
353.447	103.06
353.674	106.06
353.901	109.06
354.128	115.06
354.355	103.06
354.583	122.06
354.81	111.06
355.037	117.06
355.264	100.06
355.491	95.06
355.718	106.06
355.945	97.06
356.172	112.06
356.399	102.06
356.626	110.06
356.853	117.06
357.08	110.06
357.307	103.06
357.534	99.06
357.761	110.06
357.988	103.06
358.215	102.06
358.441	116.06
358.668	106.06
358.895	113.06
359.122	102.06
359.349	117.06
359.576	123.06
359.802	112.06
360.029	97.06
360.256	115.06
360.483	118.06
360.709	99.06
360.936	111.06
361.163	96.06
361.39	110.06
361.616	105.06
361.843	99.06
362.07	95.06
362.296	107.06
362.523	102.06
362.749	109.06
362.976	113.06
363.203	115.06
363.429	108.06
363.656	106.06
363.882	108.06
364.109	104.06
364.335	100.06
364.562	101.06
364.788	107.06
365.015	113.06
365.241	118.06
365.468	114.06
365.694	118.06
365.92	122.06
366.147	111.06
366.373	118.06
366.599	126.06
366.826	115.06
367.052	106.06
367.278	114.06
367.505	115.06
367.731	112.06
367.957	102.06
368.184	104.06
368.41	118.06
368.636	110.06
368.862	123.06
369.089	110.06
369.315	120.06
369.541	100.06
369.767	101.06
369.993	114.06
370.219	121.06
370.445	108.06
370.672	120.06
370.898	119.06
371.124	103.06
371.35	113.06
371.576	105.06
371.802	123.06
372.028	107.06
372.254	101.06
372.48	127.06
372.706	101.06
372.932	111.06
373.158	115.06
373.384	93.06
373.61	116.06
373.835	100.06
374.061	108.06
374.287	113.06
374.513	114.06
374.739	111.06
374.965	115.06
375.191	102.06
375.416	122.06
375.642	120.06
375.868	114.06
376.094	123.06
376.319	107.06
376.545	103.06
376.771	118.06
376.997	111.06
377.222	96.06
377.448	107.06
377.674	106.06
377.899	99.06
378.125	112.06
378.35	115.06
378.576	122.06
378.802	118.06
379.027	100.06
379.253	109.06
379.478	108.06
379.704	118.06
379.929	107.06
380.155	110.06
380.38	102.06
380.606	125.06
380.831	121.06
381.057	114.06
381.282	114.06
381.507	103.06
381.733	110.06
381.958	115.06
382.184	121.06
382.409	122.06
382.634	118.06
382.86	114.06
383.085	126.06
383.31	119.06
383.535	122.06
383.761	110.06
383.986	115.06
384.211	97.06
384.436	93.06
384.662	124.06
384.887	117.06
385.112	122.06
385.337	123.06
385.562	122.06
385.787	131.06
386.013	124.06
386.238	125.06
386.463	109.06
386.688	113.06
386.913	122.06
387.138	120.06
387.363	110.06
387.588	117.06
387.813	115.06
388.038	117.06
388.263	117.06
388.488	121.06
388.713	111.06
388.938	134.06
389.163	122.06
389.387	122.06
389.612	124.06
389.837	105.06
390.062	117.06
390.287	116.06
390.512	113.06
390.736	115.06
390.961	121.06
391.186	118.06
391.411	122.06
391.636	134.06
391.86	125.06
392.085	120.06
392.31	123.06
392.534	122.06
392.759	121.06
392.984	124.06
393.208	119.06
393.433	117.06
393.658	113.06
393.882	103.06
394.107	129.06
394.331	113.06
394.556	118.06
394.78	108.06
395.005	123.06
395.229	109.06
395.454	125.06
395.678	121.06
395.903	129.06
396.127	129.06
396.352	107.06
396.576	118.06
396.801	108.06
397.025	125.06
397.249	121.06
397.474	127.06
397.698	118.06
397.922	118.06
398.147	129.06
398.371	126.06
398.595	129.06
398.82	125.06
399.044	131.06
399.268	125.06
399.492	144.06
399.717	141.06
399.941	135.06
400.165	136.06
400.389	147.06
400.613	137.06
400.837	129.06
401.062	132.06
401.286	137.06
401.51	122.06
401.734	133.06
401.958	135.06
402.182	125.06
402.406	126.06
402.63	125.06
402.854	127.06
403.078	146.06
403.302	129.06
403.526	127.06
403.75	129.06
403.974	119.06
404.198	123.06
404.422	117.06
404.645	131.06
404.869	135.06
405.093	136.06
405.317	129.06
405.541	139.06
405.765	132.06
405.988	121.06
406.212	134.06
406.436	128.06
406.66	131.06
406.883	127.06
407.107	131.06
407.331	147.06
407.555	145.06
407.778	157.06
408.002	151.06
408.226	138.06
408.449	137.06
408.673	135.06
408.896	131.06
409.12	130.06
409.344	129.06
409.567	135.06
409.791	128.06
410.014	132.06
410.238	136.06
410.461	123.06
410.685	146.06
410.908	117.06
411.132	131.06
411.355	133.06
411.578	130.06
411.802	127.06
412.025	124.06
412.249	135.06
412.472	130.06
412.695	127.06
412.919	129.06
413.142	127.06
413.365	119.06
413.589	122.06
413.812	134.06
414.035	127.06
414.258	133.06
414.482	125.06
414.705	142.06
414.928	126.06
415.151	122.06
415.374	152.06
415.597	135.06
415.821	135.06
416.044	121.06
416.267	117.06
416.49	123.06
416.713	131.06
416.936	131.06
417.159	122.06
417.382	121.06
417.605	125.06
417.828	128.06
418.051	117.06
418.274	129.06
418.497	139.06
418.72	124.06
418.943	125.06
419.166	121.06
419.389	129.06
419.611	141.06
419.834	142.06
420.057	129.06
420.28	122.06
420.503	119.06
420.726	138.06
420.948	127.06
421.171	143.06
421.394	136.06
421.617	107.06
421.839	131.06
422.062	126.06
422.285	126.06
422.507	136.06
422.73	117.06
422.953	129.06
423.175	138.06
423.398	140.06
423.621	122.06
423.843	116.06
424.066	138.06
424.288	125.06
424.511	127.06
424.733	130.06
424.956	142.06
425.178	137.06
425.401	129.06
425.623	147.06
425.846	129.06
426.068	142.06
426.291	129.06
426.513	124.06
426.735	128.06
426.958	131.06
427.18	137.06
427.402	151.06
427.625	139.06
427.847	123.06
428.069	143.06
428.292	128.06
428.514	127.06
428.736	135.06
428.958	120.06
429.181	122.06
429.403	122.06
429.625	126.06
429.847	130.06
430.069	138.06
430.292	122.06
430.514	131.06
430.736	129.06
430.958	127.06
431.18	125.06
431.402	139.06
431.624	129.06
431.846	110.06
432.068	123.06
432.29	133.06
432.512	127.06
432.734	118.06
432.956	146.06
433.178	122.06
433.4	126.06
433.622	124.06
433.844	109.06
434.066	131.06
434.287	115.06
434.509	125.06
434.731	123.06
434.953	120.06
435.175	130.06
435.397	134.06
435.618	134.06
435.84	126.06
436.062	131.06
436.284	127.06
436.505	147.06
436.727	135.06
436.949	124.06
437.17	133.06
437.392	129.06
437.614	127.06
437.835	119.06
438.057	137.06
438.278	125.06
438.5	118.06
438.721	144.06
438.943	138.06
439.165	131.06
439.386	129.06
439.608	130.06
439.829	123.06
440.05	131.06
440.272	142.06
440.493	136.06
440.715	133.06
440.936	140.06
441.158	125.06
441.379	126.06
441.6	141.06
441.822	126.06
442.043	136.06
442.264	144.06
442.486	136.06
442.707	145.06
442.928	109.06
443.149	125.06
443.371	139.06
443.592	141.06
443.813	125.06
444.034	154.06
444.255	123.06
444.476	135.06
444.698	124.06
444.919	142.06
445.14	261.06
445.361	197.06
445.582	138.06
445.803	144.06
446.024	137.06
446.245	130.06
446.466	142.06
446.687	133.06
446.908	123.06
447.129	129.06
447.35	143.06
447.571	116.06
447.792	139.06
448.013	115.06
448.234	117.06
448.455	128.06
448.675	136.06
448.896	157.06
449.117	124.06
449.338	126.06
449.559	136.06
449.779	160.06
450	135.06
450.221	127.06
450.442	135.06
450.662	122.06
450.883	130.06
451.104	132.06
451.324	117.06
451.545	122.06
451.766	124.06
451.986	116.06
452.207	109.06
452.428	117.06
452.648	121.06
452.869	121.06
453.089	126.06
453.31	114.06
453.53	114.06
453.751	117.06
453.971	120.06
454.192	128.06
454.412	107.06
454.633	121.06
454.853	121.06
455.073	126.06
455.294	130.06
455.514	123.06
455.734	115.06
455.955	113.06
456.175	118.06
456.395	120.06
456.616	102.06
456.836	135.06
457.056	113.06
457.276	104.06
457.497	123.06
457.717	118.06
457.937	100.06
458.157	113.06
458.377	115.06
458.598	107.06
458.818	122.06
459.038	133.06
459.258	124.06
459.478	113.06
459.698	124.06
459.918	124.06
460.138	113.06
460.358	121.06
460.578	123.06
460.798	118.06
461.018	126.06
461.238	127.06
461.458	145.06
461.678	135.06
461.898	118.06
462.118	134.06
462.338	126.06
462.558	145.06
462.777	127.06
462.997	136.06
463.217	151.06
463.437	133.06
463.657	113.06
463.876	142.06
464.096	123.06
464.316	134.06
464.536	134.06
464.755	135.06
464.975	142.06
465.195	127.06
465.414	142.06
465.634	121.06
465.854	139.06
466.073	127.06
466.293	106.06
466.512	113.06
466.732	111.06
466.951	129.06
467.171	117.06
467.391	118.06
467.61	113.06
467.829	133.06
468.049	133.06
468.268	114.06
468.488	119.06
468.707	123.06
468.927	117.06
469.146	119.06
469.365	126.06
469.585	124.06
469.804	135.06
470.023	137.06
470.243	142.06
470.462	125.06
470.681	126.06
470.901	119.06
471.12	129.06
471.339	132.06
471.558	118.06
471.777	118.06
471.997	123.06
472.216	145.06
472.435	126.06
472.654	114.06
472.873	110.06
473.092	129.06
473.311	133.06
473.53	123.06
473.749	112.06
473.968	127.06
474.187	143.06
474.406	142.06
474.625	110.06
474.844	119.06
475.063	117.06
475.282	123.06
475.501	123.06
475.72	117.06
475.939	116.06
476.158	127.06
476.377	120.06
476.596	119.06
476.814	120.06
477.033	109.06
477.252	116.06
477.471	119.06
477.69	124.06
477.908	131.06
478.127	132.06
478.346	121.06
478.564	122.06
478.783	123.06
479.002	131.06
479.22	139.06
479.439	131.06
479.658	125.06
479.876	142.06
480.095	148.06
480.313	138.06
480.532	134.06
480.751	125.06
480.969	139.06
481.188	142.06
481.406	137.06
481.624	141.06
481.843	125.06
482.061	137.06
482.28	123.06
482.498	131.06
482.717	130.06
482.935	112.06
483.153	125.06
483.372	122.06
483.59	147.06
483.808	127.06
484.027	119.06
484.245	119.06
484.463	127.06
484.681	124.06
484.9	130.06
485.118	139.06
485.336	123.06
485.554	139.06
485.772	134.06
485.99	129.06
486.209	133.06
486.427	145.06
486.645	135.06
486.863	144.06
487.081	133.06
487.299	119.06
487.517	138.06
487.735	145.06
487.953	134.06
488.171	147.06
488.389	129.06
488.607	128.06
488.825	134.06
489.043	150.06
489.261	126.06
489.479	126.06
489.696	125.06
489.914	133.06
490.132	126.06
490.35	148.06
490.568	117.06
490.786	140.06
491.003	151.06
491.221	158.06
491.439	141.06
491.657	147.06
491.874	133.06
492.092	149.06
492.31	158.06
492.527	150.06
492.745	151.06
492.963	125.06
493.18	139.06
493.398	138.06
493.615	137.06
493.833	153.06
494.05	135.06
494.268	150.06
494.485	141.06
494.703	135.06
494.92	140.06
495.138	137.06
495.355	142.06
495.573	147.06
495.79	122.06
496.008	133.06
496.225	152.06
496.442	158.06
496.66	148.06
496.877	136.06
497.094	137.06
497.312	144.06
497.529	146.06
497.746	149.06
497.963	161.06
498.181	159.06
498.398	153.06
498.615	156.06
498.832	156.06
499.049	171.06
499.267	177.06
499.484	181.06
499.701	178.06
499.918	194.06
500.135	204.06
500.352	200.06
500.569	198.06
500.786	196.06
501.003	202.06
501.22	196.06
501.437	197.06
501.654	184.06
501.871	168.06
502.088	159.06
502.305	166.06
502.522	158.06
502.739	151.06
502.956	139.06
503.172	138.06
503.389	155.06
503.606	135.06
503.823	160.06
504.04	152.06
504.256	151.06
504.473	135.06
504.69	143.06
504.907	150.06
505.123	135.06
505.34	154.06
505.557	155.06
505.773	134.06
