Data from 1968.PennyLincolnUp.Lamp.En5.5.200Scan.071719.P1._HRD10591_14-49-10-969.txt Node
Date: Thu Jul 18 14:49:10 EDT 2019
User: cochatt
Spectrometer: HR+D1059
Trigger mode: 1
Integration Time (sec): 1.000000E-1
Scans to average: 1
Electric dark correction enabled: true
Nonlinearity correction enabled: false
Boxcar width: 0
XAxis mode: Wavelengths
Number of Pixels in Spectrum: 2048
>>>>>Begin Spectral Data<<<<<
223.165	-16.44
223.4	-16.44
223.635	-16.44
223.869	-30.44
224.104	-26.44
224.338	5.56
224.573	-11.44
224.808	-22.44
225.042	-9.44
225.277	-10.44
225.511	6.56
225.746	11.56
225.98	9.56
226.215	15.56
226.449	10.56
226.683	24.56
226.918	23.56
227.152	19.56
227.387	35.56
227.621	37.56
227.856	45.56
228.09	39.56
228.324	57.56
228.559	40.56
228.793	63.56
229.027	74.56
229.262	64.56
229.496	74.56
229.73	66.56
229.964	71.56
230.199	77.56
230.433	74.56
230.667	79.56
230.901	81.56
231.136	89.56
231.37	77.56
231.604	82.56
231.838	79.56
232.072	81.56
232.306	88.56
232.541	97.56
232.775	80.56
233.009	82.56
233.243	85.56
233.477	93.56
233.711	83.56
233.945	90.56
234.179	86.56
234.413	93.56
234.647	92.56
234.881	69.56
235.115	80.56
235.349	84.56
235.583	102.56
235.817	88.56
236.051	91.56
236.285	85.56
236.519	81.56
236.753	85.56
236.987	84.56
237.221	92.56
237.455	82.56
237.689	90.56
237.922	86.56
238.156	92.56
238.39	86.56
238.624	77.56
238.858	78.56
239.091	87.56
239.325	82.56
239.559	77.56
239.793	100.56
240.027	86.56
240.26	83.56
240.494	86.56
240.728	84.56
240.961	80.56
241.195	97.56
241.429	78.56
241.662	83.56
241.896	96.56
242.13	72.56
242.363	75.56
242.597	74.56
242.83	78.56
243.064	87.56
243.298	80.56
243.531	87.56
243.765	85.56
243.998	80.56
244.232	99.56
244.465	84.56
244.699	72.56
244.932	87.56
245.166	80.56
245.399	73.56
245.633	98.56
245.866	93.56
246.099	68.56
246.333	78.56
246.566	87.56
246.8	79.56
247.033	80.56
247.266	83.56
247.5	91.56
247.733	90.56
247.966	98.56
248.2	75.56
248.433	100.56
248.666	80.56
248.899	100.56
249.133	88.56
249.366	84.56
249.599	80.56
249.832	92.56
250.066	99.56
250.299	88.56
250.532	79.56
250.765	87.56
250.998	90.56
251.231	91.56
251.465	87.56
251.698	79.56
251.931	95.56
252.164	85.56
252.397	83.56
252.63	103.56
252.863	79.56
253.096	82.56
253.329	84.56
253.562	90.56
253.795	83.56
254.028	90.56
254.261	101.56
254.494	105.56
254.727	104.56
254.96	97.56
255.193	92.56
255.426	87.56
255.659	88.56
255.892	91.56
256.124	91.56
256.357	96.56
256.59	99.56
256.823	91.56
257.056	93.56
257.289	95.56
257.521	96.56
257.754	93.56
257.987	90.56
258.22	103.56
258.452	110.56
258.685	102.56
258.918	89.56
259.151	96.56
259.383	93.56
259.616	95.56
259.849	93.56
260.081	80.56
260.314	92.56
260.547	101.56
260.779	92.56
261.012	91.56
261.244	88.56
261.477	91.56
261.71	103.56
261.942	96.56
262.175	94.56
262.407	79.56
262.64	99.56
262.872	101.56
263.105	87.56
263.337	91.56
263.57	87.56
263.802	81.56
264.035	97.56
264.267	89.56
264.499	96.56
264.732	85.56
264.964	89.56
265.197	90.56
265.429	91.56
265.661	82.56
265.894	115.56
266.126	108.56
266.358	102.56
266.591	83.56
266.823	82.56
267.055	100.56
267.287	90.56
267.52	87.56
267.752	100.56
267.984	108.56
268.216	80.56
268.448	108.56
268.681	96.56
268.913	88.56
269.145	97.56
269.377	87.56
269.609	109.56
269.841	103.56
270.073	92.56
270.306	98.56
270.538	100.56
270.77	92.56
271.002	102.56
271.234	117.56
271.466	93.56
271.698	102.56
271.93	100.56
272.162	102.56
272.394	112.56
272.626	109.56
272.858	102.56
273.09	109.56
273.322	96.56
273.553	89.56
273.785	94.56
274.017	85.56
274.249	97.56
274.481	103.56
274.713	89.56
274.945	100.56
275.176	106.56
275.408	100.56
275.64	98.56
275.872	107.56
276.104	97.56
276.335	102.56
276.567	88.56
276.799	102.56
277.031	111.56
277.262	103.56
277.494	111.56
277.726	100.56
277.957	102.56
278.189	97.56
278.421	101.56
278.652	85.56
278.884	90.56
279.115	85.56
279.347	88.56
279.579	109.56
279.81	101.56
280.042	108.56
280.273	102.56
280.505	94.56
280.736	104.56
280.968	103.56
281.199	111.56
281.431	96.56
281.662	101.56
281.894	88.56
282.125	97.56
282.356	108.56
282.588	111.56
282.819	104.56
283.051	99.56
283.282	100.56
283.513	107.56
283.745	85.56
283.976	101.56
284.207	95.56
284.439	101.56
284.67	107.56
284.901	121.56
285.132	100.56
285.364	89.56
285.595	103.56
285.826	84.56
286.057	104.56
286.288	98.56
286.52	107.56
286.751	90.56
286.982	110.56
287.213	89.56
287.444	93.56
287.675	96.56
287.906	107.56
288.138	111.56
288.369	105.56
288.6	98.56
288.831	99.56
289.062	123.56
289.293	107.56
289.524	109.56
289.755	94.56
289.986	94.56
290.217	124.56
290.448	99.56
290.679	101.56
290.91	100.56
291.141	94.56
291.371	107.56
291.602	94.56
291.833	94.56
292.064	99.56
292.295	115.56
292.526	106.56
292.757	111.56
292.987	96.56
293.218	92.56
293.449	105.56
293.68	110.56
293.91	92.56
294.141	92.56
294.372	95.56
294.603	111.56
294.833	103.56
295.064	102.56
295.295	96.56
295.525	92.56
295.756	107.56
295.987	87.56
296.217	95.56
296.448	92.56
296.679	108.56
296.909	104.56
297.14	108.56
297.37	112.56
297.601	112.56
297.831	85.56
298.062	116.56
298.292	95.56
298.523	100.56
298.753	105.56
298.984	103.56
299.214	103.56
299.445	118.56
299.675	112.56
299.905	111.56
300.136	103.56
300.366	111.56
300.597	97.56
300.827	106.56
301.057	99.56
301.288	106.56
301.518	94.56
301.748	104.56
301.979	92.56
302.209	117.56
302.439	106.56
302.669	92.56
302.9	108.56
303.13	111.56
303.36	107.56
303.59	108.56
303.82	112.56
304.051	97.56
304.281	116.56
304.511	107.56
304.741	97.56
304.971	102.56
305.201	97.56
305.431	96.56
305.661	102.56
305.891	116.56
306.121	104.56
306.352	112.56
306.582	96.56
306.812	104.56
307.042	108.56
307.272	113.56
307.502	103.56
307.731	109.56
307.961	107.56
308.191	120.56
308.421	113.56
308.651	104.56
308.881	114.56
309.111	101.56
309.341	105.56
309.571	101.56
309.8	119.56
310.03	104.56
310.26	102.56
310.49	106.56
310.72	106.56
310.949	94.56
311.179	110.56
311.409	105.56
311.639	103.56
311.868	105.56
312.098	102.56
312.328	105.56
312.557	117.56
312.787	109.56
313.017	111.56
313.246	101.56
313.476	95.56
313.706	89.56
313.935	109.56
314.165	100.56
314.394	108.56
314.624	87.56
314.853	116.56
315.083	119.56
315.312	119.56
315.542	113.56
315.771	105.56
316.001	103.56
316.23	114.56
316.46	109.56
316.689	120.56
316.919	109.56
317.148	113.56
317.377	116.56
317.607	95.56
317.836	114.56
318.065	127.56
318.295	123.56
318.524	120.56
318.753	107.56
318.983	117.56
319.212	115.56
319.441	119.56
319.67	122.56
319.9	99.56
320.129	117.56
320.358	90.56
320.587	113.56
320.816	116.56
321.046	113.56
321.275	119.56
321.504	111.56
321.733	100.56
321.962	100.56
322.191	119.56
322.42	102.56
322.649	100.56
322.878	110.56
323.108	105.56
323.337	112.56
323.566	108.56
323.795	109.56
324.024	113.56
324.253	118.56
324.482	134.56
324.71	151.56
324.939	156.56
325.168	131.56
325.397	107.56
325.626	107.56
325.855	109.56
326.084	119.56
326.313	106.56
326.542	119.56
326.77	108.56
326.999	107.56
327.228	127.56
327.457	135.56
327.686	125.56
327.914	139.56
328.143	121.56
328.372	112.56
328.6	113.56
328.829	111.56
329.058	115.56
329.287	121.56
329.515	113.56
329.744	116.56
329.972	119.56
330.201	110.56
330.43	116.56
330.658	116.56
330.887	102.56
331.115	120.56
331.344	125.56
331.572	120.56
331.801	105.56
332.03	105.56
332.258	108.56
332.486	111.56
332.715	123.56
332.943	96.56
333.172	122.56
333.4	120.56
333.629	133.56
333.857	127.56
334.085	119.56
334.314	121.56
334.542	127.56
334.771	114.56
334.999	127.56
335.227	124.56
335.455	126.56
335.684	112.56
335.912	125.56
336.14	117.56
336.369	121.56
336.597	147.56
336.825	110.56
337.053	116.56
337.281	105.56
337.51	127.56
337.738	125.56
337.966	120.56
338.194	117.56
338.422	113.56
338.65	123.56
338.878	110.56
339.106	108.56
339.334	120.56
339.562	104.56
339.79	112.56
340.018	131.56
340.246	88.56
340.474	127.56
340.702	105.56
340.93	108.56
341.158	120.56
341.386	106.56
341.614	116.56
341.842	113.56
342.07	104.56
342.298	106.56
342.526	116.56
342.754	115.56
342.981	108.56
343.209	103.56
343.437	117.56
343.665	121.56
343.893	116.56
344.12	117.56
344.348	127.56
344.576	118.56
344.804	117.56
345.031	133.56
345.259	128.56
345.487	121.56
345.714	122.56
345.942	115.56
346.17	124.56
346.397	104.56
346.625	104.56
346.853	120.56
347.08	109.56
347.308	100.56
347.535	102.56
347.763	97.56
347.99	103.56
348.218	112.56
348.445	112.56
348.673	106.56
348.9	126.56
349.128	97.56
349.355	105.56
349.583	111.56
349.81	108.56
350.037	122.56
350.265	117.56
350.492	116.56
350.72	105.56
350.947	108.56
351.174	125.56
351.402	117.56
351.629	103.56
351.856	115.56
352.083	110.56
352.311	117.56
352.538	101.56
352.765	109.56
352.992	117.56
353.22	117.56
353.447	115.56
353.674	109.56
353.901	117.56
354.128	117.56
354.355	106.56
354.583	111.56
354.81	123.56
355.037	117.56
355.264	111.56
355.491	120.56
355.718	104.56
355.945	112.56
356.172	117.56
356.399	109.56
356.626	103.56
356.853	98.56
357.08	110.56
357.307	126.56
357.534	120.56
357.761	107.56
357.988	115.56
358.215	115.56
358.441	104.56
358.668	118.56
358.895	121.56
359.122	108.56
359.349	112.56
359.576	117.56
359.802	97.56
360.029	117.56
360.256	109.56
360.483	114.56
360.709	117.56
360.936	125.56
361.163	103.56
361.39	118.56
361.616	120.56
361.843	111.56
362.07	112.56
362.296	118.56
362.523	115.56
362.749	105.56
362.976	121.56
363.203	117.56
363.429	107.56
363.656	119.56
363.882	114.56
364.109	122.56
364.335	116.56
364.562	107.56
364.788	105.56
365.015	115.56
365.241	112.56
365.468	110.56
365.694	107.56
365.92	101.56
366.147	117.56
366.373	117.56
366.599	122.56
366.826	120.56
367.052	112.56
367.278	112.56
367.505	107.56
367.731	108.56
367.957	124.56
368.184	102.56
368.41	113.56
368.636	113.56
368.862	108.56
369.089	106.56
369.315	89.56
369.541	118.56
369.767	115.56
369.993	123.56
370.219	104.56
370.445	108.56
370.672	118.56
370.898	121.56
371.124	135.56
371.35	102.56
371.576	128.56
371.802	120.56
372.028	103.56
372.254	97.56
372.48	116.56
372.706	137.56
372.932	102.56
373.158	110.56
373.384	115.56
373.61	118.56
373.835	119.56
374.061	108.56
374.287	120.56
374.513	125.56
374.739	110.56
374.965	121.56
375.191	120.56
375.416	110.56
375.642	91.56
375.868	106.56
376.094	114.56
376.319	118.56
376.545	113.56
376.771	131.56
376.997	104.56
377.222	108.56
377.448	118.56
377.674	120.56
377.899	119.56
378.125	134.56
378.35	122.56
378.576	111.56
378.802	103.56
379.027	114.56
379.253	112.56
379.478	124.56
379.704	110.56
379.929	113.56
380.155	109.56
380.38	118.56
380.606	116.56
380.831	128.56
381.057	110.56
381.282	101.56
381.507	110.56
381.733	102.56
381.958	110.56
382.184	107.56
382.409	117.56
382.634	108.56
382.86	118.56
383.085	122.56
383.31	119.56
383.535	121.56
383.761	115.56
383.986	125.56
384.211	110.56
384.436	109.56
384.662	135.56
384.887	131.56
385.112	128.56
385.337	125.56
385.562	126.56
385.787	133.56
386.013	126.56
386.238	127.56
386.463	116.56
386.688	118.56
386.913	124.56
387.138	118.56
387.363	132.56
387.588	115.56
387.813	105.56
388.038	128.56
388.263	125.56
388.488	135.56
388.713	123.56
388.938	116.56
389.163	115.56
389.387	125.56
389.612	113.56
389.837	111.56
390.062	112.56
390.287	119.56
390.512	124.56
390.736	111.56
390.961	114.56
391.186	129.56
391.411	121.56
391.636	112.56
391.86	116.56
392.085	122.56
392.31	112.56
392.534	131.56
392.759	131.56
392.984	112.56
393.208	128.56
393.433	131.56
393.658	129.56
393.882	121.56
394.107	103.56
394.331	121.56
394.556	115.56
394.78	120.56
395.005	104.56
395.229	121.56
395.454	126.56
395.678	131.56
395.903	127.56
396.127	140.56
396.352	123.56
396.576	132.56
396.801	121.56
397.025	135.56
397.249	131.56
397.474	114.56
397.698	124.56
397.922	116.56
398.147	108.56
398.371	120.56
398.595	118.56
398.82	134.56
399.044	140.56
399.268	132.56
399.492	142.56
399.717	135.56
399.941	148.56
400.165	149.56
400.389	135.56
400.613	141.56
400.837	132.56
401.062	134.56
401.286	134.56
401.51	125.56
401.734	129.56
401.958	137.56
402.182	131.56
402.406	135.56
402.63	139.56
402.854	124.56
403.078	136.56
403.302	139.56
403.526	128.56
403.75	131.56
403.974	140.56
404.198	136.56
404.422	152.56
404.645	136.56
404.869	127.56
405.093	140.56
405.317	140.56
405.541	140.56
405.765	127.56
405.988	120.56
406.212	134.56
406.436	143.56
406.66	138.56
406.883	120.56
407.107	143.56
407.331	131.56
407.555	163.56
407.778	153.56
408.002	155.56
408.226	152.56
408.449	140.56
408.673	146.56
408.896	133.56
409.12	134.56
409.344	133.56
409.567	132.56
409.791	140.56
410.014	145.56
410.238	129.56
410.461	134.56
410.685	141.56
410.908	130.56
411.132	138.56
411.355	153.56
411.578	139.56
411.802	127.56
412.025	140.56
412.249	125.56
412.472	131.56
412.695	139.56
412.919	127.56
413.142	129.56
413.365	119.56
413.589	147.56
413.812	145.56
414.035	129.56
414.258	131.56
414.482	125.56
414.705	136.56
414.928	148.56
415.151	129.56
415.374	132.56
415.597	134.56
415.821	123.56
416.044	132.56
416.267	124.56
416.49	157.56
416.713	135.56
416.936	109.56
417.159	139.56
417.382	125.56
417.605	140.56
417.828	138.56
418.051	129.56
418.274	137.56
418.497	127.56
418.72	139.56
418.943	129.56
419.166	139.56
419.389	134.56
419.611	136.56
419.834	136.56
420.057	131.56
420.28	132.56
420.503	125.56
420.726	132.56
420.948	136.56
421.171	129.56
421.394	125.56
421.617	140.56
421.839	132.56
422.062	143.56
422.285	147.56
422.507	137.56
422.73	137.56
422.953	132.56
423.175	143.56
423.398	117.56
423.621	145.56
423.843	149.56
424.066	134.56
424.288	134.56
424.511	124.56
424.733	139.56
424.956	137.56
425.178	132.56
425.401	139.56
425.623	138.56
425.846	126.56
426.068	120.56
426.291	151.56
426.513	133.56
426.735	131.56
426.958	128.56
427.18	130.56
427.402	160.56
427.625	146.56
427.847	130.56
428.069	124.56
428.292	138.56
428.514	135.56
428.736	120.56
428.958	143.56
429.181	135.56
429.403	122.56
429.625	131.56
429.847	139.56
430.069	130.56
430.292	129.56
430.514	120.56
430.736	111.56
430.958	131.56
431.18	108.56
431.402	127.56
431.624	128.56
431.846	132.56
432.068	127.56
432.29	127.56
432.512	132.56
432.734	131.56
432.956	137.56
433.178	131.56
433.4	117.56
433.622	127.56
433.844	134.56
434.066	112.56
434.287	132.56
434.509	125.56
434.731	142.56
434.953	129.56
435.175	138.56
435.397	147.56
435.618	123.56
435.84	134.56
436.062	135.56
436.284	141.56
436.505	147.56
436.727	139.56
436.949	134.56
437.17	127.56
437.392	119.56
437.614	122.56
437.835	133.56
438.057	124.56
438.278	136.56
438.5	135.56
438.721	135.56
438.943	163.56
439.165	127.56
439.386	125.56
439.608	138.56
439.829	156.56
440.05	148.56
440.272	124.56
440.493	140.56
440.715	136.56
440.936	149.56
441.158	127.56
441.379	139.56
441.6	130.56
441.822	134.56
442.043	128.56
442.264	127.56
442.486	128.56
442.707	120.56
442.928	138.56
443.149	128.56
443.371	131.56
443.592	126.56
443.813	135.56
444.034	140.56
444.255	147.56
444.476	131.56
444.698	147.56
444.919	131.56
445.14	253.56
445.361	188.56
445.582	129.56
445.803	144.56
446.024	135.56
446.245	147.56
446.466	123.56
446.687	123.56
446.908	121.56
447.129	118.56
447.35	134.56
447.571	139.56
447.792	131.56
448.013	131.56
448.234	120.56
448.455	127.56
448.675	139.56
448.896	147.56
449.117	142.56
449.338	140.56
449.559	137.56
449.779	141.56
450	134.56
450.221	122.56
450.442	119.56
450.662	111.56
450.883	120.56
451.104	135.56
451.324	129.56
451.545	131.56
451.766	127.56
451.986	122.56
452.207	132.56
452.428	134.56
452.648	103.56
452.869	107.56
453.089	124.56
453.31	130.56
453.53	108.56
453.751	122.56
453.971	125.56
454.192	130.56
454.412	131.56
454.633	112.56
454.853	116.56
455.073	117.56
455.294	114.56
455.514	118.56
455.734	135.56
455.955	124.56
456.175	111.56
456.395	121.56
456.616	112.56
456.836	117.56
457.056	128.56
457.276	127.56
457.497	130.56
457.717	123.56
457.937	125.56
458.157	120.56
458.377	110.56
458.598	127.56
458.818	132.56
459.038	126.56
459.258	127.56
459.478	132.56
459.698	129.56
459.918	134.56
460.138	130.56
460.358	124.56
460.578	131.56
460.798	128.56
461.018	127.56
461.238	134.56
461.458	133.56
461.678	128.56
461.898	141.56
462.118	133.56
462.338	139.56
462.558	141.56
462.777	137.56
462.997	159.56
463.217	150.56
463.437	150.56
463.657	144.56
463.876	141.56
464.096	127.56
464.316	135.56
464.536	137.56
464.755	147.56
464.975	140.56
465.195	141.56
465.414	144.56
465.634	123.56
465.854	121.56
466.073	123.56
466.293	131.56
466.512	133.56
466.732	128.56
466.951	139.56
467.171	127.56
467.391	136.56
467.61	135.56
467.829	131.56
468.049	133.56
468.268	110.56
468.488	119.56
468.707	131.56
468.927	126.56
469.146	137.56
469.365	148.56
469.585	123.56
469.804	128.56
470.023	122.56
470.243	127.56
470.462	115.56
470.681	127.56
470.901	129.56
471.12	127.56
471.339	125.56
471.558	132.56
471.777	120.56
471.997	126.56
472.216	131.56
472.435	127.56
472.654	131.56
472.873	136.56
473.092	111.56
473.311	130.56
473.53	122.56
473.749	116.56
473.968	140.56
474.187	128.56
474.406	127.56
474.625	116.56
474.844	134.56
475.063	130.56
475.282	132.56
475.501	105.56
475.72	125.56
475.939	131.56
476.158	125.56
476.377	121.56
476.596	132.56
476.814	122.56
477.033	129.56
477.252	130.56
477.471	135.56
477.69	126.56
477.908	135.56
478.127	135.56
478.346	142.56
478.564	133.56
478.783	124.56
479.002	126.56
479.22	123.56
479.439	135.56
479.658	133.56
479.876	131.56
480.095	145.56
480.313	136.56
480.532	142.56
480.751	146.56
480.969	139.56
481.188	124.56
481.406	148.56
481.624	136.56
481.843	136.56
482.061	132.56
482.28	127.56
482.498	130.56
482.717	141.56
482.935	134.56
483.153	129.56
483.372	129.56
483.59	140.56
483.808	138.56
484.027	131.56
484.245	140.56
484.463	132.56
484.681	148.56
484.9	156.56
485.118	150.56
485.336	139.56
485.554	143.56
485.772	130.56
485.99	131.56
486.209	127.56
486.427	134.56
486.645	130.56
486.863	144.56
487.081	141.56
487.299	127.56
487.517	130.56
487.735	140.56
487.953	138.56
488.171	150.56
488.389	144.56
488.607	135.56
488.825	145.56
489.043	134.56
489.261	144.56
489.479	126.56
489.696	143.56
489.914	131.56
490.132	133.56
490.35	161.56
490.568	140.56
490.786	141.56
491.003	157.56
491.221	148.56
491.439	143.56
491.657	164.56
491.874	146.56
492.092	145.56
492.31	158.56
492.527	146.56
492.745	137.56
492.963	137.56
493.18	162.56
493.398	135.56
493.615	130.56
493.833	142.56
494.05	156.56
494.268	125.56
494.485	150.56
494.703	153.56
494.92	144.56
495.138	143.56
495.355	143.56
495.573	142.56
495.79	151.56
496.008	152.56
496.225	142.56
496.442	149.56
496.66	145.56
496.877	162.56
497.094	144.56
497.312	143.56
497.529	156.56
497.746	157.56
497.963	165.56
498.181	150.56
498.398	151.56
498.615	152.56
498.832	180.56
499.049	179.56
499.267	172.56
499.484	156.56
499.701	200.56
499.918	206.56
500.135	203.56
500.352	221.56
500.569	227.56
500.786	230.56
501.003	212.56
501.22	207.56
501.437	202.56
501.654	197.56
501.871	169.56
502.088	170.56
502.305	157.56
502.522	164.56
502.739	160.56
502.956	149.56
503.172	163.56
503.389	141.56
503.606	143.56
503.823	153.56
504.04	163.56
504.256	153.56
504.473	155.56
504.69	146.56
504.907	141.56
505.123	146.56
