Data from 1968.PennyLincolnUp.Lamp.En5.5.200Scan.071719.P1._HRD10591_14-51-59-969.txt Node
Date: Thu Jul 18 14:51:59 EDT 2019
User: cochatt
Spectrometer: HR+D1059
Trigger mode: 1
Integration Time (sec): 1.000000E-1
Scans to average: 1
Electric dark correction enabled: true
Nonlinearity correction enabled: false
Boxcar width: 0
XAxis mode: Wavelengths
Number of Pixels in Spectrum: 2048
>>>>>Begin Spectral Data<<<<<
223.165	-14.06
223.4	-14.06
223.635	-14.06
223.869	-21.06
224.104	-19.06
224.338	-18.06
224.573	-2.06
224.808	-12.06
225.042	-14.06
225.277	10.94
225.511	0.94
225.746	-8.06
225.98	14.94
226.215	-1.06
226.449	14.94
226.683	19.94
226.918	24.94
227.152	22.94
227.387	21.94
227.621	39.94
227.856	43.94
228.09	42.94
228.324	54.94
228.559	62.94
228.793	54.94
229.027	57.94
229.262	67.94
229.496	59.94
229.73	66.94
229.964	87.94
230.199	75.94
230.433	66.94
230.667	74.94
230.901	73.94
231.136	80.94
231.37	77.94
231.604	69.94
231.838	82.94
232.072	87.94
232.306	87.94
232.541	82.94
232.775	83.94
233.009	92.94
233.243	80.94
233.477	72.94
233.711	77.94
233.945	93.94
234.179	79.94
234.413	92.94
234.647	74.94
234.881	103.94
235.115	82.94
235.349	78.94
235.583	73.94
235.817	81.94
236.051	83.94
236.285	82.94
236.519	73.94
236.753	82.94
236.987	78.94
237.221	84.94
237.455	95.94
237.689	76.94
237.922	83.94
238.156	73.94
238.39	76.94
238.624	78.94
238.858	74.94
239.091	87.94
239.325	69.94
239.559	89.94
239.793	79.94
240.027	82.94
240.26	73.94
240.494	77.94
240.728	78.94
240.961	93.94
241.195	76.94
241.429	85.94
241.662	76.94
241.896	77.94
242.13	80.94
242.363	85.94
242.597	68.94
242.83	74.94
243.064	71.94
243.298	83.94
243.531	77.94
243.765	79.94
243.998	80.94
244.232	92.94
244.465	79.94
244.699	81.94
244.932	81.94
245.166	83.94
245.399	82.94
245.633	90.94
245.866	88.94
246.099	70.94
246.333	80.94
246.566	80.94
246.8	81.94
247.033	67.94
247.266	86.94
247.5	76.94
247.733	77.94
247.966	91.94
248.2	87.94
248.433	85.94
248.666	108.94
248.899	86.94
249.133	86.94
249.366	93.94
249.599	84.94
249.832	89.94
250.066	77.94
250.299	83.94
250.532	89.94
250.765	88.94
250.998	86.94
251.231	79.94
251.465	77.94
251.698	80.94
251.931	99.94
252.164	87.94
252.397	80.94
252.63	93.94
252.863	88.94
253.096	91.94
253.329	96.94
253.562	97.94
253.795	71.94
254.028	81.94
254.261	98.94
254.494	97.94
254.727	93.94
254.96	98.94
255.193	98.94
255.426	92.94
255.659	85.94
255.892	90.94
256.124	85.94
256.357	76.94
256.59	100.94
256.823	97.94
257.056	84.94
257.289	105.94
257.521	86.94
257.754	93.94
257.987	93.94
258.22	95.94
258.452	97.94
258.685	93.94
258.918	91.94
259.151	102.94
259.383	97.94
259.616	97.94
259.849	87.94
260.081	86.94
260.314	86.94
260.547	87.94
260.779	82.94
261.012	105.94
261.244	85.94
261.477	97.94
261.71	93.94
261.942	98.94
262.175	96.94
262.407	70.94
262.64	91.94
262.872	103.94
263.105	84.94
263.337	92.94
263.57	83.94
263.802	86.94
264.035	93.94
264.267	100.94
264.499	103.94
264.732	87.94
264.964	95.94
265.197	83.94
265.429	86.94
265.661	85.94
265.894	85.94
266.126	93.94
266.358	92.94
266.591	102.94
266.823	105.94
267.055	90.94
267.287	88.94
267.52	97.94
267.752	93.94
267.984	93.94
268.216	91.94
268.448	103.94
268.681	97.94
268.913	78.94
269.145	85.94
269.377	79.94
269.609	91.94
269.841	94.94
270.073	100.94
270.306	89.94
270.538	93.94
270.77	97.94
271.002	92.94
271.234	95.94
271.466	88.94
271.698	91.94
271.93	100.94
272.162	95.94
272.394	86.94
272.626	89.94
272.858	95.94
273.09	84.94
273.322	94.94
273.553	85.94
273.785	105.94
274.017	86.94
274.249	108.94
274.481	93.94
274.713	103.94
274.945	102.94
275.176	106.94
275.408	97.94
275.64	98.94
275.872	92.94
276.104	100.94
276.335	95.94
276.567	99.94
276.799	106.94
277.031	105.94
277.262	93.94
277.494	92.94
277.726	107.94
277.957	99.94
278.189	94.94
278.421	99.94
278.652	93.94
278.884	101.94
279.115	96.94
279.347	94.94
279.579	103.94
279.81	83.94
280.042	78.94
280.273	89.94
280.505	87.94
280.736	89.94
280.968	98.94
281.199	109.94
281.431	123.94
281.662	86.94
281.894	104.94
282.125	89.94
282.356	93.94
282.588	102.94
282.819	89.94
283.051	93.94
283.282	110.94
283.513	106.94
283.745	99.94
283.976	84.94
284.207	95.94
284.439	95.94
284.67	101.94
284.901	94.94
285.132	89.94
285.364	93.94
285.595	110.94
285.826	90.94
286.057	95.94
286.288	85.94
286.52	93.94
286.751	101.94
286.982	105.94
287.213	99.94
287.444	108.94
287.675	90.94
287.906	105.94
288.138	116.94
288.369	101.94
288.6	101.94
288.831	96.94
289.062	96.94
289.293	106.94
289.524	92.94
289.755	107.94
289.986	102.94
290.217	100.94
290.448	110.94
290.679	102.94
290.91	110.94
291.141	86.94
291.371	88.94
291.602	87.94
291.833	118.94
292.064	101.94
292.295	91.94
292.526	91.94
292.757	110.94
292.987	101.94
293.218	94.94
293.449	106.94
293.68	107.94
293.91	115.94
294.141	104.94
294.372	85.94
294.603	101.94
294.833	93.94
295.064	103.94
295.295	105.94
295.525	89.94
295.756	108.94
295.987	94.94
296.217	98.94
296.448	107.94
296.679	116.94
296.909	103.94
297.14	117.94
297.37	101.94
297.601	97.94
297.831	105.94
298.062	98.94
298.292	107.94
298.523	111.94
298.753	103.94
298.984	95.94
299.214	95.94
299.445	107.94
299.675	112.94
299.905	99.94
300.136	120.94
300.366	105.94
300.597	110.94
300.827	118.94
301.057	109.94
301.288	115.94
301.518	102.94
301.748	102.94
301.979	100.94
302.209	102.94
302.439	84.94
302.669	77.94
302.9	95.94
303.13	117.94
303.36	105.94
303.59	105.94
303.82	97.94
304.051	110.94
304.281	116.94
304.511	109.94
304.741	99.94
304.971	109.94
305.201	98.94
305.431	97.94
305.661	112.94
305.891	93.94
306.121	87.94
306.352	98.94
306.582	98.94
306.812	113.94
307.042	98.94
307.272	108.94
307.502	99.94
307.731	110.94
307.961	115.94
308.191	126.94
308.421	99.94
308.651	101.94
308.881	100.94
309.111	101.94
309.341	95.94
309.571	110.94
309.8	102.94
310.03	100.94
310.26	99.94
310.49	102.94
310.72	90.94
310.949	108.94
311.179	109.94
311.409	96.94
311.639	114.94
311.868	100.94
312.098	109.94
312.328	122.94
312.557	108.94
312.787	115.94
313.017	109.94
313.246	103.94
313.476	110.94
313.706	117.94
313.935	103.94
314.165	98.94
314.394	107.94
314.624	95.94
314.853	115.94
315.083	115.94
315.312	120.94
315.542	101.94
315.771	95.94
316.001	112.94
316.23	111.94
316.46	102.94
316.689	94.94
316.919	108.94
317.148	108.94
317.377	104.94
317.607	117.94
317.836	98.94
318.065	103.94
318.295	102.94
318.524	121.94
318.753	97.94
318.983	111.94
319.212	118.94
319.441	107.94
319.67	103.94
319.9	109.94
320.129	105.94
320.358	100.94
320.587	97.94
320.816	101.94
321.046	97.94
321.275	118.94
321.504	98.94
321.733	98.94
321.962	103.94
322.191	116.94
322.42	95.94
322.649	95.94
322.878	117.94
323.108	99.94
323.337	123.94
323.566	125.94
323.795	120.94
324.024	123.94
324.253	122.94
324.482	150.94
324.71	165.94
324.939	194.94
325.168	162.94
325.397	123.94
325.626	118.94
325.855	107.94
326.084	120.94
326.313	110.94
326.542	114.94
326.77	116.94
326.999	121.94
327.228	122.94
327.457	150.94
327.686	158.94
327.914	141.94
328.143	113.94
328.372	106.94
328.6	106.94
328.829	117.94
329.058	107.94
329.287	127.94
329.515	109.94
329.744	118.94
329.972	111.94
330.201	125.94
330.43	119.94
330.658	122.94
330.887	114.94
331.115	120.94
331.344	94.94
331.572	115.94
331.801	113.94
332.03	101.94
332.258	117.94
332.486	104.94
332.715	113.94
332.943	114.94
333.172	116.94
333.4	114.94
333.629	134.94
333.857	109.94
334.085	106.94
334.314	119.94
334.542	111.94
334.771	114.94
334.999	131.94
335.227	117.94
335.455	109.94
335.684	131.94
335.912	123.94
336.14	106.94
336.369	121.94
336.597	104.94
336.825	113.94
337.053	103.94
337.281	110.94
337.51	125.94
337.738	104.94
337.966	106.94
338.194	114.94
338.422	129.94
338.65	109.94
338.878	102.94
339.106	116.94
339.334	117.94
339.562	106.94
339.79	127.94
340.018	124.94
340.246	98.94
340.474	104.94
340.702	104.94
340.93	92.94
341.158	106.94
341.386	114.94
341.614	98.94
341.842	103.94
342.07	102.94
342.298	109.94
342.526	111.94
342.754	105.94
342.981	108.94
343.209	114.94
343.437	115.94
343.665	126.94
343.893	120.94
344.12	108.94
344.348	104.94
344.576	130.94
344.804	109.94
345.031	115.94
345.259	113.94
345.487	114.94
345.714	103.94
345.942	115.94
346.17	103.94
346.397	119.94
346.625	113.94
346.853	104.94
347.08	126.94
347.308	90.94
347.535	104.94
347.763	104.94
347.99	109.94
348.218	104.94
348.445	107.94
348.673	105.94
348.9	101.94
349.128	108.94
349.355	110.94
349.583	107.94
349.81	124.94
350.037	98.94
350.265	91.94
350.492	125.94
350.72	105.94
350.947	122.94
351.174	115.94
351.402	101.94
351.629	109.94
351.856	100.94
352.083	113.94
352.311	108.94
352.538	118.94
352.765	115.94
352.992	117.94
353.22	103.94
353.447	108.94
353.674	114.94
353.901	103.94
354.128	99.94
354.355	109.94
354.583	100.94
354.81	127.94
355.037	117.94
355.264	109.94
355.491	119.94
355.718	97.94
355.945	119.94
356.172	102.94
356.399	102.94
356.626	106.94
356.853	120.94
357.08	106.94
357.307	110.94
357.534	93.94
357.761	108.94
357.988	120.94
358.215	117.94
358.441	105.94
358.668	115.94
358.895	108.94
359.122	108.94
359.349	106.94
359.576	123.94
359.802	107.94
360.029	103.94
360.256	121.94
360.483	105.94
360.709	104.94
360.936	127.94
361.163	102.94
361.39	101.94
361.616	101.94
361.843	102.94
362.07	116.94
362.296	105.94
362.523	113.94
362.749	101.94
362.976	120.94
363.203	113.94
363.429	110.94
363.656	93.94
363.882	100.94
364.109	105.94
364.335	106.94
364.562	115.94
364.788	106.94
365.015	94.94
365.241	113.94
365.468	108.94
365.694	116.94
365.92	107.94
366.147	117.94
366.373	110.94
366.599	110.94
366.826	110.94
367.052	97.94
367.278	96.94
367.505	104.94
367.731	102.94
367.957	103.94
368.184	103.94
368.41	110.94
368.636	114.94
368.862	129.94
369.089	110.94
369.315	113.94
369.541	110.94
369.767	116.94
369.993	110.94
370.219	113.94
370.445	96.94
370.672	95.94
370.898	113.94
371.124	125.94
371.35	125.94
371.576	106.94
371.802	108.94
372.028	114.94
372.254	108.94
372.48	112.94
372.706	108.94
372.932	93.94
373.158	106.94
373.384	117.94
373.61	115.94
373.835	119.94
374.061	124.94
374.287	117.94
374.513	121.94
374.739	123.94
374.965	122.94
375.191	102.94
375.416	96.94
375.642	105.94
375.868	120.94
376.094	102.94
376.319	109.94
376.545	109.94
376.771	106.94
376.997	119.94
377.222	107.94
377.448	111.94
377.674	106.94
377.899	116.94
378.125	115.94
378.35	104.94
378.576	105.94
378.802	121.94
379.027	118.94
379.253	97.94
379.478	115.94
379.704	114.94
379.929	105.94
380.155	100.94
380.38	95.94
380.606	117.94
380.831	113.94
381.057	106.94
381.282	103.94
381.507	127.94
381.733	110.94
381.958	102.94
382.184	108.94
382.409	121.94
382.634	104.94
382.86	107.94
383.085	127.94
383.31	125.94
383.535	118.94
383.761	118.94
383.986	115.94
384.211	127.94
384.436	113.94
384.662	110.94
384.887	115.94
385.112	129.94
385.337	116.94
385.562	111.94
385.787	105.94
386.013	113.94
386.238	121.94
386.463	117.94
386.688	123.94
386.913	107.94
387.138	110.94
387.363	126.94
387.588	123.94
387.813	117.94
388.038	112.94
388.263	120.94
388.488	117.94
388.713	121.94
388.938	113.94
389.163	120.94
389.387	124.94
389.612	110.94
389.837	125.94
390.062	117.94
390.287	101.94
390.512	125.94
390.736	117.94
390.961	127.94
391.186	114.94
391.411	110.94
391.636	104.94
391.86	135.94
392.085	120.94
392.31	113.94
392.534	117.94
392.759	110.94
392.984	123.94
393.208	115.94
393.433	125.94
393.658	118.94
393.882	121.94
394.107	114.94
394.331	114.94
394.556	113.94
394.78	113.94
395.005	105.94
395.229	110.94
395.454	120.94
395.678	127.94
395.903	117.94
396.127	113.94
396.352	127.94
396.576	101.94
396.801	114.94
397.025	124.94
397.249	105.94
397.474	118.94
397.698	117.94
397.922	130.94
398.147	135.94
398.371	129.94
398.595	126.94
398.82	120.94
399.044	130.94
399.268	130.94
399.492	137.94
399.717	145.94
399.941	146.94
400.165	143.94
400.389	139.94
400.613	151.94
400.837	125.94
401.062	123.94
401.286	132.94
401.51	121.94
401.734	120.94
401.958	107.94
402.182	113.94
402.406	127.94
402.63	123.94
402.854	130.94
403.078	124.94
403.302	127.94
403.526	143.94
403.75	124.94
403.974	122.94
404.198	123.94
404.422	131.94
404.645	132.94
404.869	117.94
405.093	127.94
405.317	129.94
405.541	145.94
405.765	126.94
405.988	125.94
406.212	144.94
406.436	130.94
406.66	155.94
406.883	146.94
407.107	138.94
407.331	145.94
407.555	129.94
407.778	156.94
408.002	133.94
408.226	138.94
408.449	113.94
408.673	129.94
408.896	124.94
409.12	125.94
409.344	118.94
409.567	135.94
409.791	145.94
410.014	137.94
410.238	127.94
410.461	133.94
410.685	129.94
410.908	135.94
411.132	137.94
411.355	135.94
411.578	136.94
411.802	125.94
412.025	131.94
412.249	139.94
412.472	133.94
412.695	135.94
412.919	122.94
413.142	119.94
413.365	120.94
413.589	121.94
413.812	126.94
414.035	127.94
414.258	112.94
414.482	109.94
414.705	127.94
414.928	132.94
415.151	138.94
415.374	123.94
415.597	146.94
415.821	121.94
416.044	141.94
416.267	138.94
416.49	140.94
416.713	133.94
416.936	125.94
417.159	115.94
417.382	126.94
417.605	146.94
417.828	126.94
418.051	113.94
418.274	123.94
418.497	132.94
418.72	130.94
418.943	131.94
419.166	123.94
419.389	130.94
419.611	123.94
419.834	135.94
420.057	125.94
420.28	125.94
420.503	124.94
420.726	126.94
420.948	126.94
421.171	123.94
421.394	129.94
421.617	122.94
421.839	117.94
422.062	132.94
422.285	130.94
422.507	138.94
422.73	132.94
422.953	129.94
423.175	118.94
423.398	125.94
423.621	125.94
423.843	134.94
424.066	127.94
424.288	137.94
424.511	137.94
424.733	139.94
424.956	122.94
425.178	135.94
425.401	139.94
425.623	120.94
425.846	134.94
426.068	142.94
426.291	127.94
426.513	133.94
426.735	133.94
426.958	124.94
427.18	138.94
427.402	139.94
427.625	160.94
427.847	137.94
428.069	143.94
428.292	135.94
428.514	118.94
428.736	138.94
428.958	125.94
429.181	129.94
429.403	133.94
429.625	133.94
429.847	114.94
430.069	111.94
430.292	141.94
430.514	120.94
430.736	118.94
430.958	128.94
431.18	129.94
431.402	127.94
431.624	138.94
431.846	130.94
432.068	121.94
432.29	129.94
432.512	134.94
432.734	131.94
432.956	103.94
433.178	117.94
433.4	123.94
433.622	134.94
433.844	115.94
434.066	125.94
434.287	116.94
434.509	106.94
434.731	121.94
434.953	121.94
435.175	114.94
435.397	129.94
435.618	142.94
435.84	135.94
436.062	134.94
436.284	134.94
436.505	137.94
436.727	119.94
436.949	121.94
437.17	118.94
437.392	127.94
437.614	131.94
437.835	136.94
438.057	129.94
438.278	131.94
438.5	148.94
438.721	144.94
438.943	127.94
439.165	115.94
439.386	129.94
439.608	120.94
439.829	121.94
440.05	127.94
440.272	119.94
440.493	133.94
440.715	132.94
440.936	126.94
441.158	133.94
441.379	130.94
441.6	131.94
441.822	131.94
442.043	128.94
442.264	129.94
442.486	130.94
442.707	139.94
442.928	140.94
443.149	140.94
443.371	120.94
443.592	135.94
443.813	131.94
444.034	148.94
444.255	141.94
444.476	131.94
444.698	140.94
444.919	135.94
445.14	273.94
445.361	192.94
445.582	155.94
445.803	145.94
446.024	142.94
446.245	129.94
446.466	144.94
446.687	127.94
446.908	146.94
447.129	119.94
447.35	111.94
447.571	122.94
447.792	126.94
448.013	126.94
448.234	111.94
448.455	116.94
448.675	133.94
448.896	142.94
449.117	133.94
449.338	126.94
449.559	128.94
449.779	138.94
450	139.94
450.221	114.94
450.442	127.94
450.662	122.94
450.883	113.94
451.104	127.94
451.324	119.94
451.545	124.94
451.766	126.94
451.986	126.94
452.207	118.94
452.428	126.94
452.648	117.94
452.869	124.94
453.089	118.94
453.31	109.94
453.53	110.94
453.751	119.94
453.971	108.94
454.192	110.94
454.412	112.94
454.633	116.94
454.853	114.94
455.073	115.94
455.294	121.94
455.514	119.94
455.734	118.94
455.955	106.94
456.175	113.94
456.395	104.94
456.616	123.94
456.836	109.94
457.056	104.94
457.276	116.94
457.497	113.94
457.717	124.94
457.937	117.94
458.157	124.94
458.377	115.94
458.598	123.94
458.818	118.94
459.038	126.94
459.258	132.94
459.478	109.94
459.698	131.94
459.918	129.94
460.138	122.94
460.358	121.94
460.578	125.94
460.798	125.94
461.018	117.94
461.238	136.94
461.458	139.94
461.678	126.94
461.898	125.94
462.118	124.94
462.338	128.94
462.558	125.94
462.777	122.94
462.997	126.94
463.217	127.94
463.437	142.94
463.657	146.94
463.876	141.94
464.096	127.94
464.316	136.94
464.536	137.94
464.755	119.94
464.975	117.94
465.195	131.94
465.414	131.94
465.634	124.94
465.854	117.94
466.073	120.94
466.293	118.94
466.512	107.94
466.732	125.94
466.951	120.94
467.171	103.94
467.391	122.94
467.61	122.94
467.829	102.94
468.049	119.94
468.268	129.94
468.488	125.94
468.707	125.94
468.927	115.94
469.146	124.94
469.365	127.94
469.585	118.94
469.804	125.94
470.023	120.94
470.243	127.94
470.462	101.94
470.681	133.94
470.901	129.94
471.12	118.94
471.339	126.94
471.558	121.94
471.777	112.94
471.997	112.94
472.216	122.94
472.435	127.94
472.654	130.94
472.873	119.94
473.092	119.94
473.311	117.94
473.53	140.94
473.749	123.94
473.968	119.94
474.187	121.94
474.406	122.94
474.625	126.94
474.844	107.94
475.063	120.94
475.282	110.94
475.501	126.94
475.72	122.94
475.939	127.94
476.158	129.94
476.377	125.94
476.596	111.94
476.814	122.94
477.033	115.94
477.252	113.94
477.471	115.94
477.69	120.94
477.908	118.94
478.127	120.94
478.346	128.94
478.564	137.94
478.783	136.94
479.002	141.94
479.22	124.94
479.439	138.94
479.658	129.94
479.876	140.94
480.095	129.94
480.313	131.94
480.532	142.94
480.751	147.94
480.969	139.94
481.188	130.94
481.406	130.94
481.624	126.94
481.843	122.94
482.061	130.94
482.28	137.94
482.498	138.94
482.717	131.94
482.935	139.94
483.153	124.94
483.372	124.94
483.59	122.94
483.808	122.94
484.027	137.94
484.245	129.94
484.463	134.94
484.681	141.94
484.9	132.94
485.118	132.94
485.336	124.94
485.554	142.94
485.772	135.94
485.99	138.94
486.209	124.94
486.427	117.94
486.645	130.94
486.863	124.94
487.081	133.94
487.299	131.94
487.517	126.94
487.735	123.94
487.953	131.94
488.171	133.94
488.389	123.94
488.607	139.94
488.825	123.94
489.043	124.94
489.261	129.94
489.479	127.94
489.696	136.94
489.914	123.94
490.132	136.94
490.35	139.94
490.568	138.94
490.786	133.94
491.003	129.94
491.221	125.94
491.439	136.94
491.657	135.94
491.874	140.94
492.092	143.94
492.31	139.94
492.527	143.94
492.745	156.94
492.963	151.94
493.18	142.94
493.398	140.94
493.615	149.94
493.833	158.94
494.05	150.94
494.268	148.94
494.485	127.94
494.703	135.94
494.92	146.94
495.138	136.94
495.355	151.94
495.573	149.94
495.79	124.94
496.008	130.94
496.225	135.94
496.442	143.94
496.66	138.94
496.877	131.94
497.094	164.94
497.312	151.94
497.529	150.94
497.746	152.94
497.963	143.94
498.181	140.94
498.398	152.94
498.615	151.94
498.832	162.94
499.049	151.94
499.267	151.94
499.484	185.94
499.701	172.94
499.918	169.94
500.135	200.94
500.352	208.94
500.569	215.94
500.786	200.94
501.003	199.94
501.22	181.94
501.437	164.94
501.654	179.94
501.871	172.94
502.088	160.94
502.305	157.94
502.522	140.94
502.739	157.94
502.956	137.94
503.172	150.94
503.389	155.94
503.606	129.94
503.823	141.94
504.04	139.94
504.256	144.94
504.473	140.94
504.69	132.94
504.907	139.94
505.123	135.94
505.34	139.94
505.557	121.94
505.773	138.94
505.99	135.94
