Data from 1968.PennyLincolnUp.Lamp.En5.5.200Scan.071719.P1._HRD10591_14-49-24-969.txt Node
Date: Thu Jul 18 14:49:24 EDT 2019
User: cochatt
Spectrometer: HR+D1059
Trigger mode: 1
Integration Time (sec): 1.000000E-1
Scans to average: 1
Electric dark correction enabled: true
Nonlinearity correction enabled: false
Boxcar width: 0
XAxis mode: Wavelengths
Number of Pixels in Spectrum: 2048
>>>>>Begin Spectral Data<<<<<
223.165	-31.44
223.4	-31.44
223.635	-31.44
223.869	-19.44
224.104	-25.44
224.338	-10.44
224.573	-11.44
224.808	-8.44
225.042	-2.44
225.277	-13.44
225.511	-5.44
225.746	9.56
225.98	5.56
226.215	20.56
226.449	27.56
226.683	32.56
226.918	4.56
227.152	27.56
227.387	32.56
227.621	28.56
227.856	46.56
228.09	38.56
228.324	41.56
228.559	51.56
228.793	62.56
229.027	60.56
229.262	70.56
229.496	73.56
229.73	56.56
229.964	81.56
230.199	72.56
230.433	102.56
230.667	86.56
230.901	83.56
231.136	74.56
231.37	77.56
231.604	77.56
231.838	80.56
232.072	80.56
232.306	83.56
232.541	86.56
232.775	99.56
233.009	78.56
233.243	91.56
233.477	85.56
233.711	83.56
233.945	86.56
234.179	79.56
234.413	89.56
234.647	80.56
234.881	79.56
235.115	88.56
235.349	74.56
235.583	89.56
235.817	78.56
236.051	76.56
236.285	63.56
236.519	80.56
236.753	83.56
236.987	73.56
237.221	74.56
237.455	92.56
237.689	92.56
237.922	83.56
238.156	88.56
238.39	90.56
238.624	72.56
238.858	78.56
239.091	73.56
239.325	76.56
239.559	82.56
239.793	81.56
240.027	102.56
240.26	81.56
240.494	91.56
240.728	78.56
240.961	87.56
241.195	77.56
241.429	74.56
241.662	72.56
241.896	79.56
242.13	89.56
242.363	86.56
242.597	81.56
242.83	86.56
243.064	64.56
243.298	76.56
243.531	84.56
243.765	84.56
243.998	82.56
244.232	79.56
244.465	82.56
244.699	78.56
244.932	76.56
245.166	86.56
245.399	91.56
245.633	84.56
245.866	83.56
246.099	83.56
246.333	85.56
246.566	83.56
246.8	85.56
247.033	88.56
247.266	88.56
247.5	95.56
247.733	91.56
247.966	91.56
248.2	87.56
248.433	70.56
248.666	79.56
248.899	77.56
249.133	81.56
249.366	84.56
249.599	93.56
249.832	81.56
250.066	93.56
250.299	84.56
250.532	95.56
250.765	81.56
250.998	82.56
251.231	76.56
251.465	83.56
251.698	84.56
251.931	87.56
252.164	91.56
252.397	80.56
252.63	84.56
252.863	87.56
253.096	92.56
253.329	95.56
253.562	84.56
253.795	85.56
254.028	98.56
254.261	106.56
254.494	80.56
254.727	92.56
254.96	89.56
255.193	91.56
255.426	88.56
255.659	100.56
255.892	82.56
256.124	97.56
256.357	95.56
256.59	101.56
256.823	91.56
257.056	78.56
257.289	93.56
257.521	104.56
257.754	96.56
257.987	74.56
258.22	102.56
258.452	91.56
258.685	86.56
258.918	82.56
259.151	82.56
259.383	85.56
259.616	97.56
259.849	77.56
260.081	102.56
260.314	95.56
260.547	98.56
260.779	94.56
261.012	91.56
261.244	84.56
261.477	75.56
261.71	69.56
261.942	96.56
262.175	103.56
262.407	102.56
262.64	91.56
262.872	96.56
263.105	84.56
263.337	89.56
263.57	91.56
263.802	84.56
264.035	90.56
264.267	88.56
264.499	83.56
264.732	91.56
264.964	84.56
265.197	88.56
265.429	96.56
265.661	90.56
265.894	85.56
266.126	101.56
266.358	84.56
266.591	88.56
266.823	94.56
267.055	85.56
267.287	101.56
267.52	94.56
267.752	101.56
267.984	100.56
268.216	100.56
268.448	81.56
268.681	92.56
268.913	89.56
269.145	109.56
269.377	92.56
269.609	96.56
269.841	100.56
270.073	91.56
270.306	90.56
270.538	96.56
270.77	91.56
271.002	89.56
271.234	88.56
271.466	93.56
271.698	87.56
271.93	84.56
272.162	81.56
272.394	98.56
272.626	93.56
272.858	97.56
273.09	107.56
273.322	105.56
273.553	97.56
273.785	95.56
274.017	107.56
274.249	89.56
274.481	91.56
274.713	107.56
274.945	92.56
275.176	105.56
275.408	99.56
275.64	100.56
275.872	92.56
276.104	105.56
276.335	102.56
276.567	90.56
276.799	114.56
277.031	104.56
277.262	99.56
277.494	107.56
277.726	89.56
277.957	82.56
278.189	94.56
278.421	84.56
278.652	98.56
278.884	105.56
279.115	101.56
279.347	114.56
279.579	95.56
279.81	86.56
280.042	89.56
280.273	95.56
280.505	81.56
280.736	99.56
280.968	104.56
281.199	96.56
281.431	113.56
281.662	86.56
281.894	95.56
282.125	112.56
282.356	97.56
282.588	91.56
282.819	105.56
283.051	99.56
283.282	107.56
283.513	114.56
283.745	108.56
283.976	92.56
284.207	91.56
284.439	91.56
284.67	113.56
284.901	100.56
285.132	99.56
285.364	93.56
285.595	97.56
285.826	94.56
286.057	96.56
286.288	95.56
286.52	94.56
286.751	95.56
286.982	82.56
287.213	102.56
287.444	99.56
287.675	100.56
287.906	100.56
288.138	98.56
288.369	103.56
288.6	87.56
288.831	96.56
289.062	100.56
289.293	100.56
289.524	84.56
289.755	101.56
289.986	96.56
290.217	95.56
290.448	99.56
290.679	103.56
290.91	90.56
291.141	105.56
291.371	114.56
291.602	109.56
291.833	112.56
292.064	97.56
292.295	86.56
292.526	98.56
292.757	90.56
292.987	99.56
293.218	115.56
293.449	88.56
293.68	104.56
293.91	99.56
294.141	96.56
294.372	109.56
294.603	109.56
294.833	94.56
295.064	96.56
295.295	95.56
295.525	94.56
295.756	102.56
295.987	96.56
296.217	108.56
296.448	100.56
296.679	107.56
296.909	101.56
297.14	104.56
297.37	103.56
297.601	93.56
297.831	95.56
298.062	103.56
298.292	99.56
298.523	107.56
298.753	101.56
298.984	97.56
299.214	106.56
299.445	97.56
299.675	103.56
299.905	103.56
300.136	93.56
300.366	113.56
300.597	86.56
300.827	93.56
301.057	96.56
301.288	119.56
301.518	92.56
301.748	86.56
301.979	104.56
302.209	104.56
302.439	104.56
302.669	105.56
302.9	104.56
303.13	87.56
303.36	112.56
303.59	103.56
303.82	105.56
304.051	102.56
304.281	90.56
304.511	95.56
304.741	117.56
304.971	94.56
305.201	105.56
305.431	93.56
305.661	96.56
305.891	102.56
306.121	108.56
306.352	97.56
306.582	104.56
306.812	108.56
307.042	109.56
307.272	107.56
307.502	105.56
307.731	110.56
307.961	102.56
308.191	96.56
308.421	117.56
308.651	115.56
308.881	116.56
309.111	110.56
309.341	106.56
309.571	100.56
309.8	102.56
310.03	118.56
310.26	108.56
310.49	109.56
310.72	107.56
310.949	107.56
311.179	103.56
311.409	104.56
311.639	112.56
311.868	98.56
312.098	91.56
312.328	100.56
312.557	93.56
312.787	109.56
313.017	108.56
313.246	101.56
313.476	102.56
313.706	99.56
313.935	105.56
314.165	92.56
314.394	109.56
314.624	95.56
314.853	106.56
315.083	91.56
315.312	90.56
315.542	121.56
315.771	100.56
316.001	104.56
316.23	105.56
316.46	101.56
316.689	97.56
316.919	106.56
317.148	112.56
317.377	98.56
317.607	98.56
317.836	104.56
318.065	97.56
318.295	125.56
318.524	106.56
318.753	96.56
318.983	105.56
319.212	104.56
319.441	89.56
319.67	105.56
319.9	91.56
320.129	104.56
320.358	88.56
320.587	106.56
320.816	105.56
321.046	105.56
321.275	98.56
321.504	109.56
321.733	96.56
321.962	112.56
322.191	113.56
322.42	109.56
322.649	104.56
322.878	102.56
323.108	118.56
323.337	99.56
323.566	112.56
323.795	128.56
324.024	103.56
324.253	121.56
324.482	125.56
324.71	140.56
324.939	160.56
325.168	141.56
325.397	107.56
325.626	95.56
325.855	104.56
326.084	116.56
326.313	115.56
326.542	109.56
326.77	119.56
326.999	117.56
327.228	109.56
327.457	134.56
327.686	142.56
327.914	130.56
328.143	125.56
328.372	108.56
328.6	119.56
328.829	112.56
329.058	98.56
329.287	110.56
329.515	114.56
329.744	111.56
329.972	109.56
330.201	116.56
330.43	100.56
330.658	122.56
330.887	109.56
331.115	112.56
331.344	108.56
331.572	118.56
331.801	116.56
332.03	125.56
332.258	108.56
332.486	125.56
332.715	122.56
332.943	118.56
333.172	113.56
333.4	117.56
333.629	97.56
333.857	113.56
334.085	104.56
334.314	114.56
334.542	114.56
334.771	122.56
334.999	122.56
335.227	114.56
335.455	110.56
335.684	118.56
335.912	108.56
336.14	99.56
336.369	106.56
336.597	107.56
336.825	117.56
337.053	110.56
337.281	120.56
337.51	118.56
337.738	116.56
337.966	120.56
338.194	108.56
338.422	114.56
338.65	112.56
338.878	107.56
339.106	116.56
339.334	109.56
339.562	114.56
339.79	109.56
340.018	86.56
340.246	113.56
340.474	116.56
340.702	116.56
340.93	120.56
341.158	118.56
341.386	115.56
341.614	105.56
341.842	102.56
342.07	107.56
342.298	125.56
342.526	117.56
342.754	108.56
342.981	117.56
343.209	124.56
343.437	121.56
343.665	98.56
343.893	122.56
344.12	126.56
344.348	131.56
344.576	106.56
344.804	87.56
345.031	117.56
345.259	104.56
345.487	122.56
345.714	106.56
345.942	112.56
346.17	113.56
346.397	105.56
346.625	98.56
346.853	103.56
347.08	110.56
347.308	114.56
347.535	93.56
347.763	112.56
347.99	110.56
348.218	120.56
348.445	118.56
348.673	115.56
348.9	118.56
349.128	108.56
349.355	116.56
349.583	113.56
349.81	110.56
350.037	98.56
350.265	101.56
350.492	110.56
350.72	108.56
350.947	119.56
351.174	109.56
351.402	112.56
351.629	105.56
351.856	106.56
352.083	112.56
352.311	116.56
352.538	107.56
352.765	102.56
352.992	111.56
353.22	117.56
353.447	104.56
353.674	107.56
353.901	125.56
354.128	120.56
354.355	110.56
354.583	116.56
354.81	100.56
355.037	120.56
355.264	100.56
355.491	105.56
355.718	109.56
355.945	106.56
356.172	113.56
356.399	106.56
356.626	90.56
356.853	98.56
357.08	106.56
357.307	108.56
357.534	111.56
357.761	123.56
357.988	103.56
358.215	115.56
358.441	117.56
358.668	111.56
358.895	118.56
359.122	107.56
359.349	115.56
359.576	120.56
359.802	99.56
360.029	105.56
360.256	125.56
360.483	112.56
360.709	90.56
360.936	113.56
361.163	116.56
361.39	111.56
361.616	124.56
361.843	107.56
362.07	120.56
362.296	103.56
362.523	103.56
362.749	109.56
362.976	106.56
363.203	112.56
363.429	102.56
363.656	120.56
363.882	122.56
364.109	96.56
364.335	114.56
364.562	106.56
364.788	118.56
365.015	98.56
365.241	103.56
365.468	118.56
365.694	112.56
365.92	100.56
366.147	112.56
366.373	100.56
366.599	97.56
366.826	103.56
367.052	119.56
367.278	110.56
367.505	109.56
367.731	119.56
367.957	107.56
368.184	117.56
368.41	105.56
368.636	110.56
368.862	117.56
369.089	104.56
369.315	104.56
369.541	107.56
369.767	100.56
369.993	119.56
370.219	124.56
370.445	115.56
370.672	106.56
370.898	97.56
371.124	115.56
371.35	119.56
371.576	120.56
371.802	128.56
372.028	108.56
372.254	107.56
372.48	120.56
372.706	106.56
372.932	101.56
373.158	118.56
373.384	123.56
373.61	114.56
373.835	111.56
374.061	114.56
374.287	128.56
374.513	119.56
374.739	107.56
374.965	116.56
375.191	114.56
375.416	119.56
375.642	105.56
375.868	111.56
376.094	122.56
376.319	105.56
376.545	112.56
376.771	112.56
376.997	129.56
377.222	108.56
377.448	108.56
377.674	100.56
377.899	121.56
378.125	104.56
378.35	113.56
378.576	112.56
378.802	119.56
379.027	122.56
379.253	117.56
379.478	122.56
379.704	127.56
379.929	109.56
380.155	117.56
380.38	110.56
380.606	97.56
380.831	99.56
381.057	109.56
381.282	106.56
381.507	112.56
381.733	107.56
381.958	119.56
382.184	115.56
382.409	124.56
382.634	114.56
382.86	116.56
383.085	124.56
383.31	121.56
383.535	117.56
383.761	102.56
383.986	120.56
384.211	110.56
384.436	120.56
384.662	130.56
384.887	116.56
385.112	121.56
385.337	122.56
385.562	110.56
385.787	123.56
386.013	130.56
386.238	116.56
386.463	100.56
386.688	119.56
386.913	118.56
387.138	117.56
387.363	122.56
387.588	116.56
387.813	115.56
388.038	100.56
388.263	121.56
388.488	89.56
388.713	117.56
388.938	112.56
389.163	108.56
389.387	112.56
389.612	120.56
389.837	135.56
390.062	108.56
390.287	115.56
390.512	114.56
390.736	124.56
390.961	117.56
391.186	109.56
391.411	122.56
391.636	109.56
391.86	114.56
392.085	119.56
392.31	121.56
392.534	127.56
392.759	133.56
392.984	122.56
393.208	113.56
393.433	109.56
393.658	115.56
393.882	104.56
394.107	120.56
394.331	120.56
394.556	124.56
394.78	117.56
395.005	118.56
395.229	119.56
395.454	118.56
395.678	128.56
395.903	117.56
396.127	116.56
396.352	121.56
396.576	116.56
396.801	103.56
397.025	114.56
397.249	101.56
397.474	113.56
397.698	128.56
397.922	116.56
398.147	126.56
398.371	129.56
398.595	125.56
398.82	132.56
399.044	124.56
399.268	120.56
399.492	150.56
399.717	137.56
399.941	140.56
400.165	129.56
400.389	130.56
400.613	133.56
400.837	118.56
401.062	115.56
401.286	118.56
401.51	131.56
401.734	127.56
401.958	113.56
402.182	126.56
402.406	124.56
402.63	134.56
402.854	126.56
403.078	122.56
403.302	122.56
403.526	135.56
403.75	118.56
403.974	139.56
404.198	133.56
404.422	122.56
404.645	124.56
404.869	125.56
405.093	142.56
405.317	131.56
405.541	124.56
405.765	135.56
405.988	122.56
406.212	132.56
406.436	142.56
406.66	140.56
406.883	133.56
407.107	138.56
407.331	152.56
407.555	126.56
407.778	131.56
408.002	144.56
408.226	140.56
408.449	134.56
408.673	135.56
408.896	136.56
409.12	136.56
409.344	141.56
409.567	126.56
409.791	130.56
410.014	146.56
410.238	132.56
410.461	136.56
410.685	138.56
410.908	115.56
411.132	132.56
411.355	125.56
411.578	131.56
411.802	118.56
412.025	128.56
412.249	142.56
412.472	132.56
412.695	118.56
412.919	126.56
413.142	141.56
413.365	128.56
413.589	120.56
413.812	119.56
414.035	125.56
414.258	124.56
414.482	122.56
414.705	124.56
414.928	118.56
415.151	115.56
415.374	124.56
415.597	132.56
415.821	120.56
416.044	119.56
416.267	112.56
416.49	136.56
416.713	120.56
416.936	133.56
417.159	121.56
417.382	106.56
417.605	123.56
417.828	146.56
418.051	131.56
418.274	139.56
418.497	127.56
418.72	134.56
418.943	122.56
419.166	133.56
419.389	124.56
419.611	125.56
419.834	122.56
420.057	124.56
420.28	125.56
420.503	113.56
420.726	145.56
420.948	137.56
421.171	124.56
421.394	124.56
421.617	126.56
421.839	123.56
422.062	127.56
422.285	140.56
422.507	133.56
422.73	132.56
422.953	134.56
423.175	146.56
423.398	132.56
423.621	124.56
423.843	137.56
424.066	132.56
424.288	132.56
424.511	138.56
424.733	120.56
424.956	124.56
425.178	136.56
425.401	118.56
425.623	126.56
425.846	143.56
426.068	132.56
426.291	120.56
426.513	119.56
426.735	121.56
426.958	103.56
427.18	139.56
427.402	135.56
427.625	136.56
427.847	129.56
428.069	139.56
428.292	117.56
428.514	123.56
428.736	128.56
428.958	109.56
429.181	123.56
429.403	136.56
429.625	112.56
429.847	122.56
430.069	130.56
430.292	141.56
430.514	113.56
430.736	127.56
430.958	129.56
431.18	126.56
431.402	116.56
431.624	124.56
431.846	114.56
432.068	114.56
432.29	139.56
432.512	134.56
432.734	105.56
432.956	147.56
433.178	122.56
433.4	121.56
433.622	129.56
433.844	108.56
434.066	130.56
434.287	123.56
434.509	114.56
434.731	125.56
434.953	119.56
435.175	112.56
435.397	112.56
435.618	123.56
435.84	134.56
436.062	137.56
436.284	134.56
436.505	126.56
436.727	118.56
436.949	118.56
437.17	125.56
437.392	123.56
437.614	116.56
437.835	121.56
438.057	113.56
438.278	136.56
438.5	137.56
438.721	124.56
438.943	120.56
439.165	132.56
439.386	114.56
439.608	125.56
439.829	137.56
440.05	128.56
440.272	128.56
440.493	130.56
440.715	125.56
440.936	135.56
441.158	138.56
441.379	118.56
441.6	119.56
441.822	134.56
442.043	134.56
442.264	121.56
442.486	125.56
442.707	145.56
442.928	122.56
443.149	129.56
443.371	149.56
443.592	122.56
443.813	130.56
444.034	133.56
444.255	141.56
444.476	128.56
444.698	138.56
444.919	132.56
445.14	266.56
445.361	182.56
445.582	129.56
445.803	129.56
446.024	130.56
446.245	123.56
446.466	125.56
446.687	126.56
446.908	124.56
447.129	120.56
447.35	126.56
447.571	122.56
447.792	128.56
448.013	128.56
448.234	133.56
448.455	128.56
448.675	128.56
448.896	133.56
449.117	139.56
449.338	127.56
449.559	145.56
449.779	128.56
450	139.56
450.221	127.56
450.442	122.56
450.662	123.56
450.883	116.56
451.104	115.56
451.324	137.56
451.545	124.56
451.766	121.56
451.986	120.56
452.207	116.56
452.428	120.56
452.648	133.56
452.869	113.56
453.089	120.56
453.31	107.56
453.53	111.56
453.751	116.56
453.971	120.56
454.192	118.56
454.412	112.56
454.633	119.56
454.853	109.56
455.073	113.56
455.294	104.56
455.514	124.56
455.734	114.56
455.955	107.56
456.175	114.56
456.395	108.56
456.616	115.56
456.836	118.56
457.056	112.56
457.276	107.56
457.497	123.56
457.717	106.56
457.937	120.56
458.157	109.56
458.377	116.56
458.598	107.56
458.818	104.56
459.038	117.56
459.258	124.56
459.478	123.56
459.698	108.56
459.918	117.56
460.138	104.56
460.358	128.56
460.578	132.56
460.798	125.56
461.018	124.56
461.238	112.56
461.458	123.56
461.678	124.56
461.898	126.56
462.118	128.56
462.338	136.56
462.558	117.56
462.777	137.56
462.997	149.56
463.217	146.56
463.437	131.56
463.657	139.56
463.876	143.56
464.096	129.56
464.316	130.56
464.536	142.56
464.755	131.56
464.975	123.56
465.195	135.56
465.414	126.56
465.634	126.56
465.854	112.56
466.073	105.56
466.293	125.56
466.512	131.56
466.732	135.56
466.951	130.56
467.171	121.56
467.391	126.56
467.61	115.56
467.829	115.56
468.049	104.56
468.268	116.56
468.488	118.56
468.707	112.56
468.927	122.56
469.146	119.56
469.365	132.56
469.585	137.56
469.804	120.56
470.023	135.56
470.243	121.56
470.462	132.56
470.681	148.56
470.901	111.56
471.12	122.56
471.339	128.56
471.558	119.56
471.777	128.56
471.997	121.56
472.216	122.56
472.435	125.56
472.654	128.56
472.873	117.56
473.092	126.56
473.311	126.56
473.53	120.56
473.749	130.56
473.968	138.56
474.187	117.56
474.406	109.56
474.625	125.56
474.844	120.56
475.063	123.56
475.282	121.56
475.501	117.56
475.72	114.56
475.939	117.56
476.158	129.56
476.377	118.56
476.596	119.56
476.814	114.56
477.033	132.56
477.252	129.56
477.471	106.56
477.69	125.56
477.908	109.56
478.127	122.56
478.346	128.56
478.564	128.56
478.783	128.56
479.002	132.56
479.22	123.56
479.439	127.56
479.658	138.56
479.876	129.56
480.095	131.56
480.313	130.56
480.532	130.56
480.751	131.56
480.969	134.56
481.188	125.56
481.406	132.56
481.624	142.56
481.843	122.56
482.061	133.56
482.28	138.56
482.498	134.56
482.717	124.56
482.935	120.56
483.153	117.56
483.372	116.56
483.59	131.56
483.808	117.56
484.027	132.56
484.245	138.56
484.463	132.56
484.681	145.56
484.9	126.56
485.118	127.56
485.336	124.56
485.554	126.56
485.772	131.56
485.99	128.56
486.209	126.56
486.427	124.56
486.645	120.56
486.863	138.56
487.081	139.56
487.299	123.56
487.517	139.56
487.735	133.56
487.953	132.56
488.171	118.56
488.389	126.56
488.607	137.56
488.825	134.56
489.043	130.56
489.261	125.56
489.479	126.56
489.696	138.56
489.914	128.56
490.132	137.56
490.35	146.56
490.568	138.56
490.786	121.56
491.003	140.56
491.221	129.56
491.439	136.56
491.657	139.56
491.874	135.56
492.092	150.56
492.31	150.56
492.527	149.56
492.745	146.56
492.963	141.56
493.18	132.56
493.398	153.56
493.615	132.56
493.833	144.56
494.05	144.56
494.268	142.56
494.485	130.56
494.703	148.56
494.92	142.56
495.138	146.56
495.355	137.56
495.573	130.56
495.79	142.56
496.008	143.56
496.225	146.56
496.442	148.56
496.66	140.56
496.877	142.56
497.094	149.56
497.312	141.56
497.529	150.56
497.746	143.56
497.963	150.56
498.181	152.56
498.398	148.56
498.615	165.56
498.832	171.56
499.049	162.56
499.267	152.56
499.484	160.56
499.701	170.56
499.918	185.56
500.135	184.56
500.352	218.56
500.569	214.56
500.786	212.56
501.003	199.56
501.22	200.56
501.437	189.56
501.654	194.56
501.871	169.56
502.088	164.56
502.305	150.56
502.522	161.56
502.739	149.56
502.956	157.56
503.172	140.56
503.389	152.56
503.606	138.56
503.823	157.56
504.04	148.56
504.256	152.56
504.473	133.56
504.69	140.56
504.907	141.56
505.123	142.56
505.34	137.56
505.557	122.56
505.773	142.56
505.99	151.56
