Data from 1968.PennyLincolnUp.Lamp.En5.5.200Scan.071719.P1._HRD10591_14-49-44-969.txt Node
Date: Thu Jul 18 14:49:44 EDT 2019
User: cochatt
Spectrometer: HR+D1059
Trigger mode: 1
Integration Time (sec): 1.000000E-1
Scans to average: 1
Electric dark correction enabled: true
Nonlinearity correction enabled: false
Boxcar width: 0
XAxis mode: Wavelengths
Number of Pixels in Spectrum: 2048
>>>>>Begin Spectral Data<<<<<
223.165	-15.5
223.4	-15.5
223.635	-15.5
223.869	-13.5
224.104	-16.5
224.338	-8.5
224.573	-11.5
224.808	-22.5
225.042	-10.5
225.277	-2.5
225.511	-7.5
225.746	2.5
225.98	3.5
226.215	3.5
226.449	24.5
226.683	9.5
226.918	29.5
227.152	35.5
227.387	42.5
227.621	49.5
227.856	42.5
228.09	53.5
228.324	42.5
228.559	60.5
228.793	62.5
229.027	53.5
229.262	72.5
229.496	67.5
229.73	66.5
229.964	76.5
230.199	77.5
230.433	92.5
230.667	84.5
230.901	88.5
231.136	84.5
231.37	90.5
231.604	66.5
231.838	92.5
232.072	96.5
232.306	86.5
232.541	80.5
232.775	86.5
233.009	89.5
233.243	87.5
233.477	94.5
233.711	85.5
233.945	89.5
234.179	79.5
234.413	100.5
234.647	98.5
234.881	82.5
235.115	76.5
235.349	86.5
235.583	84.5
235.817	78.5
236.051	81.5
236.285	93.5
236.519	91.5
236.753	85.5
236.987	86.5
237.221	90.5
237.455	83.5
237.689	70.5
237.922	95.5
238.156	89.5
238.39	88.5
238.624	86.5
238.858	70.5
239.091	76.5
239.325	80.5
239.559	83.5
239.793	77.5
240.027	79.5
240.26	87.5
240.494	108.5
240.728	81.5
240.961	79.5
241.195	79.5
241.429	84.5
241.662	86.5
241.896	81.5
242.13	90.5
242.363	91.5
242.597	96.5
242.83	89.5
243.064	85.5
243.298	85.5
243.531	77.5
243.765	85.5
243.998	93.5
244.232	87.5
244.465	96.5
244.699	69.5
244.932	80.5
245.166	89.5
245.399	105.5
245.633	102.5
245.866	97.5
246.099	89.5
246.333	88.5
246.566	73.5
246.8	99.5
247.033	87.5
247.266	88.5
247.5	87.5
247.733	90.5
247.966	88.5
248.2	85.5
248.433	90.5
248.666	70.5
248.899	99.5
249.133	94.5
249.366	86.5
249.599	89.5
249.832	91.5
250.066	90.5
250.299	93.5
250.532	101.5
250.765	85.5
250.998	89.5
251.231	84.5
251.465	81.5
251.698	86.5
251.931	89.5
252.164	85.5
252.397	94.5
252.63	100.5
252.863	92.5
253.096	90.5
253.329	95.5
253.562	90.5
253.795	82.5
254.028	100.5
254.261	85.5
254.494	89.5
254.727	98.5
254.96	92.5
255.193	93.5
255.426	83.5
255.659	83.5
255.892	97.5
256.124	102.5
256.357	81.5
256.59	80.5
256.823	85.5
257.056	98.5
257.289	74.5
257.521	113.5
257.754	90.5
257.987	84.5
258.22	95.5
258.452	92.5
258.685	94.5
258.918	93.5
259.151	105.5
259.383	96.5
259.616	85.5
259.849	100.5
260.081	88.5
260.314	83.5
260.547	80.5
260.779	93.5
261.012	92.5
261.244	91.5
261.477	97.5
261.71	91.5
261.942	105.5
262.175	86.5
262.407	91.5
262.64	90.5
262.872	85.5
263.105	109.5
263.337	101.5
263.57	101.5
263.802	102.5
264.035	92.5
264.267	104.5
264.499	102.5
264.732	97.5
264.964	106.5
265.197	101.5
265.429	86.5
265.661	105.5
265.894	105.5
266.126	93.5
266.358	89.5
266.591	111.5
266.823	95.5
267.055	98.5
267.287	93.5
267.52	85.5
267.752	98.5
267.984	95.5
268.216	99.5
268.448	98.5
268.681	114.5
268.913	92.5
269.145	116.5
269.377	100.5
269.609	95.5
269.841	108.5
270.073	89.5
270.306	91.5
270.538	104.5
270.77	98.5
271.002	112.5
271.234	97.5
271.466	112.5
271.698	96.5
271.93	107.5
272.162	85.5
272.394	113.5
272.626	105.5
272.858	104.5
273.09	97.5
273.322	101.5
273.553	92.5
273.785	103.5
274.017	105.5
274.249	104.5
274.481	97.5
274.713	110.5
274.945	95.5
275.176	90.5
275.408	108.5
275.64	108.5
275.872	94.5
276.104	101.5
276.335	109.5
276.567	108.5
276.799	111.5
277.031	90.5
277.262	83.5
277.494	105.5
277.726	118.5
277.957	103.5
278.189	100.5
278.421	111.5
278.652	109.5
278.884	95.5
279.115	104.5
279.347	94.5
279.579	112.5
279.81	96.5
280.042	89.5
280.273	85.5
280.505	83.5
280.736	82.5
280.968	94.5
281.199	105.5
281.431	108.5
281.662	107.5
281.894	105.5
282.125	94.5
282.356	100.5
282.588	117.5
282.819	104.5
283.051	88.5
283.282	94.5
283.513	103.5
283.745	103.5
283.976	107.5
284.207	103.5
284.439	113.5
284.67	102.5
284.901	103.5
285.132	102.5
285.364	113.5
285.595	86.5
285.826	102.5
286.057	87.5
286.288	104.5
286.52	116.5
286.751	113.5
286.982	99.5
287.213	97.5
287.444	103.5
287.675	97.5
287.906	103.5
288.138	103.5
288.369	101.5
288.6	88.5
288.831	91.5
289.062	109.5
289.293	116.5
289.524	103.5
289.755	109.5
289.986	99.5
290.217	117.5
290.448	104.5
290.679	96.5
290.91	102.5
291.141	114.5
291.371	89.5
291.602	120.5
291.833	120.5
292.064	103.5
292.295	102.5
292.526	106.5
292.757	96.5
292.987	109.5
293.218	102.5
293.449	108.5
293.68	104.5
293.91	91.5
294.141	109.5
294.372	108.5
294.603	92.5
294.833	100.5
295.064	90.5
295.295	90.5
295.525	103.5
295.756	109.5
295.987	95.5
296.217	98.5
296.448	103.5
296.679	115.5
296.909	97.5
297.14	111.5
297.37	110.5
297.601	110.5
297.831	104.5
298.062	106.5
298.292	107.5
298.523	92.5
298.753	94.5
298.984	110.5
299.214	107.5
299.445	100.5
299.675	96.5
299.905	108.5
300.136	111.5
300.366	106.5
300.597	108.5
300.827	97.5
301.057	91.5
301.288	103.5
301.518	111.5
301.748	121.5
301.979	110.5
302.209	112.5
302.439	112.5
302.669	103.5
302.9	108.5
303.13	99.5
303.36	108.5
303.59	127.5
303.82	108.5
304.051	112.5
304.281	110.5
304.511	99.5
304.741	100.5
304.971	122.5
305.201	107.5
305.431	98.5
305.661	112.5
305.891	129.5
306.121	113.5
306.352	120.5
306.582	100.5
306.812	116.5
307.042	110.5
307.272	107.5
307.502	110.5
307.731	127.5
307.961	113.5
308.191	113.5
308.421	114.5
308.651	102.5
308.881	107.5
309.111	116.5
309.341	102.5
309.571	99.5
309.8	99.5
310.03	108.5
310.26	117.5
310.49	118.5
310.72	121.5
310.949	113.5
311.179	118.5
311.409	98.5
311.639	114.5
311.868	120.5
312.098	109.5
312.328	117.5
312.557	114.5
312.787	125.5
313.017	118.5
313.246	119.5
313.476	126.5
313.706	98.5
313.935	116.5
314.165	110.5
314.394	117.5
314.624	103.5
314.853	119.5
315.083	121.5
315.312	118.5
315.542	113.5
315.771	103.5
316.001	122.5
316.23	104.5
316.46	130.5
316.689	114.5
316.919	110.5
317.148	119.5
317.377	110.5
317.607	112.5
317.836	112.5
318.065	101.5
318.295	101.5
318.524	105.5
318.753	109.5
318.983	113.5
319.212	117.5
319.441	109.5
319.67	109.5
319.9	118.5
320.129	108.5
320.358	121.5
320.587	104.5
320.816	116.5
321.046	119.5
321.275	97.5
321.504	115.5
321.733	118.5
321.962	82.5
322.191	117.5
322.42	110.5
322.649	108.5
322.878	112.5
323.108	113.5
323.337	124.5
323.566	95.5
323.795	123.5
324.024	122.5
324.253	122.5
324.482	127.5
324.71	144.5
324.939	162.5
325.168	145.5
325.397	113.5
325.626	118.5
325.855	122.5
326.084	106.5
326.313	119.5
326.542	133.5
326.77	123.5
326.999	101.5
327.228	143.5
327.457	132.5
327.686	160.5
327.914	129.5
328.143	119.5
328.372	123.5
328.6	128.5
328.829	120.5
329.058	133.5
329.287	117.5
329.515	121.5
329.744	110.5
329.972	105.5
330.201	104.5
330.43	122.5
330.658	136.5
330.887	124.5
331.115	126.5
331.344	104.5
331.572	130.5
331.801	130.5
332.03	117.5
332.258	99.5
332.486	105.5
332.715	113.5
332.943	131.5
333.172	122.5
333.4	129.5
333.629	124.5
333.857	121.5
334.085	127.5
334.314	124.5
334.542	127.5
334.771	129.5
334.999	124.5
335.227	121.5
335.455	117.5
335.684	110.5
335.912	108.5
336.14	125.5
336.369	124.5
336.597	119.5
336.825	114.5
337.053	113.5
337.281	118.5
337.51	108.5
337.738	132.5
337.966	129.5
338.194	137.5
338.422	122.5
338.65	100.5
338.878	108.5
339.106	113.5
339.334	115.5
339.562	120.5
339.79	123.5
340.018	102.5
340.246	110.5
340.474	127.5
340.702	118.5
340.93	105.5
341.158	122.5
341.386	98.5
341.614	110.5
341.842	111.5
342.07	106.5
342.298	123.5
342.526	121.5
342.754	115.5
342.981	124.5
343.209	114.5
343.437	122.5
343.665	119.5
343.893	112.5
344.12	113.5
344.348	130.5
344.576	108.5
344.804	124.5
345.031	100.5
345.259	117.5
345.487	113.5
345.714	120.5
345.942	93.5
346.17	116.5
346.397	106.5
346.625	123.5
346.853	120.5
347.08	114.5
347.308	130.5
347.535	111.5
347.763	118.5
347.99	100.5
348.218	101.5
348.445	121.5
348.673	120.5
348.9	106.5
349.128	128.5
349.355	113.5
349.583	120.5
349.81	100.5
350.037	112.5
350.265	101.5
350.492	104.5
350.72	123.5
350.947	111.5
351.174	118.5
351.402	129.5
351.629	115.5
351.856	118.5
352.083	119.5
352.311	120.5
352.538	113.5
352.765	109.5
352.992	118.5
353.22	113.5
353.447	109.5
353.674	122.5
353.901	120.5
354.128	108.5
354.355	114.5
354.583	95.5
354.81	104.5
355.037	110.5
355.264	107.5
355.491	116.5
355.718	114.5
355.945	122.5
356.172	111.5
356.399	113.5
356.626	116.5
356.853	118.5
357.08	117.5
357.307	117.5
357.534	108.5
357.761	106.5
357.988	107.5
358.215	120.5
358.441	119.5
358.668	107.5
358.895	105.5
359.122	120.5
359.349	109.5
359.576	124.5
359.802	109.5
360.029	109.5
360.256	127.5
360.483	120.5
360.709	118.5
360.936	110.5
361.163	112.5
361.39	109.5
361.616	114.5
361.843	117.5
362.07	125.5
362.296	116.5
362.523	111.5
362.749	114.5
362.976	111.5
363.203	127.5
363.429	108.5
363.656	125.5
363.882	117.5
364.109	127.5
364.335	118.5
364.562	124.5
364.788	113.5
365.015	119.5
365.241	110.5
365.468	102.5
365.694	132.5
365.92	127.5
366.147	98.5
366.373	107.5
366.599	116.5
366.826	120.5
367.052	111.5
367.278	108.5
367.505	97.5
367.731	124.5
367.957	106.5
368.184	116.5
368.41	122.5
368.636	110.5
368.862	113.5
369.089	119.5
369.315	102.5
369.541	114.5
369.767	119.5
369.993	111.5
370.219	126.5
370.445	95.5
370.672	108.5
370.898	118.5
371.124	117.5
371.35	113.5
371.576	106.5
371.802	101.5
372.028	106.5
372.254	125.5
372.48	120.5
372.706	109.5
372.932	116.5
373.158	123.5
373.384	133.5
373.61	127.5
373.835	117.5
374.061	119.5
374.287	116.5
374.513	123.5
374.739	121.5
374.965	119.5
375.191	133.5
375.416	129.5
375.642	120.5
375.868	124.5
376.094	101.5
376.319	116.5
376.545	117.5
376.771	117.5
376.997	116.5
377.222	103.5
377.448	123.5
377.674	120.5
377.899	114.5
378.125	117.5
378.35	132.5
378.576	115.5
378.802	122.5
379.027	114.5
379.253	116.5
379.478	122.5
379.704	105.5
379.929	114.5
380.155	116.5
380.38	119.5
380.606	121.5
380.831	119.5
381.057	123.5
381.282	104.5
381.507	121.5
381.733	123.5
381.958	120.5
382.184	112.5
382.409	128.5
382.634	112.5
382.86	118.5
383.085	129.5
383.31	125.5
383.535	136.5
383.761	135.5
383.986	126.5
384.211	118.5
384.436	109.5
384.662	129.5
384.887	119.5
385.112	124.5
385.337	136.5
385.562	126.5
385.787	128.5
386.013	124.5
386.238	124.5
386.463	119.5
386.688	118.5
386.913	116.5
387.138	121.5
387.363	122.5
387.588	125.5
387.813	127.5
388.038	111.5
388.263	120.5
388.488	117.5
388.713	116.5
388.938	112.5
389.163	118.5
389.387	114.5
389.612	107.5
389.837	115.5
390.062	116.5
390.287	117.5
390.512	122.5
390.736	116.5
390.961	106.5
391.186	108.5
391.411	111.5
391.636	107.5
391.86	124.5
392.085	118.5
392.31	113.5
392.534	127.5
392.759	132.5
392.984	133.5
393.208	132.5
393.433	134.5
393.658	123.5
393.882	132.5
394.107	121.5
394.331	124.5
394.556	110.5
394.78	126.5
395.005	126.5
395.229	129.5
395.454	137.5
395.678	122.5
395.903	112.5
396.127	125.5
396.352	117.5
396.576	119.5
396.801	132.5
397.025	120.5
397.249	124.5
397.474	126.5
397.698	123.5
397.922	130.5
398.147	129.5
398.371	120.5
398.595	130.5
398.82	136.5
399.044	143.5
399.268	141.5
399.492	146.5
399.717	158.5
399.941	149.5
400.165	146.5
400.389	140.5
400.613	138.5
400.837	152.5
401.062	129.5
401.286	112.5
401.51	119.5
401.734	127.5
401.958	141.5
402.182	138.5
402.406	151.5
402.63	135.5
402.854	127.5
403.078	130.5
403.302	140.5
403.526	138.5
403.75	142.5
403.974	139.5
404.198	136.5
404.422	143.5
404.645	145.5
404.869	132.5
405.093	142.5
405.317	138.5
405.541	146.5
405.765	141.5
405.988	131.5
406.212	136.5
406.436	121.5
406.66	133.5
406.883	151.5
407.107	138.5
407.331	157.5
407.555	148.5
407.778	139.5
408.002	132.5
408.226	128.5
408.449	143.5
408.673	134.5
408.896	144.5
409.12	136.5
409.344	143.5
409.567	133.5
409.791	135.5
410.014	129.5
410.238	135.5
410.461	129.5
410.685	137.5
410.908	136.5
411.132	127.5
411.355	136.5
411.578	136.5
411.802	131.5
412.025	116.5
412.249	132.5
412.472	121.5
412.695	133.5
412.919	149.5
413.142	138.5
413.365	132.5
413.589	134.5
413.812	129.5
414.035	124.5
414.258	134.5
414.482	130.5
414.705	137.5
414.928	138.5
415.151	128.5
415.374	139.5
415.597	125.5
415.821	123.5
416.044	126.5
416.267	125.5
416.49	131.5
416.713	140.5
416.936	117.5
417.159	119.5
417.382	137.5
417.605	143.5
417.828	126.5
418.051	137.5
418.274	134.5
418.497	136.5
418.72	139.5
418.943	142.5
419.166	135.5
419.389	142.5
419.611	132.5
419.834	135.5
420.057	137.5
420.28	133.5
420.503	149.5
420.726	132.5
420.948	146.5
421.171	155.5
421.394	126.5
421.617	130.5
421.839	128.5
422.062	130.5
422.285	142.5
422.507	127.5
422.73	117.5
422.953	142.5
423.175	131.5
423.398	144.5
423.621	144.5
423.843	133.5
424.066	128.5
424.288	130.5
424.511	137.5
424.733	125.5
424.956	146.5
425.178	144.5
425.401	130.5
425.623	154.5
425.846	134.5
426.068	133.5
426.291	127.5
426.513	135.5
426.735	132.5
426.958	128.5
427.18	118.5
427.402	150.5
427.625	146.5
427.847	134.5
428.069	140.5
428.292	134.5
428.514	123.5
428.736	116.5
428.958	127.5
429.181	113.5
429.403	105.5
429.625	117.5
429.847	121.5
430.069	131.5
430.292	140.5
430.514	132.5
430.736	129.5
430.958	140.5
431.18	128.5
431.402	132.5
431.624	123.5
431.846	132.5
432.068	128.5
432.29	125.5
432.512	125.5
432.734	127.5
432.956	138.5
433.178	136.5
433.4	137.5
433.622	128.5
433.844	136.5
434.066	120.5
434.287	121.5
434.509	121.5
434.731	134.5
434.953	141.5
435.175	122.5
435.397	133.5
435.618	123.5
435.84	135.5
436.062	124.5
436.284	142.5
436.505	136.5
436.727	112.5
436.949	126.5
437.17	132.5
437.392	127.5
437.614	122.5
437.835	137.5
438.057	122.5
438.278	134.5
438.5	133.5
438.721	124.5
438.943	129.5
439.165	121.5
439.386	128.5
439.608	138.5
439.829	127.5
440.05	144.5
440.272	163.5
440.493	136.5
440.715	139.5
440.936	140.5
441.158	137.5
441.379	136.5
441.6	141.5
441.822	134.5
442.043	135.5
442.264	139.5
442.486	134.5
442.707	113.5
442.928	144.5
443.149	131.5
443.371	130.5
443.592	137.5
443.813	143.5
444.034	144.5
444.255	139.5
444.476	142.5
444.698	124.5
444.919	136.5
445.14	244.5
445.361	190.5
445.582	127.5
445.803	127.5
446.024	139.5
446.245	134.5
446.466	145.5
446.687	131.5
446.908	149.5
447.129	138.5
447.35	132.5
447.571	134.5
447.792	137.5
448.013	127.5
448.234	140.5
448.455	129.5
448.675	126.5
448.896	149.5
449.117	120.5
449.338	127.5
449.559	126.5
449.779	140.5
450	139.5
450.221	120.5
450.442	121.5
450.662	113.5
450.883	118.5
451.104	132.5
451.324	133.5
451.545	117.5
451.766	129.5
451.986	129.5
452.207	118.5
452.428	120.5
452.648	128.5
452.869	114.5
453.089	127.5
453.31	128.5
453.53	123.5
453.751	125.5
453.971	125.5
454.192	131.5
454.412	117.5
454.633	121.5
454.853	117.5
455.073	126.5
455.294	124.5
455.514	126.5
455.734	128.5
455.955	105.5
456.175	109.5
456.395	126.5
456.616	124.5
456.836	117.5
457.056	126.5
457.276	123.5
457.497	116.5
457.717	111.5
457.937	143.5
458.157	118.5
458.377	110.5
458.598	118.5
458.818	126.5
459.038	135.5
459.258	134.5
459.478	110.5
459.698	128.5
459.918	126.5
460.138	128.5
460.358	141.5
460.578	141.5
460.798	116.5
461.018	141.5
461.238	131.5
461.458	133.5
461.678	132.5
461.898	144.5
462.118	142.5
462.338	134.5
462.558	128.5
462.777	126.5
462.997	129.5
463.217	148.5
463.437	138.5
463.657	142.5
463.876	140.5
464.096	138.5
464.316	132.5
464.536	127.5
464.755	140.5
464.975	132.5
465.195	137.5
465.414	145.5
465.634	130.5
465.854	126.5
466.073	124.5
466.293	144.5
466.512	128.5
466.732	119.5
466.951	129.5
467.171	127.5
467.391	115.5
467.61	127.5
467.829	126.5
468.049	129.5
468.268	117.5
468.488	134.5
468.707	125.5
468.927	128.5
469.146	126.5
469.365	135.5
469.585	121.5
469.804	111.5
470.023	136.5
470.243	121.5
470.462	117.5
470.681	136.5
470.901	122.5
471.12	126.5
471.339	121.5
471.558	121.5
471.777	128.5
471.997	125.5
472.216	124.5
472.435	115.5
472.654	134.5
472.873	104.5
473.092	134.5
473.311	118.5
473.53	110.5
473.749	125.5
473.968	101.5
474.187	132.5
474.406	124.5
474.625	120.5
474.844	114.5
475.063	114.5
475.282	136.5
475.501	128.5
475.72	130.5
475.939	132.5
476.158	124.5
476.377	120.5
476.596	110.5
476.814	113.5
477.033	114.5
477.252	123.5
477.471	122.5
477.69	119.5
477.908	124.5
478.127	118.5
478.346	132.5
478.564	136.5
478.783	137.5
479.002	150.5
479.22	129.5
479.439	146.5
479.658	136.5
479.876	138.5
480.095	125.5
480.313	130.5
480.532	141.5
480.751	116.5
480.969	126.5
481.188	148.5
481.406	133.5
481.624	136.5
481.843	129.5
482.061	140.5
482.28	141.5
482.498	117.5
482.717	124.5
482.935	123.5
483.153	127.5
483.372	145.5
483.59	132.5
483.808	124.5
484.027	140.5
484.245	132.5
484.463	130.5
484.681	112.5
484.9	136.5
485.118	141.5
485.336	130.5
485.554	136.5
485.772	141.5
485.99	126.5
486.209	130.5
486.427	128.5
486.645	146.5
486.863	129.5
487.081	134.5
487.299	138.5
487.517	144.5
487.735	146.5
487.953	126.5
488.171	137.5
488.389	129.5
488.607	121.5
488.825	133.5
489.043	132.5
489.261	133.5
489.479	142.5
489.696	140.5
489.914	138.5
490.132	148.5
490.35	151.5
490.568	132.5
490.786	129.5
491.003	132.5
491.221	142.5
491.439	144.5
491.657	147.5
491.874	133.5
492.092	145.5
492.31	154.5
492.527	157.5
492.745	159.5
492.963	140.5
493.18	135.5
493.398	154.5
493.615	140.5
493.833	138.5
494.05	143.5
494.268	149.5
494.485	145.5
494.703	152.5
494.92	145.5
495.138	136.5
495.355	140.5
495.573	150.5
495.79	144.5
496.008	150.5
496.225	137.5
496.442	150.5
496.66	152.5
496.877	151.5
497.094	143.5
497.312	148.5
497.529	148.5
497.746	151.5
497.963	148.5
498.181	147.5
498.398	164.5
498.615	159.5
498.832	161.5
499.049	161.5
499.267	163.5
499.484	161.5
499.701	172.5
499.918	193.5
500.135	190.5
500.352	204.5
500.569	221.5
500.786	210.5
501.003	216.5
501.22	201.5
501.437	180.5
501.654	176.5
501.871	167.5
502.088	163.5
502.305	166.5
502.522	151.5
502.739	165.5
502.956	154.5
503.172	152.5
503.389	141.5
503.606	145.5
503.823	143.5
504.04	137.5
504.256	170.5
504.473	145.5
504.69	156.5
504.907	175.5
505.123	146.5
505.34	169.5
505.557	147.5
505.773	148.5
505.99	132.5
506.207	132.5
506.423	122.5
506.64	132.5
506.856	141.5
507.073	146.5
507.289	138.5
507.506	126.5
507.722	148.5
507.939	125.5
508.155	132.5
508.372	130.5
508.588	135.5
508.805	129.5
509.021	126.5
509.238	131.5
509.454	132.5
509.67	129.5
509.887	122.5
510.103	133.5
510.319	148.5
510.536	151.5
510.752	154.5
510.968	150.5
511.184	134.5
511.401	128.5
511.617	142.5
511.833	129.5
512.049	118.5
512.265	122.5
512.481	136.5
512.698	132.5
512.914	139.5
513.13	112.5
513.346	119.5
513.562	140.5
513.778	128.5
513.994	132.5
514.21	136.5
514.426	134.5
514.642	118.5
514.858	133.5
515.074	135.5
515.29	130.5
515.506	153.5
515.721	153.5
515.937	141.5
516.153	145.5
516.369	131.5
516.585	137.5
516.801	123.5
517.016	142.5
517.232	149.5
517.448	149.5
517.664	138.5
517.879	158.5
518.095	152.5
518.311	150.5
518.527	132.5
518.742	140.5
518.958	128.5
519.173	127.5
519.389	137.5
519.605	130.5
519.82	138.5
520.036	142.5
520.251	124.5
520.467	134.5
520.682	130.5
520.898	127.5
521.113	141.5
521.329	126.5
521.544	137.5
521.76	132.5
521.975	173.5
522.19	165.5
522.406	128.5
522.621	136.5
522.836	127.5
523.052	135.5
