Data from 1968.PennyLincolnUp.Lamp.En5.5.200Scan.071719.P1._HRD10591_14-51-23-969.txt Node
Date: Thu Jul 18 14:51:23 EDT 2019
User: cochatt
Spectrometer: HR+D1059
Trigger mode: 1
Integration Time (sec): 1.000000E-1
Scans to average: 1
Electric dark correction enabled: true
Nonlinearity correction enabled: false
Boxcar width: 0
XAxis mode: Wavelengths
Number of Pixels in Spectrum: 2048
>>>>>Begin Spectral Data<<<<<
223.165	-10.38
223.4	-10.38
223.635	-10.38
223.869	-12.38
224.104	-33.38
224.338	-19.38
224.573	-23.38
224.808	-16.38
225.042	1.62
225.277	-20.38
225.511	-8.38
225.746	4.62
225.98	7.62
226.215	20.62
226.449	19.62
226.683	15.62
226.918	32.62
227.152	41.62
227.387	28.62
227.621	27.62
227.856	40.62
228.09	42.62
228.324	67.62
228.559	47.62
228.793	53.62
229.027	60.62
229.262	66.62
229.496	81.62
229.73	70.62
229.964	82.62
230.199	72.62
230.433	64.62
230.667	92.62
230.901	75.62
231.136	93.62
231.37	83.62
231.604	80.62
231.838	97.62
232.072	81.62
232.306	86.62
232.541	80.62
232.775	89.62
233.009	78.62
233.243	80.62
233.477	84.62
233.711	86.62
233.945	81.62
234.179	79.62
234.413	76.62
234.647	69.62
234.881	82.62
235.115	86.62
235.349	78.62
235.583	89.62
235.817	77.62
236.051	92.62
236.285	71.62
236.519	76.62
236.753	78.62
236.987	87.62
237.221	88.62
237.455	91.62
237.689	83.62
237.922	70.62
238.156	91.62
238.39	84.62
238.624	76.62
238.858	90.62
239.091	85.62
239.325	79.62
239.559	77.62
239.793	84.62
240.027	79.62
240.26	91.62
240.494	77.62
240.728	80.62
240.961	99.62
241.195	92.62
241.429	87.62
241.662	78.62
241.896	80.62
242.13	80.62
242.363	88.62
242.597	89.62
242.83	76.62
243.064	80.62
243.298	71.62
243.531	88.62
243.765	88.62
243.998	76.62
244.232	86.62
244.465	93.62
244.699	87.62
244.932	94.62
245.166	80.62
245.399	83.62
245.633	92.62
245.866	76.62
246.099	80.62
246.333	88.62
246.566	87.62
246.8	91.62
247.033	85.62
247.266	77.62
247.5	92.62
247.733	92.62
247.966	85.62
248.2	91.62
248.433	103.62
248.666	97.62
248.899	91.62
249.133	95.62
249.366	99.62
249.599	89.62
249.832	81.62
250.066	85.62
250.299	85.62
250.532	91.62
250.765	84.62
250.998	89.62
251.231	90.62
251.465	85.62
251.698	91.62
251.931	84.62
252.164	98.62
252.397	95.62
252.63	104.62
252.863	90.62
253.096	103.62
253.329	79.62
253.562	94.62
253.795	95.62
254.028	91.62
254.261	82.62
254.494	92.62
254.727	88.62
254.96	92.62
255.193	83.62
255.426	93.62
255.659	91.62
255.892	100.62
256.124	90.62
256.357	94.62
256.59	90.62
256.823	95.62
257.056	86.62
257.289	92.62
257.521	95.62
257.754	94.62
257.987	91.62
258.22	85.62
258.452	103.62
258.685	104.62
258.918	105.62
259.151	90.62
259.383	96.62
259.616	77.62
259.849	89.62
260.081	99.62
260.314	91.62
260.547	97.62
260.779	98.62
261.012	93.62
261.244	91.62
261.477	88.62
261.71	99.62
261.942	96.62
262.175	93.62
262.407	88.62
262.64	83.62
262.872	84.62
263.105	88.62
263.337	102.62
263.57	111.62
263.802	86.62
264.035	87.62
264.267	105.62
264.499	98.62
264.732	93.62
264.964	87.62
265.197	83.62
265.429	95.62
265.661	94.62
265.894	95.62
266.126	94.62
266.358	89.62
266.591	97.62
266.823	89.62
267.055	94.62
267.287	116.62
267.52	107.62
267.752	108.62
267.984	93.62
268.216	86.62
268.448	107.62
268.681	112.62
268.913	98.62
269.145	108.62
269.377	93.62
269.609	90.62
269.841	105.62
270.073	96.62
270.306	96.62
270.538	92.62
270.77	89.62
271.002	85.62
271.234	92.62
271.466	88.62
271.698	94.62
271.93	101.62
272.162	89.62
272.394	98.62
272.626	102.62
272.858	100.62
273.09	112.62
273.322	94.62
273.553	98.62
273.785	95.62
274.017	98.62
274.249	95.62
274.481	111.62
274.713	92.62
274.945	94.62
275.176	96.62
275.408	96.62
275.64	91.62
275.872	85.62
276.104	87.62
276.335	97.62
276.567	90.62
276.799	92.62
277.031	86.62
277.262	105.62
277.494	98.62
277.726	107.62
277.957	105.62
278.189	110.62
278.421	109.62
278.652	100.62
278.884	105.62
279.115	99.62
279.347	107.62
279.579	85.62
279.81	108.62
280.042	106.62
280.273	91.62
280.505	93.62
280.736	103.62
280.968	104.62
281.199	105.62
281.431	107.62
281.662	99.62
281.894	104.62
282.125	99.62
282.356	110.62
282.588	102.62
282.819	93.62
283.051	110.62
283.282	106.62
283.513	95.62
283.745	104.62
283.976	104.62
284.207	109.62
284.439	113.62
284.67	107.62
284.901	91.62
285.132	110.62
285.364	89.62
285.595	107.62
285.826	108.62
286.057	118.62
286.288	105.62
286.52	104.62
286.751	105.62
286.982	91.62
287.213	97.62
287.444	102.62
287.675	106.62
287.906	104.62
288.138	100.62
288.369	97.62
288.6	100.62
288.831	113.62
289.062	103.62
289.293	107.62
289.524	90.62
289.755	103.62
289.986	104.62
290.217	106.62
290.448	113.62
290.679	104.62
290.91	120.62
291.141	94.62
291.371	110.62
291.602	102.62
291.833	98.62
292.064	107.62
292.295	92.62
292.526	107.62
292.757	116.62
292.987	89.62
293.218	110.62
293.449	103.62
293.68	104.62
293.91	106.62
294.141	102.62
294.372	98.62
294.603	111.62
294.833	115.62
295.064	113.62
295.295	113.62
295.525	101.62
295.756	121.62
295.987	102.62
296.217	108.62
296.448	114.62
296.679	112.62
296.909	106.62
297.14	120.62
297.37	115.62
297.601	119.62
297.831	103.62
298.062	103.62
298.292	124.62
298.523	102.62
298.753	102.62
298.984	119.62
299.214	95.62
299.445	94.62
299.675	103.62
299.905	95.62
300.136	100.62
300.366	93.62
300.597	100.62
300.827	103.62
301.057	99.62
301.288	98.62
301.518	101.62
301.748	106.62
301.979	104.62
302.209	94.62
302.439	103.62
302.669	103.62
302.9	98.62
303.13	97.62
303.36	105.62
303.59	104.62
303.82	100.62
304.051	100.62
304.281	101.62
304.511	116.62
304.741	113.62
304.971	115.62
305.201	96.62
305.431	98.62
305.661	112.62
305.891	111.62
306.121	103.62
306.352	115.62
306.582	109.62
306.812	112.62
307.042	106.62
307.272	124.62
307.502	114.62
307.731	101.62
307.961	103.62
308.191	119.62
308.421	115.62
308.651	125.62
308.881	109.62
309.111	112.62
309.341	107.62
309.571	105.62
309.8	100.62
310.03	112.62
310.26	103.62
310.49	97.62
310.72	109.62
310.949	115.62
311.179	124.62
311.409	105.62
311.639	96.62
311.868	103.62
312.098	124.62
312.328	107.62
312.557	127.62
312.787	110.62
313.017	123.62
313.246	109.62
313.476	112.62
313.706	115.62
313.935	109.62
314.165	117.62
314.394	109.62
314.624	120.62
314.853	98.62
315.083	104.62
315.312	107.62
315.542	104.62
315.771	108.62
316.001	116.62
316.23	110.62
316.46	95.62
316.689	114.62
316.919	119.62
317.148	109.62
317.377	100.62
317.607	124.62
317.836	119.62
318.065	110.62
318.295	111.62
318.524	108.62
318.753	107.62
318.983	96.62
319.212	120.62
319.441	112.62
319.67	106.62
319.9	119.62
320.129	99.62
320.358	114.62
320.587	111.62
320.816	104.62
321.046	110.62
321.275	103.62
321.504	105.62
321.733	92.62
321.962	120.62
322.191	125.62
322.42	104.62
322.649	112.62
322.878	112.62
323.108	124.62
323.337	108.62
323.566	117.62
323.795	116.62
324.024	106.62
324.253	118.62
324.482	130.62
324.71	134.62
324.939	181.62
325.168	168.62
325.397	127.62
325.626	128.62
325.855	118.62
326.084	125.62
326.313	117.62
326.542	107.62
326.77	120.62
326.999	153.62
327.228	142.62
327.457	153.62
327.686	169.62
327.914	143.62
328.143	131.62
328.372	121.62
328.6	128.62
328.829	110.62
329.058	105.62
329.287	120.62
329.515	108.62
329.744	121.62
329.972	119.62
330.201	132.62
330.43	131.62
330.658	109.62
330.887	120.62
331.115	123.62
331.344	110.62
331.572	131.62
331.801	117.62
332.03	127.62
332.258	122.62
332.486	119.62
332.715	123.62
332.943	110.62
333.172	127.62
333.4	130.62
333.629	107.62
333.857	129.62
334.085	119.62
334.314	133.62
334.542	129.62
334.771	128.62
334.999	112.62
335.227	122.62
335.455	117.62
335.684	108.62
335.912	127.62
336.14	117.62
336.369	103.62
336.597	112.62
336.825	113.62
337.053	111.62
337.281	120.62
337.51	119.62
337.738	118.62
337.966	113.62
338.194	101.62
338.422	120.62
338.65	112.62
338.878	128.62
339.106	120.62
339.334	109.62
339.562	118.62
339.79	127.62
340.018	102.62
340.246	115.62
340.474	115.62
340.702	109.62
340.93	112.62
341.158	116.62
341.386	102.62
341.614	115.62
341.842	113.62
342.07	106.62
342.298	122.62
342.526	115.62
342.754	109.62
342.981	116.62
343.209	119.62
343.437	115.62
343.665	113.62
343.893	124.62
344.12	115.62
344.348	103.62
344.576	128.62
344.804	122.62
345.031	115.62
345.259	128.62
345.487	110.62
345.714	108.62
345.942	102.62
346.17	108.62
346.397	102.62
346.625	117.62
346.853	118.62
347.08	103.62
347.308	112.62
347.535	107.62
347.763	120.62
347.99	125.62
348.218	105.62
348.445	115.62
348.673	117.62
348.9	122.62
349.128	104.62
349.355	115.62
349.583	125.62
349.81	101.62
350.037	100.62
350.265	114.62
350.492	119.62
350.72	112.62
350.947	107.62
351.174	113.62
351.402	116.62
351.629	108.62
351.856	119.62
352.083	123.62
352.311	104.62
352.538	105.62
352.765	112.62
352.992	111.62
353.22	115.62
353.447	101.62
353.674	117.62
353.901	109.62
354.128	105.62
354.355	119.62
354.583	112.62
354.81	119.62
355.037	109.62
355.264	119.62
355.491	117.62
355.718	105.62
355.945	123.62
356.172	117.62
356.399	121.62
356.626	125.62
356.853	99.62
357.08	116.62
357.307	118.62
357.534	98.62
357.761	109.62
357.988	121.62
358.215	118.62
358.441	112.62
358.668	116.62
358.895	106.62
359.122	115.62
359.349	112.62
359.576	116.62
359.802	108.62
360.029	141.62
360.256	106.62
360.483	108.62
360.709	114.62
360.936	110.62
361.163	100.62
361.39	105.62
361.616	116.62
361.843	96.62
362.07	116.62
362.296	117.62
362.523	115.62
362.749	112.62
362.976	122.62
363.203	121.62
363.429	107.62
363.656	102.62
363.882	116.62
364.109	116.62
364.335	118.62
364.562	122.62
364.788	107.62
365.015	125.62
365.241	108.62
365.468	116.62
365.694	110.62
365.92	129.62
366.147	112.62
366.373	113.62
366.599	106.62
366.826	103.62
367.052	121.62
367.278	113.62
367.505	125.62
367.731	119.62
367.957	109.62
368.184	111.62
368.41	119.62
368.636	109.62
368.862	125.62
369.089	121.62
369.315	104.62
369.541	105.62
369.767	123.62
369.993	117.62
370.219	115.62
370.445	102.62
370.672	95.62
370.898	112.62
371.124	108.62
371.35	116.62
371.576	119.62
371.802	120.62
372.028	107.62
372.254	115.62
372.48	121.62
372.706	112.62
372.932	109.62
373.158	108.62
373.384	123.62
373.61	124.62
373.835	117.62
374.061	131.62
374.287	116.62
374.513	107.62
374.739	106.62
374.965	118.62
375.191	122.62
375.416	111.62
375.642	116.62
375.868	117.62
376.094	115.62
376.319	118.62
376.545	103.62
376.771	122.62
376.997	123.62
377.222	97.62
377.448	117.62
377.674	119.62
377.899	112.62
378.125	115.62
378.35	115.62
378.576	114.62
378.802	93.62
379.027	120.62
379.253	112.62
379.478	120.62
379.704	103.62
379.929	109.62
380.155	107.62
380.38	118.62
380.606	119.62
380.831	125.62
381.057	128.62
381.282	112.62
381.507	117.62
381.733	119.62
381.958	116.62
382.184	112.62
382.409	115.62
382.634	113.62
382.86	117.62
383.085	113.62
383.31	103.62
383.535	119.62
383.761	96.62
383.986	115.62
384.211	115.62
384.436	119.62
384.662	113.62
384.887	123.62
385.112	115.62
385.337	122.62
385.562	118.62
385.787	111.62
386.013	135.62
386.238	120.62
386.463	129.62
386.688	120.62
386.913	103.62
387.138	121.62
387.363	125.62
387.588	115.62
387.813	117.62
388.038	117.62
388.263	118.62
388.488	124.62
388.713	111.62
388.938	120.62
389.163	123.62
389.387	103.62
389.612	119.62
389.837	136.62
390.062	117.62
390.287	119.62
390.512	109.62
390.736	123.62
390.961	124.62
391.186	120.62
391.411	118.62
391.636	128.62
391.86	122.62
392.085	129.62
392.31	118.62
392.534	122.62
392.759	113.62
392.984	133.62
393.208	144.62
393.433	112.62
393.658	133.62
393.882	135.62
394.107	120.62
394.331	123.62
394.556	123.62
394.78	113.62
395.005	123.62
395.229	135.62
395.454	126.62
395.678	127.62
395.903	119.62
396.127	115.62
396.352	115.62
396.576	120.62
396.801	125.62
397.025	112.62
397.249	112.62
397.474	116.62
397.698	127.62
397.922	120.62
398.147	121.62
398.371	120.62
398.595	127.62
398.82	120.62
399.044	127.62
399.268	131.62
399.492	128.62
399.717	146.62
399.941	147.62
400.165	151.62
400.389	119.62
400.613	150.62
400.837	128.62
401.062	117.62
401.286	130.62
401.51	135.62
401.734	117.62
401.958	132.62
402.182	133.62
402.406	138.62
402.63	145.62
402.854	126.62
403.078	125.62
403.302	127.62
403.526	128.62
403.75	142.62
403.974	121.62
404.198	143.62
404.422	146.62
404.645	135.62
404.869	133.62
405.093	136.62
405.317	131.62
405.541	127.62
405.765	126.62
405.988	136.62
406.212	134.62
406.436	130.62
406.66	153.62
406.883	139.62
407.107	131.62
407.331	149.62
407.555	139.62
407.778	134.62
408.002	136.62
408.226	156.62
408.449	142.62
408.673	128.62
408.896	133.62
409.12	137.62
409.344	131.62
409.567	132.62
409.791	127.62
410.014	115.62
410.238	145.62
410.461	127.62
410.685	142.62
410.908	133.62
411.132	135.62
411.355	133.62
411.578	126.62
411.802	119.62
412.025	128.62
412.249	131.62
412.472	135.62
412.695	135.62
412.919	157.62
413.142	131.62
413.365	145.62
413.589	140.62
413.812	131.62
414.035	132.62
414.258	136.62
414.482	116.62
414.705	126.62
414.928	129.62
415.151	131.62
415.374	127.62
415.597	132.62
415.821	127.62
416.044	123.62
416.267	127.62
416.49	128.62
416.713	127.62
416.936	130.62
417.159	135.62
417.382	119.62
417.605	139.62
417.828	142.62
418.051	125.62
418.274	141.62
418.497	132.62
418.72	137.62
418.943	128.62
419.166	131.62
419.389	144.62
419.611	132.62
419.834	137.62
420.057	132.62
420.28	132.62
420.503	131.62
420.726	129.62
420.948	139.62
421.171	135.62
421.394	140.62
421.617	147.62
421.839	133.62
422.062	122.62
422.285	142.62
422.507	139.62
422.73	139.62
422.953	141.62
423.175	134.62
423.398	120.62
423.621	122.62
423.843	146.62
424.066	148.62
424.288	134.62
424.511	125.62
424.733	140.62
424.956	140.62
425.178	141.62
425.401	136.62
425.623	134.62
425.846	123.62
426.068	137.62
426.291	117.62
426.513	139.62
426.735	131.62
426.958	130.62
427.18	129.62
427.402	140.62
427.625	136.62
427.847	148.62
428.069	153.62
428.292	143.62
428.514	124.62
428.736	126.62
428.958	131.62
429.181	112.62
429.403	141.62
429.625	128.62
429.847	128.62
430.069	143.62
430.292	136.62
430.514	123.62
430.736	143.62
430.958	124.62
431.18	118.62
431.402	116.62
431.624	129.62
431.846	122.62
432.068	125.62
432.29	124.62
432.512	123.62
432.734	129.62
432.956	124.62
433.178	118.62
433.4	119.62
433.622	112.62
433.844	131.62
434.066	116.62
434.287	126.62
434.509	136.62
434.731	123.62
434.953	117.62
435.175	132.62
435.397	128.62
435.618	126.62
435.84	126.62
436.062	142.62
436.284	124.62
436.505	137.62
436.727	129.62
436.949	145.62
437.17	128.62
437.392	136.62
437.614	125.62
437.835	127.62
438.057	124.62
438.278	139.62
438.5	128.62
438.721	127.62
438.943	134.62
439.165	135.62
439.386	135.62
439.608	131.62
439.829	143.62
440.05	142.62
440.272	127.62
440.493	130.62
440.715	132.62
440.936	131.62
441.158	129.62
441.379	127.62
441.6	143.62
441.822	119.62
442.043	126.62
442.264	151.62
442.486	140.62
442.707	139.62
442.928	134.62
443.149	135.62
443.371	160.62
443.592	120.62
443.813	141.62
444.034	146.62
444.255	130.62
444.476	133.62
444.698	136.62
444.919	136.62
445.14	217.62
445.361	183.62
445.582	134.62
445.803	128.62
446.024	137.62
446.245	134.62
446.466	129.62
446.687	139.62
446.908	133.62
447.129	123.62
447.35	123.62
447.571	124.62
447.792	111.62
448.013	125.62
448.234	131.62
448.455	131.62
448.675	125.62
448.896	115.62
449.117	120.62
449.338	133.62
449.559	128.62
449.779	129.62
450	132.62
450.221	123.62
450.442	130.62
450.662	126.62
450.883	113.62
451.104	125.62
451.324	129.62
451.545	127.62
451.766	118.62
451.986	120.62
452.207	119.62
452.428	130.62
452.648	124.62
452.869	121.62
453.089	118.62
453.31	119.62
453.53	124.62
453.751	125.62
453.971	121.62
454.192	121.62
454.412	121.62
454.633	111.62
454.853	131.62
455.073	119.62
455.294	106.62
455.514	117.62
455.734	127.62
455.955	123.62
456.175	134.62
456.395	120.62
456.616	131.62
456.836	118.62
457.056	124.62
457.276	121.62
457.497	125.62
457.717	118.62
457.937	122.62
458.157	118.62
458.377	112.62
458.598	108.62
458.818	120.62
459.038	117.62
459.258	127.62
459.478	137.62
459.698	131.62
459.918	123.62
460.138	112.62
460.358	128.62
460.578	129.62
460.798	142.62
461.018	140.62
461.238	131.62
461.458	122.62
461.678	123.62
461.898	128.62
462.118	131.62
462.338	133.62
462.558	134.62
462.777	138.62
462.997	145.62
463.217	149.62
463.437	147.62
463.657	139.62
463.876	131.62
464.096	142.62
464.316	130.62
464.536	133.62
464.755	131.62
464.975	125.62
465.195	124.62
465.414	126.62
465.634	126.62
465.854	128.62
466.073	131.62
466.293	127.62
466.512	108.62
466.732	119.62
466.951	131.62
467.171	115.62
467.391	119.62
467.61	118.62
467.829	119.62
468.049	137.62
468.268	120.62
468.488	120.62
468.707	124.62
468.927	137.62
469.146	132.62
469.365	141.62
469.585	135.62
469.804	124.62
470.023	132.62
470.243	116.62
470.462	137.62
470.681	129.62
470.901	126.62
471.12	125.62
471.339	117.62
471.558	117.62
471.777	125.62
471.997	126.62
472.216	136.62
472.435	128.62
472.654	113.62
472.873	120.62
473.092	125.62
473.311	131.62
473.53	134.62
473.749	119.62
473.968	120.62
474.187	125.62
474.406	113.62
474.625	139.62
474.844	131.62
475.063	125.62
475.282	122.62
475.501	120.62
475.72	124.62
475.939	119.62
476.158	133.62
476.377	135.62
476.596	115.62
476.814	124.62
477.033	121.62
477.252	131.62
477.471	131.62
477.69	127.62
477.908	117.62
478.127	130.62
478.346	132.62
478.564	125.62
478.783	149.62
479.002	125.62
479.22	124.62
479.439	121.62
479.658	127.62
479.876	123.62
480.095	139.62
480.313	140.62
480.532	134.62
480.751	142.62
480.969	125.62
481.188	131.62
481.406	149.62
481.624	125.62
481.843	128.62
482.061	132.62
482.28	133.62
482.498	128.62
482.717	146.62
482.935	128.62
483.153	134.62
483.372	123.62
483.59	135.62
483.808	130.62
484.027	127.62
484.245	124.62
484.463	135.62
484.681	144.62
484.9	142.62
485.118	128.62
485.336	125.62
485.554	134.62
485.772	140.62
485.99	133.62
486.209	132.62
486.427	121.62
486.645	129.62
486.863	132.62
487.081	129.62
487.299	141.62
487.517	133.62
487.735	128.62
487.953	152.62
488.171	143.62
488.389	142.62
488.607	140.62
488.825	144.62
489.043	147.62
489.261	138.62
489.479	149.62
489.696	131.62
489.914	116.62
490.132	134.62
490.35	136.62
490.568	141.62
490.786	149.62
491.003	139.62
491.221	147.62
491.439	143.62
491.657	141.62
491.874	147.62
492.092	137.62
492.31	151.62
492.527	143.62
492.745	151.62
492.963	146.62
493.18	150.62
493.398	134.62
493.615	148.62
493.833	141.62
494.05	145.62
494.268	135.62
494.485	140.62
494.703	153.62
494.92	143.62
495.138	141.62
495.355	146.62
495.573	136.62
495.79	140.62
496.008	135.62
496.225	135.62
496.442	167.62
496.66	157.62
496.877	149.62
497.094	140.62
497.312	142.62
497.529	135.62
497.746	123.62
497.963	144.62
498.181	159.62
498.398	151.62
498.615	142.62
498.832	167.62
499.049	164.62
499.267	183.62
499.484	172.62
499.701	186.62
499.918	188.62
500.135	204.62
500.352	193.62
500.569	188.62
500.786	221.62
501.003	198.62
501.22	196.62
501.437	185.62
501.654	170.62
501.871	185.62
502.088	171.62
502.305	165.62
502.522	153.62
502.739	154.62
502.956	157.62
503.172	155.62
503.389	137.62
503.606	142.62
503.823	154.62
504.04	145.62
504.256	143.62
504.473	128.62
504.69	148.62
504.907	149.62
505.123	136.62
