Data from 1968.PennyLincolnUp.Lamp.En5.5.200Scan.071719.P1._HRD10591_14-49-33-969.txt Node
Date: Thu Jul 18 14:49:33 EDT 2019
User: cochatt
Spectrometer: HR+D1059
Trigger mode: 1
Integration Time (sec): 1.000000E-1
Scans to average: 1
Electric dark correction enabled: true
Nonlinearity correction enabled: false
Boxcar width: 0
XAxis mode: Wavelengths
Number of Pixels in Spectrum: 2048
>>>>>Begin Spectral Data<<<<<
223.165	-29.25
223.4	-29.25
223.635	-29.25
223.869	-5.25
224.104	-15.25
224.338	-20.25
224.573	-19.25
224.808	-20.25
225.042	-6.25
225.277	-7.25
225.511	-3.25
225.746	-17.25
225.98	21.75
226.215	9.75
226.449	20.75
226.683	31.75
226.918	32.75
227.152	26.75
227.387	48.75
227.621	50.75
227.856	46.75
228.09	31.75
228.324	56.75
228.559	67.75
228.793	61.75
229.027	68.75
229.262	76.75
229.496	69.75
229.73	81.75
229.964	78.75
230.199	76.75
230.433	77.75
230.667	81.75
230.901	75.75
231.136	84.75
231.37	85.75
231.604	90.75
231.838	93.75
232.072	80.75
232.306	79.75
232.541	89.75
232.775	91.75
233.009	85.75
233.243	81.75
233.477	77.75
233.711	92.75
233.945	82.75
234.179	95.75
234.413	99.75
234.647	86.75
234.881	78.75
235.115	71.75
235.349	79.75
235.583	89.75
235.817	67.75
236.051	79.75
236.285	79.75
236.519	85.75
236.753	87.75
236.987	89.75
237.221	84.75
237.455	99.75
237.689	104.75
237.922	85.75
238.156	92.75
238.39	85.75
238.624	88.75
238.858	85.75
239.091	86.75
239.325	75.75
239.559	83.75
239.793	66.75
240.027	86.75
240.26	73.75
240.494	91.75
240.728	76.75
240.961	83.75
241.195	77.75
241.429	89.75
241.662	73.75
241.896	88.75
242.13	77.75
242.363	72.75
242.597	80.75
242.83	81.75
243.064	84.75
243.298	79.75
243.531	86.75
243.765	74.75
243.998	81.75
244.232	78.75
244.465	75.75
244.699	71.75
244.932	81.75
245.166	90.75
245.399	88.75
245.633	96.75
245.866	81.75
246.099	85.75
246.333	88.75
246.566	85.75
246.8	79.75
247.033	76.75
247.266	75.75
247.5	97.75
247.733	91.75
247.966	92.75
248.2	76.75
248.433	74.75
248.666	83.75
248.899	95.75
249.133	81.75
249.366	86.75
249.599	88.75
249.832	94.75
250.066	83.75
250.299	80.75
250.532	92.75
250.765	95.75
250.998	85.75
251.231	106.75
251.465	92.75
251.698	95.75
251.931	94.75
252.164	92.75
252.397	89.75
252.63	84.75
252.863	89.75
253.096	89.75
253.329	97.75
253.562	91.75
253.795	102.75
254.028	90.75
254.261	89.75
254.494	78.75
254.727	92.75
254.96	90.75
255.193	88.75
255.426	101.75
255.659	81.75
255.892	87.75
256.124	80.75
256.357	90.75
256.59	83.75
256.823	87.75
257.056	99.75
257.289	100.75
257.521	94.75
257.754	88.75
257.987	77.75
258.22	106.75
258.452	93.75
258.685	86.75
258.918	87.75
259.151	94.75
259.383	118.75
259.616	84.75
259.849	91.75
260.081	100.75
260.314	95.75
260.547	89.75
260.779	87.75
261.012	84.75
261.244	91.75
261.477	107.75
261.71	87.75
261.942	107.75
262.175	96.75
262.407	75.75
262.64	78.75
262.872	91.75
263.105	87.75
263.337	104.75
263.57	95.75
263.802	91.75
264.035	80.75
264.267	96.75
264.499	87.75
264.732	99.75
264.964	92.75
265.197	88.75
265.429	97.75
265.661	95.75
265.894	101.75
266.126	100.75
266.358	85.75
266.591	89.75
266.823	96.75
267.055	108.75
267.287	90.75
267.52	90.75
267.752	111.75
267.984	90.75
268.216	100.75
268.448	92.75
268.681	83.75
268.913	97.75
269.145	99.75
269.377	107.75
269.609	99.75
269.841	81.75
270.073	100.75
270.306	93.75
270.538	100.75
270.77	95.75
271.002	102.75
271.234	86.75
271.466	94.75
271.698	96.75
271.93	101.75
272.162	95.75
272.394	100.75
272.626	84.75
272.858	104.75
273.09	88.75
273.322	102.75
273.553	101.75
273.785	97.75
274.017	83.75
274.249	86.75
274.481	94.75
274.713	103.75
274.945	85.75
275.176	85.75
275.408	111.75
275.64	97.75
275.872	107.75
276.104	96.75
276.335	82.75
276.567	88.75
276.799	94.75
277.031	99.75
277.262	101.75
277.494	97.75
277.726	95.75
277.957	99.75
278.189	87.75
278.421	89.75
278.652	105.75
278.884	101.75
279.115	101.75
279.347	98.75
279.579	112.75
279.81	108.75
280.042	104.75
280.273	100.75
280.505	97.75
280.736	100.75
280.968	116.75
281.199	98.75
281.431	102.75
281.662	105.75
281.894	107.75
282.125	117.75
282.356	107.75
282.588	103.75
282.819	116.75
283.051	101.75
283.282	99.75
283.513	108.75
283.745	88.75
283.976	92.75
284.207	92.75
284.439	97.75
284.67	108.75
284.901	103.75
285.132	104.75
285.364	116.75
285.595	108.75
285.826	95.75
286.057	102.75
286.288	84.75
286.52	101.75
286.751	100.75
286.982	105.75
287.213	93.75
287.444	104.75
287.675	104.75
287.906	118.75
288.138	106.75
288.369	118.75
288.6	105.75
288.831	88.75
289.062	102.75
289.293	110.75
289.524	103.75
289.755	102.75
289.986	101.75
290.217	115.75
290.448	97.75
290.679	99.75
290.91	90.75
291.141	99.75
291.371	105.75
291.602	113.75
291.833	105.75
292.064	108.75
292.295	108.75
292.526	97.75
292.757	95.75
292.987	95.75
293.218	100.75
293.449	105.75
293.68	108.75
293.91	97.75
294.141	108.75
294.372	103.75
294.603	101.75
294.833	104.75
295.064	97.75
295.295	91.75
295.525	112.75
295.756	99.75
295.987	112.75
296.217	103.75
296.448	109.75
296.679	109.75
296.909	104.75
297.14	94.75
297.37	101.75
297.601	115.75
297.831	104.75
298.062	116.75
298.292	104.75
298.523	105.75
298.753	111.75
298.984	94.75
299.214	104.75
299.445	98.75
299.675	108.75
299.905	116.75
300.136	111.75
300.366	93.75
300.597	112.75
300.827	122.75
301.057	114.75
301.288	107.75
301.518	119.75
301.748	104.75
301.979	116.75
302.209	118.75
302.439	103.75
302.669	113.75
302.9	117.75
303.13	112.75
303.36	127.75
303.59	100.75
303.82	111.75
304.051	100.75
304.281	108.75
304.511	116.75
304.741	93.75
304.971	119.75
305.201	101.75
305.431	113.75
305.661	103.75
305.891	96.75
306.121	113.75
306.352	104.75
306.582	115.75
306.812	95.75
307.042	112.75
307.272	116.75
307.502	95.75
307.731	99.75
307.961	110.75
308.191	115.75
308.421	105.75
308.651	110.75
308.881	118.75
309.111	119.75
309.341	107.75
309.571	108.75
309.8	104.75
310.03	105.75
310.26	99.75
310.49	108.75
310.72	110.75
310.949	100.75
311.179	122.75
311.409	111.75
311.639	106.75
311.868	96.75
312.098	106.75
312.328	101.75
312.557	100.75
312.787	100.75
313.017	112.75
313.246	103.75
313.476	104.75
313.706	117.75
313.935	115.75
314.165	116.75
314.394	110.75
314.624	118.75
314.853	106.75
315.083	114.75
315.312	96.75
315.542	107.75
315.771	106.75
316.001	119.75
316.23	103.75
316.46	110.75
316.689	111.75
316.919	115.75
317.148	100.75
317.377	117.75
317.607	109.75
317.836	102.75
318.065	117.75
318.295	110.75
318.524	108.75
318.753	116.75
318.983	111.75
319.212	116.75
319.441	120.75
319.67	102.75
319.9	116.75
320.129	108.75
320.358	109.75
320.587	118.75
320.816	113.75
321.046	101.75
321.275	123.75
321.504	100.75
321.733	102.75
321.962	102.75
322.191	118.75
322.42	109.75
322.649	116.75
322.878	127.75
323.108	117.75
323.337	116.75
323.566	126.75
323.795	105.75
324.024	109.75
324.253	124.75
324.482	129.75
324.71	151.75
324.939	167.75
325.168	171.75
325.397	124.75
325.626	127.75
325.855	115.75
326.084	110.75
326.313	110.75
326.542	117.75
326.77	97.75
326.999	119.75
327.228	135.75
327.457	139.75
327.686	143.75
327.914	140.75
328.143	109.75
328.372	116.75
328.6	124.75
328.829	108.75
329.058	113.75
329.287	112.75
329.515	121.75
329.744	106.75
329.972	119.75
330.201	125.75
330.43	118.75
330.658	124.75
330.887	100.75
331.115	112.75
331.344	115.75
331.572	121.75
331.801	119.75
332.03	113.75
332.258	120.75
332.486	116.75
332.715	120.75
332.943	121.75
333.172	126.75
333.4	127.75
333.629	109.75
333.857	128.75
334.085	117.75
334.314	129.75
334.542	113.75
334.771	119.75
334.999	128.75
335.227	128.75
335.455	120.75
335.684	131.75
335.912	120.75
336.14	107.75
336.369	120.75
336.597	109.75
336.825	115.75
337.053	108.75
337.281	115.75
337.51	109.75
337.738	125.75
337.966	127.75
338.194	117.75
338.422	116.75
338.65	119.75
338.878	110.75
339.106	111.75
339.334	125.75
339.562	125.75
339.79	112.75
340.018	108.75
340.246	112.75
340.474	107.75
340.702	112.75
340.93	117.75
341.158	106.75
341.386	119.75
341.614	110.75
341.842	110.75
342.07	124.75
342.298	106.75
342.526	90.75
342.754	105.75
342.981	110.75
343.209	124.75
343.437	123.75
343.665	117.75
343.893	125.75
344.12	130.75
344.348	121.75
344.576	120.75
344.804	127.75
345.031	122.75
345.259	119.75
345.487	118.75
345.714	101.75
345.942	107.75
346.17	123.75
346.397	116.75
346.625	120.75
346.853	101.75
347.08	126.75
347.308	123.75
347.535	118.75
347.763	102.75
347.99	123.75
348.218	125.75
348.445	128.75
348.673	110.75
348.9	118.75
349.128	110.75
349.355	115.75
349.583	95.75
349.81	110.75
350.037	127.75
350.265	113.75
350.492	109.75
350.72	104.75
350.947	124.75
351.174	101.75
351.402	95.75
351.629	111.75
351.856	110.75
352.083	123.75
352.311	111.75
352.538	115.75
352.765	97.75
352.992	101.75
353.22	112.75
353.447	118.75
353.674	107.75
353.901	125.75
354.128	105.75
354.355	117.75
354.583	117.75
354.81	101.75
355.037	123.75
355.264	108.75
355.491	110.75
355.718	123.75
355.945	104.75
356.172	108.75
356.399	124.75
356.626	109.75
356.853	111.75
357.08	115.75
357.307	116.75
357.534	113.75
357.761	108.75
357.988	110.75
358.215	107.75
358.441	107.75
358.668	112.75
358.895	115.75
359.122	122.75
359.349	117.75
359.576	108.75
359.802	124.75
360.029	126.75
360.256	124.75
360.483	124.75
360.709	118.75
360.936	112.75
361.163	112.75
361.39	131.75
361.616	105.75
361.843	105.75
362.07	120.75
362.296	96.75
362.523	120.75
362.749	130.75
362.976	115.75
363.203	110.75
363.429	113.75
363.656	119.75
363.882	112.75
364.109	116.75
364.335	107.75
364.562	117.75
364.788	101.75
365.015	119.75
365.241	119.75
365.468	119.75
365.694	103.75
365.92	109.75
366.147	115.75
366.373	103.75
366.599	105.75
366.826	116.75
367.052	114.75
367.278	112.75
367.505	123.75
367.731	112.75
367.957	133.75
368.184	124.75
368.41	108.75
368.636	127.75
368.862	117.75
369.089	110.75
369.315	101.75
369.541	113.75
369.767	118.75
369.993	102.75
370.219	113.75
370.445	109.75
370.672	111.75
370.898	107.75
371.124	102.75
371.35	122.75
371.576	115.75
371.802	129.75
372.028	119.75
372.254	125.75
372.48	111.75
372.706	109.75
372.932	116.75
373.158	113.75
373.384	123.75
373.61	117.75
373.835	124.75
374.061	117.75
374.287	109.75
374.513	110.75
374.739	122.75
374.965	101.75
375.191	115.75
375.416	125.75
375.642	118.75
375.868	123.75
376.094	117.75
376.319	111.75
376.545	107.75
376.771	96.75
376.997	112.75
377.222	115.75
377.448	112.75
377.674	113.75
377.899	115.75
378.125	118.75
378.35	132.75
378.576	124.75
378.802	108.75
379.027	118.75
379.253	119.75
379.478	107.75
379.704	125.75
379.929	119.75
380.155	111.75
380.38	124.75
380.606	119.75
380.831	112.75
381.057	118.75
381.282	105.75
381.507	115.75
381.733	103.75
381.958	119.75
382.184	116.75
382.409	125.75
382.634	119.75
382.86	123.75
383.085	111.75
383.31	109.75
383.535	115.75
383.761	108.75
383.986	129.75
384.211	119.75
384.436	127.75
384.662	135.75
384.887	117.75
385.112	112.75
385.337	128.75
385.562	124.75
385.787	121.75
386.013	109.75
386.238	117.75
386.463	109.75
386.688	114.75
386.913	131.75
387.138	129.75
387.363	110.75
387.588	113.75
387.813	99.75
388.038	96.75
388.263	131.75
388.488	129.75
388.713	120.75
388.938	127.75
389.163	115.75
389.387	114.75
389.612	119.75
389.837	119.75
390.062	126.75
390.287	128.75
390.512	112.75
390.736	111.75
390.961	108.75
391.186	127.75
391.411	120.75
391.636	115.75
391.86	120.75
392.085	119.75
392.31	116.75
392.534	134.75
392.759	128.75
392.984	124.75
393.208	117.75
393.433	125.75
393.658	129.75
393.882	135.75
394.107	124.75
394.331	123.75
394.556	120.75
394.78	121.75
395.005	120.75
395.229	125.75
395.454	106.75
395.678	112.75
395.903	125.75
396.127	119.75
396.352	109.75
396.576	120.75
396.801	117.75
397.025	120.75
397.249	141.75
397.474	131.75
397.698	124.75
397.922	129.75
398.147	131.75
398.371	130.75
398.595	126.75
398.82	127.75
399.044	125.75
399.268	136.75
399.492	129.75
399.717	138.75
399.941	149.75
400.165	145.75
400.389	141.75
400.613	135.75
400.837	123.75
401.062	129.75
401.286	124.75
401.51	146.75
401.734	128.75
401.958	131.75
402.182	123.75
402.406	120.75
402.63	124.75
402.854	145.75
403.078	134.75
403.302	119.75
403.526	131.75
403.75	120.75
403.974	132.75
404.198	125.75
404.422	142.75
404.645	151.75
404.869	127.75
405.093	145.75
405.317	152.75
405.541	139.75
405.765	144.75
405.988	128.75
406.212	130.75
406.436	139.75
406.66	146.75
406.883	122.75
407.107	133.75
407.331	138.75
407.555	153.75
407.778	142.75
408.002	131.75
408.226	142.75
408.449	140.75
408.673	130.75
408.896	136.75
409.12	144.75
409.344	141.75
409.567	150.75
409.791	135.75
410.014	136.75
410.238	125.75
410.461	132.75
410.685	134.75
410.908	137.75
411.132	135.75
411.355	145.75
411.578	135.75
411.802	141.75
412.025	122.75
412.249	126.75
412.472	132.75
412.695	127.75
412.919	137.75
413.142	119.75
413.365	146.75
413.589	135.75
413.812	122.75
414.035	132.75
414.258	133.75
414.482	139.75
414.705	133.75
414.928	121.75
415.151	129.75
415.374	131.75
415.597	139.75
415.821	132.75
416.044	131.75
416.267	117.75
416.49	112.75
416.713	108.75
416.936	128.75
417.159	126.75
417.382	143.75
417.605	145.75
417.828	136.75
418.051	140.75
418.274	126.75
418.497	136.75
418.72	133.75
418.943	141.75
419.166	141.75
419.389	132.75
419.611	136.75
419.834	123.75
420.057	129.75
420.28	125.75
420.503	121.75
420.726	140.75
420.948	143.75
421.171	137.75
421.394	137.75
421.617	136.75
421.839	129.75
422.062	115.75
422.285	126.75
422.507	125.75
422.73	132.75
422.953	139.75
423.175	131.75
423.398	126.75
423.621	129.75
423.843	123.75
424.066	140.75
424.288	142.75
424.511	134.75
424.733	140.75
424.956	156.75
425.178	128.75
425.401	138.75
425.623	145.75
425.846	134.75
426.068	132.75
426.291	136.75
426.513	125.75
426.735	142.75
426.958	143.75
427.18	134.75
427.402	144.75
427.625	137.75
427.847	131.75
428.069	129.75
428.292	127.75
428.514	122.75
428.736	141.75
428.958	142.75
429.181	144.75
429.403	127.75
429.625	127.75
429.847	127.75
430.069	137.75
430.292	126.75
430.514	124.75
430.736	138.75
430.958	129.75
431.18	132.75
431.402	120.75
431.624	128.75
431.846	118.75
432.068	129.75
432.29	132.75
432.512	140.75
432.734	121.75
432.956	110.75
433.178	125.75
433.4	135.75
433.622	132.75
433.844	128.75
434.066	118.75
434.287	129.75
434.509	122.75
434.731	121.75
434.953	124.75
435.175	131.75
435.397	127.75
435.618	131.75
435.84	128.75
436.062	137.75
436.284	130.75
436.505	135.75
436.727	121.75
436.949	119.75
437.17	118.75
437.392	109.75
437.614	129.75
437.835	134.75
438.057	126.75
438.278	120.75
438.5	117.75
438.721	135.75
438.943	155.75
439.165	123.75
439.386	138.75
439.608	121.75
439.829	129.75
440.05	135.75
440.272	140.75
440.493	114.75
440.715	112.75
440.936	116.75
441.158	133.75
441.379	133.75
441.6	137.75
441.822	145.75
442.043	137.75
442.264	127.75
442.486	155.75
442.707	142.75
442.928	117.75
443.149	125.75
443.371	132.75
443.592	121.75
443.813	134.75
444.034	141.75
444.255	147.75
444.476	132.75
444.698	131.75
444.919	143.75
445.14	256.75
445.361	204.75
445.582	141.75
445.803	123.75
446.024	130.75
446.245	134.75
446.466	143.75
446.687	129.75
446.908	148.75
447.129	129.75
447.35	143.75
447.571	145.75
447.792	132.75
448.013	108.75
448.234	128.75
448.455	123.75
448.675	127.75
448.896	122.75
449.117	132.75
449.338	121.75
449.559	143.75
449.779	126.75
450	134.75
450.221	135.75
450.442	123.75
450.662	122.75
450.883	124.75
451.104	131.75
451.324	115.75
451.545	122.75
451.766	131.75
451.986	116.75
452.207	117.75
452.428	115.75
452.648	133.75
452.869	137.75
453.089	121.75
453.31	120.75
453.53	118.75
453.751	115.75
453.971	116.75
454.192	115.75
454.412	109.75
454.633	120.75
454.853	111.75
455.073	114.75
455.294	135.75
455.514	133.75
455.734	124.75
455.955	132.75
456.175	129.75
456.395	118.75
456.616	113.75
456.836	127.75
457.056	108.75
457.276	125.75
457.497	123.75
457.717	106.75
457.937	119.75
458.157	94.75
458.377	113.75
458.598	123.75
458.818	131.75
459.038	129.75
459.258	131.75
459.478	141.75
459.698	119.75
459.918	131.75
460.138	121.75
460.358	128.75
460.578	134.75
460.798	132.75
461.018	128.75
461.238	132.75
461.458	138.75
461.678	131.75
461.898	134.75
462.118	139.75
462.338	122.75
462.558	143.75
462.777	149.75
462.997	141.75
463.217	140.75
463.437	142.75
463.657	142.75
463.876	123.75
464.096	137.75
464.316	126.75
464.536	125.75
464.755	160.75
464.975	133.75
465.195	143.75
465.414	142.75
465.634	141.75
465.854	127.75
466.073	122.75
466.293	143.75
466.512	135.75
466.732	128.75
466.951	119.75
467.171	129.75
467.391	120.75
467.61	122.75
467.829	111.75
468.049	129.75
468.268	123.75
468.488	117.75
468.707	109.75
468.927	124.75
469.146	131.75
469.365	124.75
469.585	143.75
469.804	124.75
470.023	131.75
470.243	134.75
470.462	125.75
470.681	122.75
470.901	125.75
471.12	105.75
471.339	118.75
471.558	131.75
471.777	127.75
471.997	128.75
472.216	110.75
472.435	119.75
472.654	120.75
472.873	129.75
473.092	119.75
473.311	133.75
473.53	124.75
473.749	100.75
473.968	127.75
474.187	135.75
474.406	127.75
474.625	126.75
474.844	121.75
475.063	130.75
475.282	127.75
475.501	120.75
475.72	120.75
475.939	125.75
476.158	129.75
476.377	144.75
476.596	121.75
476.814	126.75
477.033	114.75
477.252	123.75
477.471	130.75
477.69	123.75
477.908	110.75
478.127	138.75
478.346	120.75
478.564	143.75
478.783	129.75
479.002	139.75
479.22	116.75
479.439	142.75
479.658	124.75
479.876	132.75
480.095	115.75
480.313	134.75
480.532	124.75
480.751	143.75
480.969	135.75
481.188	123.75
481.406	145.75
481.624	123.75
481.843	137.75
482.061	132.75
482.28	115.75
482.498	143.75
482.717	129.75
482.935	126.75
483.153	124.75
483.372	126.75
483.59	127.75
483.808	134.75
484.027	128.75
484.245	146.75
484.463	126.75
484.681	133.75
484.9	135.75
485.118	137.75
485.336	147.75
485.554	129.75
485.772	119.75
485.99	123.75
486.209	148.75
486.427	121.75
486.645	129.75
486.863	148.75
487.081	148.75
487.299	137.75
487.517	135.75
487.735	147.75
487.953	139.75
488.171	135.75
488.389	137.75
488.607	140.75
488.825	131.75
489.043	133.75
489.261	134.75
489.479	145.75
489.696	117.75
489.914	120.75
490.132	129.75
490.35	135.75
490.568	139.75
490.786	150.75
491.003	145.75
491.221	136.75
491.439	148.75
491.657	158.75
491.874	133.75
492.092	139.75
492.31	143.75
492.527	151.75
492.745	147.75
492.963	139.75
493.18	136.75
493.398	139.75
493.615	141.75
493.833	140.75
494.05	154.75
494.268	141.75
494.485	155.75
494.703	144.75
494.92	131.75
495.138	144.75
495.355	159.75
495.573	137.75
495.79	146.75
496.008	136.75
496.225	143.75
496.442	145.75
496.66	157.75
496.877	147.75
497.094	146.75
497.312	135.75
497.529	137.75
497.746	148.75
497.963	143.75
498.181	151.75
498.398	143.75
498.615	171.75
498.832	163.75
499.049	159.75
499.267	159.75
499.484	155.75
499.701	173.75
499.918	193.75
500.135	212.75
500.352	207.75
500.569	207.75
500.786	213.75
501.003	207.75
501.22	190.75
501.437	188.75
501.654	175.75
501.871	149.75
502.088	151.75
502.305	163.75
502.522	164.75
502.739	146.75
502.956	156.75
503.172	152.75
503.389	150.75
503.606	138.75
503.823	147.75
504.04	152.75
504.256	147.75
504.473	142.75
504.69	128.75
504.907	142.75
505.123	144.75
