Data from 1968.PennyLincolnUp.Lamp.En5.5.200Scan.071719.P1._HRD10591_14-50-07-969.txt Node
Date: Thu Jul 18 14:50:07 EDT 2019
User: cochatt
Spectrometer: HR+D1059
Trigger mode: 1
Integration Time (sec): 1.000000E-1
Scans to average: 1
Electric dark correction enabled: true
Nonlinearity correction enabled: false
Boxcar width: 0
XAxis mode: Wavelengths
Number of Pixels in Spectrum: 2048
>>>>>Begin Spectral Data<<<<<
223.165	-16.44
223.4	-16.44
223.635	-16.44
223.869	-16.44
224.104	-19.44
224.338	-14.44
224.573	-13.44
224.808	-10.44
225.042	0.56
225.277	3.56
225.511	-2.44
225.746	-14.44
225.98	14.56
226.215	5.56
226.449	20.56
226.683	24.56
226.918	7.56
227.152	30.56
227.387	34.56
227.621	27.56
227.856	47.56
228.09	46.56
228.324	52.56
228.559	65.56
228.793	62.56
229.027	87.56
229.262	65.56
229.496	59.56
229.73	66.56
229.964	79.56
230.199	66.56
230.433	71.56
230.667	90.56
230.901	80.56
231.136	93.56
231.37	93.56
231.604	82.56
231.838	100.56
232.072	88.56
232.306	84.56
232.541	84.56
232.775	79.56
233.009	92.56
233.243	90.56
233.477	68.56
233.711	95.56
233.945	84.56
234.179	96.56
234.413	78.56
234.647	88.56
234.881	86.56
235.115	83.56
235.349	78.56
235.583	83.56
235.817	78.56
236.051	88.56
236.285	81.56
236.519	79.56
236.753	85.56
236.987	88.56
237.221	96.56
237.455	89.56
237.689	90.56
237.922	85.56
238.156	76.56
238.39	80.56
238.624	79.56
238.858	81.56
239.091	81.56
239.325	94.56
239.559	87.56
239.793	83.56
240.027	72.56
240.26	86.56
240.494	85.56
240.728	82.56
240.961	89.56
241.195	84.56
241.429	81.56
241.662	80.56
241.896	84.56
242.13	78.56
242.363	69.56
242.597	79.56
242.83	89.56
243.064	84.56
243.298	81.56
243.531	79.56
243.765	89.56
243.998	85.56
244.232	78.56
244.465	95.56
244.699	85.56
244.932	86.56
245.166	80.56
245.399	86.56
245.633	98.56
245.866	100.56
246.099	85.56
246.333	81.56
246.566	86.56
246.8	87.56
247.033	83.56
247.266	89.56
247.5	69.56
247.733	106.56
247.966	90.56
248.2	76.56
248.433	66.56
248.666	74.56
248.899	92.56
249.133	93.56
249.366	97.56
249.599	78.56
249.832	89.56
250.066	97.56
250.299	92.56
250.532	81.56
250.765	97.56
250.998	94.56
251.231	76.56
251.465	78.56
251.698	93.56
251.931	67.56
252.164	88.56
252.397	91.56
252.63	94.56
252.863	102.56
253.096	99.56
253.329	93.56
253.562	93.56
253.795	94.56
254.028	91.56
254.261	83.56
254.494	107.56
254.727	84.56
254.96	98.56
255.193	84.56
255.426	111.56
255.659	96.56
255.892	88.56
256.124	92.56
256.357	87.56
256.59	94.56
256.823	104.56
257.056	86.56
257.289	90.56
257.521	73.56
257.754	115.56
257.987	106.56
258.22	93.56
258.452	89.56
258.685	86.56
258.918	88.56
259.151	106.56
259.383	96.56
259.616	82.56
259.849	91.56
260.081	97.56
260.314	103.56
260.547	96.56
260.779	88.56
261.012	90.56
261.244	107.56
261.477	92.56
261.71	94.56
261.942	102.56
262.175	91.56
262.407	84.56
262.64	102.56
262.872	109.56
263.105	86.56
263.337	94.56
263.57	91.56
263.802	110.56
264.035	89.56
264.267	93.56
264.499	85.56
264.732	104.56
264.964	84.56
265.197	94.56
265.429	92.56
265.661	92.56
265.894	95.56
266.126	103.56
266.358	98.56
266.591	89.56
266.823	101.56
267.055	93.56
267.287	104.56
267.52	102.56
267.752	99.56
267.984	85.56
268.216	99.56
268.448	108.56
268.681	93.56
268.913	99.56
269.145	91.56
269.377	107.56
269.609	98.56
269.841	93.56
270.073	100.56
270.306	109.56
270.538	102.56
270.77	111.56
271.002	86.56
271.234	101.56
271.466	100.56
271.698	112.56
271.93	95.56
272.162	108.56
272.394	94.56
272.626	96.56
272.858	99.56
273.09	96.56
273.322	92.56
273.553	84.56
273.785	84.56
274.017	94.56
274.249	105.56
274.481	90.56
274.713	109.56
274.945	105.56
275.176	101.56
275.408	111.56
275.64	92.56
275.872	86.56
276.104	95.56
276.335	103.56
276.567	95.56
276.799	96.56
277.031	105.56
277.262	110.56
277.494	103.56
277.726	108.56
277.957	101.56
278.189	105.56
278.421	105.56
278.652	92.56
278.884	96.56
279.115	82.56
279.347	95.56
279.579	90.56
279.81	94.56
280.042	96.56
280.273	96.56
280.505	93.56
280.736	103.56
280.968	103.56
281.199	98.56
281.431	86.56
281.662	88.56
281.894	91.56
282.125	98.56
282.356	101.56
282.588	117.56
282.819	108.56
283.051	114.56
283.282	124.56
283.513	95.56
283.745	112.56
283.976	121.56
284.207	89.56
284.439	113.56
284.67	110.56
284.901	109.56
285.132	111.56
285.364	108.56
285.595	101.56
285.826	86.56
286.057	108.56
286.288	107.56
286.52	98.56
286.751	96.56
286.982	99.56
287.213	113.56
287.444	118.56
287.675	95.56
287.906	100.56
288.138	120.56
288.369	103.56
288.6	117.56
288.831	96.56
289.062	109.56
289.293	105.56
289.524	97.56
289.755	96.56
289.986	117.56
290.217	112.56
290.448	89.56
290.679	86.56
290.91	102.56
291.141	100.56
291.371	107.56
291.602	115.56
291.833	103.56
292.064	105.56
292.295	98.56
292.526	99.56
292.757	95.56
292.987	98.56
293.218	118.56
293.449	105.56
293.68	95.56
293.91	113.56
294.141	104.56
294.372	106.56
294.603	112.56
294.833	93.56
295.064	110.56
295.295	102.56
295.525	95.56
295.756	93.56
295.987	130.56
296.217	98.56
296.448	113.56
296.679	113.56
296.909	112.56
297.14	108.56
297.37	97.56
297.601	106.56
297.831	107.56
298.062	92.56
298.292	105.56
298.523	111.56
298.753	105.56
298.984	92.56
299.214	109.56
299.445	109.56
299.675	101.56
299.905	110.56
300.136	99.56
300.366	107.56
300.597	107.56
300.827	112.56
301.057	105.56
301.288	94.56
301.518	96.56
301.748	102.56
301.979	110.56
302.209	101.56
302.439	114.56
302.669	102.56
302.9	105.56
303.13	112.56
303.36	110.56
303.59	114.56
303.82	102.56
304.051	116.56
304.281	107.56
304.511	112.56
304.741	116.56
304.971	112.56
305.201	109.56
305.431	119.56
305.661	95.56
305.891	111.56
306.121	122.56
306.352	102.56
306.582	110.56
306.812	98.56
307.042	94.56
307.272	113.56
307.502	114.56
307.731	113.56
307.961	100.56
308.191	106.56
308.421	124.56
308.651	117.56
308.881	124.56
309.111	104.56
309.341	101.56
309.571	105.56
309.8	105.56
310.03	97.56
310.26	113.56
310.49	98.56
310.72	120.56
310.949	103.56
311.179	107.56
311.409	122.56
311.639	105.56
311.868	102.56
312.098	110.56
312.328	101.56
312.557	103.56
312.787	101.56
313.017	111.56
313.246	105.56
313.476	116.56
313.706	115.56
313.935	124.56
314.165	127.56
314.394	103.56
314.624	118.56
314.853	122.56
315.083	104.56
315.312	89.56
315.542	94.56
315.771	108.56
316.001	92.56
316.23	119.56
316.46	117.56
316.689	114.56
316.919	116.56
317.148	121.56
317.377	105.56
317.607	113.56
317.836	109.56
318.065	108.56
318.295	117.56
318.524	113.56
318.753	117.56
318.983	100.56
319.212	98.56
319.441	109.56
319.67	125.56
319.9	89.56
320.129	99.56
320.358	111.56
320.587	94.56
320.816	96.56
321.046	100.56
321.275	98.56
321.504	123.56
321.733	107.56
321.962	106.56
322.191	105.56
322.42	110.56
322.649	113.56
322.878	120.56
323.108	124.56
323.337	119.56
323.566	130.56
323.795	107.56
324.024	111.56
324.253	136.56
324.482	146.56
324.71	143.56
324.939	170.56
325.168	160.56
325.397	131.56
325.626	128.56
325.855	123.56
326.084	121.56
326.313	106.56
326.542	109.56
326.77	124.56
326.999	125.56
327.228	132.56
327.457	146.56
327.686	148.56
327.914	129.56
328.143	102.56
328.372	118.56
328.6	112.56
328.829	116.56
329.058	109.56
329.287	117.56
329.515	113.56
329.744	121.56
329.972	105.56
330.201	129.56
330.43	121.56
330.658	121.56
330.887	111.56
331.115	104.56
331.344	115.56
331.572	112.56
331.801	100.56
332.03	112.56
332.258	127.56
332.486	123.56
332.715	119.56
332.943	133.56
333.172	110.56
333.4	106.56
333.629	119.56
333.857	126.56
334.085	122.56
334.314	112.56
334.542	119.56
334.771	116.56
334.999	113.56
335.227	126.56
335.455	122.56
335.684	118.56
335.912	120.56
336.14	118.56
336.369	121.56
336.597	125.56
336.825	137.56
337.053	120.56
337.281	128.56
337.51	132.56
337.738	114.56
337.966	98.56
338.194	129.56
338.422	113.56
338.65	110.56
338.878	105.56
339.106	109.56
339.334	128.56
339.562	114.56
339.79	108.56
340.018	102.56
340.246	111.56
340.474	110.56
340.702	109.56
340.93	112.56
341.158	124.56
341.386	107.56
341.614	125.56
341.842	112.56
342.07	114.56
342.298	108.56
342.526	113.56
342.754	111.56
342.981	126.56
343.209	122.56
343.437	124.56
343.665	128.56
343.893	110.56
344.12	120.56
344.348	121.56
344.576	114.56
344.804	124.56
345.031	116.56
345.259	122.56
345.487	126.56
345.714	125.56
345.942	124.56
346.17	125.56
346.397	103.56
346.625	101.56
346.853	112.56
347.08	122.56
347.308	105.56
347.535	106.56
347.763	113.56
347.99	102.56
348.218	114.56
348.445	119.56
348.673	107.56
348.9	122.56
349.128	123.56
349.355	120.56
349.583	110.56
349.81	120.56
350.037	113.56
350.265	112.56
350.492	126.56
350.72	103.56
350.947	116.56
351.174	124.56
351.402	120.56
351.629	115.56
351.856	114.56
352.083	113.56
352.311	113.56
352.538	105.56
352.765	109.56
352.992	124.56
353.22	116.56
353.447	104.56
353.674	121.56
353.901	119.56
354.128	104.56
354.355	106.56
354.583	108.56
354.81	107.56
355.037	102.56
355.264	113.56
355.491	102.56
355.718	110.56
355.945	119.56
356.172	116.56
356.399	121.56
356.626	102.56
356.853	116.56
357.08	105.56
357.307	105.56
357.534	121.56
357.761	107.56
357.988	110.56
358.215	104.56
358.441	118.56
358.668	119.56
358.895	116.56
359.122	119.56
359.349	117.56
359.576	123.56
359.802	122.56
360.029	116.56
360.256	111.56
360.483	116.56
360.709	106.56
360.936	132.56
361.163	124.56
361.39	130.56
361.616	105.56
361.843	105.56
362.07	111.56
362.296	127.56
362.523	115.56
362.749	124.56
362.976	108.56
363.203	105.56
363.429	126.56
363.656	124.56
363.882	113.56
364.109	108.56
364.335	113.56
364.562	110.56
364.788	103.56
365.015	107.56
365.241	123.56
365.468	108.56
365.694	99.56
365.92	117.56
366.147	106.56
366.373	112.56
366.599	104.56
366.826	113.56
367.052	111.56
367.278	116.56
367.505	100.56
367.731	121.56
367.957	123.56
368.184	106.56
368.41	120.56
368.636	116.56
368.862	110.56
369.089	116.56
369.315	126.56
369.541	122.56
369.767	133.56
369.993	107.56
370.219	109.56
370.445	109.56
370.672	112.56
370.898	95.56
371.124	113.56
371.35	116.56
371.576	107.56
371.802	114.56
372.028	106.56
372.254	114.56
372.48	116.56
372.706	102.56
372.932	124.56
373.158	97.56
373.384	114.56
373.61	103.56
373.835	118.56
374.061	109.56
374.287	117.56
374.513	108.56
374.739	114.56
374.965	107.56
375.191	111.56
375.416	120.56
375.642	113.56
375.868	110.56
376.094	118.56
376.319	111.56
376.545	118.56
376.771	116.56
376.997	130.56
377.222	119.56
377.448	114.56
377.674	116.56
377.899	118.56
378.125	125.56
378.35	117.56
378.576	122.56
378.802	116.56
379.027	116.56
379.253	117.56
379.478	126.56
379.704	110.56
379.929	122.56
380.155	111.56
380.38	132.56
380.606	105.56
380.831	116.56
381.057	125.56
381.282	114.56
381.507	123.56
381.733	125.56
381.958	119.56
382.184	112.56
382.409	110.56
382.634	126.56
382.86	128.56
383.085	112.56
383.31	126.56
383.535	117.56
383.761	109.56
383.986	108.56
384.211	117.56
384.436	122.56
384.662	111.56
384.887	122.56
385.112	125.56
385.337	124.56
385.562	111.56
385.787	128.56
386.013	126.56
386.238	137.56
386.463	116.56
386.688	114.56
386.913	101.56
387.138	108.56
387.363	121.56
387.588	138.56
387.813	126.56
388.038	123.56
388.263	112.56
388.488	137.56
388.713	131.56
388.938	128.56
389.163	110.56
389.387	107.56
389.612	119.56
389.837	114.56
390.062	120.56
390.287	116.56
390.512	121.56
390.736	118.56
390.961	138.56
391.186	132.56
391.411	116.56
391.636	97.56
391.86	122.56
392.085	124.56
392.31	128.56
392.534	125.56
392.759	133.56
392.984	110.56
393.208	123.56
393.433	107.56
393.658	121.56
393.882	110.56
394.107	111.56
394.331	115.56
394.556	119.56
394.78	113.56
395.005	132.56
395.229	120.56
395.454	128.56
395.678	128.56
395.903	136.56
396.127	123.56
396.352	111.56
396.576	125.56
396.801	126.56
397.025	124.56
397.249	123.56
397.474	130.56
397.698	114.56
397.922	123.56
398.147	122.56
398.371	127.56
398.595	154.56
398.82	138.56
399.044	135.56
399.268	141.56
399.492	140.56
399.717	148.56
399.941	152.56
400.165	136.56
400.389	132.56
400.613	125.56
400.837	150.56
401.062	128.56
401.286	128.56
401.51	131.56
401.734	128.56
401.958	127.56
402.182	145.56
402.406	126.56
402.63	121.56
402.854	124.56
403.078	145.56
403.302	125.56
403.526	139.56
403.75	134.56
403.974	130.56
404.198	141.56
404.422	140.56
404.645	138.56
404.869	147.56
405.093	129.56
405.317	156.56
405.541	158.56
405.765	119.56
405.988	129.56
406.212	133.56
406.436	121.56
406.66	128.56
406.883	137.56
407.107	127.56
407.331	129.56
407.555	138.56
407.778	144.56
408.002	123.56
408.226	151.56
408.449	142.56
408.673	142.56
408.896	142.56
409.12	139.56
409.344	141.56
409.567	125.56
409.791	136.56
410.014	133.56
410.238	129.56
410.461	131.56
410.685	126.56
410.908	129.56
411.132	124.56
411.355	126.56
411.578	134.56
411.802	124.56
412.025	112.56
412.249	140.56
412.472	137.56
412.695	117.56
412.919	132.56
413.142	122.56
413.365	122.56
413.589	132.56
413.812	137.56
414.035	121.56
414.258	128.56
414.482	134.56
414.705	114.56
414.928	127.56
415.151	120.56
415.374	139.56
415.597	133.56
415.821	136.56
416.044	123.56
416.267	129.56
416.49	135.56
416.713	130.56
416.936	123.56
417.159	125.56
417.382	130.56
417.605	132.56
417.828	122.56
418.051	132.56
418.274	137.56
418.497	127.56
418.72	127.56
418.943	126.56
419.166	130.56
419.389	137.56
419.611	143.56
419.834	132.56
420.057	129.56
420.28	121.56
420.503	137.56
420.726	125.56
420.948	148.56
421.171	126.56
421.394	129.56
421.617	132.56
421.839	141.56
422.062	124.56
422.285	108.56
422.507	131.56
422.73	135.56
422.953	133.56
423.175	136.56
423.398	138.56
423.621	130.56
423.843	135.56
424.066	150.56
424.288	130.56
424.511	122.56
424.733	143.56
424.956	138.56
425.178	137.56
425.401	136.56
425.623	147.56
425.846	136.56
426.068	134.56
426.291	128.56
426.513	132.56
426.735	124.56
426.958	132.56
427.18	148.56
427.402	150.56
427.625	164.56
427.847	148.56
428.069	136.56
428.292	135.56
428.514	124.56
428.736	129.56
428.958	142.56
429.181	137.56
429.403	122.56
429.625	146.56
429.847	131.56
430.069	120.56
430.292	128.56
430.514	112.56
430.736	116.56
430.958	134.56
431.18	130.56
431.402	130.56
431.624	127.56
431.846	136.56
432.068	122.56
432.29	129.56
432.512	124.56
432.734	132.56
432.956	130.56
433.178	132.56
433.4	138.56
433.622	124.56
433.844	136.56
434.066	131.56
434.287	127.56
434.509	126.56
434.731	124.56
434.953	132.56
435.175	133.56
435.397	133.56
435.618	135.56
435.84	140.56
436.062	153.56
436.284	148.56
436.505	130.56
436.727	126.56
436.949	119.56
437.17	129.56
437.392	137.56
437.614	113.56
437.835	128.56
438.057	130.56
438.278	137.56
438.5	148.56
438.721	128.56
438.943	125.56
439.165	138.56
439.386	127.56
439.608	144.56
439.829	130.56
440.05	128.56
440.272	122.56
440.493	127.56
440.715	128.56
440.936	118.56
441.158	128.56
441.379	132.56
441.6	135.56
441.822	121.56
442.043	144.56
442.264	128.56
442.486	142.56
442.707	132.56
442.928	140.56
443.149	128.56
443.371	132.56
443.592	133.56
443.813	129.56
444.034	150.56
444.255	146.56
444.476	140.56
444.698	127.56
444.919	144.56
445.14	269.56
445.361	188.56
445.582	144.56
445.803	138.56
446.024	131.56
446.245	150.56
446.466	138.56
446.687	118.56
446.908	126.56
447.129	136.56
447.35	132.56
447.571	128.56
447.792	129.56
448.013	118.56
448.234	135.56
448.455	134.56
448.675	142.56
448.896	154.56
449.117	134.56
449.338	132.56
449.559	127.56
449.779	148.56
450	120.56
450.221	133.56
450.442	130.56
450.662	128.56
450.883	136.56
451.104	116.56
451.324	130.56
451.545	128.56
451.766	113.56
451.986	122.56
452.207	125.56
452.428	131.56
452.648	129.56
452.869	124.56
453.089	126.56
453.31	134.56
453.53	127.56
453.751	122.56
453.971	107.56
454.192	103.56
454.412	114.56
454.633	116.56
454.853	124.56
455.073	114.56
455.294	120.56
455.514	112.56
455.734	131.56
455.955	124.56
456.175	122.56
456.395	108.56
456.616	106.56
456.836	131.56
457.056	120.56
457.276	116.56
457.497	130.56
457.717	136.56
457.937	132.56
458.157	127.56
458.377	113.56
458.598	112.56
458.818	134.56
459.038	134.56
459.258	119.56
459.478	135.56
459.698	138.56
459.918	127.56
460.138	132.56
460.358	130.56
460.578	128.56
460.798	138.56
461.018	116.56
461.238	138.56
461.458	138.56
461.678	130.56
461.898	129.56
462.118	129.56
462.338	132.56
462.558	116.56
462.777	132.56
462.997	138.56
463.217	144.56
463.437	147.56
463.657	140.56
463.876	143.56
464.096	130.56
464.316	140.56
464.536	146.56
464.755	128.56
464.975	144.56
465.195	158.56
465.414	127.56
465.634	138.56
465.854	136.56
466.073	121.56
466.293	130.56
466.512	124.56
466.732	112.56
466.951	122.56
467.171	128.56
467.391	133.56
467.61	127.56
467.829	121.56
468.049	126.56
468.268	119.56
468.488	134.56
468.707	135.56
468.927	103.56
469.146	127.56
469.365	111.56
469.585	125.56
469.804	124.56
470.023	133.56
470.243	130.56
470.462	123.56
470.681	120.56
470.901	134.56
471.12	126.56
471.339	116.56
471.558	132.56
471.777	118.56
471.997	136.56
472.216	116.56
472.435	131.56
472.654	127.56
472.873	123.56
473.092	123.56
473.311	124.56
473.53	127.56
473.749	124.56
473.968	136.56
474.187	135.56
474.406	120.56
474.625	133.56
474.844	110.56
475.063	121.56
475.282	120.56
475.501	128.56
475.72	127.56
475.939	124.56
476.158	127.56
476.377	128.56
476.596	132.56
476.814	131.56
477.033	137.56
477.252	127.56
477.471	146.56
477.69	142.56
477.908	131.56
478.127	135.56
478.346	132.56
478.564	131.56
478.783	125.56
479.002	130.56
479.22	142.56
479.439	142.56
479.658	133.56
479.876	134.56
480.095	134.56
480.313	141.56
480.532	144.56
480.751	135.56
480.969	128.56
481.188	130.56
481.406	145.56
481.624	109.56
481.843	116.56
482.061	121.56
482.28	125.56
482.498	131.56
482.717	130.56
482.935	126.56
483.153	132.56
483.372	144.56
483.59	129.56
483.808	128.56
484.027	142.56
484.245	124.56
484.463	122.56
484.681	130.56
484.9	135.56
485.118	133.56
485.336	129.56
485.554	138.56
485.772	134.56
485.99	127.56
486.209	138.56
486.427	125.56
486.645	134.56
486.863	131.56
487.081	133.56
487.299	133.56
487.517	126.56
487.735	126.56
487.953	144.56
488.171	146.56
488.389	131.56
488.607	140.56
488.825	131.56
489.043	135.56
489.261	136.56
489.479	140.56
489.696	130.56
489.914	144.56
490.132	136.56
490.35	152.56
490.568	138.56
490.786	130.56
491.003	141.56
491.221	132.56
491.439	155.56
491.657	147.56
491.874	144.56
492.092	157.56
492.31	154.56
492.527	151.56
492.745	156.56
492.963	141.56
493.18	155.56
493.398	150.56
493.615	129.56
493.833	132.56
494.05	161.56
494.268	150.56
494.485	137.56
494.703	140.56
494.92	128.56
495.138	156.56
495.355	163.56
495.573	137.56
495.79	144.56
496.008	157.56
496.225	158.56
496.442	132.56
496.66	163.56
496.877	146.56
497.094	156.56
497.312	165.56
497.529	152.56
497.746	132.56
497.963	141.56
498.181	151.56
498.398	162.56
498.615	147.56
498.832	151.56
499.049	162.56
499.267	161.56
499.484	186.56
499.701	165.56
499.918	198.56
500.135	201.56
500.352	203.56
500.569	198.56
500.786	217.56
501.003	212.56
501.22	186.56
501.437	176.56
501.654	168.56
501.871	165.56
502.088	169.56
502.305	160.56
502.522	168.56
502.739	163.56
502.956	152.56
503.172	142.56
503.389	138.56
503.606	157.56
503.823	152.56
504.04	146.56
504.256	159.56
504.473	136.56
504.69	158.56
504.907	167.56
505.123	145.56
