Data from 1968.PennyLincolnUp.Lamp.En5.5.200Scan.071719.P1._HRD10591_14-49-18-969.txt Node
Date: Thu Jul 18 14:49:18 EDT 2019
User: cochatt
Spectrometer: HR+D1059
Trigger mode: 1
Integration Time (sec): 1.000000E-1
Scans to average: 1
Electric dark correction enabled: true
Nonlinearity correction enabled: false
Boxcar width: 0
XAxis mode: Wavelengths
Number of Pixels in Spectrum: 2048
>>>>>Begin Spectral Data<<<<<
223.165	3.38
223.4	3.38
223.635	3.38
223.869	-12.62
224.104	-34.62
224.338	-20.62
224.573	-7.62
224.808	-8.62
225.042	5.38
225.277	-1.62
225.511	-9.62
225.746	1.38
225.98	9.38
226.215	18.38
226.449	-6.62
226.683	20.38
226.918	17.38
227.152	26.38
227.387	38.38
227.621	44.38
227.856	29.38
228.09	39.38
228.324	48.38
228.559	47.38
228.793	55.38
229.027	60.38
229.262	61.38
229.496	77.38
229.73	72.38
229.964	83.38
230.199	64.38
230.433	83.38
230.667	77.38
230.901	83.38
231.136	81.38
231.37	87.38
231.604	83.38
231.838	86.38
232.072	69.38
232.306	92.38
232.541	84.38
232.775	103.38
233.009	87.38
233.243	96.38
233.477	69.38
233.711	88.38
233.945	79.38
234.179	84.38
234.413	86.38
234.647	90.38
234.881	83.38
235.115	85.38
235.349	90.38
235.583	87.38
235.817	90.38
236.051	85.38
236.285	82.38
236.519	81.38
236.753	82.38
236.987	94.38
237.221	68.38
237.455	78.38
237.689	81.38
237.922	80.38
238.156	68.38
238.39	76.38
238.624	85.38
238.858	78.38
239.091	85.38
239.325	73.38
239.559	78.38
239.793	88.38
240.027	74.38
240.26	84.38
240.494	81.38
240.728	89.38
240.961	82.38
241.195	81.38
241.429	82.38
241.662	88.38
241.896	81.38
242.13	64.38
242.363	79.38
242.597	77.38
242.83	74.38
243.064	89.38
243.298	79.38
243.531	76.38
243.765	77.38
243.998	79.38
244.232	85.38
244.465	95.38
244.699	82.38
244.932	89.38
245.166	76.38
245.399	79.38
245.633	87.38
245.866	87.38
246.099	83.38
246.333	77.38
246.566	85.38
246.8	71.38
247.033	82.38
247.266	90.38
247.5	96.38
247.733	85.38
247.966	95.38
248.2	82.38
248.433	78.38
248.666	84.38
248.899	94.38
249.133	102.38
249.366	88.38
249.599	82.38
249.832	96.38
250.066	95.38
250.299	92.38
250.532	87.38
250.765	79.38
250.998	85.38
251.231	85.38
251.465	76.38
251.698	90.38
251.931	77.38
252.164	93.38
252.397	86.38
252.63	95.38
252.863	82.38
253.096	88.38
253.329	80.38
253.562	85.38
253.795	67.38
254.028	86.38
254.261	78.38
254.494	90.38
254.727	91.38
254.96	102.38
255.193	90.38
255.426	88.38
255.659	87.38
255.892	93.38
256.124	94.38
256.357	104.38
256.59	87.38
256.823	84.38
257.056	100.38
257.289	90.38
257.521	96.38
257.754	90.38
257.987	92.38
258.22	91.38
258.452	95.38
258.685	83.38
258.918	88.38
259.151	87.38
259.383	91.38
259.616	74.38
259.849	103.38
260.081	92.38
260.314	92.38
260.547	84.38
260.779	86.38
261.012	79.38
261.244	102.38
261.477	97.38
261.71	92.38
261.942	99.38
262.175	89.38
262.407	99.38
262.64	93.38
262.872	87.38
263.105	93.38
263.337	94.38
263.57	89.38
263.802	90.38
264.035	79.38
264.267	99.38
264.499	84.38
264.732	104.38
264.964	98.38
265.197	88.38
265.429	83.38
265.661	91.38
265.894	82.38
266.126	99.38
266.358	96.38
266.591	113.38
266.823	98.38
267.055	87.38
267.287	94.38
267.52	98.38
267.752	101.38
267.984	103.38
268.216	93.38
268.448	93.38
268.681	87.38
268.913	98.38
269.145	115.38
269.377	99.38
269.609	101.38
269.841	103.38
270.073	98.38
270.306	97.38
270.538	104.38
270.77	98.38
271.002	96.38
271.234	113.38
271.466	86.38
271.698	105.38
271.93	86.38
272.162	85.38
272.394	102.38
272.626	100.38
272.858	101.38
273.09	95.38
273.322	90.38
273.553	87.38
273.785	98.38
274.017	101.38
274.249	98.38
274.481	96.38
274.713	100.38
274.945	92.38
275.176	96.38
275.408	78.38
275.64	111.38
275.872	87.38
276.104	92.38
276.335	99.38
276.567	94.38
276.799	96.38
277.031	67.38
277.262	108.38
277.494	106.38
277.726	99.38
277.957	93.38
278.189	102.38
278.421	94.38
278.652	99.38
278.884	79.38
279.115	106.38
279.347	101.38
279.579	87.38
279.81	88.38
280.042	99.38
280.273	97.38
280.505	96.38
280.736	107.38
280.968	90.38
281.199	116.38
281.431	89.38
281.662	99.38
281.894	94.38
282.125	89.38
282.356	102.38
282.588	96.38
282.819	108.38
283.051	104.38
283.282	97.38
283.513	101.38
283.745	105.38
283.976	91.38
284.207	86.38
284.439	102.38
284.67	96.38
284.901	106.38
285.132	121.38
285.364	93.38
285.595	103.38
285.826	99.38
286.057	104.38
286.288	96.38
286.52	95.38
286.751	81.38
286.982	105.38
287.213	98.38
287.444	109.38
287.675	103.38
287.906	106.38
288.138	95.38
288.369	110.38
288.6	102.38
288.831	116.38
289.062	107.38
289.293	106.38
289.524	91.38
289.755	113.38
289.986	105.38
290.217	94.38
290.448	110.38
290.679	102.38
290.91	89.38
291.141	106.38
291.371	102.38
291.602	98.38
291.833	79.38
292.064	100.38
292.295	94.38
292.526	99.38
292.757	94.38
292.987	94.38
293.218	107.38
293.449	91.38
293.68	100.38
293.91	99.38
294.141	105.38
294.372	100.38
294.603	108.38
294.833	104.38
295.064	101.38
295.295	114.38
295.525	95.38
295.756	98.38
295.987	118.38
296.217	106.38
296.448	98.38
296.679	106.38
296.909	109.38
297.14	106.38
297.37	106.38
297.601	99.38
297.831	117.38
298.062	93.38
298.292	101.38
298.523	111.38
298.753	109.38
298.984	108.38
299.214	98.38
299.445	96.38
299.675	84.38
299.905	98.38
300.136	96.38
300.366	104.38
300.597	107.38
300.827	93.38
301.057	97.38
301.288	107.38
301.518	94.38
301.748	109.38
301.979	98.38
302.209	114.38
302.439	91.38
302.669	100.38
302.9	93.38
303.13	90.38
303.36	102.38
303.59	89.38
303.82	104.38
304.051	105.38
304.281	118.38
304.511	102.38
304.741	107.38
304.971	104.38
305.201	110.38
305.431	96.38
305.661	114.38
305.891	107.38
306.121	107.38
306.352	101.38
306.582	96.38
306.812	94.38
307.042	101.38
307.272	107.38
307.502	114.38
307.731	103.38
307.961	109.38
308.191	106.38
308.421	109.38
308.651	103.38
308.881	115.38
309.111	116.38
309.341	114.38
309.571	99.38
309.8	107.38
310.03	117.38
310.26	107.38
310.49	107.38
310.72	98.38
310.949	116.38
311.179	106.38
311.409	117.38
311.639	118.38
311.868	108.38
312.098	104.38
312.328	99.38
312.557	110.38
312.787	119.38
313.017	104.38
313.246	108.38
313.476	102.38
313.706	114.38
313.935	104.38
314.165	117.38
314.394	117.38
314.624	118.38
314.853	126.38
315.083	116.38
315.312	107.38
315.542	120.38
315.771	106.38
316.001	107.38
316.23	109.38
316.46	95.38
316.689	95.38
316.919	108.38
317.148	102.38
317.377	128.38
317.607	111.38
317.836	105.38
318.065	98.38
318.295	106.38
318.524	100.38
318.753	111.38
318.983	107.38
319.212	110.38
319.441	111.38
319.67	111.38
319.9	103.38
320.129	118.38
320.358	112.38
320.587	91.38
320.816	108.38
321.046	108.38
321.275	107.38
321.504	102.38
321.733	117.38
321.962	126.38
322.191	109.38
322.42	110.38
322.649	99.38
322.878	116.38
323.108	100.38
323.337	117.38
323.566	103.38
323.795	103.38
324.024	116.38
324.253	119.38
324.482	123.38
324.71	149.38
324.939	161.38
325.168	117.38
325.397	115.38
325.626	108.38
325.855	113.38
326.084	107.38
326.313	114.38
326.542	107.38
326.77	108.38
326.999	125.38
327.228	123.38
327.457	124.38
327.686	137.38
327.914	122.38
328.143	122.38
328.372	100.38
328.6	119.38
328.829	106.38
329.058	107.38
329.287	108.38
329.515	126.38
329.744	108.38
329.972	111.38
330.201	111.38
330.43	119.38
330.658	123.38
330.887	130.38
331.115	120.38
331.344	118.38
331.572	106.38
331.801	105.38
332.03	109.38
332.258	113.38
332.486	118.38
332.715	105.38
332.943	106.38
333.172	118.38
333.4	121.38
333.629	117.38
333.857	109.38
334.085	101.38
334.314	118.38
334.542	120.38
334.771	110.38
334.999	129.38
335.227	135.38
335.455	108.38
335.684	101.38
335.912	105.38
336.14	106.38
336.369	117.38
336.597	126.38
336.825	114.38
337.053	116.38
337.281	116.38
337.51	112.38
337.738	121.38
337.966	116.38
338.194	115.38
338.422	119.38
338.65	122.38
338.878	117.38
339.106	101.38
339.334	104.38
339.562	108.38
339.79	99.38
340.018	116.38
340.246	103.38
340.474	109.38
340.702	96.38
340.93	107.38
341.158	107.38
341.386	116.38
341.614	102.38
341.842	110.38
342.07	103.38
342.298	111.38
342.526	103.38
342.754	109.38
342.981	114.38
343.209	107.38
343.437	115.38
343.665	121.38
343.893	116.38
344.12	112.38
344.348	114.38
344.576	115.38
344.804	116.38
345.031	113.38
345.259	121.38
345.487	106.38
345.714	114.38
345.942	112.38
346.17	101.38
346.397	110.38
346.625	106.38
346.853	105.38
347.08	120.38
347.308	105.38
347.535	102.38
347.763	105.38
347.99	105.38
348.218	120.38
348.445	104.38
348.673	126.38
348.9	109.38
349.128	110.38
349.355	123.38
349.583	115.38
349.81	125.38
350.037	102.38
350.265	113.38
350.492	110.38
350.72	105.38
350.947	114.38
351.174	117.38
351.402	108.38
351.629	98.38
351.856	96.38
352.083	109.38
352.311	119.38
352.538	99.38
352.765	97.38
352.992	106.38
353.22	99.38
353.447	107.38
353.674	119.38
353.901	107.38
354.128	119.38
354.355	117.38
354.583	111.38
354.81	115.38
355.037	111.38
355.264	117.38
355.491	95.38
355.718	115.38
355.945	141.38
356.172	118.38
356.399	101.38
356.626	90.38
356.853	114.38
357.08	114.38
357.307	119.38
357.534	101.38
357.761	115.38
357.988	119.38
358.215	125.38
358.441	101.38
358.668	108.38
358.895	100.38
359.122	109.38
359.349	102.38
359.576	116.38
359.802	103.38
360.029	100.38
360.256	119.38
360.483	106.38
360.709	109.38
360.936	124.38
361.163	89.38
361.39	119.38
361.616	106.38
361.843	96.38
362.07	117.38
362.296	114.38
362.523	101.38
362.749	106.38
362.976	119.38
363.203	117.38
363.429	100.38
363.656	101.38
363.882	103.38
364.109	109.38
364.335	115.38
364.562	94.38
364.788	113.38
365.015	111.38
365.241	113.38
365.468	115.38
365.694	119.38
365.92	104.38
366.147	111.38
366.373	100.38
366.599	108.38
366.826	110.38
367.052	104.38
367.278	118.38
367.505	110.38
367.731	106.38
367.957	111.38
368.184	114.38
368.41	108.38
368.636	113.38
368.862	121.38
369.089	111.38
369.315	111.38
369.541	120.38
369.767	114.38
369.993	111.38
370.219	110.38
370.445	96.38
370.672	117.38
370.898	107.38
371.124	113.38
371.35	106.38
371.576	121.38
371.802	117.38
372.028	114.38
372.254	120.38
372.48	109.38
372.706	105.38
372.932	118.38
373.158	109.38
373.384	123.38
373.61	119.38
373.835	118.38
374.061	117.38
374.287	100.38
374.513	119.38
374.739	81.38
374.965	122.38
375.191	101.38
375.416	117.38
375.642	115.38
375.868	123.38
376.094	115.38
376.319	110.38
376.545	106.38
376.771	103.38
376.997	101.38
377.222	111.38
377.448	101.38
377.674	109.38
377.899	122.38
378.125	112.38
378.35	114.38
378.576	100.38
378.802	114.38
379.027	108.38
379.253	114.38
379.478	115.38
379.704	109.38
379.929	105.38
380.155	99.38
380.38	94.38
380.606	114.38
380.831	108.38
381.057	111.38
381.282	100.38
381.507	89.38
381.733	111.38
381.958	100.38
382.184	115.38
382.409	133.38
382.634	117.38
382.86	112.38
383.085	114.38
383.31	111.38
383.535	113.38
383.761	110.38
383.986	115.38
384.211	115.38
384.436	122.38
384.662	127.38
384.887	112.38
385.112	107.38
385.337	116.38
385.562	122.38
385.787	124.38
386.013	138.38
386.238	113.38
386.463	114.38
386.688	121.38
386.913	113.38
387.138	128.38
387.363	106.38
387.588	125.38
387.813	115.38
388.038	118.38
388.263	120.38
388.488	119.38
388.713	126.38
388.938	111.38
389.163	112.38
389.387	121.38
389.612	120.38
389.837	119.38
390.062	137.38
390.287	121.38
390.512	118.38
390.736	121.38
390.961	129.38
391.186	127.38
391.411	125.38
391.636	115.38
391.86	137.38
392.085	146.38
392.31	124.38
392.534	121.38
392.759	126.38
392.984	109.38
393.208	130.38
393.433	137.38
393.658	130.38
393.882	120.38
394.107	129.38
394.331	113.38
394.556	113.38
394.78	130.38
395.005	125.38
395.229	121.38
395.454	125.38
395.678	131.38
395.903	127.38
396.127	117.38
396.352	115.38
396.576	115.38
396.801	111.38
397.025	115.38
397.249	127.38
397.474	139.38
397.698	133.38
397.922	142.38
398.147	111.38
398.371	131.38
398.595	135.38
398.82	128.38
399.044	133.38
399.268	123.38
399.492	133.38
399.717	144.38
399.941	149.38
400.165	139.38
400.389	143.38
400.613	130.38
400.837	137.38
401.062	126.38
401.286	120.38
401.51	124.38
401.734	123.38
401.958	125.38
402.182	135.38
402.406	136.38
402.63	120.38
402.854	133.38
403.078	128.38
403.302	114.38
403.526	144.38
403.75	128.38
403.974	132.38
404.198	124.38
404.422	149.38
404.645	123.38
404.869	139.38
405.093	131.38
405.317	130.38
405.541	128.38
405.765	120.38
405.988	140.38
406.212	131.38
406.436	124.38
406.66	139.38
406.883	129.38
407.107	152.38
407.331	141.38
407.555	143.38
407.778	143.38
408.002	122.38
408.226	129.38
408.449	142.38
408.673	132.38
408.896	123.38
409.12	140.38
409.344	131.38
409.567	123.38
409.791	143.38
410.014	121.38
410.238	113.38
410.461	116.38
410.685	126.38
410.908	136.38
411.132	161.38
411.355	132.38
411.578	127.38
411.802	118.38
412.025	122.38
412.249	139.38
412.472	154.38
412.695	119.38
412.919	119.38
413.142	122.38
413.365	135.38
413.589	127.38
413.812	123.38
414.035	134.38
414.258	125.38
414.482	111.38
414.705	127.38
414.928	135.38
415.151	128.38
415.374	125.38
415.597	129.38
415.821	121.38
416.044	117.38
416.267	130.38
416.49	127.38
416.713	126.38
416.936	130.38
417.159	119.38
417.382	116.38
417.605	131.38
417.828	130.38
418.051	131.38
418.274	136.38
418.497	126.38
418.72	119.38
418.943	138.38
419.166	130.38
419.389	131.38
419.611	117.38
419.834	139.38
420.057	121.38
420.28	133.38
420.503	127.38
420.726	129.38
420.948	121.38
421.171	140.38
421.394	137.38
421.617	127.38
421.839	125.38
422.062	134.38
422.285	122.38
422.507	127.38
422.73	120.38
422.953	127.38
423.175	132.38
423.398	123.38
423.621	111.38
423.843	126.38
424.066	144.38
424.288	126.38
424.511	134.38
424.733	143.38
424.956	127.38
425.178	127.38
425.401	133.38
425.623	129.38
425.846	114.38
426.068	101.38
426.291	134.38
426.513	124.38
426.735	131.38
426.958	125.38
427.18	140.38
427.402	133.38
427.625	133.38
427.847	130.38
428.069	122.38
428.292	136.38
428.514	130.38
428.736	121.38
428.958	135.38
429.181	131.38
429.403	125.38
429.625	121.38
429.847	127.38
430.069	110.38
430.292	123.38
430.514	130.38
430.736	123.38
430.958	118.38
431.18	129.38
431.402	109.38
431.624	123.38
431.846	124.38
432.068	115.38
432.29	125.38
432.512	121.38
432.734	122.38
432.956	127.38
433.178	130.38
433.4	133.38
433.622	126.38
433.844	129.38
434.066	141.38
434.287	119.38
434.509	120.38
434.731	117.38
434.953	143.38
435.175	113.38
435.397	134.38
435.618	121.38
435.84	127.38
436.062	137.38
436.284	147.38
436.505	129.38
436.727	131.38
436.949	129.38
437.17	134.38
437.392	135.38
437.614	134.38
437.835	123.38
438.057	142.38
438.278	137.38
438.5	136.38
438.721	122.38
438.943	127.38
439.165	117.38
439.386	127.38
439.608	135.38
439.829	118.38
440.05	138.38
440.272	125.38
440.493	117.38
440.715	132.38
440.936	126.38
441.158	131.38
441.379	121.38
441.6	113.38
441.822	124.38
442.043	127.38
442.264	137.38
442.486	145.38
442.707	136.38
442.928	133.38
443.149	142.38
443.371	127.38
443.592	129.38
443.813	143.38
444.034	127.38
444.255	128.38
444.476	153.38
444.698	139.38
444.919	139.38
445.14	252.38
445.361	178.38
445.582	134.38
445.803	127.38
446.024	139.38
446.245	138.38
446.466	139.38
446.687	131.38
446.908	127.38
447.129	128.38
447.35	125.38
447.571	122.38
447.792	118.38
448.013	121.38
448.234	125.38
448.455	120.38
448.675	121.38
448.896	140.38
449.117	139.38
449.338	115.38
449.559	134.38
449.779	127.38
450	116.38
450.221	119.38
450.442	110.38
450.662	108.38
450.883	120.38
451.104	134.38
451.324	123.38
451.545	127.38
451.766	107.38
451.986	108.38
452.207	116.38
452.428	108.38
452.648	114.38
452.869	125.38
453.089	118.38
453.31	107.38
453.53	121.38
453.751	103.38
453.971	124.38
454.192	111.38
454.412	121.38
454.633	120.38
454.853	120.38
455.073	117.38
455.294	126.38
455.514	123.38
455.734	119.38
455.955	123.38
456.175	120.38
456.395	126.38
456.616	124.38
456.836	115.38
457.056	102.38
457.276	108.38
457.497	114.38
457.717	100.38
457.937	115.38
458.157	135.38
458.377	115.38
458.598	110.38
458.818	125.38
459.038	126.38
459.258	120.38
459.478	127.38
459.698	124.38
459.918	129.38
460.138	131.38
460.358	125.38
460.578	139.38
460.798	127.38
461.018	122.38
461.238	125.38
461.458	143.38
461.678	123.38
461.898	110.38
462.118	123.38
462.338	131.38
462.558	141.38
462.777	122.38
462.997	131.38
463.217	134.38
463.437	135.38
463.657	139.38
463.876	139.38
464.096	131.38
464.316	131.38
464.536	141.38
464.755	127.38
464.975	119.38
465.195	123.38
465.414	126.38
465.634	122.38
465.854	125.38
466.073	131.38
466.293	111.38
466.512	120.38
466.732	129.38
466.951	121.38
467.171	140.38
467.391	130.38
467.61	124.38
467.829	124.38
468.049	130.38
468.268	129.38
468.488	110.38
468.707	119.38
468.927	125.38
469.146	119.38
469.365	116.38
469.585	124.38
469.804	117.38
470.023	125.38
470.243	107.38
470.462	115.38
470.681	127.38
470.901	125.38
471.12	117.38
471.339	123.38
471.558	116.38
471.777	106.38
471.997	118.38
472.216	127.38
472.435	126.38
472.654	126.38
472.873	129.38
473.092	115.38
473.311	125.38
473.53	121.38
473.749	123.38
473.968	117.38
474.187	123.38
474.406	135.38
474.625	132.38
474.844	137.38
475.063	117.38
475.282	134.38
475.501	131.38
475.72	119.38
475.939	124.38
476.158	129.38
476.377	127.38
476.596	126.38
476.814	142.38
477.033	121.38
477.252	116.38
477.471	129.38
477.69	126.38
477.908	125.38
478.127	128.38
478.346	123.38
478.564	113.38
478.783	126.38
479.002	139.38
479.22	136.38
479.439	130.38
479.658	138.38
479.876	131.38
480.095	134.38
480.313	127.38
480.532	145.38
480.751	146.38
480.969	142.38
481.188	139.38
481.406	149.38
481.624	129.38
481.843	129.38
482.061	129.38
482.28	123.38
482.498	120.38
482.717	123.38
482.935	119.38
483.153	126.38
483.372	125.38
483.59	130.38
483.808	138.38
484.027	131.38
484.245	144.38
484.463	133.38
484.681	139.38
484.9	116.38
485.118	123.38
485.336	130.38
485.554	132.38
485.772	134.38
485.99	129.38
486.209	138.38
486.427	123.38
486.645	138.38
486.863	115.38
487.081	136.38
487.299	129.38
487.517	132.38
487.735	125.38
487.953	152.38
488.171	125.38
488.389	152.38
488.607	134.38
488.825	142.38
489.043	124.38
489.261	123.38
489.479	133.38
489.696	127.38
489.914	129.38
490.132	140.38
490.35	127.38
490.568	135.38
490.786	131.38
491.003	145.38
491.221	145.38
491.439	136.38
491.657	142.38
491.874	148.38
492.092	149.38
492.31	150.38
492.527	143.38
492.745	141.38
492.963	135.38
493.18	161.38
493.398	162.38
493.615	147.38
493.833	147.38
494.05	156.38
494.268	156.38
494.485	134.38
494.703	145.38
494.92	131.38
495.138	139.38
495.355	139.38
495.573	124.38
495.79	127.38
496.008	140.38
496.225	151.38
496.442	143.38
496.66	135.38
496.877	149.38
497.094	147.38
497.312	147.38
497.529	139.38
497.746	147.38
497.963	147.38
498.181	132.38
498.398	162.38
498.615	174.38
498.832	151.38
499.049	163.38
499.267	153.38
499.484	186.38
499.701	181.38
499.918	195.38
500.135	200.38
500.352	222.38
500.569	223.38
500.786	198.38
501.003	213.38
501.22	201.38
501.437	194.38
501.654	183.38
501.871	157.38
502.088	140.38
502.305	160.38
502.522	153.38
502.739	159.38
502.956	165.38
503.172	154.38
503.389	165.38
503.606	149.38
503.823	147.38
504.04	147.38
504.256	145.38
504.473	140.38
504.69	145.38
504.907	148.38
505.123	139.38
505.34	139.38
505.557	138.38
505.773	126.38
