Data from 1968.PennyLincolnUp.Lamp.En5.5.200Scan.071719.P1._HRD10591_14-49-46-969.txt Node
Date: Thu Jul 18 14:49:46 EDT 2019
User: cochatt
Spectrometer: HR+D1059
Trigger mode: 1
Integration Time (sec): 1.000000E-1
Scans to average: 1
Electric dark correction enabled: true
Nonlinearity correction enabled: false
Boxcar width: 0
XAxis mode: Wavelengths
Number of Pixels in Spectrum: 2048
>>>>>Begin Spectral Data<<<<<
223.165	-25.69
223.4	-25.69
223.635	-25.69
223.869	-10.69
224.104	-17.69
224.338	-11.69
224.573	-8.69
224.808	-9.69
225.042	-12.69
225.277	-2.69
225.511	-5.69
225.746	14.31
225.98	-2.69
226.215	8.31
226.449	20.31
226.683	5.31
226.918	12.31
227.152	47.31
227.387	35.31
227.621	39.31
227.856	37.31
228.09	50.31
228.324	44.31
228.559	66.31
228.793	61.31
229.027	51.31
229.262	59.31
229.496	59.31
229.73	70.31
229.964	72.31
230.199	73.31
230.433	68.31
230.667	84.31
230.901	82.31
231.136	87.31
231.37	87.31
231.604	79.31
231.838	75.31
232.072	79.31
232.306	87.31
232.541	77.31
232.775	71.31
233.009	83.31
233.243	77.31
233.477	81.31
233.711	83.31
233.945	86.31
234.179	83.31
234.413	81.31
234.647	79.31
234.881	84.31
235.115	83.31
235.349	78.31
235.583	95.31
235.817	88.31
236.051	107.31
236.285	86.31
236.519	86.31
236.753	71.31
236.987	68.31
237.221	77.31
237.455	80.31
237.689	86.31
237.922	89.31
238.156	86.31
238.39	101.31
238.624	80.31
238.858	74.31
239.091	82.31
239.325	85.31
239.559	76.31
239.793	72.31
240.027	87.31
240.26	75.31
240.494	84.31
240.728	84.31
240.961	90.31
241.195	93.31
241.429	86.31
241.662	81.31
241.896	87.31
242.13	86.31
242.363	92.31
242.597	81.31
242.83	87.31
243.064	83.31
243.298	85.31
243.531	83.31
243.765	85.31
243.998	92.31
244.232	64.31
244.465	86.31
244.699	86.31
244.932	81.31
245.166	83.31
245.399	88.31
245.633	87.31
245.866	99.31
246.099	88.31
246.333	76.31
246.566	73.31
246.8	73.31
247.033	93.31
247.266	80.31
247.5	82.31
247.733	82.31
247.966	86.31
248.2	93.31
248.433	96.31
248.666	100.31
248.899	63.31
249.133	79.31
249.366	79.31
249.599	87.31
249.832	87.31
250.066	84.31
250.299	90.31
250.532	76.31
250.765	69.31
250.998	86.31
251.231	81.31
251.465	107.31
251.698	92.31
251.931	93.31
252.164	92.31
252.397	80.31
252.63	93.31
252.863	77.31
253.096	96.31
253.329	102.31
253.562	86.31
253.795	91.31
254.028	89.31
254.261	87.31
254.494	99.31
254.727	99.31
254.96	98.31
255.193	95.31
255.426	80.31
255.659	89.31
255.892	98.31
256.124	78.31
256.357	90.31
256.59	97.31
256.823	96.31
257.056	89.31
257.289	94.31
257.521	90.31
257.754	86.31
257.987	104.31
258.22	102.31
258.452	90.31
258.685	77.31
258.918	86.31
259.151	88.31
259.383	88.31
259.616	82.31
259.849	95.31
260.081	85.31
260.314	84.31
260.547	100.31
260.779	92.31
261.012	93.31
261.244	102.31
261.477	96.31
261.71	94.31
261.942	100.31
262.175	91.31
262.407	99.31
262.64	87.31
262.872	91.31
263.105	96.31
263.337	96.31
263.57	90.31
263.802	90.31
264.035	89.31
264.267	93.31
264.499	92.31
264.732	100.31
264.964	94.31
265.197	90.31
265.429	99.31
265.661	82.31
265.894	94.31
266.126	97.31
266.358	92.31
266.591	93.31
266.823	99.31
267.055	102.31
267.287	80.31
267.52	70.31
267.752	80.31
267.984	107.31
268.216	112.31
268.448	99.31
268.681	105.31
268.913	94.31
269.145	107.31
269.377	91.31
269.609	93.31
269.841	77.31
270.073	98.31
270.306	99.31
270.538	101.31
270.77	94.31
271.002	100.31
271.234	103.31
271.466	96.31
271.698	77.31
271.93	100.31
272.162	96.31
272.394	89.31
272.626	98.31
272.858	86.31
273.09	91.31
273.322	105.31
273.553	100.31
273.785	95.31
274.017	87.31
274.249	94.31
274.481	93.31
274.713	94.31
274.945	95.31
275.176	97.31
275.408	97.31
275.64	92.31
275.872	90.31
276.104	102.31
276.335	96.31
276.567	93.31
276.799	86.31
277.031	102.31
277.262	96.31
277.494	104.31
277.726	89.31
277.957	95.31
278.189	80.31
278.421	92.31
278.652	107.31
278.884	92.31
279.115	86.31
279.347	104.31
279.579	84.31
279.81	115.31
280.042	104.31
280.273	93.31
280.505	93.31
280.736	96.31
280.968	93.31
281.199	91.31
281.431	99.31
281.662	96.31
281.894	107.31
282.125	105.31
282.356	92.31
282.588	88.31
282.819	88.31
283.051	98.31
283.282	90.31
283.513	77.31
283.745	107.31
283.976	100.31
284.207	96.31
284.439	108.31
284.67	93.31
284.901	102.31
285.132	98.31
285.364	106.31
285.595	100.31
285.826	110.31
286.057	96.31
286.288	90.31
286.52	103.31
286.751	104.31
286.982	114.31
287.213	102.31
287.444	84.31
287.675	98.31
287.906	99.31
288.138	96.31
288.369	97.31
288.6	98.31
288.831	92.31
289.062	114.31
289.293	106.31
289.524	98.31
289.755	101.31
289.986	95.31
290.217	103.31
290.448	116.31
290.679	94.31
290.91	92.31
291.141	98.31
291.371	101.31
291.602	103.31
291.833	91.31
292.064	103.31
292.295	110.31
292.526	110.31
292.757	118.31
292.987	93.31
293.218	107.31
293.449	122.31
293.68	109.31
293.91	102.31
294.141	96.31
294.372	106.31
294.603	102.31
294.833	101.31
295.064	103.31
295.295	117.31
295.525	102.31
295.756	108.31
295.987	108.31
296.217	109.31
296.448	106.31
296.679	104.31
296.909	99.31
297.14	115.31
297.37	99.31
297.601	105.31
297.831	112.31
298.062	84.31
298.292	90.31
298.523	98.31
298.753	105.31
298.984	92.31
299.214	102.31
299.445	110.31
299.675	102.31
299.905	117.31
300.136	88.31
300.366	100.31
300.597	93.31
300.827	117.31
301.057	117.31
301.288	95.31
301.518	100.31
301.748	105.31
301.979	106.31
302.209	102.31
302.439	99.31
302.669	115.31
302.9	100.31
303.13	111.31
303.36	97.31
303.59	105.31
303.82	106.31
304.051	114.31
304.281	115.31
304.511	100.31
304.741	110.31
304.971	106.31
305.201	102.31
305.431	98.31
305.661	109.31
305.891	99.31
306.121	101.31
306.352	108.31
306.582	108.31
306.812	105.31
307.042	115.31
307.272	120.31
307.502	104.31
307.731	102.31
307.961	105.31
308.191	103.31
308.421	110.31
308.651	96.31
308.881	117.31
309.111	102.31
309.341	119.31
309.571	119.31
309.8	105.31
310.03	108.31
310.26	106.31
310.49	101.31
310.72	105.31
310.949	109.31
311.179	104.31
311.409	107.31
311.639	110.31
311.868	103.31
312.098	106.31
312.328	110.31
312.557	99.31
312.787	115.31
313.017	106.31
313.246	102.31
313.476	116.31
313.706	102.31
313.935	117.31
314.165	122.31
314.394	115.31
314.624	114.31
314.853	103.31
315.083	119.31
315.312	108.31
315.542	107.31
315.771	97.31
316.001	111.31
316.23	97.31
316.46	99.31
316.689	117.31
316.919	104.31
317.148	112.31
317.377	116.31
317.607	117.31
317.836	109.31
318.065	97.31
318.295	110.31
318.524	105.31
318.753	110.31
318.983	108.31
319.212	119.31
319.441	116.31
319.67	106.31
319.9	107.31
320.129	114.31
320.358	106.31
320.587	119.31
320.816	120.31
321.046	109.31
321.275	106.31
321.504	109.31
321.733	107.31
321.962	109.31
322.191	101.31
322.42	123.31
322.649	114.31
322.878	121.31
323.108	116.31
323.337	103.31
323.566	110.31
323.795	119.31
324.024	123.31
324.253	123.31
324.482	114.31
324.71	154.31
324.939	165.31
325.168	152.31
325.397	132.31
325.626	116.31
325.855	104.31
326.084	120.31
326.313	118.31
326.542	124.31
326.77	129.31
326.999	121.31
327.228	130.31
327.457	149.31
327.686	152.31
327.914	141.31
328.143	122.31
328.372	115.31
328.6	101.31
328.829	120.31
329.058	99.31
329.287	112.31
329.515	107.31
329.744	111.31
329.972	118.31
330.201	112.31
330.43	118.31
330.658	107.31
330.887	110.31
331.115	123.31
331.344	118.31
331.572	112.31
331.801	126.31
332.03	128.31
332.258	97.31
332.486	120.31
332.715	115.31
332.943	114.31
333.172	125.31
333.4	108.31
333.629	105.31
333.857	121.31
334.085	121.31
334.314	125.31
334.542	131.31
334.771	119.31
334.999	111.31
335.227	122.31
335.455	104.31
335.684	110.31
335.912	124.31
336.14	117.31
336.369	116.31
336.597	105.31
336.825	111.31
337.053	112.31
337.281	103.31
337.51	107.31
337.738	106.31
337.966	114.31
338.194	110.31
338.422	107.31
338.65	107.31
338.878	121.31
339.106	110.31
339.334	108.31
339.562	109.31
339.79	104.31
340.018	111.31
340.246	110.31
340.474	120.31
340.702	104.31
340.93	108.31
341.158	125.31
341.386	108.31
341.614	98.31
341.842	108.31
342.07	119.31
342.298	119.31
342.526	95.31
342.754	111.31
342.981	98.31
343.209	111.31
343.437	111.31
343.665	127.31
343.893	122.31
344.12	115.31
344.348	122.31
344.576	119.31
344.804	109.31
345.031	116.31
345.259	115.31
345.487	109.31
345.714	108.31
345.942	101.31
346.17	105.31
346.397	110.31
346.625	115.31
346.853	105.31
347.08	110.31
347.308	111.31
347.535	110.31
347.763	104.31
347.99	110.31
348.218	115.31
348.445	102.31
348.673	108.31
348.9	108.31
349.128	108.31
349.355	104.31
349.583	107.31
349.81	96.31
350.037	108.31
350.265	101.31
350.492	104.31
350.72	101.31
350.947	124.31
351.174	95.31
351.402	92.31
351.629	108.31
351.856	109.31
352.083	111.31
352.311	95.31
352.538	103.31
352.765	101.31
352.992	119.31
353.22	118.31
353.447	116.31
353.674	104.31
353.901	105.31
354.128	108.31
354.355	111.31
354.583	102.31
354.81	113.31
355.037	106.31
355.264	114.31
355.491	110.31
355.718	110.31
355.945	117.31
356.172	116.31
356.399	101.31
356.626	105.31
356.853	106.31
357.08	123.31
357.307	109.31
357.534	106.31
357.761	112.31
357.988	110.31
358.215	107.31
358.441	94.31
358.668	108.31
358.895	124.31
359.122	120.31
359.349	112.31
359.576	116.31
359.802	110.31
360.029	110.31
360.256	104.31
360.483	128.31
360.709	120.31
360.936	122.31
361.163	115.31
361.39	110.31
361.616	128.31
361.843	103.31
362.07	116.31
362.296	116.31
362.523	113.31
362.749	105.31
362.976	114.31
363.203	115.31
363.429	110.31
363.656	118.31
363.882	114.31
364.109	125.31
364.335	108.31
364.562	105.31
364.788	112.31
365.015	99.31
365.241	110.31
365.468	114.31
365.694	117.31
365.92	119.31
366.147	105.31
366.373	114.31
366.599	102.31
366.826	108.31
367.052	109.31
367.278	111.31
367.505	101.31
367.731	116.31
367.957	99.31
368.184	99.31
368.41	111.31
368.636	110.31
368.862	114.31
369.089	120.31
369.315	109.31
369.541	106.31
369.767	117.31
369.993	111.31
370.219	88.31
370.445	101.31
370.672	106.31
370.898	104.31
371.124	118.31
371.35	116.31
371.576	104.31
371.802	107.31
372.028	118.31
372.254	120.31
372.48	100.31
372.706	100.31
372.932	107.31
373.158	119.31
373.384	100.31
373.61	110.31
373.835	112.31
374.061	115.31
374.287	103.31
374.513	112.31
374.739	118.31
374.965	118.31
375.191	101.31
375.416	109.31
375.642	109.31
375.868	111.31
376.094	97.31
376.319	122.31
376.545	112.31
376.771	115.31
376.997	100.31
377.222	110.31
377.448	104.31
377.674	119.31
377.899	111.31
378.125	119.31
378.35	114.31
378.576	108.31
378.802	107.31
379.027	120.31
379.253	103.31
379.478	103.31
379.704	124.31
379.929	112.31
380.155	111.31
380.38	100.31
380.606	105.31
380.831	120.31
381.057	108.31
381.282	118.31
381.507	116.31
381.733	117.31
381.958	102.31
382.184	115.31
382.409	115.31
382.634	124.31
382.86	112.31
383.085	124.31
383.31	122.31
383.535	119.31
383.761	117.31
383.986	111.31
384.211	124.31
384.436	108.31
384.662	110.31
384.887	130.31
385.112	121.31
385.337	125.31
385.562	119.31
385.787	126.31
386.013	112.31
386.238	133.31
386.463	126.31
386.688	126.31
386.913	124.31
387.138	110.31
387.363	130.31
387.588	131.31
387.813	104.31
388.038	125.31
388.263	120.31
388.488	121.31
388.713	109.31
388.938	118.31
389.163	118.31
389.387	117.31
389.612	112.31
389.837	134.31
390.062	106.31
390.287	122.31
390.512	114.31
390.736	118.31
390.961	111.31
391.186	125.31
391.411	110.31
391.636	121.31
391.86	110.31
392.085	99.31
392.31	100.31
392.534	110.31
392.759	115.31
392.984	118.31
393.208	112.31
393.433	124.31
393.658	124.31
393.882	129.31
394.107	110.31
394.331	116.31
394.556	108.31
394.78	110.31
395.005	121.31
395.229	121.31
395.454	122.31
395.678	123.31
395.903	123.31
396.127	124.31
396.352	128.31
396.576	118.31
396.801	127.31
397.025	112.31
397.249	120.31
397.474	123.31
397.698	132.31
397.922	123.31
398.147	142.31
398.371	124.31
398.595	132.31
398.82	122.31
399.044	126.31
399.268	126.31
399.492	145.31
399.717	150.31
399.941	159.31
400.165	144.31
400.389	130.31
400.613	125.31
400.837	124.31
401.062	112.31
401.286	116.31
401.51	126.31
401.734	117.31
401.958	125.31
402.182	119.31
402.406	115.31
402.63	132.31
402.854	130.31
403.078	109.31
403.302	126.31
403.526	134.31
403.75	118.31
403.974	134.31
404.198	121.31
404.422	132.31
404.645	136.31
404.869	127.31
405.093	126.31
405.317	129.31
405.541	122.31
405.765	151.31
405.988	134.31
406.212	139.31
406.436	125.31
406.66	121.31
406.883	136.31
407.107	133.31
407.331	132.31
407.555	121.31
407.778	148.31
408.002	142.31
408.226	132.31
408.449	125.31
408.673	137.31
408.896	139.31
409.12	130.31
409.344	115.31
409.567	125.31
409.791	127.31
410.014	140.31
410.238	105.31
410.461	104.31
410.685	118.31
410.908	124.31
411.132	133.31
411.355	116.31
411.578	129.31
411.802	114.31
412.025	118.31
412.249	133.31
412.472	140.31
412.695	126.31
412.919	137.31
413.142	130.31
413.365	134.31
413.589	136.31
413.812	124.31
414.035	118.31
414.258	124.31
414.482	115.31
414.705	124.31
414.928	132.31
415.151	115.31
415.374	127.31
415.597	137.31
415.821	128.31
416.044	121.31
416.267	130.31
416.49	132.31
416.713	126.31
416.936	126.31
417.159	119.31
417.382	137.31
417.605	128.31
417.828	126.31
418.051	134.31
418.274	127.31
418.497	139.31
418.72	122.31
418.943	115.31
419.166	141.31
419.389	136.31
419.611	126.31
419.834	112.31
420.057	136.31
420.28	136.31
420.503	116.31
420.726	120.31
420.948	127.31
421.171	126.31
421.394	132.31
421.617	125.31
421.839	116.31
422.062	122.31
422.285	130.31
422.507	139.31
422.73	120.31
422.953	111.31
423.175	128.31
423.398	123.31
423.621	119.31
423.843	139.31
424.066	134.31
424.288	129.31
424.511	138.31
424.733	134.31
424.956	135.31
425.178	132.31
425.401	138.31
425.623	142.31
425.846	129.31
426.068	124.31
426.291	126.31
426.513	123.31
426.735	121.31
426.958	133.31
427.18	126.31
427.402	139.31
427.625	139.31
427.847	143.31
428.069	127.31
428.292	130.31
428.514	121.31
428.736	132.31
428.958	132.31
429.181	132.31
429.403	134.31
429.625	123.31
429.847	138.31
430.069	133.31
430.292	143.31
430.514	129.31
430.736	122.31
430.958	132.31
431.18	139.31
431.402	131.31
431.624	120.31
431.846	108.31
432.068	116.31
432.29	124.31
432.512	121.31
432.734	135.31
432.956	129.31
433.178	120.31
433.4	119.31
433.622	124.31
433.844	117.31
434.066	120.31
434.287	122.31
434.509	128.31
434.731	127.31
434.953	127.31
435.175	126.31
435.397	126.31
435.618	124.31
435.84	132.31
436.062	137.31
436.284	142.31
436.505	124.31
436.727	116.31
436.949	139.31
437.17	126.31
437.392	135.31
437.614	122.31
437.835	126.31
438.057	131.31
438.278	131.31
438.5	134.31
438.721	146.31
438.943	125.31
439.165	122.31
439.386	124.31
439.608	131.31
439.829	156.31
440.05	138.31
440.272	122.31
440.493	116.31
440.715	123.31
440.936	125.31
441.158	135.31
441.379	118.31
441.6	120.31
441.822	148.31
442.043	127.31
442.264	126.31
442.486	128.31
442.707	143.31
442.928	123.31
443.149	120.31
443.371	147.31
443.592	133.31
443.813	145.31
444.034	124.31
444.255	136.31
444.476	139.31
444.698	139.31
444.919	116.31
445.14	259.31
445.361	185.31
445.582	132.31
445.803	130.31
446.024	132.31
446.245	140.31
446.466	126.31
446.687	123.31
446.908	133.31
447.129	126.31
447.35	118.31
447.571	132.31
447.792	134.31
448.013	132.31
448.234	121.31
448.455	115.31
448.675	133.31
448.896	134.31
449.117	124.31
449.338	142.31
449.559	130.31
449.779	120.31
450	128.31
450.221	128.31
450.442	128.31
450.662	123.31
450.883	113.31
451.104	107.31
451.324	120.31
451.545	125.31
451.766	132.31
451.986	115.31
452.207	122.31
452.428	131.31
452.648	117.31
452.869	115.31
453.089	124.31
453.31	113.31
453.53	118.31
453.751	112.31
453.971	106.31
454.192	121.31
454.412	111.31
454.633	124.31
454.853	114.31
455.073	109.31
455.294	130.31
455.514	116.31
455.734	124.31
455.955	92.31
456.175	118.31
456.395	110.31
456.616	118.31
456.836	108.31
457.056	119.31
457.276	124.31
457.497	127.31
457.717	114.31
457.937	120.31
458.157	108.31
458.377	112.31
458.598	111.31
458.818	124.31
459.038	128.31
459.258	125.31
459.478	115.31
459.698	122.31
459.918	118.31
460.138	130.31
460.358	137.31
460.578	126.31
460.798	137.31
461.018	132.31
461.238	125.31
461.458	141.31
461.678	132.31
461.898	123.31
462.118	143.31
462.338	122.31
462.558	140.31
462.777	119.31
462.997	130.31
463.217	139.31
463.437	125.31
463.657	134.31
463.876	132.31
464.096	125.31
464.316	134.31
464.536	134.31
464.755	131.31
464.975	112.31
465.195	114.31
465.414	115.31
465.634	104.31
465.854	121.31
466.073	124.31
466.293	122.31
466.512	119.31
466.732	111.31
466.951	117.31
467.171	132.31
467.391	112.31
467.61	125.31
467.829	126.31
468.049	135.31
468.268	116.31
468.488	122.31
468.707	112.31
468.927	124.31
469.146	116.31
469.365	127.31
469.585	112.31
469.804	117.31
470.023	112.31
470.243	110.31
470.462	111.31
470.681	136.31
470.901	119.31
471.12	114.31
471.339	103.31
471.558	106.31
471.777	126.31
471.997	100.31
472.216	123.31
472.435	110.31
472.654	123.31
472.873	116.31
473.092	116.31
473.311	118.31
473.53	107.31
473.749	127.31
473.968	126.31
474.187	126.31
474.406	134.31
474.625	142.31
474.844	111.31
475.063	130.31
475.282	122.31
475.501	124.31
475.72	123.31
475.939	126.31
476.158	122.31
476.377	121.31
476.596	125.31
476.814	123.31
477.033	130.31
477.252	134.31
477.471	132.31
477.69	128.31
477.908	122.31
478.127	131.31
478.346	133.31
478.564	143.31
478.783	125.31
479.002	138.31
479.22	137.31
479.439	139.31
479.658	134.31
479.876	130.31
480.095	147.31
480.313	146.31
480.532	141.31
480.751	133.31
480.969	127.31
481.188	128.31
481.406	126.31
481.624	135.31
481.843	134.31
482.061	108.31
482.28	131.31
482.498	117.31
482.717	125.31
482.935	121.31
483.153	131.31
483.372	136.31
483.59	126.31
483.808	132.31
484.027	119.31
484.245	135.31
484.463	144.31
484.681	128.31
484.9	124.31
485.118	134.31
485.336	132.31
485.554	138.31
485.772	126.31
485.99	114.31
486.209	132.31
486.427	118.31
486.645	118.31
486.863	136.31
487.081	131.31
487.299	136.31
487.517	136.31
487.735	139.31
487.953	146.31
488.171	134.31
488.389	135.31
488.607	107.31
488.825	138.31
489.043	138.31
489.261	139.31
489.479	144.31
489.696	135.31
489.914	136.31
490.132	130.31
490.35	142.31
490.568	145.31
490.786	136.31
491.003	144.31
491.221	152.31
491.439	131.31
491.657	126.31
491.874	140.31
492.092	151.31
492.31	154.31
492.527	124.31
492.745	128.31
492.963	148.31
493.18	141.31
493.398	134.31
493.615	146.31
493.833	148.31
494.05	151.31
494.268	148.31
494.485	146.31
494.703	142.31
494.92	147.31
495.138	138.31
495.355	131.31
495.573	134.31
495.79	134.31
496.008	144.31
496.225	148.31
496.442	163.31
496.66	144.31
496.877	118.31
497.094	135.31
497.312	138.31
497.529	140.31
497.746	149.31
497.963	138.31
498.181	142.31
498.398	143.31
498.615	150.31
498.832	144.31
499.049	166.31
499.267	182.31
499.484	168.31
499.701	163.31
499.918	185.31
500.135	191.31
500.352	206.31
500.569	219.31
500.786	217.31
501.003	194.31
501.22	196.31
501.437	187.31
501.654	175.31
501.871	148.31
502.088	157.31
502.305	158.31
502.522	166.31
502.739	166.31
502.956	151.31
503.172	138.31
503.389	142.31
503.606	143.31
503.823	147.31
504.04	136.31
504.256	153.31
504.473	132.31
504.69	164.31
504.907	140.31
505.123	150.31
505.34	137.31
505.557	160.31
