Data from 1968.PennyLincolnUp.Lamp.En5.5.200Scan.071719.P1._HRD10591_14-51-41-969.txt Node
Date: Thu Jul 18 14:51:41 EDT 2019
User: cochatt
Spectrometer: HR+D1059
Trigger mode: 1
Integration Time (sec): 1.000000E-1
Scans to average: 1
Electric dark correction enabled: true
Nonlinearity correction enabled: false
Boxcar width: 0
XAxis mode: Wavelengths
Number of Pixels in Spectrum: 2048
>>>>>Begin Spectral Data<<<<<
223.165	-8.44
223.4	-8.44
223.635	-8.44
223.869	-18.44
224.104	-17.44
224.338	-19.44
224.573	-23.44
224.808	-13.44
225.042	-4.44
225.277	-8.44
225.511	-6.44
225.746	-6.44
225.98	12.56
226.215	16.56
226.449	15.56
226.683	18.56
226.918	29.56
227.152	33.56
227.387	38.56
227.621	35.56
227.856	58.56
228.09	49.56
228.324	47.56
228.559	67.56
228.793	53.56
229.027	62.56
229.262	76.56
229.496	73.56
229.73	73.56
229.964	81.56
230.199	66.56
230.433	80.56
230.667	97.56
230.901	86.56
231.136	78.56
231.37	81.56
231.604	99.56
231.838	90.56
232.072	84.56
232.306	84.56
232.541	80.56
232.775	93.56
233.009	81.56
233.243	96.56
233.477	89.56
233.711	94.56
233.945	90.56
234.179	79.56
234.413	67.56
234.647	86.56
234.881	83.56
235.115	91.56
235.349	86.56
235.583	78.56
235.817	92.56
236.051	80.56
236.285	91.56
236.519	70.56
236.753	80.56
236.987	91.56
237.221	70.56
237.455	94.56
237.689	86.56
237.922	93.56
238.156	91.56
238.39	96.56
238.624	75.56
238.858	91.56
239.091	85.56
239.325	84.56
239.559	85.56
239.793	81.56
240.027	77.56
240.26	100.56
240.494	94.56
240.728	58.56
240.961	69.56
241.195	77.56
241.429	88.56
241.662	85.56
241.896	84.56
242.13	79.56
242.363	86.56
242.597	77.56
242.83	78.56
243.064	76.56
243.298	81.56
243.531	96.56
243.765	81.56
243.998	86.56
244.232	77.56
244.465	89.56
244.699	83.56
244.932	83.56
245.166	76.56
245.399	83.56
245.633	84.56
245.866	81.56
246.099	88.56
246.333	87.56
246.566	96.56
246.8	81.56
247.033	99.56
247.266	93.56
247.5	77.56
247.733	88.56
247.966	93.56
248.2	79.56
248.433	90.56
248.666	81.56
248.899	94.56
249.133	81.56
249.366	79.56
249.599	90.56
249.832	100.56
250.066	81.56
250.299	92.56
250.532	94.56
250.765	80.56
250.998	89.56
251.231	90.56
251.465	91.56
251.698	91.56
251.931	84.56
252.164	86.56
252.397	96.56
252.63	85.56
252.863	84.56
253.096	95.56
253.329	99.56
253.562	94.56
253.795	89.56
254.028	87.56
254.261	86.56
254.494	92.56
254.727	102.56
254.96	109.56
255.193	119.56
255.426	87.56
255.659	108.56
255.892	104.56
256.124	88.56
256.357	85.56
256.59	89.56
256.823	110.56
257.056	98.56
257.289	103.56
257.521	102.56
257.754	101.56
257.987	90.56
258.22	87.56
258.452	100.56
258.685	83.56
258.918	91.56
259.151	93.56
259.383	87.56
259.616	76.56
259.849	95.56
260.081	104.56
260.314	110.56
260.547	111.56
260.779	88.56
261.012	86.56
261.244	94.56
261.477	92.56
261.71	93.56
261.942	89.56
262.175	102.56
262.407	100.56
262.64	88.56
262.872	87.56
263.105	89.56
263.337	102.56
263.57	84.56
263.802	98.56
264.035	94.56
264.267	103.56
264.499	90.56
264.732	91.56
264.964	81.56
265.197	95.56
265.429	100.56
265.661	99.56
265.894	99.56
266.126	109.56
266.358	92.56
266.591	92.56
266.823	105.56
267.055	83.56
267.287	91.56
267.52	87.56
267.752	93.56
267.984	97.56
268.216	106.56
268.448	108.56
268.681	112.56
268.913	103.56
269.145	100.56
269.377	108.56
269.609	105.56
269.841	87.56
270.073	100.56
270.306	95.56
270.538	119.56
270.77	90.56
271.002	93.56
271.234	103.56
271.466	100.56
271.698	100.56
271.93	118.56
272.162	101.56
272.394	113.56
272.626	93.56
272.858	96.56
273.09	110.56
273.322	88.56
273.553	99.56
273.785	104.56
274.017	99.56
274.249	104.56
274.481	109.56
274.713	85.56
274.945	91.56
275.176	112.56
275.408	98.56
275.64	104.56
275.872	112.56
276.104	103.56
276.335	100.56
276.567	97.56
276.799	107.56
277.031	95.56
277.262	104.56
277.494	93.56
277.726	108.56
277.957	104.56
278.189	95.56
278.421	101.56
278.652	109.56
278.884	125.56
279.115	99.56
279.347	100.56
279.579	98.56
279.81	103.56
280.042	89.56
280.273	103.56
280.505	106.56
280.736	108.56
280.968	110.56
281.199	110.56
281.431	103.56
281.662	97.56
281.894	100.56
282.125	92.56
282.356	92.56
282.588	102.56
282.819	117.56
283.051	101.56
283.282	104.56
283.513	120.56
283.745	100.56
283.976	93.56
284.207	101.56
284.439	106.56
284.67	120.56
284.901	105.56
285.132	115.56
285.364	112.56
285.595	104.56
285.826	117.56
286.057	109.56
286.288	117.56
286.52	103.56
286.751	95.56
286.982	101.56
287.213	101.56
287.444	107.56
287.675	108.56
287.906	109.56
288.138	109.56
288.369	95.56
288.6	96.56
288.831	96.56
289.062	108.56
289.293	99.56
289.524	103.56
289.755	87.56
289.986	93.56
290.217	92.56
290.448	99.56
290.679	98.56
290.91	103.56
291.141	111.56
291.371	103.56
291.602	100.56
291.833	106.56
292.064	99.56
292.295	105.56
292.526	110.56
292.757	111.56
292.987	97.56
293.218	102.56
293.449	105.56
293.68	98.56
293.91	91.56
294.141	108.56
294.372	115.56
294.603	92.56
294.833	119.56
295.064	103.56
295.295	98.56
295.525	107.56
295.756	104.56
295.987	94.56
296.217	109.56
296.448	112.56
296.679	101.56
296.909	111.56
297.14	120.56
297.37	112.56
297.601	110.56
297.831	108.56
298.062	116.56
298.292	115.56
298.523	113.56
298.753	96.56
298.984	117.56
299.214	110.56
299.445	103.56
299.675	121.56
299.905	105.56
300.136	109.56
300.366	108.56
300.597	112.56
300.827	121.56
301.057	131.56
301.288	112.56
301.518	97.56
301.748	104.56
301.979	112.56
302.209	108.56
302.439	103.56
302.669	102.56
302.9	102.56
303.13	100.56
303.36	109.56
303.59	99.56
303.82	124.56
304.051	90.56
304.281	101.56
304.511	114.56
304.741	113.56
304.971	111.56
305.201	99.56
305.431	108.56
305.661	107.56
305.891	120.56
306.121	115.56
306.352	115.56
306.582	110.56
306.812	97.56
307.042	105.56
307.272	106.56
307.502	112.56
307.731	118.56
307.961	106.56
308.191	110.56
308.421	117.56
308.651	103.56
308.881	120.56
309.111	105.56
309.341	108.56
309.571	111.56
309.8	112.56
310.03	117.56
310.26	97.56
310.49	105.56
310.72	87.56
310.949	108.56
311.179	109.56
311.409	117.56
311.639	103.56
311.868	99.56
312.098	120.56
312.328	101.56
312.557	99.56
312.787	103.56
313.017	120.56
313.246	123.56
313.476	114.56
313.706	112.56
313.935	124.56
314.165	103.56
314.394	115.56
314.624	104.56
314.853	117.56
315.083	111.56
315.312	123.56
315.542	112.56
315.771	117.56
316.001	118.56
316.23	111.56
316.46	108.56
316.689	99.56
316.919	125.56
317.148	121.56
317.377	117.56
317.607	108.56
317.836	112.56
318.065	102.56
318.295	115.56
318.524	87.56
318.753	101.56
318.983	106.56
319.212	109.56
319.441	120.56
319.67	119.56
319.9	102.56
320.129	111.56
320.358	116.56
320.587	118.56
320.816	104.56
321.046	123.56
321.275	120.56
321.504	105.56
321.733	127.56
321.962	99.56
322.191	100.56
322.42	115.56
322.649	139.56
322.878	104.56
323.108	122.56
323.337	123.56
323.566	115.56
323.795	119.56
324.024	131.56
324.253	123.56
324.482	128.56
324.71	163.56
324.939	194.56
325.168	174.56
325.397	133.56
325.626	134.56
325.855	105.56
326.084	119.56
326.313	118.56
326.542	102.56
326.77	119.56
326.999	123.56
327.228	129.56
327.457	155.56
327.686	156.56
327.914	134.56
328.143	123.56
328.372	113.56
328.6	131.56
328.829	120.56
329.058	112.56
329.287	129.56
329.515	118.56
329.744	131.56
329.972	133.56
330.201	111.56
330.43	127.56
330.658	121.56
330.887	116.56
331.115	104.56
331.344	113.56
331.572	113.56
331.801	122.56
332.03	115.56
332.258	112.56
332.486	116.56
332.715	121.56
332.943	119.56
333.172	117.56
333.4	133.56
333.629	127.56
333.857	127.56
334.085	97.56
334.314	122.56
334.542	125.56
334.771	124.56
334.999	121.56
335.227	134.56
335.455	119.56
335.684	114.56
335.912	125.56
336.14	120.56
336.369	136.56
336.597	125.56
336.825	125.56
337.053	120.56
337.281	115.56
337.51	113.56
337.738	125.56
337.966	120.56
338.194	104.56
338.422	116.56
338.65	102.56
338.878	117.56
339.106	99.56
339.334	115.56
339.562	121.56
339.79	103.56
340.018	117.56
340.246	109.56
340.474	132.56
340.702	120.56
340.93	124.56
341.158	117.56
341.386	115.56
341.614	109.56
341.842	113.56
342.07	113.56
342.298	108.56
342.526	112.56
342.754	109.56
342.981	108.56
343.209	120.56
343.437	104.56
343.665	123.56
343.893	121.56
344.12	119.56
344.348	97.56
344.576	109.56
344.804	119.56
345.031	121.56
345.259	119.56
345.487	113.56
345.714	128.56
345.942	103.56
346.17	117.56
346.397	109.56
346.625	110.56
346.853	121.56
347.08	113.56
347.308	108.56
347.535	113.56
347.763	115.56
347.99	105.56
348.218	107.56
348.445	109.56
348.673	112.56
348.9	103.56
349.128	131.56
349.355	99.56
349.583	110.56
349.81	112.56
350.037	120.56
350.265	101.56
350.492	102.56
350.72	104.56
350.947	109.56
351.174	113.56
351.402	121.56
351.629	121.56
351.856	107.56
352.083	111.56
352.311	110.56
352.538	106.56
352.765	106.56
352.992	124.56
353.22	122.56
353.447	108.56
353.674	107.56
353.901	113.56
354.128	118.56
354.355	111.56
354.583	113.56
354.81	114.56
355.037	108.56
355.264	119.56
355.491	113.56
355.718	92.56
355.945	109.56
356.172	113.56
356.399	107.56
356.626	87.56
356.853	94.56
357.08	113.56
357.307	128.56
357.534	115.56
357.761	96.56
357.988	121.56
358.215	108.56
358.441	120.56
358.668	119.56
358.895	110.56
359.122	109.56
359.349	121.56
359.576	91.56
359.802	121.56
360.029	107.56
360.256	111.56
360.483	117.56
360.709	117.56
360.936	113.56
361.163	109.56
361.39	115.56
361.616	107.56
361.843	117.56
362.07	117.56
362.296	107.56
362.523	125.56
362.749	119.56
362.976	125.56
363.203	115.56
363.429	109.56
363.656	101.56
363.882	109.56
364.109	116.56
364.335	117.56
364.562	119.56
364.788	111.56
365.015	119.56
365.241	127.56
365.468	123.56
365.694	111.56
365.92	105.56
366.147	108.56
366.373	113.56
366.599	113.56
366.826	120.56
367.052	116.56
367.278	120.56
367.505	106.56
367.731	118.56
367.957	109.56
368.184	112.56
368.41	116.56
368.636	127.56
368.862	106.56
369.089	117.56
369.315	118.56
369.541	106.56
369.767	109.56
369.993	109.56
370.219	101.56
370.445	109.56
370.672	105.56
370.898	113.56
371.124	115.56
371.35	106.56
371.576	113.56
371.802	116.56
372.028	118.56
372.254	116.56
372.48	118.56
372.706	99.56
372.932	120.56
373.158	125.56
373.384	104.56
373.61	105.56
373.835	122.56
374.061	99.56
374.287	133.56
374.513	123.56
374.739	122.56
374.965	131.56
375.191	135.56
375.416	130.56
375.642	128.56
375.868	113.56
376.094	115.56
376.319	118.56
376.545	111.56
376.771	115.56
376.997	107.56
377.222	107.56
377.448	121.56
377.674	123.56
377.899	124.56
378.125	106.56
378.35	105.56
378.576	110.56
378.802	103.56
379.027	119.56
379.253	111.56
379.478	130.56
379.704	108.56
379.929	109.56
380.155	116.56
380.38	127.56
380.606	131.56
380.831	109.56
381.057	117.56
381.282	116.56
381.507	127.56
381.733	116.56
381.958	121.56
382.184	108.56
382.409	120.56
382.634	111.56
382.86	115.56
383.085	121.56
383.31	111.56
383.535	105.56
383.761	110.56
383.986	124.56
384.211	109.56
384.436	128.56
384.662	127.56
384.887	117.56
385.112	107.56
385.337	117.56
385.562	131.56
385.787	115.56
386.013	122.56
386.238	118.56
386.463	129.56
386.688	104.56
386.913	115.56
387.138	115.56
387.363	112.56
387.588	107.56
387.813	103.56
388.038	106.56
388.263	111.56
388.488	121.56
388.713	106.56
388.938	123.56
389.163	131.56
389.387	130.56
389.612	124.56
389.837	125.56
390.062	116.56
390.287	125.56
390.512	121.56
390.736	113.56
390.961	123.56
391.186	129.56
391.411	118.56
391.636	135.56
391.86	135.56
392.085	128.56
392.31	128.56
392.534	119.56
392.759	125.56
392.984	117.56
393.208	121.56
393.433	112.56
393.658	129.56
393.882	135.56
394.107	112.56
394.331	114.56
394.556	121.56
394.78	122.56
395.005	127.56
395.229	115.56
395.454	123.56
395.678	117.56
395.903	128.56
396.127	123.56
396.352	123.56
396.576	117.56
396.801	112.56
397.025	112.56
397.249	125.56
397.474	114.56
397.698	120.56
397.922	133.56
398.147	126.56
398.371	135.56
398.595	127.56
398.82	129.56
399.044	134.56
399.268	127.56
399.492	124.56
399.717	144.56
399.941	147.56
400.165	155.56
400.389	147.56
400.613	142.56
400.837	135.56
401.062	154.56
401.286	119.56
401.51	156.56
401.734	119.56
401.958	143.56
402.182	133.56
402.406	129.56
402.63	135.56
402.854	133.56
403.078	129.56
403.302	135.56
403.526	134.56
403.75	124.56
403.974	118.56
404.198	147.56
404.422	140.56
404.645	127.56
404.869	133.56
405.093	133.56
405.317	144.56
405.541	131.56
405.765	142.56
405.988	139.56
406.212	137.56
406.436	137.56
406.66	133.56
406.883	138.56
407.107	134.56
407.331	153.56
407.555	142.56
407.778	141.56
408.002	139.56
408.226	126.56
408.449	137.56
408.673	128.56
408.896	129.56
409.12	142.56
409.344	135.56
409.567	142.56
409.791	134.56
410.014	129.56
410.238	131.56
410.461	120.56
410.685	131.56
410.908	137.56
411.132	140.56
411.355	135.56
411.578	133.56
411.802	151.56
412.025	131.56
412.249	124.56
412.472	134.56
412.695	123.56
412.919	123.56
413.142	127.56
413.365	119.56
413.589	137.56
413.812	128.56
414.035	128.56
414.258	126.56
414.482	124.56
414.705	127.56
414.928	143.56
415.151	141.56
415.374	126.56
415.597	127.56
415.821	129.56
416.044	128.56
416.267	117.56
416.49	125.56
416.713	132.56
416.936	141.56
417.159	123.56
417.382	126.56
417.605	134.56
417.828	134.56
418.051	124.56
418.274	131.56
418.497	124.56
418.72	128.56
418.943	122.56
419.166	119.56
419.389	126.56
419.611	136.56
419.834	131.56
420.057	141.56
420.28	128.56
420.503	139.56
420.726	126.56
420.948	124.56
421.171	140.56
421.394	134.56
421.617	139.56
421.839	126.56
422.062	123.56
422.285	122.56
422.507	127.56
422.73	139.56
422.953	143.56
423.175	147.56
423.398	129.56
423.621	135.56
423.843	125.56
424.066	140.56
424.288	143.56
424.511	121.56
424.733	151.56
424.956	151.56
425.178	140.56
425.401	135.56
425.623	129.56
425.846	141.56
426.068	145.56
426.291	126.56
426.513	145.56
426.735	123.56
426.958	131.56
427.18	140.56
427.402	155.56
427.625	141.56
427.847	141.56
428.069	134.56
428.292	127.56
428.514	137.56
428.736	129.56
428.958	123.56
429.181	135.56
429.403	123.56
429.625	123.56
429.847	126.56
430.069	131.56
430.292	136.56
430.514	124.56
430.736	127.56
430.958	131.56
431.18	115.56
431.402	128.56
431.624	124.56
431.846	131.56
432.068	106.56
432.29	125.56
432.512	99.56
432.734	121.56
432.956	132.56
433.178	138.56
433.4	131.56
433.622	129.56
433.844	127.56
434.066	117.56
434.287	120.56
434.509	152.56
434.731	116.56
434.953	116.56
435.175	128.56
435.397	135.56
435.618	131.56
435.84	128.56
436.062	151.56
436.284	140.56
436.505	129.56
436.727	128.56
436.949	115.56
437.17	114.56
437.392	135.56
437.614	112.56
437.835	133.56
438.057	130.56
438.278	130.56
438.5	137.56
438.721	141.56
438.943	140.56
439.165	135.56
439.386	114.56
439.608	142.56
439.829	156.56
440.05	142.56
440.272	136.56
440.493	119.56
440.715	131.56
440.936	125.56
441.158	137.56
441.379	138.56
441.6	134.56
441.822	151.56
442.043	139.56
442.264	137.56
442.486	135.56
442.707	129.56
442.928	129.56
443.149	132.56
443.371	133.56
443.592	135.56
443.813	142.56
444.034	158.56
444.255	140.56
444.476	140.56
444.698	117.56
444.919	132.56
445.14	266.56
445.361	206.56
445.582	141.56
445.803	138.56
446.024	125.56
446.245	143.56
446.466	143.56
446.687	139.56
446.908	141.56
447.129	129.56
447.35	121.56
447.571	129.56
447.792	129.56
448.013	124.56
448.234	125.56
448.455	119.56
448.675	138.56
448.896	147.56
449.117	135.56
449.338	135.56
449.559	131.56
449.779	156.56
450	131.56
450.221	116.56
450.442	119.56
450.662	111.56
450.883	134.56
451.104	125.56
451.324	124.56
451.545	112.56
451.766	121.56
451.986	121.56
452.207	116.56
452.428	126.56
452.648	122.56
452.869	131.56
453.089	133.56
453.31	129.56
453.53	127.56
453.751	133.56
453.971	129.56
454.192	119.56
454.412	133.56
454.633	109.56
454.853	115.56
455.073	123.56
455.294	118.56
455.514	133.56
455.734	121.56
455.955	128.56
456.175	125.56
456.395	126.56
456.616	116.56
456.836	117.56
457.056	99.56
457.276	103.56
457.497	104.56
457.717	119.56
457.937	123.56
458.157	116.56
458.377	123.56
458.598	118.56
458.818	133.56
459.038	129.56
459.258	147.56
459.478	127.56
459.698	127.56
459.918	124.56
460.138	123.56
460.358	139.56
460.578	129.56
460.798	129.56
461.018	145.56
461.238	135.56
461.458	130.56
461.678	136.56
461.898	130.56
462.118	123.56
462.338	136.56
462.558	135.56
462.777	141.56
462.997	130.56
463.217	136.56
463.437	148.56
463.657	137.56
463.876	146.56
464.096	130.56
464.316	136.56
464.536	133.56
464.755	127.56
464.975	129.56
465.195	134.56
465.414	123.56
465.634	135.56
465.854	127.56
466.073	134.56
466.293	132.56
466.512	132.56
466.732	132.56
466.951	131.56
467.171	111.56
467.391	117.56
467.61	127.56
467.829	123.56
468.049	136.56
468.268	127.56
468.488	130.56
468.707	125.56
468.927	123.56
469.146	123.56
469.365	111.56
469.585	122.56
469.804	139.56
470.023	130.56
470.243	136.56
470.462	131.56
470.681	121.56
470.901	140.56
471.12	131.56
471.339	135.56
471.558	123.56
471.777	127.56
471.997	119.56
472.216	120.56
472.435	128.56
472.654	128.56
472.873	110.56
473.092	113.56
473.311	118.56
473.53	107.56
473.749	125.56
473.968	137.56
474.187	131.56
474.406	138.56
474.625	130.56
474.844	112.56
475.063	121.56
475.282	121.56
475.501	125.56
475.72	121.56
475.939	107.56
476.158	135.56
476.377	129.56
476.596	140.56
476.814	140.56
477.033	131.56
477.252	133.56
477.471	123.56
477.69	126.56
477.908	124.56
478.127	141.56
478.346	133.56
478.564	136.56
478.783	128.56
479.002	125.56
479.22	141.56
479.439	151.56
479.658	123.56
479.876	113.56
480.095	143.56
480.313	135.56
480.532	144.56
480.751	157.56
480.969	135.56
481.188	131.56
481.406	146.56
481.624	136.56
481.843	128.56
482.061	138.56
482.28	129.56
482.498	135.56
482.717	122.56
482.935	137.56
483.153	131.56
483.372	130.56
483.59	132.56
483.808	121.56
484.027	140.56
484.245	135.56
484.463	135.56
484.681	141.56
484.9	120.56
485.118	138.56
485.336	146.56
485.554	135.56
485.772	122.56
485.99	132.56
486.209	146.56
486.427	122.56
486.645	135.56
486.863	127.56
487.081	145.56
487.299	141.56
487.517	139.56
487.735	129.56
487.953	141.56
488.171	147.56
488.389	141.56
488.607	123.56
488.825	123.56
489.043	152.56
489.261	134.56
489.479	143.56
489.696	126.56
489.914	152.56
490.132	139.56
490.35	151.56
490.568	135.56
490.786	168.56
491.003	134.56
491.221	139.56
491.439	135.56
491.657	151.56
491.874	157.56
492.092	143.56
492.31	159.56
492.527	141.56
492.745	144.56
492.963	135.56
493.18	142.56
493.398	139.56
493.615	148.56
493.833	143.56
494.05	135.56
494.268	150.56
494.485	146.56
494.703	151.56
494.92	148.56
495.138	144.56
495.355	145.56
495.573	157.56
495.79	141.56
496.008	153.56
496.225	149.56
496.442	149.56
496.66	161.56
496.877	147.56
497.094	167.56
497.312	147.56
497.529	153.56
497.746	129.56
497.963	154.56
498.181	141.56
498.398	158.56
498.615	155.56
498.832	151.56
499.049	171.56
499.267	192.56
499.484	165.56
499.701	174.56
499.918	192.56
500.135	198.56
500.352	193.56
500.569	215.56
500.786	219.56
501.003	204.56
501.22	211.56
501.437	205.56
501.654	173.56
501.871	161.56
502.088	167.56
502.305	172.56
502.522	167.56
502.739	158.56
502.956	160.56
503.172	165.56
503.389	152.56
503.606	155.56
503.823	154.56
504.04	157.56
504.256	143.56
504.473	145.56
504.69	145.56
504.907	155.56
