Data from 1968.PennyLincolnUp.Lamp.En5.5.200Scan.071719.P1._HRD10591_14-51-09-970.txt Node
Date: Thu Jul 18 14:51:09 EDT 2019
User: cochatt
Spectrometer: HR+D1059
Trigger mode: 1
Integration Time (sec): 1.000000E-1
Scans to average: 1
Electric dark correction enabled: true
Nonlinearity correction enabled: false
Boxcar width: 0
XAxis mode: Wavelengths
Number of Pixels in Spectrum: 2048
>>>>>Begin Spectral Data<<<<<
223.165	-6.5
223.4	-6.5
223.635	-6.5
223.869	-20.5
224.104	-28.5
224.338	-9.5
224.573	-19.5
224.808	-9.5
225.042	-1.5
225.277	4.5
225.511	2.5
225.746	-1.5
225.98	14.5
226.215	6.5
226.449	5.5
226.683	6.5
226.918	18.5
227.152	38.5
227.387	32.5
227.621	27.5
227.856	50.5
228.09	43.5
228.324	48.5
228.559	50.5
228.793	52.5
229.027	58.5
229.262	56.5
229.496	68.5
229.73	65.5
229.964	68.5
230.199	68.5
230.433	73.5
230.667	71.5
230.901	57.5
231.136	85.5
231.37	83.5
231.604	78.5
231.838	60.5
232.072	77.5
232.306	86.5
232.541	75.5
232.775	99.5
233.009	92.5
233.243	76.5
233.477	85.5
233.711	77.5
233.945	78.5
234.179	79.5
234.413	89.5
234.647	84.5
234.881	72.5
235.115	81.5
235.349	75.5
235.583	84.5
235.817	89.5
236.051	79.5
236.285	78.5
236.519	75.5
236.753	80.5
236.987	77.5
237.221	73.5
237.455	76.5
237.689	70.5
237.922	72.5
238.156	65.5
238.39	83.5
238.624	93.5
238.858	86.5
239.091	77.5
239.325	88.5
239.559	89.5
239.793	83.5
240.027	85.5
240.26	70.5
240.494	72.5
240.728	76.5
240.961	78.5
241.195	83.5
241.429	77.5
241.662	67.5
241.896	73.5
242.13	87.5
242.363	89.5
242.597	80.5
242.83	70.5
243.064	72.5
243.298	80.5
243.531	81.5
243.765	87.5
243.998	102.5
244.232	68.5
244.465	84.5
244.699	77.5
244.932	85.5
245.166	89.5
245.399	81.5
245.633	86.5
245.866	84.5
246.099	82.5
246.333	90.5
246.566	84.5
246.8	70.5
247.033	88.5
247.266	89.5
247.5	73.5
247.733	73.5
247.966	94.5
248.2	98.5
248.433	62.5
248.666	98.5
248.899	91.5
249.133	83.5
249.366	98.5
249.599	94.5
249.832	89.5
250.066	88.5
250.299	81.5
250.532	85.5
250.765	98.5
250.998	96.5
251.231	83.5
251.465	99.5
251.698	87.5
251.931	96.5
252.164	93.5
252.397	82.5
252.63	98.5
252.863	101.5
253.096	105.5
253.329	89.5
253.562	93.5
253.795	84.5
254.028	84.5
254.261	90.5
254.494	92.5
254.727	96.5
254.96	100.5
255.193	96.5
255.426	90.5
255.659	91.5
255.892	86.5
256.124	94.5
256.357	91.5
256.59	77.5
256.823	91.5
257.056	82.5
257.289	105.5
257.521	83.5
257.754	94.5
257.987	91.5
258.22	91.5
258.452	88.5
258.685	82.5
258.918	84.5
259.151	85.5
259.383	91.5
259.616	85.5
259.849	98.5
260.081	99.5
260.314	91.5
260.547	95.5
260.779	82.5
261.012	76.5
261.244	89.5
261.477	86.5
261.71	99.5
261.942	103.5
262.175	93.5
262.407	96.5
262.64	86.5
262.872	86.5
263.105	90.5
263.337	76.5
263.57	88.5
263.802	92.5
264.035	89.5
264.267	87.5
264.499	108.5
264.732	91.5
264.964	85.5
265.197	93.5
265.429	81.5
265.661	86.5
265.894	84.5
266.126	90.5
266.358	87.5
266.591	89.5
266.823	80.5
267.055	89.5
267.287	92.5
267.52	96.5
267.752	102.5
267.984	81.5
268.216	107.5
268.448	91.5
268.681	85.5
268.913	107.5
269.145	104.5
269.377	100.5
269.609	98.5
269.841	94.5
270.073	90.5
270.306	77.5
270.538	114.5
270.77	101.5
271.002	94.5
271.234	97.5
271.466	92.5
271.698	78.5
271.93	100.5
272.162	110.5
272.394	90.5
272.626	106.5
272.858	89.5
273.09	92.5
273.322	102.5
273.553	89.5
273.785	95.5
274.017	91.5
274.249	97.5
274.481	96.5
274.713	98.5
274.945	84.5
275.176	90.5
275.408	93.5
275.64	83.5
275.872	78.5
276.104	90.5
276.335	97.5
276.567	101.5
276.799	103.5
277.031	88.5
277.262	90.5
277.494	105.5
277.726	91.5
277.957	93.5
278.189	91.5
278.421	101.5
278.652	98.5
278.884	100.5
279.115	77.5
279.347	104.5
279.579	103.5
279.81	92.5
280.042	81.5
280.273	81.5
280.505	96.5
280.736	105.5
280.968	99.5
281.199	102.5
281.431	94.5
281.662	83.5
281.894	90.5
282.125	93.5
282.356	103.5
282.588	102.5
282.819	96.5
283.051	98.5
283.282	96.5
283.513	112.5
283.745	100.5
283.976	105.5
284.207	101.5
284.439	81.5
284.67	92.5
284.901	101.5
285.132	97.5
285.364	100.5
285.595	99.5
285.826	92.5
286.057	112.5
286.288	106.5
286.52	105.5
286.751	101.5
286.982	107.5
287.213	117.5
287.444	92.5
287.675	104.5
287.906	108.5
288.138	102.5
288.369	86.5
288.6	89.5
288.831	99.5
289.062	104.5
289.293	106.5
289.524	96.5
289.755	98.5
289.986	109.5
290.217	105.5
290.448	100.5
290.679	112.5
290.91	92.5
291.141	95.5
291.371	92.5
291.602	108.5
291.833	95.5
292.064	107.5
292.295	100.5
292.526	112.5
292.757	99.5
292.987	97.5
293.218	100.5
293.449	97.5
293.68	109.5
293.91	85.5
294.141	118.5
294.372	117.5
294.603	119.5
294.833	108.5
295.064	101.5
295.295	98.5
295.525	104.5
295.756	111.5
295.987	97.5
296.217	96.5
296.448	108.5
296.679	93.5
296.909	108.5
297.14	101.5
297.37	121.5
297.601	107.5
297.831	104.5
298.062	94.5
298.292	89.5
298.523	101.5
298.753	101.5
298.984	102.5
299.214	109.5
299.445	106.5
299.675	106.5
299.905	106.5
300.136	109.5
300.366	91.5
300.597	86.5
300.827	101.5
301.057	115.5
301.288	116.5
301.518	101.5
301.748	109.5
301.979	104.5
302.209	110.5
302.439	103.5
302.669	96.5
302.9	98.5
303.13	101.5
303.36	101.5
303.59	109.5
303.82	101.5
304.051	105.5
304.281	107.5
304.511	103.5
304.741	96.5
304.971	104.5
305.201	102.5
305.431	114.5
305.661	108.5
305.891	112.5
306.121	105.5
306.352	112.5
306.582	100.5
306.812	121.5
307.042	94.5
307.272	112.5
307.502	112.5
307.731	114.5
307.961	107.5
308.191	110.5
308.421	126.5
308.651	105.5
308.881	103.5
309.111	109.5
309.341	115.5
309.571	92.5
309.8	115.5
310.03	113.5
310.26	106.5
310.49	101.5
310.72	95.5
310.949	120.5
311.179	106.5
311.409	102.5
311.639	125.5
311.868	120.5
312.098	112.5
312.328	123.5
312.557	106.5
312.787	94.5
313.017	100.5
313.246	113.5
313.476	117.5
313.706	111.5
313.935	112.5
314.165	110.5
314.394	109.5
314.624	108.5
314.853	113.5
315.083	106.5
315.312	106.5
315.542	110.5
315.771	120.5
316.001	113.5
316.23	105.5
316.46	105.5
316.689	112.5
316.919	114.5
317.148	116.5
317.377	121.5
317.607	107.5
317.836	101.5
318.065	104.5
318.295	108.5
318.524	106.5
318.753	114.5
318.983	112.5
319.212	113.5
319.441	114.5
319.67	112.5
319.9	112.5
320.129	103.5
320.358	108.5
320.587	93.5
320.816	97.5
321.046	81.5
321.275	121.5
321.504	109.5
321.733	114.5
321.962	122.5
322.191	115.5
322.42	130.5
322.649	118.5
322.878	107.5
323.108	106.5
323.337	113.5
323.566	107.5
323.795	117.5
324.024	101.5
324.253	126.5
324.482	126.5
324.71	165.5
324.939	196.5
325.168	172.5
325.397	130.5
325.626	123.5
325.855	127.5
326.084	125.5
326.313	122.5
326.542	125.5
326.77	128.5
326.999	124.5
327.228	134.5
327.457	163.5
327.686	162.5
327.914	140.5
328.143	134.5
328.372	122.5
328.6	118.5
328.829	131.5
329.058	136.5
329.287	112.5
329.515	103.5
329.744	109.5
329.972	121.5
330.201	117.5
330.43	114.5
330.658	119.5
330.887	128.5
331.115	122.5
331.344	114.5
331.572	114.5
331.801	104.5
332.03	121.5
332.258	118.5
332.486	105.5
332.715	112.5
332.943	116.5
333.172	112.5
333.4	108.5
333.629	121.5
333.857	120.5
334.085	107.5
334.314	112.5
334.542	108.5
334.771	130.5
334.999	120.5
335.227	120.5
335.455	113.5
335.684	125.5
335.912	120.5
336.14	121.5
336.369	116.5
336.597	133.5
336.825	111.5
337.053	122.5
337.281	134.5
337.51	109.5
337.738	114.5
337.966	113.5
338.194	114.5
338.422	104.5
338.65	121.5
338.878	119.5
339.106	122.5
339.334	109.5
339.562	116.5
339.79	116.5
340.018	124.5
340.246	114.5
340.474	112.5
340.702	117.5
340.93	116.5
341.158	116.5
341.386	117.5
341.614	116.5
341.842	95.5
342.07	120.5
342.298	98.5
342.526	109.5
342.754	112.5
342.981	96.5
343.209	97.5
343.437	116.5
343.665	112.5
343.893	121.5
344.12	112.5
344.348	111.5
344.576	103.5
344.804	116.5
345.031	114.5
345.259	127.5
345.487	118.5
345.714	100.5
345.942	122.5
346.17	106.5
346.397	111.5
346.625	112.5
346.853	106.5
347.08	103.5
347.308	106.5
347.535	117.5
347.763	110.5
347.99	109.5
348.218	113.5
348.445	116.5
348.673	124.5
348.9	117.5
349.128	115.5
349.355	101.5
349.583	110.5
349.81	113.5
350.037	98.5
350.265	112.5
350.492	106.5
350.72	106.5
350.947	114.5
351.174	116.5
351.402	98.5
351.629	111.5
351.856	121.5
352.083	112.5
352.311	124.5
352.538	100.5
352.765	118.5
352.992	114.5
353.22	102.5
353.447	123.5
353.674	113.5
353.901	114.5
354.128	96.5
354.355	108.5
354.583	101.5
354.81	114.5
355.037	109.5
355.264	111.5
355.491	118.5
355.718	110.5
355.945	118.5
356.172	116.5
356.399	106.5
356.626	106.5
356.853	116.5
357.08	113.5
357.307	108.5
357.534	112.5
357.761	98.5
357.988	114.5
358.215	119.5
358.441	124.5
358.668	130.5
358.895	119.5
359.122	105.5
359.349	98.5
359.576	108.5
359.802	105.5
360.029	122.5
360.256	120.5
360.483	117.5
360.709	113.5
360.936	109.5
361.163	122.5
361.39	106.5
361.616	116.5
361.843	111.5
362.07	122.5
362.296	111.5
362.523	114.5
362.749	101.5
362.976	109.5
363.203	118.5
363.429	124.5
363.656	106.5
363.882	120.5
364.109	113.5
364.335	101.5
364.562	124.5
364.788	96.5
365.015	121.5
365.241	117.5
365.468	113.5
365.694	107.5
365.92	114.5
366.147	107.5
366.373	120.5
366.599	107.5
366.826	120.5
367.052	106.5
367.278	107.5
367.505	101.5
367.731	113.5
367.957	121.5
368.184	104.5
368.41	105.5
368.636	126.5
368.862	113.5
369.089	107.5
369.315	121.5
369.541	107.5
369.767	123.5
369.993	104.5
370.219	93.5
370.445	106.5
370.672	123.5
370.898	112.5
371.124	130.5
371.35	113.5
371.576	107.5
371.802	115.5
372.028	106.5
372.254	113.5
372.48	113.5
372.706	108.5
372.932	109.5
373.158	119.5
373.384	117.5
373.61	103.5
373.835	112.5
374.061	113.5
374.287	108.5
374.513	117.5
374.739	111.5
374.965	120.5
375.191	114.5
375.416	122.5
375.642	117.5
375.868	122.5
376.094	106.5
376.319	105.5
376.545	107.5
376.771	117.5
376.997	123.5
377.222	107.5
377.448	131.5
377.674	118.5
377.899	105.5
378.125	116.5
378.35	114.5
378.576	93.5
378.802	104.5
379.027	116.5
379.253	107.5
379.478	116.5
379.704	118.5
379.929	118.5
380.155	109.5
380.38	107.5
380.606	122.5
380.831	120.5
381.057	118.5
381.282	110.5
381.507	121.5
381.733	121.5
381.958	129.5
382.184	127.5
382.409	101.5
382.634	111.5
382.86	118.5
383.085	112.5
383.31	108.5
383.535	124.5
383.761	112.5
383.986	115.5
384.211	116.5
384.436	109.5
384.662	125.5
384.887	117.5
385.112	119.5
385.337	123.5
385.562	118.5
385.787	111.5
386.013	131.5
386.238	112.5
386.463	129.5
386.688	118.5
386.913	109.5
387.138	120.5
387.363	114.5
387.588	126.5
387.813	124.5
388.038	113.5
388.263	110.5
388.488	136.5
388.713	116.5
388.938	121.5
389.163	116.5
389.387	140.5
389.612	126.5
389.837	123.5
390.062	121.5
390.287	106.5
390.512	118.5
390.736	103.5
390.961	128.5
391.186	135.5
391.411	113.5
391.636	122.5
391.86	125.5
392.085	125.5
392.31	123.5
392.534	120.5
392.759	125.5
392.984	117.5
393.208	117.5
393.433	125.5
393.658	103.5
393.882	130.5
394.107	121.5
394.331	129.5
394.556	114.5
394.78	127.5
395.005	126.5
395.229	123.5
395.454	130.5
395.678	124.5
395.903	128.5
396.127	115.5
396.352	124.5
396.576	116.5
396.801	113.5
397.025	133.5
397.249	129.5
397.474	127.5
397.698	122.5
397.922	128.5
398.147	131.5
398.371	137.5
398.595	137.5
398.82	116.5
399.044	140.5
399.268	146.5
399.492	136.5
399.717	148.5
399.941	156.5
400.165	136.5
400.389	119.5
400.613	120.5
400.837	135.5
401.062	137.5
401.286	134.5
401.51	129.5
401.734	116.5
401.958	135.5
402.182	134.5
402.406	124.5
402.63	134.5
402.854	139.5
403.078	117.5
403.302	124.5
403.526	134.5
403.75	131.5
403.974	132.5
404.198	133.5
404.422	130.5
404.645	124.5
404.869	148.5
405.093	137.5
405.317	157.5
405.541	138.5
405.765	134.5
405.988	145.5
406.212	132.5
406.436	141.5
406.66	130.5
406.883	132.5
407.107	145.5
407.331	149.5
407.555	131.5
407.778	142.5
408.002	136.5
408.226	122.5
408.449	126.5
408.673	128.5
408.896	140.5
409.12	144.5
409.344	138.5
409.567	139.5
409.791	146.5
410.014	140.5
410.238	139.5
410.461	131.5
410.685	130.5
410.908	129.5
411.132	135.5
411.355	134.5
411.578	143.5
411.802	130.5
412.025	126.5
412.249	135.5
412.472	135.5
412.695	137.5
412.919	141.5
413.142	125.5
413.365	136.5
413.589	149.5
413.812	140.5
414.035	146.5
414.258	143.5
414.482	128.5
414.705	120.5
414.928	126.5
415.151	127.5
415.374	143.5
415.597	129.5
415.821	118.5
416.044	123.5
416.267	126.5
416.49	127.5
416.713	128.5
416.936	128.5
417.159	134.5
417.382	134.5
417.605	118.5
417.828	131.5
418.051	132.5
418.274	134.5
418.497	119.5
418.72	121.5
418.943	121.5
419.166	140.5
419.389	128.5
419.611	147.5
419.834	135.5
420.057	135.5
420.28	143.5
420.503	134.5
420.726	136.5
420.948	130.5
421.171	140.5
421.394	132.5
421.617	125.5
421.839	125.5
422.062	119.5
422.285	130.5
422.507	131.5
422.73	128.5
422.953	137.5
423.175	150.5
423.398	142.5
423.621	138.5
423.843	133.5
424.066	128.5
424.288	126.5
424.511	134.5
424.733	129.5
424.956	135.5
425.178	152.5
425.401	148.5
425.623	147.5
425.846	136.5
426.068	154.5
426.291	146.5
426.513	130.5
426.735	142.5
426.958	148.5
427.18	150.5
427.402	155.5
427.625	162.5
427.847	137.5
428.069	120.5
428.292	148.5
428.514	126.5
428.736	122.5
428.958	134.5
429.181	133.5
429.403	148.5
429.625	142.5
429.847	123.5
430.069	134.5
430.292	152.5
430.514	119.5
430.736	132.5
430.958	121.5
431.18	119.5
431.402	125.5
431.624	118.5
431.846	116.5
432.068	112.5
432.29	127.5
432.512	129.5
432.734	136.5
432.956	118.5
433.178	122.5
433.4	113.5
433.622	130.5
433.844	140.5
434.066	128.5
434.287	125.5
434.509	114.5
434.731	126.5
434.953	128.5
435.175	120.5
435.397	137.5
435.618	150.5
435.84	152.5
436.062	133.5
436.284	143.5
436.505	130.5
436.727	134.5
436.949	125.5
437.17	129.5
437.392	129.5
437.614	132.5
437.835	110.5
438.057	121.5
438.278	139.5
438.5	137.5
438.721	143.5
438.943	129.5
439.165	141.5
439.386	132.5
439.608	135.5
439.829	138.5
440.05	117.5
440.272	135.5
440.493	135.5
440.715	131.5
440.936	132.5
441.158	141.5
441.379	130.5
441.6	126.5
441.822	134.5
442.043	140.5
442.264	144.5
442.486	132.5
442.707	141.5
442.928	140.5
443.149	136.5
443.371	124.5
443.592	140.5
443.813	141.5
444.034	140.5
444.255	138.5
444.476	140.5
444.698	123.5
444.919	133.5
445.14	216.5
445.361	186.5
445.582	128.5
445.803	137.5
446.024	148.5
446.245	142.5
446.466	145.5
446.687	126.5
446.908	148.5
447.129	135.5
447.35	126.5
447.571	136.5
447.792	131.5
448.013	115.5
448.234	115.5
448.455	138.5
448.675	137.5
448.896	133.5
449.117	131.5
449.338	117.5
449.559	133.5
449.779	139.5
450	128.5
450.221	144.5
450.442	115.5
450.662	129.5
450.883	120.5
451.104	118.5
451.324	124.5
451.545	122.5
451.766	132.5
451.986	126.5
452.207	124.5
452.428	120.5
452.648	112.5
452.869	130.5
453.089	123.5
453.31	112.5
453.53	116.5
453.751	113.5
453.971	117.5
454.192	114.5
454.412	113.5
454.633	112.5
454.853	125.5
455.073	114.5
455.294	118.5
455.514	125.5
455.734	119.5
455.955	125.5
456.175	124.5
456.395	122.5
456.616	109.5
456.836	106.5
457.056	117.5
457.276	112.5
457.497	127.5
457.717	130.5
457.937	129.5
458.157	125.5
458.377	123.5
458.598	118.5
458.818	128.5
459.038	133.5
459.258	126.5
459.478	128.5
459.698	132.5
459.918	126.5
460.138	133.5
460.358	132.5
460.578	130.5
460.798	133.5
461.018	125.5
461.238	133.5
461.458	125.5
461.678	139.5
461.898	142.5
462.118	143.5
462.338	130.5
462.558	139.5
462.777	132.5
462.997	136.5
463.217	138.5
463.437	139.5
463.657	132.5
463.876	137.5
464.096	141.5
464.316	117.5
464.536	137.5
464.755	136.5
464.975	121.5
465.195	134.5
465.414	143.5
465.634	127.5
465.854	132.5
466.073	132.5
466.293	135.5
466.512	125.5
466.732	124.5
466.951	120.5
467.171	122.5
467.391	132.5
467.61	118.5
467.829	136.5
468.049	130.5
468.268	121.5
468.488	110.5
468.707	130.5
468.927	122.5
469.146	132.5
469.365	120.5
469.585	119.5
469.804	146.5
470.023	134.5
470.243	125.5
470.462	134.5
470.681	114.5
470.901	125.5
471.12	129.5
471.339	122.5
471.558	120.5
471.777	123.5
471.997	141.5
472.216	128.5
472.435	117.5
472.654	120.5
472.873	102.5
473.092	121.5
473.311	125.5
473.53	124.5
473.749	126.5
473.968	137.5
474.187	119.5
474.406	132.5
474.625	116.5
474.844	106.5
475.063	122.5
475.282	131.5
475.501	111.5
475.72	115.5
475.939	133.5
476.158	117.5
476.377	118.5
476.596	116.5
476.814	128.5
477.033	124.5
477.252	119.5
477.471	133.5
477.69	132.5
477.908	118.5
478.127	145.5
478.346	130.5
478.564	125.5
478.783	128.5
479.002	128.5
479.22	133.5
479.439	135.5
479.658	142.5
479.876	129.5
480.095	124.5
480.313	140.5
480.532	154.5
480.751	140.5
480.969	137.5
481.188	151.5
481.406	132.5
481.624	128.5
481.843	146.5
482.061	122.5
482.28	130.5
482.498	113.5
482.717	120.5
482.935	130.5
483.153	136.5
483.372	137.5
483.59	131.5
483.808	127.5
484.027	124.5
484.245	136.5
484.463	129.5
484.681	136.5
484.9	132.5
485.118	146.5
485.336	133.5
485.554	141.5
485.772	151.5
485.99	136.5
486.209	140.5
486.427	136.5
486.645	146.5
486.863	126.5
487.081	122.5
487.299	139.5
487.517	137.5
487.735	136.5
487.953	135.5
488.171	126.5
488.389	134.5
488.607	133.5
488.825	141.5
489.043	143.5
489.261	136.5
489.479	130.5
489.696	134.5
489.914	133.5
490.132	129.5
490.35	146.5
490.568	151.5
490.786	155.5
491.003	132.5
491.221	145.5
491.439	145.5
491.657	125.5
491.874	149.5
492.092	161.5
492.31	164.5
492.527	146.5
492.745	140.5
492.963	132.5
493.18	143.5
493.398	146.5
493.615	137.5
493.833	145.5
494.05	153.5
494.268	142.5
494.485	153.5
494.703	138.5
494.92	142.5
495.138	166.5
495.355	155.5
495.573	146.5
495.79	142.5
496.008	146.5
496.225	140.5
496.442	144.5
496.66	160.5
496.877	139.5
497.094	145.5
497.312	138.5
497.529	154.5
497.746	161.5
497.963	134.5
498.181	160.5
498.398	145.5
498.615	161.5
498.832	174.5
499.049	162.5
499.267	163.5
499.484	187.5
499.701	178.5
499.918	198.5
500.135	213.5
500.352	213.5
500.569	219.5
500.786	221.5
501.003	206.5
501.22	206.5
501.437	185.5
501.654	194.5
501.871	178.5
502.088	154.5
502.305	156.5
502.522	176.5
502.739	167.5
502.956	154.5
503.172	150.5
503.389	149.5
503.606	146.5
503.823	145.5
504.04	139.5
504.256	154.5
504.473	152.5
504.69	144.5
504.907	146.5
505.123	143.5
505.34	149.5
505.557	139.5
505.773	146.5
505.99	146.5
506.207	125.5
506.423	144.5
506.64	126.5
506.856	136.5
507.073	128.5
507.289	146.5
507.506	124.5
507.722	143.5
507.939	144.5
508.155	142.5
508.372	130.5
508.588	126.5
508.805	142.5
509.021	125.5
509.238	133.5
509.454	122.5
509.67	140.5
509.887	134.5
510.103	124.5
510.319	144.5
510.536	153.5
510.752	160.5
510.968	147.5
511.184	132.5
511.401	132.5
511.617	141.5
511.833	139.5
512.049	124.5
512.265	122.5
512.481	135.5
512.698	133.5
512.914	115.5
513.13	121.5
513.346	128.5
513.562	134.5
513.778	128.5
513.994	120.5
514.21	129.5
514.426	140.5
514.642	121.5
514.858	134.5
515.074	138.5
515.29	160.5
515.506	164.5
515.721	150.5
515.937	132.5
516.153	130.5
516.369	131.5
516.585	134.5
516.801	121.5
517.016	144.5
517.232	128.5
517.448	128.5
517.664	132.5
517.879	146.5
518.095	155.5
518.311	140.5
518.527	141.5
518.742	130.5
518.958	122.5
519.173	131.5
519.389	147.5
519.605	140.5
519.82	139.5
520.036	128.5
520.251	129.5
520.467	129.5
520.682	134.5
520.898	134.5
521.113	134.5
521.329	123.5
521.544	128.5
521.76	147.5
521.975	190.5
522.19	184.5
522.406	136.5
522.621	128.5
522.836	117.5
523.052	128.5
523.267	112.5
523.482	126.5
523.698	111.5
