Data from 1968.PennyLincolnUp.Lamp.En5.5.200Scan.071719.P1._HRD10591_14-51-31-970.txt Node
Date: Thu Jul 18 14:51:31 EDT 2019
User: cochatt
Spectrometer: HR+D1059
Trigger mode: 1
Integration Time (sec): 1.000000E-1
Scans to average: 1
Electric dark correction enabled: true
Nonlinearity correction enabled: false
Boxcar width: 0
XAxis mode: Wavelengths
Number of Pixels in Spectrum: 2048
>>>>>Begin Spectral Data<<<<<
223.165	-15.56
223.4	-15.56
223.635	-15.56
223.869	-34.56
224.104	-17.56
224.338	-10.56
224.573	-8.56
224.808	-17.56
225.042	-0.56
225.277	-18.56
225.511	9.44
225.746	3.44
225.98	-3.56
226.215	6.44
226.449	17.44
226.683	24.44
226.918	30.44
227.152	35.44
227.387	42.44
227.621	45.44
227.856	36.44
228.09	57.44
228.324	53.44
228.559	40.44
228.793	46.44
229.027	60.44
229.262	62.44
229.496	73.44
229.73	65.44
229.964	78.44
230.199	73.44
230.433	65.44
230.667	83.44
230.901	73.44
231.136	88.44
231.37	94.44
231.604	91.44
231.838	78.44
232.072	80.44
232.306	90.44
232.541	89.44
232.775	99.44
233.009	84.44
233.243	80.44
233.477	88.44
233.711	82.44
233.945	94.44
234.179	82.44
234.413	92.44
234.647	90.44
234.881	85.44
235.115	90.44
235.349	85.44
235.583	95.44
235.817	91.44
236.051	85.44
236.285	89.44
236.519	77.44
236.753	83.44
236.987	86.44
237.221	96.44
237.455	86.44
237.689	100.44
237.922	85.44
238.156	80.44
238.39	80.44
238.624	93.44
238.858	72.44
239.091	81.44
239.325	88.44
239.559	71.44
239.793	68.44
240.027	79.44
240.26	70.44
240.494	72.44
240.728	79.44
240.961	85.44
241.195	80.44
241.429	87.44
241.662	81.44
241.896	81.44
242.13	72.44
242.363	72.44
242.597	88.44
242.83	86.44
243.064	96.44
243.298	104.44
243.531	72.44
243.765	79.44
243.998	87.44
244.232	85.44
244.465	77.44
244.699	85.44
244.932	85.44
245.166	78.44
245.399	73.44
245.633	81.44
245.866	81.44
246.099	90.44
246.333	89.44
246.566	71.44
246.8	87.44
247.033	84.44
247.266	88.44
247.5	83.44
247.733	84.44
247.966	84.44
248.2	91.44
248.433	82.44
248.666	101.44
248.899	92.44
249.133	99.44
249.366	105.44
249.599	93.44
249.832	88.44
250.066	95.44
250.299	88.44
250.532	92.44
250.765	81.44
250.998	87.44
251.231	86.44
251.465	83.44
251.698	91.44
251.931	101.44
252.164	94.44
252.397	97.44
252.63	74.44
252.863	88.44
253.096	102.44
253.329	99.44
253.562	95.44
253.795	107.44
254.028	84.44
254.261	89.44
254.494	99.44
254.727	103.44
254.96	89.44
255.193	94.44
255.426	76.44
255.659	95.44
255.892	84.44
256.124	88.44
256.357	95.44
256.59	94.44
256.823	97.44
257.056	91.44
257.289	90.44
257.521	88.44
257.754	93.44
257.987	99.44
258.22	96.44
258.452	89.44
258.685	99.44
258.918	104.44
259.151	72.44
259.383	101.44
259.616	90.44
259.849	87.44
260.081	74.44
260.314	91.44
260.547	100.44
260.779	87.44
261.012	88.44
261.244	92.44
261.477	95.44
261.71	90.44
261.942	87.44
262.175	91.44
262.407	100.44
262.64	105.44
262.872	113.44
263.105	97.44
263.337	100.44
263.57	103.44
263.802	95.44
264.035	97.44
264.267	101.44
264.499	106.44
264.732	101.44
264.964	90.44
265.197	100.44
265.429	100.44
265.661	88.44
265.894	86.44
266.126	93.44
266.358	88.44
266.591	76.44
266.823	93.44
267.055	97.44
267.287	93.44
267.52	105.44
267.752	99.44
267.984	102.44
268.216	96.44
268.448	100.44
268.681	99.44
268.913	91.44
269.145	92.44
269.377	103.44
269.609	95.44
269.841	93.44
270.073	95.44
270.306	106.44
270.538	103.44
270.77	100.44
271.002	100.44
271.234	98.44
271.466	95.44
271.698	94.44
271.93	100.44
272.162	103.44
272.394	97.44
272.626	97.44
272.858	105.44
273.09	103.44
273.322	106.44
273.553	85.44
273.785	93.44
274.017	92.44
274.249	98.44
274.481	101.44
274.713	103.44
274.945	102.44
275.176	102.44
275.408	95.44
275.64	94.44
275.872	94.44
276.104	112.44
276.335	95.44
276.567	90.44
276.799	92.44
277.031	89.44
277.262	115.44
277.494	102.44
277.726	100.44
277.957	93.44
278.189	108.44
278.421	107.44
278.652	104.44
278.884	100.44
279.115	115.44
279.347	91.44
279.579	96.44
279.81	89.44
280.042	99.44
280.273	124.44
280.505	95.44
280.736	86.44
280.968	119.44
281.199	116.44
281.431	115.44
281.662	93.44
281.894	99.44
282.125	105.44
282.356	101.44
282.588	95.44
282.819	100.44
283.051	80.44
283.282	105.44
283.513	99.44
283.745	108.44
283.976	106.44
284.207	101.44
284.439	99.44
284.67	111.44
284.901	104.44
285.132	92.44
285.364	105.44
285.595	114.44
285.826	105.44
286.057	108.44
286.288	95.44
286.52	89.44
286.751	90.44
286.982	94.44
287.213	92.44
287.444	99.44
287.675	95.44
287.906	96.44
288.138	104.44
288.369	102.44
288.6	104.44
288.831	104.44
289.062	107.44
289.293	101.44
289.524	112.44
289.755	101.44
289.986	91.44
290.217	105.44
290.448	111.44
290.679	101.44
290.91	119.44
291.141	113.44
291.371	104.44
291.602	104.44
291.833	93.44
292.064	97.44
292.295	109.44
292.526	95.44
292.757	103.44
292.987	108.44
293.218	100.44
293.449	100.44
293.68	108.44
293.91	100.44
294.141	107.44
294.372	106.44
294.603	104.44
294.833	109.44
295.064	107.44
295.295	86.44
295.525	113.44
295.756	117.44
295.987	107.44
296.217	103.44
296.448	98.44
296.679	104.44
296.909	103.44
297.14	109.44
297.37	102.44
297.601	108.44
297.831	100.44
298.062	103.44
298.292	110.44
298.523	112.44
298.753	102.44
298.984	102.44
299.214	96.44
299.445	107.44
299.675	103.44
299.905	100.44
300.136	99.44
300.366	95.44
300.597	92.44
300.827	95.44
301.057	97.44
301.288	109.44
301.518	115.44
301.748	93.44
301.979	102.44
302.209	116.44
302.439	111.44
302.669	102.44
302.9	112.44
303.13	100.44
303.36	104.44
303.59	111.44
303.82	104.44
304.051	110.44
304.281	96.44
304.511	105.44
304.741	101.44
304.971	116.44
305.201	100.44
305.431	106.44
305.661	104.44
305.891	115.44
306.121	104.44
306.352	117.44
306.582	115.44
306.812	108.44
307.042	101.44
307.272	116.44
307.502	111.44
307.731	119.44
307.961	119.44
308.191	104.44
308.421	107.44
308.651	110.44
308.881	108.44
309.111	95.44
309.341	102.44
309.571	103.44
309.8	101.44
310.03	102.44
310.26	97.44
310.49	121.44
310.72	104.44
310.949	107.44
311.179	104.44
311.409	121.44
311.639	114.44
311.868	99.44
312.098	117.44
312.328	94.44
312.557	121.44
312.787	107.44
313.017	118.44
313.246	103.44
313.476	103.44
313.706	89.44
313.935	103.44
314.165	107.44
314.394	101.44
314.624	111.44
314.853	104.44
315.083	114.44
315.312	121.44
315.542	119.44
315.771	113.44
316.001	115.44
316.23	105.44
316.46	114.44
316.689	106.44
316.919	111.44
317.148	109.44
317.377	107.44
317.607	120.44
317.836	121.44
318.065	103.44
318.295	112.44
318.524	110.44
318.753	120.44
318.983	107.44
319.212	113.44
319.441	106.44
319.67	107.44
319.9	111.44
320.129	101.44
320.358	116.44
320.587	111.44
320.816	116.44
321.046	111.44
321.275	112.44
321.504	106.44
321.733	122.44
321.962	120.44
322.191	110.44
322.42	106.44
322.649	116.44
322.878	103.44
323.108	114.44
323.337	108.44
323.566	113.44
323.795	109.44
324.024	125.44
324.253	104.44
324.482	141.44
324.71	174.44
324.939	181.44
325.168	159.44
325.397	131.44
325.626	124.44
325.855	120.44
326.084	112.44
326.313	123.44
326.542	119.44
326.77	121.44
326.999	131.44
327.228	151.44
327.457	169.44
327.686	163.44
327.914	113.44
328.143	139.44
328.372	109.44
328.6	122.44
328.829	123.44
329.058	110.44
329.287	120.44
329.515	119.44
329.744	116.44
329.972	110.44
330.201	121.44
330.43	145.44
330.658	120.44
330.887	119.44
331.115	117.44
331.344	134.44
331.572	119.44
331.801	113.44
332.03	110.44
332.258	113.44
332.486	106.44
332.715	122.44
332.943	121.44
333.172	123.44
333.4	128.44
333.629	118.44
333.857	112.44
334.085	109.44
334.314	113.44
334.542	127.44
334.771	128.44
334.999	110.44
335.227	118.44
335.455	113.44
335.684	138.44
335.912	116.44
336.14	103.44
336.369	126.44
336.597	100.44
336.825	117.44
337.053	113.44
337.281	116.44
337.51	108.44
337.738	111.44
337.966	112.44
338.194	109.44
338.422	120.44
338.65	99.44
338.878	119.44
339.106	106.44
339.334	120.44
339.562	120.44
339.79	106.44
340.018	114.44
340.246	119.44
340.474	115.44
340.702	120.44
340.93	121.44
341.158	117.44
341.386	113.44
341.614	121.44
341.842	113.44
342.07	108.44
342.298	123.44
342.526	122.44
342.754	109.44
342.981	122.44
343.209	127.44
343.437	122.44
343.665	124.44
343.893	92.44
344.12	111.44
344.348	118.44
344.576	116.44
344.804	122.44
345.031	119.44
345.259	113.44
345.487	114.44
345.714	126.44
345.942	107.44
346.17	109.44
346.397	100.44
346.625	115.44
346.853	112.44
347.08	109.44
347.308	113.44
347.535	124.44
347.763	109.44
347.99	113.44
348.218	120.44
348.445	123.44
348.673	125.44
348.9	119.44
349.128	126.44
349.355	128.44
349.583	115.44
349.81	117.44
350.037	115.44
350.265	108.44
350.492	117.44
350.72	98.44
350.947	121.44
351.174	102.44
351.402	104.44
351.629	115.44
351.856	119.44
352.083	108.44
352.311	125.44
352.538	106.44
352.765	100.44
352.992	92.44
353.22	103.44
353.447	115.44
353.674	117.44
353.901	112.44
354.128	110.44
354.355	104.44
354.583	117.44
354.81	109.44
355.037	104.44
355.264	118.44
355.491	102.44
355.718	107.44
355.945	121.44
356.172	102.44
356.399	109.44
356.626	105.44
356.853	119.44
357.08	112.44
357.307	112.44
357.534	121.44
357.761	113.44
357.988	99.44
358.215	116.44
358.441	122.44
358.668	121.44
358.895	108.44
359.122	106.44
359.349	103.44
359.576	121.44
359.802	102.44
360.029	110.44
360.256	125.44
360.483	119.44
360.709	112.44
360.936	112.44
361.163	124.44
361.39	129.44
361.616	116.44
361.843	101.44
362.07	108.44
362.296	105.44
362.523	110.44
362.749	108.44
362.976	109.44
363.203	114.44
363.429	105.44
363.656	124.44
363.882	102.44
364.109	98.44
364.335	115.44
364.562	98.44
364.788	112.44
365.015	136.44
365.241	118.44
365.468	122.44
365.694	104.44
365.92	105.44
366.147	112.44
366.373	109.44
366.599	104.44
366.826	104.44
367.052	120.44
367.278	108.44
367.505	119.44
367.731	132.44
367.957	118.44
368.184	126.44
368.41	117.44
368.636	117.44
368.862	114.44
369.089	110.44
369.315	113.44
369.541	128.44
369.767	123.44
369.993	101.44
370.219	114.44
370.445	109.44
370.672	108.44
370.898	109.44
371.124	130.44
371.35	119.44
371.576	117.44
371.802	115.44
372.028	124.44
372.254	123.44
372.48	111.44
372.706	105.44
372.932	117.44
373.158	127.44
373.384	130.44
373.61	117.44
373.835	122.44
374.061	101.44
374.287	111.44
374.513	123.44
374.739	127.44
374.965	121.44
375.191	115.44
375.416	106.44
375.642	106.44
375.868	131.44
376.094	108.44
376.319	119.44
376.545	103.44
376.771	121.44
376.997	119.44
377.222	115.44
377.448	110.44
377.674	94.44
377.899	100.44
378.125	110.44
378.35	117.44
378.576	119.44
378.802	115.44
379.027	100.44
379.253	121.44
379.478	103.44
379.704	100.44
379.929	116.44
380.155	102.44
380.38	116.44
380.606	119.44
380.831	120.44
381.057	122.44
381.282	110.44
381.507	124.44
381.733	107.44
381.958	108.44
382.184	115.44
382.409	133.44
382.634	124.44
382.86	111.44
383.085	123.44
383.31	122.44
383.535	127.44
383.761	119.44
383.986	141.44
384.211	112.44
384.436	119.44
384.662	123.44
384.887	119.44
385.112	134.44
385.337	112.44
385.562	117.44
385.787	122.44
386.013	123.44
386.238	123.44
386.463	123.44
386.688	140.44
386.913	111.44
387.138	121.44
387.363	119.44
387.588	123.44
387.813	135.44
388.038	112.44
388.263	133.44
388.488	127.44
388.713	124.44
388.938	113.44
389.163	123.44
389.387	132.44
389.612	128.44
389.837	137.44
390.062	130.44
390.287	119.44
390.512	105.44
390.736	131.44
390.961	125.44
391.186	112.44
391.411	135.44
391.636	124.44
391.86	133.44
392.085	131.44
392.31	136.44
392.534	128.44
392.759	111.44
392.984	117.44
393.208	111.44
393.433	123.44
393.658	131.44
393.882	126.44
394.107	126.44
394.331	130.44
394.556	100.44
394.78	104.44
395.005	117.44
395.229	127.44
395.454	126.44
395.678	116.44
395.903	133.44
396.127	142.44
396.352	119.44
396.576	129.44
396.801	121.44
397.025	125.44
397.249	119.44
397.474	137.44
397.698	118.44
397.922	115.44
398.147	115.44
398.371	125.44
398.595	118.44
398.82	123.44
399.044	133.44
399.268	135.44
399.492	145.44
399.717	158.44
399.941	147.44
400.165	137.44
400.389	131.44
400.613	145.44
400.837	134.44
401.062	125.44
401.286	115.44
401.51	122.44
401.734	126.44
401.958	125.44
402.182	121.44
402.406	143.44
402.63	119.44
402.854	130.44
403.078	132.44
403.302	144.44
403.526	138.44
403.75	132.44
403.974	128.44
404.198	125.44
404.422	128.44
404.645	142.44
404.869	127.44
405.093	131.44
405.317	131.44
405.541	139.44
405.765	132.44
405.988	130.44
406.212	131.44
406.436	129.44
406.66	141.44
406.883	141.44
407.107	150.44
407.331	139.44
407.555	135.44
407.778	160.44
408.002	142.44
408.226	146.44
408.449	150.44
408.673	135.44
408.896	127.44
409.12	148.44
409.344	133.44
409.567	135.44
409.791	131.44
410.014	132.44
410.238	125.44
410.461	130.44
410.685	129.44
410.908	131.44
411.132	133.44
411.355	143.44
411.578	128.44
411.802	126.44
412.025	127.44
412.249	128.44
412.472	126.44
412.695	136.44
412.919	129.44
413.142	123.44
413.365	140.44
413.589	123.44
413.812	116.44
414.035	121.44
414.258	132.44
414.482	128.44
414.705	138.44
414.928	135.44
415.151	115.44
415.374	128.44
415.597	132.44
415.821	132.44
416.044	127.44
416.267	139.44
416.49	142.44
416.713	142.44
416.936	136.44
417.159	134.44
417.382	128.44
417.605	121.44
417.828	131.44
418.051	137.44
418.274	137.44
418.497	126.44
418.72	126.44
418.943	129.44
419.166	140.44
419.389	127.44
419.611	128.44
419.834	128.44
420.057	135.44
420.28	129.44
420.503	128.44
420.726	133.44
420.948	137.44
421.171	151.44
421.394	151.44
421.617	127.44
421.839	126.44
422.062	137.44
422.285	135.44
422.507	140.44
422.73	137.44
422.953	132.44
423.175	137.44
423.398	137.44
423.621	134.44
423.843	123.44
424.066	142.44
424.288	127.44
424.511	138.44
424.733	137.44
424.956	137.44
425.178	155.44
425.401	128.44
425.623	135.44
425.846	127.44
426.068	131.44
426.291	147.44
426.513	139.44
426.735	142.44
426.958	123.44
427.18	137.44
427.402	148.44
427.625	153.44
427.847	141.44
428.069	139.44
428.292	145.44
428.514	146.44
428.736	137.44
428.958	131.44
429.181	133.44
429.403	129.44
429.625	122.44
429.847	131.44
430.069	133.44
430.292	139.44
430.514	120.44
430.736	126.44
430.958	138.44
431.18	133.44
431.402	126.44
431.624	135.44
431.846	121.44
432.068	145.44
432.29	134.44
432.512	134.44
432.734	131.44
432.956	135.44
433.178	127.44
433.4	125.44
433.622	128.44
433.844	129.44
434.066	125.44
434.287	142.44
434.509	127.44
434.731	137.44
434.953	141.44
435.175	129.44
435.397	126.44
435.618	116.44
435.84	135.44
436.062	135.44
436.284	159.44
436.505	132.44
436.727	144.44
436.949	135.44
437.17	129.44
437.392	145.44
437.614	137.44
437.835	122.44
438.057	143.44
438.278	149.44
438.5	139.44
438.721	151.44
438.943	156.44
439.165	131.44
439.386	136.44
439.608	133.44
439.829	130.44
440.05	135.44
440.272	135.44
440.493	126.44
440.715	124.44
440.936	130.44
441.158	119.44
441.379	133.44
441.6	131.44
441.822	136.44
442.043	133.44
442.264	128.44
442.486	138.44
442.707	134.44
442.928	128.44
443.149	128.44
443.371	146.44
443.592	145.44
443.813	150.44
444.034	153.44
444.255	154.44
444.476	137.44
444.698	145.44
444.919	141.44
445.14	250.44
445.361	183.44
445.582	141.44
445.803	130.44
446.024	139.44
446.245	148.44
446.466	137.44
446.687	140.44
446.908	116.44
447.129	128.44
447.35	138.44
447.571	121.44
447.792	134.44
448.013	128.44
448.234	128.44
448.455	139.44
448.675	130.44
448.896	141.44
449.117	138.44
449.338	143.44
449.559	129.44
449.779	146.44
450	141.44
450.221	131.44
450.442	135.44
450.662	123.44
450.883	124.44
451.104	129.44
451.324	129.44
451.545	132.44
451.766	125.44
451.986	116.44
452.207	125.44
452.428	126.44
452.648	128.44
452.869	122.44
453.089	128.44
453.31	119.44
453.53	120.44
453.751	113.44
453.971	126.44
454.192	134.44
454.412	124.44
454.633	131.44
454.853	123.44
455.073	115.44
455.294	117.44
455.514	132.44
455.734	123.44
455.955	109.44
456.175	117.44
456.395	119.44
456.616	110.44
456.836	122.44
457.056	127.44
457.276	108.44
457.497	111.44
457.717	117.44
457.937	118.44
458.157	125.44
458.377	119.44
458.598	120.44
458.818	121.44
459.038	136.44
459.258	127.44
459.478	119.44
459.698	130.44
459.918	118.44
460.138	130.44
460.358	121.44
460.578	127.44
460.798	129.44
461.018	129.44
461.238	131.44
461.458	119.44
461.678	130.44
461.898	129.44
462.118	133.44
462.338	157.44
462.558	137.44
462.777	125.44
462.997	138.44
463.217	138.44
463.437	126.44
463.657	130.44
463.876	145.44
464.096	144.44
464.316	146.44
464.536	139.44
464.755	130.44
464.975	131.44
465.195	150.44
465.414	149.44
465.634	133.44
465.854	132.44
466.073	128.44
466.293	115.44
466.512	139.44
466.732	122.44
466.951	124.44
467.171	114.44
467.391	134.44
467.61	124.44
467.829	107.44
468.049	118.44
468.268	121.44
468.488	134.44
468.707	126.44
468.927	120.44
469.146	123.44
469.365	131.44
469.585	122.44
469.804	126.44
470.023	128.44
470.243	125.44
470.462	126.44
470.681	137.44
470.901	129.44
471.12	128.44
471.339	136.44
471.558	118.44
471.777	133.44
471.997	149.44
472.216	124.44
472.435	129.44
472.654	115.44
472.873	119.44
473.092	129.44
473.311	117.44
473.53	118.44
473.749	128.44
473.968	121.44
474.187	120.44
474.406	116.44
474.625	123.44
474.844	122.44
475.063	123.44
475.282	130.44
475.501	126.44
475.72	118.44
475.939	119.44
476.158	126.44
476.377	133.44
476.596	131.44
476.814	137.44
477.033	128.44
477.252	108.44
477.471	131.44
477.69	120.44
477.908	140.44
478.127	127.44
478.346	149.44
478.564	136.44
478.783	125.44
479.002	129.44
479.22	132.44
479.439	129.44
479.658	136.44
479.876	130.44
480.095	137.44
480.313	146.44
480.532	137.44
480.751	131.44
480.969	140.44
481.188	144.44
481.406	128.44
481.624	129.44
481.843	125.44
482.061	139.44
482.28	126.44
482.498	135.44
482.717	152.44
482.935	138.44
483.153	133.44
483.372	126.44
483.59	131.44
483.808	119.44
484.027	126.44
484.245	137.44
484.463	133.44
484.681	143.44
484.9	131.44
485.118	129.44
485.336	135.44
485.554	133.44
485.772	127.44
485.99	123.44
486.209	141.44
486.427	141.44
486.645	141.44
486.863	140.44
487.081	149.44
487.299	159.44
487.517	135.44
487.735	140.44
487.953	139.44
488.171	147.44
488.389	130.44
488.607	143.44
488.825	140.44
489.043	126.44
489.261	128.44
489.479	129.44
489.696	144.44
489.914	131.44
490.132	137.44
490.35	139.44
490.568	138.44
490.786	141.44
491.003	142.44
491.221	146.44
491.439	149.44
491.657	159.44
491.874	152.44
492.092	140.44
492.31	154.44
492.527	151.44
492.745	160.44
492.963	149.44
493.18	138.44
493.398	149.44
493.615	152.44
493.833	152.44
494.05	130.44
494.268	152.44
494.485	149.44
494.703	145.44
494.92	150.44
495.138	151.44
495.355	151.44
495.573	151.44
495.79	131.44
496.008	152.44
496.225	133.44
496.442	139.44
496.66	142.44
496.877	163.44
497.094	154.44
497.312	163.44
497.529	143.44
497.746	155.44
497.963	138.44
498.181	151.44
498.398	149.44
498.615	166.44
498.832	159.44
499.049	169.44
499.267	163.44
499.484	184.44
499.701	191.44
499.918	196.44
500.135	192.44
500.352	209.44
500.569	219.44
500.786	220.44
501.003	208.44
501.22	190.44
501.437	191.44
501.654	195.44
501.871	181.44
502.088	169.44
502.305	171.44
502.522	163.44
502.739	151.44
502.956	154.44
503.172	146.44
503.389	139.44
503.606	142.44
503.823	159.44
504.04	152.44
504.256	155.44
504.473	137.44
504.69	153.44
504.907	158.44
