Data from 1968.PennyLincolnUp.Lamp.En5.5.200Scan.071719.P1._HRD10591_14-50-36-969.txt Node
Date: Thu Jul 18 14:50:36 EDT 2019
User: cochatt
Spectrometer: HR+D1059
Trigger mode: 1
Integration Time (sec): 1.000000E-1
Scans to average: 1
Electric dark correction enabled: true
Nonlinearity correction enabled: false
Boxcar width: 0
XAxis mode: Wavelengths
Number of Pixels in Spectrum: 2048
>>>>>Begin Spectral Data<<<<<
223.165	-14.56
223.4	-14.56
223.635	-14.56
223.869	-18.56
224.104	-26.56
224.338	-11.56
224.573	-6.56
224.808	-12.56
225.042	-9.56
225.277	-5.56
225.511	-1.56
225.746	5.44
225.98	2.44
226.215	6.44
226.449	18.44
226.683	15.44
226.918	35.44
227.152	23.44
227.387	36.44
227.621	38.44
227.856	22.44
228.09	57.44
228.324	33.44
228.559	44.44
228.793	51.44
229.027	58.44
229.262	67.44
229.496	68.44
229.73	86.44
229.964	52.44
230.199	64.44
230.433	69.44
230.667	67.44
230.901	78.44
231.136	75.44
231.37	91.44
231.604	87.44
231.838	75.44
232.072	75.44
232.306	89.44
232.541	69.44
232.775	80.44
233.009	85.44
233.243	84.44
233.477	79.44
233.711	82.44
233.945	94.44
234.179	90.44
234.413	77.44
234.647	84.44
234.881	88.44
235.115	72.44
235.349	75.44
235.583	83.44
235.817	64.44
236.051	77.44
236.285	71.44
236.519	77.44
236.753	83.44
236.987	90.44
237.221	82.44
237.455	96.44
237.689	83.44
237.922	70.44
238.156	72.44
238.39	89.44
238.624	77.44
238.858	59.44
239.091	75.44
239.325	68.44
239.559	86.44
239.793	74.44
240.027	81.44
240.26	78.44
240.494	81.44
240.728	79.44
240.961	89.44
241.195	84.44
241.429	80.44
241.662	70.44
241.896	78.44
242.13	75.44
242.363	76.44
242.597	75.44
242.83	77.44
243.064	85.44
243.298	75.44
243.531	87.44
243.765	82.44
243.998	79.44
244.232	67.44
244.465	67.44
244.699	76.44
244.932	85.44
245.166	77.44
245.399	78.44
245.633	83.44
245.866	85.44
246.099	71.44
246.333	92.44
246.566	93.44
246.8	83.44
247.033	73.44
247.266	72.44
247.5	71.44
247.733	94.44
247.966	66.44
248.2	67.44
248.433	77.44
248.666	93.44
248.899	67.44
249.133	90.44
249.366	80.44
249.599	88.44
249.832	97.44
250.066	71.44
250.299	67.44
250.532	81.44
250.765	85.44
250.998	95.44
251.231	79.44
251.465	83.44
251.698	91.44
251.931	77.44
252.164	75.44
252.397	85.44
252.63	86.44
252.863	84.44
253.096	84.44
253.329	74.44
253.562	85.44
253.795	75.44
254.028	77.44
254.261	84.44
254.494	83.44
254.727	93.44
254.96	74.44
255.193	83.44
255.426	85.44
255.659	86.44
255.892	98.44
256.124	84.44
256.357	82.44
256.59	87.44
256.823	89.44
257.056	87.44
257.289	85.44
257.521	76.44
257.754	89.44
257.987	83.44
258.22	78.44
258.452	104.44
258.685	84.44
258.918	75.44
259.151	85.44
259.383	84.44
259.616	74.44
259.849	82.44
260.081	81.44
260.314	85.44
260.547	81.44
260.779	80.44
261.012	94.44
261.244	91.44
261.477	82.44
261.71	87.44
261.942	76.44
262.175	85.44
262.407	81.44
262.64	100.44
262.872	80.44
263.105	72.44
263.337	74.44
263.57	86.44
263.802	96.44
264.035	80.44
264.267	84.44
264.499	80.44
264.732	87.44
264.964	96.44
265.197	83.44
265.429	82.44
265.661	95.44
265.894	104.44
266.126	86.44
266.358	90.44
266.591	92.44
266.823	82.44
267.055	85.44
267.287	84.44
267.52	83.44
267.752	121.44
267.984	96.44
268.216	116.44
268.448	97.44
268.681	81.44
268.913	82.44
269.145	87.44
269.377	85.44
269.609	81.44
269.841	83.44
270.073	82.44
270.306	88.44
270.538	87.44
270.77	95.44
271.002	97.44
271.234	100.44
271.466	98.44
271.698	79.44
271.93	101.44
272.162	100.44
272.394	98.44
272.626	87.44
272.858	76.44
273.09	102.44
273.322	95.44
273.553	98.44
273.785	97.44
274.017	90.44
274.249	69.44
274.481	85.44
274.713	89.44
274.945	86.44
275.176	101.44
275.408	94.44
275.64	89.44
275.872	93.44
276.104	79.44
276.335	99.44
276.567	95.44
276.799	94.44
277.031	98.44
277.262	97.44
277.494	93.44
277.726	90.44
277.957	78.44
278.189	81.44
278.421	82.44
278.652	98.44
278.884	100.44
279.115	80.44
279.347	117.44
279.579	101.44
279.81	103.44
280.042	105.44
280.273	87.44
280.505	100.44
280.736	81.44
280.968	93.44
281.199	81.44
281.431	79.44
281.662	94.44
281.894	91.44
282.125	90.44
282.356	97.44
282.588	102.44
282.819	107.44
283.051	84.44
283.282	101.44
283.513	92.44
283.745	94.44
283.976	106.44
284.207	100.44
284.439	82.44
284.67	103.44
284.901	102.44
285.132	85.44
285.364	86.44
285.595	100.44
285.826	97.44
286.057	110.44
286.288	89.44
286.52	87.44
286.751	109.44
286.982	107.44
287.213	103.44
287.444	98.44
287.675	90.44
287.906	106.44
288.138	96.44
288.369	104.44
288.6	103.44
288.831	91.44
289.062	78.44
289.293	106.44
289.524	100.44
289.755	98.44
289.986	102.44
290.217	96.44
290.448	103.44
290.679	98.44
290.91	87.44
291.141	96.44
291.371	107.44
291.602	101.44
291.833	86.44
292.064	92.44
292.295	90.44
292.526	105.44
292.757	100.44
292.987	96.44
293.218	86.44
293.449	89.44
293.68	82.44
293.91	103.44
294.141	99.44
294.372	94.44
294.603	100.44
294.833	106.44
295.064	95.44
295.295	86.44
295.525	106.44
295.756	108.44
295.987	87.44
296.217	92.44
296.448	104.44
296.679	91.44
296.909	101.44
297.14	97.44
297.37	82.44
297.601	112.44
297.831	91.44
298.062	90.44
298.292	104.44
298.523	111.44
298.753	107.44
298.984	89.44
299.214	87.44
299.445	93.44
299.675	103.44
299.905	98.44
300.136	93.44
300.366	99.44
300.597	100.44
300.827	112.44
301.057	101.44
301.288	95.44
301.518	116.44
301.748	105.44
301.979	103.44
302.209	93.44
302.439	106.44
302.669	110.44
302.9	96.44
303.13	81.44
303.36	97.44
303.59	89.44
303.82	94.44
304.051	96.44
304.281	99.44
304.511	112.44
304.741	111.44
304.971	99.44
305.201	93.44
305.431	92.44
305.661	96.44
305.891	100.44
306.121	107.44
306.352	90.44
306.582	97.44
306.812	107.44
307.042	96.44
307.272	92.44
307.502	91.44
307.731	114.44
307.961	98.44
308.191	111.44
308.421	95.44
308.651	101.44
308.881	105.44
309.111	94.44
309.341	104.44
309.571	99.44
309.8	104.44
310.03	86.44
310.26	111.44
310.49	101.44
310.72	98.44
310.949	101.44
311.179	109.44
311.409	106.44
311.639	111.44
311.868	113.44
312.098	96.44
312.328	111.44
312.557	101.44
312.787	103.44
313.017	101.44
313.246	106.44
313.476	99.44
313.706	94.44
313.935	102.44
314.165	109.44
314.394	90.44
314.624	90.44
314.853	107.44
315.083	97.44
315.312	105.44
315.542	108.44
315.771	102.44
316.001	107.44
316.23	103.44
316.46	105.44
316.689	90.44
316.919	105.44
317.148	125.44
317.377	117.44
317.607	113.44
317.836	98.44
318.065	112.44
318.295	97.44
318.524	100.44
318.753	117.44
318.983	96.44
319.212	87.44
319.441	110.44
319.67	101.44
319.9	107.44
320.129	105.44
320.358	113.44
320.587	106.44
320.816	104.44
321.046	96.44
321.275	119.44
321.504	103.44
321.733	101.44
321.962	112.44
322.191	88.44
322.42	100.44
322.649	103.44
322.878	105.44
323.108	104.44
323.337	105.44
323.566	96.44
323.795	115.44
324.024	101.44
324.253	118.44
324.482	130.44
324.71	154.44
324.939	177.44
325.168	145.44
325.397	138.44
325.626	102.44
325.855	116.44
326.084	102.44
326.313	115.44
326.542	116.44
326.77	119.44
326.999	106.44
327.228	125.44
327.457	145.44
327.686	147.44
327.914	123.44
328.143	117.44
328.372	116.44
328.6	110.44
328.829	97.44
329.058	101.44
329.287	119.44
329.515	103.44
329.744	115.44
329.972	105.44
330.201	111.44
330.43	111.44
330.658	112.44
330.887	94.44
331.115	109.44
331.344	114.44
331.572	119.44
331.801	117.44
332.03	103.44
332.258	113.44
332.486	99.44
332.715	115.44
332.943	121.44
333.172	121.44
333.4	115.44
333.629	122.44
333.857	97.44
334.085	106.44
334.314	114.44
334.542	109.44
334.771	105.44
334.999	109.44
335.227	106.44
335.455	97.44
335.684	104.44
335.912	109.44
336.14	118.44
336.369	109.44
336.597	114.44
336.825	101.44
337.053	111.44
337.281	104.44
337.51	109.44
337.738	113.44
337.966	116.44
338.194	101.44
338.422	113.44
338.65	97.44
338.878	109.44
339.106	97.44
339.334	107.44
339.562	95.44
339.79	109.44
340.018	116.44
340.246	106.44
340.474	120.44
340.702	115.44
340.93	107.44
341.158	114.44
341.386	117.44
341.614	120.44
341.842	111.44
342.07	101.44
342.298	106.44
342.526	88.44
342.754	117.44
342.981	116.44
343.209	100.44
343.437	106.44
343.665	114.44
343.893	100.44
344.12	109.44
344.348	101.44
344.576	107.44
344.804	123.44
345.031	112.44
345.259	99.44
345.487	97.44
345.714	90.44
345.942	98.44
346.17	104.44
346.397	110.44
346.625	102.44
346.853	95.44
347.08	99.44
347.308	117.44
347.535	106.44
347.763	101.44
347.99	99.44
348.218	103.44
348.445	112.44
348.673	93.44
348.9	113.44
349.128	100.44
349.355	114.44
349.583	94.44
349.81	109.44
350.037	101.44
350.265	95.44
350.492	96.44
350.72	101.44
350.947	105.44
351.174	95.44
351.402	102.44
351.629	96.44
351.856	109.44
352.083	100.44
352.311	113.44
352.538	115.44
352.765	107.44
352.992	103.44
353.22	96.44
353.447	115.44
353.674	118.44
353.901	108.44
354.128	109.44
354.355	103.44
354.583	89.44
354.81	117.44
355.037	101.44
355.264	106.44
355.491	104.44
355.718	110.44
355.945	97.44
356.172	119.44
356.399	115.44
356.626	104.44
356.853	91.44
357.08	107.44
357.307	107.44
357.534	101.44
357.761	88.44
357.988	117.44
358.215	111.44
358.441	119.44
358.668	109.44
358.895	105.44
359.122	115.44
359.349	111.44
359.576	111.44
359.802	89.44
360.029	107.44
360.256	101.44
360.483	92.44
360.709	103.44
360.936	113.44
361.163	101.44
361.39	114.44
361.616	113.44
361.843	115.44
362.07	105.44
362.296	102.44
362.523	101.44
362.749	107.44
362.976	92.44
363.203	107.44
363.429	94.44
363.656	99.44
363.882	103.44
364.109	111.44
364.335	113.44
364.562	100.44
364.788	97.44
365.015	95.44
365.241	94.44
365.468	115.44
365.694	115.44
365.92	103.44
366.147	107.44
366.373	90.44
366.599	112.44
366.826	103.44
367.052	101.44
367.278	104.44
367.505	109.44
367.731	111.44
367.957	101.44
368.184	107.44
368.41	106.44
368.636	99.44
368.862	87.44
369.089	90.44
369.315	103.44
369.541	120.44
369.767	109.44
369.993	116.44
370.219	102.44
370.445	97.44
370.672	98.44
370.898	110.44
371.124	111.44
371.35	93.44
371.576	113.44
371.802	105.44
372.028	110.44
372.254	93.44
372.48	103.44
372.706	109.44
372.932	108.44
373.158	110.44
373.384	104.44
373.61	114.44
373.835	106.44
374.061	111.44
374.287	109.44
374.513	104.44
374.739	95.44
374.965	107.44
375.191	107.44
375.416	107.44
375.642	113.44
375.868	113.44
376.094	114.44
376.319	109.44
376.545	113.44
376.771	106.44
376.997	98.44
377.222	94.44
377.448	103.44
377.674	99.44
377.899	99.44
378.125	99.44
378.35	112.44
378.576	104.44
378.802	103.44
379.027	114.44
379.253	109.44
379.478	110.44
379.704	98.44
379.929	111.44
380.155	102.44
380.38	113.44
380.606	104.44
380.831	103.44
381.057	102.44
381.282	112.44
381.507	115.44
381.733	94.44
381.958	99.44
382.184	122.44
382.409	123.44
382.634	104.44
382.86	114.44
383.085	106.44
383.31	99.44
383.535	101.44
383.761	112.44
383.986	118.44
384.211	121.44
384.436	111.44
384.662	113.44
384.887	121.44
385.112	118.44
385.337	121.44
385.562	104.44
385.787	111.44
386.013	121.44
386.238	128.44
386.463	109.44
386.688	106.44
386.913	117.44
387.138	118.44
387.363	110.44
387.588	111.44
387.813	122.44
388.038	104.44
388.263	106.44
388.488	113.44
388.713	121.44
388.938	96.44
389.163	109.44
389.387	97.44
389.612	90.44
389.837	115.44
390.062	116.44
390.287	115.44
390.512	121.44
390.736	118.44
390.961	111.44
391.186	119.44
391.411	119.44
391.636	114.44
391.86	119.44
392.085	116.44
392.31	114.44
392.534	112.44
392.759	111.44
392.984	118.44
393.208	112.44
393.433	104.44
393.658	121.44
393.882	113.44
394.107	118.44
394.331	118.44
394.556	116.44
394.78	123.44
395.005	115.44
395.229	122.44
395.454	127.44
395.678	109.44
395.903	123.44
396.127	115.44
396.352	123.44
396.576	111.44
396.801	119.44
397.025	117.44
397.249	113.44
397.474	108.44
397.698	115.44
397.922	122.44
398.147	120.44
398.371	119.44
398.595	125.44
398.82	118.44
399.044	119.44
399.268	139.44
399.492	140.44
399.717	137.44
399.941	142.44
400.165	144.44
400.389	127.44
400.613	143.44
400.837	120.44
401.062	112.44
401.286	116.44
401.51	104.44
401.734	113.44
401.958	121.44
402.182	112.44
402.406	113.44
402.63	129.44
402.854	127.44
403.078	123.44
403.302	131.44
403.526	124.44
403.75	122.44
403.974	129.44
404.198	131.44
404.422	129.44
404.645	130.44
404.869	118.44
405.093	125.44
405.317	121.44
405.541	143.44
405.765	140.44
405.988	137.44
406.212	121.44
406.436	140.44
406.66	123.44
406.883	117.44
407.107	132.44
407.331	132.44
407.555	146.44
407.778	127.44
408.002	135.44
408.226	126.44
408.449	130.44
408.673	123.44
408.896	143.44
409.12	124.44
409.344	122.44
409.567	124.44
409.791	135.44
410.014	129.44
410.238	122.44
410.461	114.44
410.685	123.44
410.908	100.44
411.132	135.44
411.355	125.44
411.578	109.44
411.802	109.44
412.025	134.44
412.249	125.44
412.472	113.44
412.695	125.44
412.919	129.44
413.142	121.44
413.365	119.44
413.589	129.44
413.812	117.44
414.035	127.44
414.258	131.44
414.482	130.44
414.705	117.44
414.928	122.44
415.151	117.44
415.374	135.44
415.597	125.44
415.821	117.44
416.044	118.44
416.267	134.44
416.49	114.44
416.713	138.44
416.936	136.44
417.159	121.44
417.382	130.44
417.605	116.44
417.828	114.44
418.051	133.44
418.274	121.44
418.497	121.44
418.72	115.44
418.943	133.44
419.166	122.44
419.389	123.44
419.611	125.44
419.834	109.44
420.057	128.44
420.28	110.44
420.503	126.44
420.726	116.44
420.948	106.44
421.171	118.44
421.394	122.44
421.617	110.44
421.839	118.44
422.062	121.44
422.285	125.44
422.507	119.44
422.73	124.44
422.953	122.44
423.175	112.44
423.398	119.44
423.621	130.44
423.843	116.44
424.066	119.44
424.288	116.44
424.511	119.44
424.733	127.44
424.956	138.44
425.178	129.44
425.401	119.44
425.623	131.44
425.846	134.44
426.068	135.44
426.291	131.44
426.513	126.44
426.735	119.44
426.958	120.44
427.18	129.44
427.402	117.44
427.625	127.44
427.847	116.44
428.069	126.44
428.292	119.44
428.514	139.44
428.736	124.44
428.958	143.44
429.181	115.44
429.403	127.44
429.625	133.44
429.847	133.44
430.069	128.44
430.292	126.44
430.514	119.44
430.736	118.44
430.958	105.44
431.18	117.44
431.402	108.44
431.624	114.44
431.846	118.44
432.068	119.44
432.29	133.44
432.512	111.44
432.734	113.44
432.956	116.44
433.178	123.44
433.4	122.44
433.622	127.44
433.844	127.44
434.066	117.44
434.287	117.44
434.509	139.44
434.731	124.44
434.953	112.44
435.175	127.44
435.397	123.44
435.618	125.44
435.84	125.44
436.062	121.44
436.284	137.44
436.505	126.44
436.727	118.44
436.949	115.44
437.17	125.44
437.392	123.44
437.614	112.44
437.835	136.44
438.057	127.44
438.278	129.44
438.5	127.44
438.721	128.44
438.943	137.44
439.165	124.44
439.386	118.44
439.608	121.44
439.829	130.44
440.05	133.44
440.272	125.44
440.493	117.44
440.715	121.44
440.936	112.44
441.158	117.44
441.379	127.44
441.6	129.44
441.822	132.44
442.043	127.44
442.264	135.44
442.486	130.44
442.707	138.44
442.928	139.44
443.149	131.44
443.371	139.44
443.592	133.44
443.813	132.44
444.034	124.44
444.255	132.44
444.476	126.44
444.698	137.44
444.919	129.44
445.14	219.44
445.361	170.44
445.582	127.44
445.803	120.44
446.024	125.44
446.245	137.44
446.466	139.44
446.687	127.44
446.908	117.44
447.129	115.44
447.35	133.44
447.571	126.44
447.792	131.44
448.013	128.44
448.234	128.44
448.455	119.44
448.675	116.44
448.896	131.44
449.117	121.44
449.338	138.44
449.559	123.44
449.779	127.44
450	122.44
450.221	119.44
450.442	121.44
450.662	116.44
450.883	105.44
451.104	125.44
451.324	103.44
451.545	125.44
451.766	129.44
451.986	114.44
452.207	108.44
452.428	109.44
452.648	101.44
452.869	89.44
453.089	112.44
453.31	113.44
453.53	106.44
453.751	105.44
453.971	113.44
454.192	109.44
454.412	91.44
454.633	123.44
454.853	121.44
455.073	124.44
455.294	123.44
455.514	124.44
455.734	114.44
455.955	112.44
456.175	123.44
456.395	111.44
456.616	119.44
456.836	112.44
457.056	106.44
457.276	109.44
457.497	105.44
457.717	117.44
457.937	114.44
458.157	117.44
458.377	105.44
458.598	115.44
458.818	124.44
459.038	119.44
459.258	125.44
459.478	134.44
459.698	124.44
459.918	127.44
460.138	115.44
460.358	134.44
460.578	120.44
460.798	124.44
461.018	110.44
461.238	121.44
461.458	113.44
461.678	134.44
461.898	139.44
462.118	135.44
462.338	130.44
462.558	131.44
462.777	136.44
462.997	125.44
463.217	128.44
463.437	132.44
463.657	134.44
463.876	131.44
464.096	119.44
464.316	133.44
464.536	119.44
464.755	134.44
464.975	143.44
465.195	122.44
465.414	117.44
465.634	121.44
465.854	137.44
466.073	116.44
466.293	130.44
466.512	107.44
466.732	114.44
466.951	117.44
467.171	113.44
467.391	105.44
467.61	130.44
467.829	115.44
468.049	137.44
468.268	109.44
468.488	97.44
468.707	121.44
468.927	121.44
469.146	113.44
469.365	121.44
469.585	121.44
469.804	126.44
470.023	121.44
470.243	115.44
470.462	116.44
470.681	117.44
470.901	117.44
471.12	128.44
471.339	125.44
471.558	116.44
471.777	121.44
471.997	118.44
472.216	121.44
472.435	119.44
472.654	104.44
472.873	106.44
473.092	112.44
473.311	117.44
473.53	112.44
473.749	109.44
473.968	128.44
474.187	132.44
474.406	113.44
474.625	118.44
474.844	119.44
475.063	117.44
475.282	109.44
475.501	114.44
475.72	109.44
475.939	105.44
476.158	121.44
476.377	117.44
476.596	119.44
476.814	123.44
477.033	124.44
477.252	125.44
477.471	131.44
477.69	125.44
477.908	136.44
478.127	129.44
478.346	131.44
478.564	116.44
478.783	125.44
479.002	131.44
479.22	110.44
479.439	119.44
479.658	124.44
479.876	124.44
480.095	135.44
480.313	132.44
480.532	141.44
480.751	137.44
480.969	131.44
481.188	117.44
481.406	126.44
481.624	116.44
481.843	128.44
482.061	129.44
482.28	126.44
482.498	135.44
482.717	130.44
482.935	134.44
483.153	130.44
483.372	113.44
483.59	114.44
483.808	127.44
484.027	111.44
484.245	122.44
484.463	117.44
484.681	116.44
484.9	112.44
485.118	120.44
485.336	129.44
485.554	121.44
485.772	138.44
485.99	145.44
486.209	135.44
486.427	128.44
486.645	122.44
486.863	113.44
487.081	127.44
487.299	123.44
487.517	114.44
487.735	125.44
487.953	133.44
488.171	129.44
488.389	140.44
488.607	118.44
488.825	122.44
489.043	120.44
489.261	137.44
489.479	128.44
489.696	123.44
489.914	124.44
490.132	133.44
490.35	137.44
490.568	121.44
490.786	140.44
491.003	134.44
491.221	127.44
491.439	119.44
491.657	136.44
491.874	142.44
492.092	147.44
492.31	143.44
492.527	151.44
492.745	142.44
492.963	137.44
493.18	131.44
493.398	129.44
493.615	150.44
493.833	140.44
494.05	134.44
494.268	146.44
494.485	133.44
494.703	145.44
494.92	131.44
495.138	137.44
495.355	147.44
495.573	148.44
495.79	119.44
496.008	135.44
496.225	134.44
496.442	145.44
496.66	145.44
496.877	132.44
497.094	152.44
497.312	140.44
497.529	138.44
497.746	144.44
497.963	149.44
498.181	139.44
498.398	142.44
498.615	139.44
498.832	155.44
499.049	141.44
499.267	158.44
499.484	162.44
499.701	173.44
499.918	188.44
500.135	196.44
500.352	198.44
500.569	199.44
500.786	215.44
501.003	208.44
501.22	177.44
501.437	170.44
501.654	169.44
501.871	162.44
502.088	161.44
502.305	152.44
502.522	158.44
502.739	133.44
502.956	147.44
503.172	121.44
503.389	146.44
503.606	135.44
503.823	147.44
504.04	133.44
504.256	157.44
504.473	147.44
504.69	155.44
504.907	151.44
505.123	125.44
505.34	149.44
505.557	133.44
505.773	138.44
505.99	131.44
506.207	122.44
506.423	123.44
506.64	121.44
506.856	138.44
