Data from 1968.PennyLincolnUp.Lamp.En5.5.200Scan.071719.P1._HRD10591_14-50-59-969.txt Node
Date: Thu Jul 18 14:50:59 EDT 2019
User: cochatt
Spectrometer: HR+D1059
Trigger mode: 1
Integration Time (sec): 1.000000E-1
Scans to average: 1
Electric dark correction enabled: true
Nonlinearity correction enabled: false
Boxcar width: 0
XAxis mode: Wavelengths
Number of Pixels in Spectrum: 2048
>>>>>Begin Spectral Data<<<<<
223.165	-18.75
223.4	-18.75
223.635	-18.75
223.869	-20.75
224.104	-11.75
224.338	-6.75
224.573	-12.75
224.808	-22.75
225.042	-19.75
225.277	-3.75
225.511	-20.75
225.746	13.25
225.98	-4.75
226.215	17.25
226.449	20.25
226.683	32.25
226.918	25.25
227.152	34.25
227.387	4.25
227.621	44.25
227.856	38.25
228.09	44.25
228.324	60.25
228.559	45.25
228.793	50.25
229.027	54.25
229.262	68.25
229.496	71.25
229.73	65.25
229.964	66.25
230.199	69.25
230.433	73.25
230.667	82.25
230.901	76.25
231.136	78.25
231.37	79.25
231.604	89.25
231.838	92.25
232.072	77.25
232.306	82.25
232.541	68.25
232.775	75.25
233.009	75.25
233.243	86.25
233.477	87.25
233.711	75.25
233.945	87.25
234.179	90.25
234.413	93.25
234.647	86.25
234.881	86.25
235.115	94.25
235.349	81.25
235.583	83.25
235.817	67.25
236.051	82.25
236.285	79.25
236.519	64.25
236.753	77.25
236.987	81.25
237.221	87.25
237.455	101.25
237.689	78.25
237.922	81.25
238.156	85.25
238.39	86.25
238.624	73.25
238.858	69.25
239.091	77.25
239.325	77.25
239.559	91.25
239.793	86.25
240.027	89.25
240.26	79.25
240.494	86.25
240.728	87.25
240.961	73.25
241.195	71.25
241.429	87.25
241.662	84.25
241.896	87.25
242.13	84.25
242.363	85.25
242.597	90.25
242.83	84.25
243.064	98.25
243.298	82.25
243.531	80.25
243.765	82.25
243.998	82.25
244.232	83.25
244.465	78.25
244.699	79.25
244.932	75.25
245.166	85.25
245.399	86.25
245.633	92.25
245.866	94.25
246.099	95.25
246.333	88.25
246.566	82.25
246.8	85.25
247.033	96.25
247.266	98.25
247.5	67.25
247.733	86.25
247.966	89.25
248.2	110.25
248.433	85.25
248.666	78.25
248.899	90.25
249.133	84.25
249.366	86.25
249.599	80.25
249.832	90.25
250.066	100.25
250.299	88.25
250.532	92.25
250.765	76.25
250.998	95.25
251.231	94.25
251.465	99.25
251.698	95.25
251.931	79.25
252.164	87.25
252.397	98.25
252.63	101.25
252.863	95.25
253.096	101.25
253.329	78.25
253.562	92.25
253.795	85.25
254.028	80.25
254.261	80.25
254.494	76.25
254.727	98.25
254.96	99.25
255.193	86.25
255.426	92.25
255.659	81.25
255.892	108.25
256.124	98.25
256.357	82.25
256.59	78.25
256.823	75.25
257.056	88.25
257.289	83.25
257.521	103.25
257.754	84.25
257.987	94.25
258.22	92.25
258.452	88.25
258.685	74.25
258.918	80.25
259.151	76.25
259.383	90.25
259.616	89.25
259.849	100.25
260.081	106.25
260.314	102.25
260.547	95.25
260.779	96.25
261.012	88.25
261.244	94.25
261.477	90.25
261.71	89.25
261.942	93.25
262.175	88.25
262.407	98.25
262.64	93.25
262.872	83.25
263.105	93.25
263.337	100.25
263.57	84.25
263.802	81.25
264.035	86.25
264.267	86.25
264.499	101.25
264.732	97.25
264.964	88.25
265.197	98.25
265.429	84.25
265.661	89.25
265.894	89.25
266.126	93.25
266.358	105.25
266.591	88.25
266.823	92.25
267.055	91.25
267.287	106.25
267.52	76.25
267.752	95.25
267.984	106.25
268.216	84.25
268.448	93.25
268.681	74.25
268.913	88.25
269.145	89.25
269.377	93.25
269.609	88.25
269.841	88.25
270.073	95.25
270.306	103.25
270.538	110.25
270.77	101.25
271.002	86.25
271.234	102.25
271.466	101.25
271.698	107.25
271.93	94.25
272.162	90.25
272.394	96.25
272.626	95.25
272.858	86.25
273.09	99.25
273.322	101.25
273.553	102.25
273.785	94.25
274.017	113.25
274.249	88.25
274.481	113.25
274.713	92.25
274.945	106.25
275.176	103.25
275.408	107.25
275.64	102.25
275.872	88.25
276.104	102.25
276.335	97.25
276.567	97.25
276.799	95.25
277.031	101.25
277.262	106.25
277.494	102.25
277.726	95.25
277.957	94.25
278.189	93.25
278.421	93.25
278.652	98.25
278.884	104.25
279.115	99.25
279.347	98.25
279.579	85.25
279.81	93.25
280.042	90.25
280.273	106.25
280.505	98.25
280.736	94.25
280.968	95.25
281.199	102.25
281.431	97.25
281.662	91.25
281.894	82.25
282.125	85.25
282.356	110.25
282.588	108.25
282.819	102.25
283.051	96.25
283.282	104.25
283.513	109.25
283.745	93.25
283.976	88.25
284.207	94.25
284.439	99.25
284.67	102.25
284.901	90.25
285.132	92.25
285.364	93.25
285.595	107.25
285.826	106.25
286.057	102.25
286.288	91.25
286.52	113.25
286.751	95.25
286.982	110.25
287.213	105.25
287.444	103.25
287.675	105.25
287.906	115.25
288.138	99.25
288.369	95.25
288.6	108.25
288.831	112.25
289.062	104.25
289.293	110.25
289.524	101.25
289.755	108.25
289.986	107.25
290.217	103.25
290.448	100.25
290.679	101.25
290.91	101.25
291.141	97.25
291.371	110.25
291.602	85.25
291.833	99.25
292.064	97.25
292.295	103.25
292.526	102.25
292.757	108.25
292.987	108.25
293.218	95.25
293.449	99.25
293.68	99.25
293.91	105.25
294.141	116.25
294.372	110.25
294.603	117.25
294.833	101.25
295.064	105.25
295.295	83.25
295.525	108.25
295.756	102.25
295.987	102.25
296.217	107.25
296.448	103.25
296.679	106.25
296.909	84.25
297.14	90.25
297.37	101.25
297.601	93.25
297.831	90.25
298.062	98.25
298.292	102.25
298.523	103.25
298.753	116.25
298.984	115.25
299.214	102.25
299.445	102.25
299.675	103.25
299.905	97.25
300.136	113.25
300.366	103.25
300.597	111.25
300.827	102.25
301.057	114.25
301.288	87.25
301.518	105.25
301.748	118.25
301.979	109.25
302.209	109.25
302.439	97.25
302.669	103.25
302.9	110.25
303.13	108.25
303.36	108.25
303.59	114.25
303.82	123.25
304.051	109.25
304.281	93.25
304.511	110.25
304.741	104.25
304.971	100.25
305.201	105.25
305.431	110.25
305.661	100.25
305.891	107.25
306.121	97.25
306.352	113.25
306.582	116.25
306.812	110.25
307.042	104.25
307.272	114.25
307.502	100.25
307.731	92.25
307.961	108.25
308.191	100.25
308.421	109.25
308.651	103.25
308.881	103.25
309.111	95.25
309.341	97.25
309.571	111.25
309.8	116.25
310.03	95.25
310.26	111.25
310.49	113.25
310.72	113.25
310.949	113.25
311.179	102.25
311.409	110.25
311.639	105.25
311.868	108.25
312.098	110.25
312.328	107.25
312.557	118.25
312.787	112.25
313.017	100.25
313.246	111.25
313.476	100.25
313.706	107.25
313.935	106.25
314.165	102.25
314.394	110.25
314.624	103.25
314.853	92.25
315.083	100.25
315.312	113.25
315.542	110.25
315.771	110.25
316.001	99.25
316.23	107.25
316.46	117.25
316.689	127.25
316.919	103.25
317.148	115.25
317.377	109.25
317.607	95.25
317.836	107.25
318.065	105.25
318.295	106.25
318.524	113.25
318.753	121.25
318.983	118.25
319.212	113.25
319.441	123.25
319.67	111.25
319.9	103.25
320.129	113.25
320.358	98.25
320.587	105.25
320.816	110.25
321.046	92.25
321.275	108.25
321.504	98.25
321.733	118.25
321.962	103.25
322.191	125.25
322.42	109.25
322.649	84.25
322.878	123.25
323.108	106.25
323.337	119.25
323.566	106.25
323.795	107.25
324.024	102.25
324.253	117.25
324.482	125.25
324.71	161.25
324.939	177.25
325.168	153.25
325.397	123.25
325.626	128.25
325.855	126.25
326.084	107.25
326.313	125.25
326.542	105.25
326.77	134.25
326.999	105.25
327.228	142.25
327.457	157.25
327.686	157.25
327.914	129.25
328.143	134.25
328.372	112.25
328.6	105.25
328.829	105.25
329.058	126.25
329.287	132.25
329.515	116.25
329.744	105.25
329.972	113.25
330.201	113.25
330.43	117.25
330.658	122.25
330.887	115.25
331.115	105.25
331.344	120.25
331.572	114.25
331.801	115.25
332.03	106.25
332.258	108.25
332.486	120.25
332.715	107.25
332.943	121.25
333.172	123.25
333.4	113.25
333.629	124.25
333.857	119.25
334.085	122.25
334.314	113.25
334.542	116.25
334.771	127.25
334.999	118.25
335.227	121.25
335.455	119.25
335.684	128.25
335.912	105.25
336.14	115.25
336.369	114.25
336.597	119.25
336.825	103.25
337.053	115.25
337.281	110.25
337.51	123.25
337.738	106.25
337.966	105.25
338.194	116.25
338.422	118.25
338.65	118.25
338.878	105.25
339.106	113.25
339.334	115.25
339.562	105.25
339.79	109.25
340.018	117.25
340.246	130.25
340.474	110.25
340.702	120.25
340.93	111.25
341.158	120.25
341.386	105.25
341.614	109.25
341.842	97.25
342.07	121.25
342.298	122.25
342.526	125.25
342.754	100.25
342.981	101.25
343.209	115.25
343.437	116.25
343.665	97.25
343.893	121.25
344.12	118.25
344.348	117.25
344.576	106.25
344.804	123.25
345.031	120.25
345.259	104.25
345.487	108.25
345.714	114.25
345.942	121.25
346.17	102.25
346.397	103.25
346.625	99.25
346.853	114.25
347.08	109.25
347.308	119.25
347.535	122.25
347.763	120.25
347.99	114.25
348.218	101.25
348.445	118.25
348.673	99.25
348.9	106.25
349.128	123.25
349.355	105.25
349.583	110.25
349.81	106.25
350.037	99.25
350.265	105.25
350.492	118.25
350.72	107.25
350.947	113.25
351.174	121.25
351.402	114.25
351.629	102.25
351.856	117.25
352.083	118.25
352.311	111.25
352.538	115.25
352.765	108.25
352.992	115.25
353.22	106.25
353.447	87.25
353.674	106.25
353.901	102.25
354.128	111.25
354.355	105.25
354.583	102.25
354.81	124.25
355.037	112.25
355.264	115.25
355.491	114.25
355.718	98.25
355.945	101.25
356.172	108.25
356.399	116.25
356.626	97.25
356.853	106.25
357.08	114.25
357.307	110.25
357.534	113.25
357.761	110.25
357.988	115.25
358.215	117.25
358.441	119.25
358.668	105.25
358.895	115.25
359.122	102.25
359.349	110.25
359.576	111.25
359.802	119.25
360.029	118.25
360.256	117.25
360.483	122.25
360.709	107.25
360.936	113.25
361.163	119.25
361.39	121.25
361.616	99.25
361.843	113.25
362.07	113.25
362.296	115.25
362.523	108.25
362.749	99.25
362.976	104.25
363.203	122.25
363.429	108.25
363.656	97.25
363.882	110.25
364.109	113.25
364.335	117.25
364.562	106.25
364.788	123.25
365.015	99.25
365.241	110.25
365.468	113.25
365.694	113.25
365.92	104.25
366.147	128.25
366.373	99.25
366.599	119.25
366.826	97.25
367.052	122.25
367.278	113.25
367.505	114.25
367.731	121.25
367.957	122.25
368.184	121.25
368.41	108.25
368.636	116.25
368.862	115.25
369.089	114.25
369.315	115.25
369.541	105.25
369.767	102.25
369.993	117.25
370.219	97.25
370.445	106.25
370.672	104.25
370.898	110.25
371.124	112.25
371.35	121.25
371.576	109.25
371.802	101.25
372.028	103.25
372.254	108.25
372.48	116.25
372.706	107.25
372.932	114.25
373.158	117.25
373.384	120.25
373.61	117.25
373.835	109.25
374.061	102.25
374.287	114.25
374.513	106.25
374.739	124.25
374.965	109.25
375.191	105.25
375.416	115.25
375.642	113.25
375.868	110.25
376.094	108.25
376.319	117.25
376.545	111.25
376.771	109.25
376.997	127.25
377.222	109.25
377.448	106.25
377.674	127.25
377.899	112.25
378.125	110.25
378.35	113.25
378.576	119.25
378.802	117.25
379.027	118.25
379.253	109.25
379.478	113.25
379.704	121.25
379.929	105.25
380.155	127.25
380.38	125.25
380.606	117.25
380.831	101.25
381.057	109.25
381.282	99.25
381.507	123.25
381.733	122.25
381.958	122.25
382.184	122.25
382.409	111.25
382.634	108.25
382.86	93.25
383.085	99.25
383.31	126.25
383.535	121.25
383.761	114.25
383.986	119.25
384.211	124.25
384.436	123.25
384.662	120.25
384.887	110.25
385.112	116.25
385.337	117.25
385.562	114.25
385.787	108.25
386.013	105.25
386.238	117.25
386.463	127.25
386.688	130.25
386.913	113.25
387.138	123.25
387.363	129.25
387.588	132.25
387.813	121.25
388.038	118.25
388.263	115.25
388.488	116.25
388.713	130.25
388.938	129.25
389.163	117.25
389.387	115.25
389.612	122.25
389.837	123.25
390.062	100.25
390.287	117.25
390.512	119.25
390.736	128.25
390.961	106.25
391.186	124.25
391.411	122.25
391.636	126.25
391.86	129.25
392.085	120.25
392.31	121.25
392.534	127.25
392.759	125.25
392.984	114.25
393.208	118.25
393.433	126.25
393.658	137.25
393.882	118.25
394.107	135.25
394.331	135.25
394.556	120.25
394.78	128.25
395.005	123.25
395.229	124.25
395.454	125.25
395.678	111.25
395.903	139.25
396.127	142.25
396.352	120.25
396.576	129.25
396.801	101.25
397.025	117.25
397.249	139.25
397.474	114.25
397.698	124.25
397.922	119.25
398.147	132.25
398.371	133.25
398.595	124.25
398.82	134.25
399.044	124.25
399.268	133.25
399.492	132.25
399.717	161.25
399.941	151.25
400.165	154.25
400.389	134.25
400.613	138.25
400.837	121.25
401.062	116.25
401.286	127.25
401.51	125.25
401.734	117.25
401.958	133.25
402.182	134.25
402.406	127.25
402.63	150.25
402.854	131.25
403.078	145.25
403.302	133.25
403.526	138.25
403.75	128.25
403.974	141.25
404.198	122.25
404.422	125.25
404.645	133.25
404.869	135.25
405.093	115.25
405.317	135.25
405.541	125.25
405.765	136.25
405.988	136.25
406.212	151.25
406.436	131.25
406.66	141.25
406.883	136.25
407.107	139.25
407.331	142.25
407.555	140.25
407.778	135.25
408.002	145.25
408.226	145.25
408.449	130.25
408.673	130.25
408.896	137.25
409.12	137.25
409.344	129.25
409.567	131.25
409.791	139.25
410.014	127.25
410.238	107.25
410.461	142.25
410.685	135.25
410.908	125.25
411.132	136.25
411.355	134.25
411.578	143.25
411.802	124.25
412.025	123.25
412.249	132.25
412.472	130.25
412.695	126.25
412.919	123.25
413.142	127.25
413.365	134.25
413.589	138.25
413.812	107.25
414.035	135.25
414.258	146.25
414.482	122.25
414.705	128.25
414.928	127.25
415.151	124.25
415.374	129.25
415.597	139.25
415.821	128.25
416.044	125.25
416.267	133.25
416.49	135.25
416.713	109.25
416.936	131.25
417.159	118.25
417.382	124.25
417.605	129.25
417.828	137.25
418.051	128.25
418.274	126.25
418.497	129.25
418.72	135.25
418.943	118.25
419.166	129.25
419.389	133.25
419.611	134.25
419.834	131.25
420.057	138.25
420.28	128.25
420.503	129.25
420.726	135.25
420.948	144.25
421.171	133.25
421.394	131.25
421.617	118.25
421.839	141.25
422.062	138.25
422.285	132.25
422.507	121.25
422.73	142.25
422.953	136.25
423.175	150.25
423.398	131.25
423.621	133.25
423.843	148.25
424.066	138.25
424.288	135.25
424.511	137.25
424.733	144.25
424.956	129.25
425.178	154.25
425.401	133.25
425.623	149.25
425.846	118.25
426.068	120.25
426.291	140.25
426.513	133.25
426.735	145.25
426.958	134.25
427.18	129.25
427.402	149.25
427.625	135.25
427.847	128.25
428.069	127.25
428.292	123.25
428.514	135.25
428.736	117.25
428.958	118.25
429.181	118.25
429.403	128.25
429.625	120.25
429.847	139.25
430.069	133.25
430.292	132.25
430.514	135.25
430.736	133.25
430.958	130.25
431.18	141.25
431.402	111.25
431.624	123.25
431.846	110.25
432.068	119.25
432.29	117.25
432.512	103.25
432.734	113.25
432.956	130.25
433.178	123.25
433.4	117.25
433.622	134.25
433.844	129.25
434.066	128.25
434.287	125.25
434.509	134.25
434.731	125.25
434.953	110.25
435.175	137.25
435.397	136.25
435.618	128.25
435.84	139.25
436.062	130.25
436.284	130.25
436.505	129.25
436.727	130.25
436.949	126.25
437.17	126.25
437.392	123.25
437.614	125.25
437.835	123.25
438.057	135.25
438.278	135.25
438.5	138.25
438.721	129.25
438.943	136.25
439.165	135.25
439.386	129.25
439.608	129.25
439.829	130.25
440.05	127.25
440.272	118.25
440.493	131.25
440.715	135.25
440.936	117.25
441.158	128.25
441.379	137.25
441.6	135.25
441.822	137.25
442.043	143.25
442.264	133.25
442.486	133.25
442.707	138.25
442.928	148.25
443.149	140.25
443.371	142.25
443.592	127.25
443.813	131.25
444.034	149.25
444.255	149.25
444.476	141.25
444.698	131.25
444.919	143.25
445.14	220.25
445.361	169.25
445.582	137.25
445.803	129.25
446.024	147.25
446.245	152.25
446.466	123.25
446.687	138.25
446.908	130.25
447.129	129.25
447.35	149.25
447.571	140.25
447.792	134.25
448.013	126.25
448.234	130.25
448.455	134.25
448.675	134.25
448.896	139.25
449.117	149.25
449.338	137.25
449.559	143.25
449.779	131.25
450	142.25
450.221	124.25
450.442	130.25
450.662	121.25
450.883	125.25
451.104	121.25
451.324	124.25
451.545	124.25
451.766	127.25
451.986	108.25
452.207	102.25
452.428	116.25
452.648	121.25
452.869	125.25
453.089	122.25
453.31	124.25
453.53	121.25
453.751	134.25
453.971	109.25
454.192	122.25
454.412	113.25
454.633	115.25
454.853	124.25
455.073	115.25
455.294	116.25
455.514	128.25
455.734	124.25
455.955	120.25
456.175	117.25
456.395	117.25
456.616	125.25
456.836	122.25
457.056	124.25
457.276	115.25
457.497	103.25
457.717	109.25
457.937	117.25
458.157	127.25
458.377	123.25
458.598	120.25
458.818	132.25
459.038	122.25
459.258	135.25
459.478	117.25
459.698	125.25
459.918	134.25
460.138	135.25
460.358	131.25
460.578	138.25
460.798	137.25
461.018	120.25
461.238	135.25
461.458	140.25
461.678	137.25
461.898	138.25
462.118	135.25
462.338	137.25
462.558	133.25
462.777	142.25
462.997	122.25
463.217	143.25
463.437	138.25
463.657	139.25
463.876	138.25
464.096	140.25
464.316	146.25
464.536	145.25
464.755	125.25
464.975	124.25
465.195	145.25
465.414	118.25
465.634	121.25
465.854	132.25
466.073	127.25
466.293	121.25
466.512	123.25
466.732	118.25
466.951	118.25
467.171	112.25
467.391	117.25
467.61	144.25
467.829	121.25
468.049	144.25
468.268	120.25
468.488	124.25
468.707	120.25
468.927	108.25
469.146	121.25
469.365	129.25
469.585	138.25
469.804	129.25
470.023	123.25
470.243	123.25
470.462	121.25
470.681	135.25
470.901	125.25
471.12	132.25
471.339	136.25
471.558	141.25
471.777	125.25
471.997	132.25
472.216	123.25
472.435	122.25
472.654	114.25
472.873	125.25
473.092	125.25
473.311	135.25
473.53	126.25
473.749	129.25
473.968	136.25
474.187	122.25
474.406	132.25
474.625	115.25
474.844	123.25
475.063	139.25
475.282	131.25
475.501	125.25
475.72	122.25
475.939	127.25
476.158	120.25
476.377	124.25
476.596	125.25
476.814	115.25
477.033	129.25
477.252	122.25
477.471	138.25
477.69	128.25
477.908	123.25
478.127	145.25
478.346	137.25
478.564	129.25
478.783	140.25
479.002	133.25
479.22	129.25
479.439	127.25
479.658	129.25
479.876	138.25
480.095	129.25
480.313	144.25
480.532	147.25
480.751	134.25
480.969	135.25
481.188	128.25
481.406	126.25
481.624	119.25
481.843	140.25
482.061	126.25
482.28	134.25
482.498	125.25
482.717	122.25
482.935	130.25
483.153	138.25
483.372	132.25
483.59	137.25
483.808	129.25
484.027	148.25
484.245	122.25
484.463	125.25
484.681	143.25
484.9	122.25
485.118	129.25
485.336	129.25
485.554	141.25
485.772	142.25
485.99	141.25
486.209	125.25
486.427	133.25
486.645	147.25
486.863	126.25
487.081	129.25
487.299	141.25
487.517	123.25
487.735	129.25
487.953	137.25
488.171	135.25
488.389	142.25
488.607	125.25
488.825	129.25
489.043	138.25
489.261	133.25
489.479	137.25
489.696	144.25
489.914	136.25
490.132	141.25
490.35	140.25
490.568	136.25
490.786	136.25
491.003	131.25
491.221	127.25
491.439	130.25
491.657	139.25
491.874	155.25
492.092	146.25
492.31	145.25
492.527	131.25
492.745	164.25
492.963	161.25
493.18	154.25
493.398	145.25
493.615	144.25
493.833	139.25
494.05	141.25
494.268	138.25
494.485	154.25
494.703	126.25
494.92	151.25
495.138	133.25
495.355	143.25
495.573	144.25
495.79	151.25
496.008	128.25
496.225	138.25
496.442	153.25
496.66	156.25
496.877	152.25
497.094	169.25
497.312	162.25
497.529	156.25
497.746	156.25
497.963	146.25
498.181	153.25
498.398	142.25
498.615	154.25
498.832	148.25
499.049	169.25
499.267	168.25
499.484	167.25
499.701	193.25
499.918	183.25
500.135	194.25
500.352	211.25
500.569	220.25
500.786	210.25
501.003	208.25
501.22	190.25
501.437	190.25
501.654	188.25
501.871	171.25
502.088	168.25
502.305	174.25
502.522	157.25
502.739	163.25
502.956	163.25
503.172	157.25
503.389	139.25
503.606	144.25
503.823	147.25
504.04	132.25
504.256	152.25
504.473	142.25
504.69	137.25
504.907	133.25
505.123	124.25
505.34	145.25
