Data from 1968.PennyLincolnUp.Lamp.En5.5.200Scan.071719.P1._HRD10591_14-52-01-970.txt Node
Date: Thu Jul 18 14:52:01 EDT 2019
User: cochatt
Spectrometer: HR+D1059
Trigger mode: 1
Integration Time (sec): 1.000000E-1
Scans to average: 1
Electric dark correction enabled: true
Nonlinearity correction enabled: false
Boxcar width: 0
XAxis mode: Wavelengths
Number of Pixels in Spectrum: 2048
>>>>>Begin Spectral Data<<<<<
223.165	-12.31
223.4	-12.31
223.635	-12.31
223.869	-14.31
224.104	-27.31
224.338	-13.31
224.573	-23.31
224.808	-10.31
225.042	-3.31
225.277	-10.31
225.511	-17.31
225.746	2.69
225.98	17.69
226.215	6.69
226.449	32.69
226.683	20.69
226.918	17.69
227.152	33.69
227.387	42.69
227.621	27.69
227.856	52.69
228.09	53.69
228.324	44.69
228.559	28.69
228.793	54.69
229.027	75.69
229.262	70.69
229.496	66.69
229.73	69.69
229.964	68.69
230.199	84.69
230.433	68.69
230.667	81.69
230.901	76.69
231.136	80.69
231.37	67.69
231.604	78.69
231.838	84.69
232.072	74.69
232.306	83.69
232.541	77.69
232.775	73.69
233.009	90.69
233.243	82.69
233.477	90.69
233.711	85.69
233.945	86.69
234.179	96.69
234.413	94.69
234.647	82.69
234.881	93.69
235.115	89.69
235.349	77.69
235.583	70.69
235.817	85.69
236.051	79.69
236.285	78.69
236.519	77.69
236.753	87.69
236.987	74.69
237.221	92.69
237.455	97.69
237.689	97.69
237.922	76.69
238.156	86.69
238.39	64.69
238.624	77.69
238.858	78.69
239.091	85.69
239.325	75.69
239.559	83.69
239.793	91.69
240.027	72.69
240.26	74.69
240.494	93.69
240.728	78.69
240.961	60.69
241.195	76.69
241.429	72.69
241.662	94.69
241.896	72.69
242.13	90.69
242.363	82.69
242.597	65.69
242.83	70.69
243.064	85.69
243.298	75.69
243.531	73.69
243.765	70.69
243.998	73.69
244.232	88.69
244.465	86.69
244.699	93.69
244.932	79.69
245.166	83.69
245.399	83.69
245.633	66.69
245.866	75.69
246.099	98.69
246.333	71.69
246.566	89.69
246.8	91.69
247.033	88.69
247.266	88.69
247.5	90.69
247.733	85.69
247.966	84.69
248.2	84.69
248.433	92.69
248.666	90.69
248.899	75.69
249.133	86.69
249.366	86.69
249.599	92.69
249.832	93.69
250.066	102.69
250.299	90.69
250.532	92.69
250.765	98.69
250.998	90.69
251.231	81.69
251.465	82.69
251.698	86.69
251.931	81.69
252.164	93.69
252.397	93.69
252.63	86.69
252.863	86.69
253.096	96.69
253.329	97.69
253.562	101.69
253.795	86.69
254.028	82.69
254.261	88.69
254.494	98.69
254.727	84.69
254.96	92.69
255.193	86.69
255.426	86.69
255.659	75.69
255.892	91.69
256.124	98.69
256.357	81.69
256.59	88.69
256.823	83.69
257.056	86.69
257.289	90.69
257.521	114.69
257.754	90.69
257.987	95.69
258.22	101.69
258.452	108.69
258.685	86.69
258.918	82.69
259.151	84.69
259.383	81.69
259.616	78.69
259.849	95.69
260.081	98.69
260.314	101.69
260.547	93.69
260.779	76.69
261.012	102.69
261.244	90.69
261.477	86.69
261.71	79.69
261.942	101.69
262.175	89.69
262.407	97.69
262.64	91.69
262.872	104.69
263.105	92.69
263.337	91.69
263.57	89.69
263.802	85.69
264.035	91.69
264.267	94.69
264.499	90.69
264.732	96.69
264.964	104.69
265.197	100.69
265.429	109.69
265.661	102.69
265.894	84.69
266.126	94.69
266.358	77.69
266.591	88.69
266.823	112.69
267.055	93.69
267.287	85.69
267.52	83.69
267.752	94.69
267.984	86.69
268.216	83.69
268.448	99.69
268.681	93.69
268.913	105.69
269.145	108.69
269.377	108.69
269.609	86.69
269.841	84.69
270.073	90.69
270.306	87.69
270.538	103.69
270.77	84.69
271.002	90.69
271.234	96.69
271.466	114.69
271.698	88.69
271.93	89.69
272.162	93.69
272.394	90.69
272.626	95.69
272.858	99.69
273.09	110.69
273.322	96.69
273.553	89.69
273.785	75.69
274.017	76.69
274.249	85.69
274.481	81.69
274.713	89.69
274.945	90.69
275.176	106.69
275.408	93.69
275.64	78.69
275.872	107.69
276.104	94.69
276.335	108.69
276.567	86.69
276.799	98.69
277.031	91.69
277.262	100.69
277.494	100.69
277.726	106.69
277.957	112.69
278.189	104.69
278.421	96.69
278.652	99.69
278.884	96.69
279.115	102.69
279.347	98.69
279.579	94.69
279.81	95.69
280.042	100.69
280.273	100.69
280.505	98.69
280.736	85.69
280.968	102.69
281.199	106.69
281.431	108.69
281.662	78.69
281.894	101.69
282.125	86.69
282.356	99.69
282.588	110.69
282.819	104.69
283.051	104.69
283.282	108.69
283.513	90.69
283.745	90.69
283.976	108.69
284.207	97.69
284.439	98.69
284.67	85.69
284.901	105.69
285.132	90.69
285.364	108.69
285.595	99.69
285.826	113.69
286.057	97.69
286.288	93.69
286.52	93.69
286.751	107.69
286.982	99.69
287.213	106.69
287.444	104.69
287.675	95.69
287.906	101.69
288.138	114.69
288.369	98.69
288.6	116.69
288.831	82.69
289.062	100.69
289.293	92.69
289.524	103.69
289.755	114.69
289.986	92.69
290.217	104.69
290.448	103.69
290.679	117.69
290.91	109.69
291.141	118.69
291.371	97.69
291.602	89.69
291.833	96.69
292.064	83.69
292.295	92.69
292.526	113.69
292.757	110.69
292.987	100.69
293.218	90.69
293.449	105.69
293.68	93.69
293.91	97.69
294.141	105.69
294.372	124.69
294.603	116.69
294.833	108.69
295.064	100.69
295.295	94.69
295.525	92.69
295.756	106.69
295.987	98.69
296.217	89.69
296.448	112.69
296.679	108.69
296.909	96.69
297.14	93.69
297.37	121.69
297.601	108.69
297.831	98.69
298.062	95.69
298.292	97.69
298.523	98.69
298.753	103.69
298.984	106.69
299.214	109.69
299.445	101.69
299.675	91.69
299.905	92.69
300.136	100.69
300.366	109.69
300.597	99.69
300.827	110.69
301.057	110.69
301.288	103.69
301.518	105.69
301.748	101.69
301.979	89.69
302.209	107.69
302.439	102.69
302.669	103.69
302.9	108.69
303.13	105.69
303.36	93.69
303.59	97.69
303.82	93.69
304.051	105.69
304.281	105.69
304.511	105.69
304.741	96.69
304.971	103.69
305.201	110.69
305.431	99.69
305.661	117.69
305.891	94.69
306.121	116.69
306.352	101.69
306.582	110.69
306.812	104.69
307.042	104.69
307.272	96.69
307.502	114.69
307.731	99.69
307.961	104.69
308.191	107.69
308.421	103.69
308.651	93.69
308.881	101.69
309.111	98.69
309.341	101.69
309.571	99.69
309.8	102.69
310.03	117.69
310.26	100.69
310.49	100.69
310.72	107.69
310.949	114.69
311.179	96.69
311.409	110.69
311.639	102.69
311.868	106.69
312.098	110.69
312.328	117.69
312.557	106.69
312.787	102.69
313.017	99.69
313.246	97.69
313.476	106.69
313.706	96.69
313.935	103.69
314.165	93.69
314.394	98.69
314.624	112.69
314.853	110.69
315.083	118.69
315.312	107.69
315.542	116.69
315.771	114.69
316.001	101.69
316.23	110.69
316.46	106.69
316.689	110.69
316.919	109.69
317.148	109.69
317.377	109.69
317.607	105.69
317.836	95.69
318.065	120.69
318.295	109.69
318.524	108.69
318.753	94.69
318.983	93.69
319.212	116.69
319.441	102.69
319.67	112.69
319.9	123.69
320.129	110.69
320.358	119.69
320.587	95.69
320.816	102.69
321.046	101.69
321.275	115.69
321.504	105.69
321.733	111.69
321.962	98.69
322.191	114.69
322.42	115.69
322.649	110.69
322.878	109.69
323.108	102.69
323.337	94.69
323.566	100.69
323.795	102.69
324.024	117.69
324.253	128.69
324.482	121.69
324.71	143.69
324.939	185.69
325.168	149.69
325.397	122.69
325.626	109.69
325.855	115.69
326.084	114.69
326.313	113.69
326.542	115.69
326.77	109.69
326.999	126.69
327.228	125.69
327.457	159.69
327.686	156.69
327.914	133.69
328.143	124.69
328.372	111.69
328.6	132.69
328.829	106.69
329.058	128.69
329.287	118.69
329.515	104.69
329.744	104.69
329.972	113.69
330.201	121.69
330.43	118.69
330.658	124.69
330.887	132.69
331.115	106.69
331.344	115.69
331.572	121.69
331.801	115.69
332.03	108.69
332.258	109.69
332.486	114.69
332.715	109.69
332.943	115.69
333.172	114.69
333.4	112.69
333.629	105.69
333.857	117.69
334.085	118.69
334.314	127.69
334.542	113.69
334.771	112.69
334.999	119.69
335.227	119.69
335.455	122.69
335.684	117.69
335.912	106.69
336.14	126.69
336.369	116.69
336.597	124.69
336.825	108.69
337.053	116.69
337.281	121.69
337.51	120.69
337.738	112.69
337.966	109.69
338.194	106.69
338.422	117.69
338.65	114.69
338.878	98.69
339.106	116.69
339.334	107.69
339.562	116.69
339.79	130.69
340.018	107.69
340.246	98.69
340.474	121.69
340.702	125.69
340.93	102.69
341.158	112.69
341.386	118.69
341.614	93.69
341.842	118.69
342.07	115.69
342.298	112.69
342.526	100.69
342.754	112.69
342.981	101.69
343.209	120.69
343.437	114.69
343.665	121.69
343.893	121.69
344.12	114.69
344.348	114.69
344.576	128.69
344.804	123.69
345.031	116.69
345.259	106.69
345.487	116.69
345.714	118.69
345.942	123.69
346.17	108.69
346.397	110.69
346.625	107.69
346.853	105.69
347.08	119.69
347.308	97.69
347.535	110.69
347.763	118.69
347.99	110.69
348.218	113.69
348.445	96.69
348.673	119.69
348.9	117.69
349.128	127.69
349.355	116.69
349.583	116.69
349.81	115.69
350.037	117.69
350.265	107.69
350.492	104.69
350.72	108.69
350.947	94.69
351.174	110.69
351.402	109.69
351.629	113.69
351.856	90.69
352.083	92.69
352.311	102.69
352.538	98.69
352.765	113.69
352.992	126.69
353.22	113.69
353.447	116.69
353.674	115.69
353.901	103.69
354.128	101.69
354.355	104.69
354.583	84.69
354.81	109.69
355.037	104.69
355.264	114.69
355.491	116.69
355.718	113.69
355.945	104.69
356.172	95.69
356.399	102.69
356.626	116.69
356.853	114.69
357.08	116.69
357.307	90.69
357.534	112.69
357.761	109.69
357.988	104.69
358.215	106.69
358.441	98.69
358.668	120.69
358.895	105.69
359.122	113.69
359.349	98.69
359.576	110.69
359.802	105.69
360.029	120.69
360.256	108.69
360.483	112.69
360.709	109.69
360.936	116.69
361.163	92.69
361.39	106.69
361.616	127.69
361.843	114.69
362.07	124.69
362.296	108.69
362.523	107.69
362.749	116.69
362.976	94.69
363.203	115.69
363.429	106.69
363.656	120.69
363.882	104.69
364.109	116.69
364.335	121.69
364.562	105.69
364.788	107.69
365.015	93.69
365.241	104.69
365.468	132.69
365.694	105.69
365.92	114.69
366.147	104.69
366.373	113.69
366.599	103.69
366.826	111.69
367.052	121.69
367.278	116.69
367.505	105.69
367.731	104.69
367.957	105.69
368.184	110.69
368.41	113.69
368.636	116.69
368.862	117.69
369.089	122.69
369.315	114.69
369.541	115.69
369.767	119.69
369.993	99.69
370.219	118.69
370.445	109.69
370.672	109.69
370.898	101.69
371.124	107.69
371.35	112.69
371.576	116.69
371.802	115.69
372.028	119.69
372.254	113.69
372.48	104.69
372.706	97.69
372.932	98.69
373.158	110.69
373.384	99.69
373.61	121.69
373.835	108.69
374.061	110.69
374.287	110.69
374.513	104.69
374.739	97.69
374.965	114.69
375.191	112.69
375.416	122.69
375.642	112.69
375.868	109.69
376.094	118.69
376.319	108.69
376.545	90.69
376.771	117.69
376.997	119.69
377.222	100.69
377.448	100.69
377.674	103.69
377.899	105.69
378.125	103.69
378.35	109.69
378.576	100.69
378.802	108.69
379.027	118.69
379.253	126.69
379.478	116.69
379.704	108.69
379.929	105.69
380.155	109.69
380.38	108.69
380.606	106.69
380.831	127.69
381.057	119.69
381.282	108.69
381.507	121.69
381.733	107.69
381.958	103.69
382.184	126.69
382.409	119.69
382.634	94.69
382.86	127.69
383.085	124.69
383.31	105.69
383.535	106.69
383.761	112.69
383.986	104.69
384.211	112.69
384.436	121.69
384.662	113.69
384.887	115.69
385.112	109.69
385.337	126.69
385.562	124.69
385.787	119.69
386.013	126.69
386.238	119.69
386.463	124.69
386.688	120.69
386.913	122.69
387.138	113.69
387.363	124.69
387.588	112.69
387.813	109.69
388.038	122.69
388.263	99.69
388.488	116.69
388.713	101.69
388.938	117.69
389.163	124.69
389.387	114.69
389.612	107.69
389.837	112.69
390.062	108.69
390.287	117.69
390.512	115.69
390.736	121.69
390.961	110.69
391.186	119.69
391.411	121.69
391.636	123.69
391.86	130.69
392.085	118.69
392.31	109.69
392.534	123.69
392.759	121.69
392.984	102.69
393.208	112.69
393.433	116.69
393.658	124.69
393.882	121.69
394.107	114.69
394.331	120.69
394.556	121.69
394.78	102.69
395.005	116.69
395.229	123.69
395.454	119.69
395.678	123.69
395.903	123.69
396.127	108.69
396.352	125.69
396.576	123.69
396.801	124.69
397.025	136.69
397.249	124.69
397.474	125.69
397.698	119.69
397.922	129.69
398.147	123.69
398.371	124.69
398.595	121.69
398.82	117.69
399.044	133.69
399.268	125.69
399.492	137.69
399.717	126.69
399.941	156.69
400.165	137.69
400.389	145.69
400.613	132.69
400.837	122.69
401.062	121.69
401.286	125.69
401.51	125.69
401.734	121.69
401.958	139.69
402.182	119.69
402.406	117.69
402.63	130.69
402.854	132.69
403.078	130.69
403.302	128.69
403.526	128.69
403.75	122.69
403.974	135.69
404.198	130.69
404.422	130.69
404.645	147.69
404.869	144.69
405.093	143.69
405.317	133.69
405.541	139.69
405.765	132.69
405.988	127.69
406.212	130.69
406.436	124.69
406.66	142.69
406.883	140.69
407.107	132.69
407.331	138.69
407.555	140.69
407.778	141.69
408.002	134.69
408.226	140.69
408.449	128.69
408.673	136.69
408.896	122.69
409.12	133.69
409.344	131.69
409.567	121.69
409.791	124.69
410.014	123.69
410.238	110.69
410.461	124.69
410.685	119.69
410.908	128.69
411.132	131.69
411.355	122.69
411.578	141.69
411.802	122.69
412.025	132.69
412.249	130.69
412.472	133.69
412.695	126.69
412.919	121.69
413.142	122.69
413.365	136.69
413.589	133.69
413.812	132.69
414.035	132.69
414.258	132.69
414.482	118.69
414.705	136.69
414.928	126.69
415.151	115.69
415.374	127.69
415.597	137.69
415.821	133.69
416.044	129.69
416.267	123.69
416.49	107.69
416.713	118.69
416.936	124.69
417.159	122.69
417.382	125.69
417.605	128.69
417.828	130.69
418.051	149.69
418.274	135.69
418.497	108.69
418.72	135.69
418.943	119.69
419.166	124.69
419.389	119.69
419.611	122.69
419.834	145.69
420.057	131.69
420.28	121.69
420.503	150.69
420.726	128.69
420.948	142.69
421.171	129.69
421.394	118.69
421.617	127.69
421.839	133.69
422.062	123.69
422.285	121.69
422.507	130.69
422.73	130.69
422.953	149.69
423.175	124.69
423.398	128.69
423.621	125.69
423.843	136.69
424.066	115.69
424.288	121.69
424.511	134.69
424.733	124.69
424.956	138.69
425.178	131.69
425.401	126.69
425.623	124.69
425.846	140.69
426.068	126.69
426.291	136.69
426.513	139.69
426.735	134.69
426.958	142.69
427.18	141.69
427.402	141.69
427.625	147.69
427.847	145.69
428.069	124.69
428.292	128.69
428.514	121.69
428.736	126.69
428.958	130.69
429.181	118.69
429.403	122.69
429.625	121.69
429.847	130.69
430.069	127.69
430.292	141.69
430.514	120.69
430.736	115.69
430.958	128.69
431.18	124.69
431.402	135.69
431.624	120.69
431.846	117.69
432.068	100.69
432.29	121.69
432.512	136.69
432.734	113.69
432.956	136.69
433.178	123.69
433.4	134.69
433.622	139.69
433.844	124.69
434.066	116.69
434.287	108.69
434.509	123.69
434.731	133.69
434.953	122.69
435.175	142.69
435.397	133.69
435.618	124.69
435.84	141.69
436.062	147.69
436.284	142.69
436.505	136.69
436.727	124.69
436.949	137.69
437.17	130.69
437.392	141.69
437.614	116.69
437.835	142.69
438.057	128.69
438.278	142.69
438.5	126.69
438.721	123.69
438.943	128.69
439.165	146.69
439.386	140.69
439.608	128.69
439.829	131.69
440.05	130.69
440.272	130.69
440.493	129.69
440.715	123.69
440.936	120.69
441.158	138.69
441.379	113.69
441.6	124.69
441.822	123.69
442.043	125.69
442.264	121.69
442.486	136.69
442.707	130.69
442.928	122.69
443.149	128.69
443.371	135.69
443.592	133.69
443.813	141.69
444.034	134.69
444.255	135.69
444.476	129.69
444.698	131.69
444.919	158.69
445.14	275.69
445.361	193.69
445.582	144.69
445.803	124.69
446.024	127.69
446.245	146.69
446.466	124.69
446.687	124.69
446.908	133.69
447.129	113.69
447.35	131.69
447.571	132.69
447.792	112.69
448.013	130.69
448.234	119.69
448.455	133.69
448.675	124.69
448.896	130.69
449.117	129.69
449.338	120.69
449.559	138.69
449.779	137.69
450	141.69
450.221	101.69
450.442	108.69
450.662	117.69
450.883	124.69
451.104	125.69
451.324	116.69
451.545	119.69
451.766	113.69
451.986	123.69
452.207	114.69
452.428	104.69
452.648	122.69
452.869	127.69
453.089	109.69
453.31	120.69
453.53	105.69
453.751	122.69
453.971	110.69
454.192	132.69
454.412	113.69
454.633	120.69
454.853	124.69
455.073	107.69
455.294	119.69
455.514	122.69
455.734	118.69
455.955	101.69
456.175	120.69
456.395	116.69
456.616	123.69
456.836	113.69
457.056	120.69
457.276	108.69
457.497	114.69
457.717	119.69
457.937	119.69
458.157	121.69
458.377	113.69
458.598	122.69
458.818	128.69
459.038	134.69
459.258	119.69
459.478	124.69
459.698	136.69
459.918	128.69
460.138	128.69
460.358	113.69
460.578	148.69
460.798	133.69
461.018	117.69
461.238	103.69
461.458	128.69
461.678	124.69
461.898	132.69
462.118	143.69
462.338	132.69
462.558	136.69
462.777	118.69
462.997	133.69
463.217	132.69
463.437	133.69
463.657	110.69
463.876	123.69
464.096	131.69
464.316	145.69
464.536	148.69
464.755	136.69
464.975	139.69
465.195	131.69
465.414	136.69
465.634	114.69
465.854	119.69
466.073	138.69
466.293	120.69
466.512	119.69
466.732	114.69
466.951	134.69
467.171	128.69
467.391	121.69
467.61	126.69
467.829	119.69
468.049	124.69
468.268	121.69
468.488	124.69
468.707	122.69
468.927	118.69
469.146	126.69
469.365	111.69
469.585	123.69
469.804	107.69
470.023	125.69
470.243	134.69
470.462	126.69
470.681	121.69
470.901	116.69
471.12	117.69
471.339	129.69
471.558	117.69
471.777	125.69
471.997	118.69
472.216	122.69
472.435	114.69
472.654	113.69
472.873	122.69
473.092	128.69
473.311	116.69
473.53	124.69
473.749	110.69
473.968	122.69
474.187	112.69
474.406	114.69
474.625	133.69
474.844	112.69
475.063	105.69
475.282	114.69
475.501	104.69
475.72	124.69
475.939	124.69
476.158	123.69
476.377	135.69
476.596	120.69
476.814	131.69
477.033	122.69
477.252	124.69
477.471	142.69
477.69	125.69
477.908	141.69
478.127	148.69
478.346	127.69
478.564	124.69
478.783	122.69
479.002	131.69
479.22	130.69
479.439	135.69
479.658	126.69
479.876	129.69
480.095	121.69
480.313	144.69
480.532	130.69
480.751	146.69
480.969	135.69
481.188	136.69
481.406	134.69
481.624	125.69
481.843	118.69
482.061	135.69
482.28	114.69
482.498	132.69
482.717	127.69
482.935	124.69
483.153	114.69
483.372	131.69
483.59	128.69
483.808	134.69
484.027	142.69
484.245	137.69
484.463	129.69
484.681	124.69
484.9	119.69
485.118	139.69
485.336	135.69
485.554	122.69
485.772	131.69
485.99	130.69
486.209	132.69
486.427	132.69
486.645	125.69
486.863	137.69
487.081	135.69
487.299	127.69
487.517	132.69
487.735	125.69
487.953	138.69
488.171	130.69
488.389	132.69
488.607	140.69
488.825	136.69
489.043	140.69
489.261	149.69
489.479	112.69
489.696	137.69
489.914	133.69
490.132	136.69
490.35	138.69
490.568	138.69
490.786	140.69
491.003	136.69
491.221	131.69
491.439	131.69
491.657	148.69
491.874	132.69
492.092	135.69
492.31	135.69
492.527	128.69
492.745	138.69
492.963	133.69
493.18	132.69
493.398	146.69
493.615	137.69
493.833	140.69
494.05	138.69
494.268	145.69
494.485	156.69
494.703	155.69
494.92	154.69
495.138	140.69
495.355	156.69
495.573	147.69
495.79	136.69
496.008	142.69
496.225	141.69
496.442	144.69
496.66	152.69
496.877	150.69
497.094	159.69
497.312	130.69
497.529	150.69
497.746	156.69
497.963	147.69
498.181	143.69
498.398	162.69
498.615	152.69
498.832	156.69
499.049	156.69
499.267	155.69
499.484	170.69
499.701	188.69
499.918	183.69
500.135	187.69
500.352	191.69
500.569	205.69
500.786	221.69
501.003	200.69
501.22	196.69
501.437	186.69
501.654	167.69
501.871	166.69
502.088	143.69
502.305	157.69
502.522	157.69
502.739	151.69
502.956	150.69
503.172	137.69
503.389	152.69
503.606	140.69
503.823	139.69
504.04	149.69
504.256	162.69
504.473	159.69
504.69	148.69
504.907	133.69
505.123	142.69
505.34	143.69
505.557	145.69
505.773	134.69
