Data from 1968.PennyLincolnUp.Lamp.En5.5.200Scan.071719.P1._HRD10591_14-50-34-969.txt Node
Date: Thu Jul 18 14:50:34 EDT 2019
User: cochatt
Spectrometer: HR+D1059
Trigger mode: 1
Integration Time (sec): 1.000000E-1
Scans to average: 1
Electric dark correction enabled: true
Nonlinearity correction enabled: false
Boxcar width: 0
XAxis mode: Wavelengths
Number of Pixels in Spectrum: 2048
>>>>>Begin Spectral Data<<<<<
223.165	-19.81
223.4	-19.81
223.635	-19.81
223.869	-24.81
224.104	-19.81
224.338	-28.81
224.573	-12.81
224.808	-13.81
225.042	0.19
225.277	-5.81
225.511	-7.81
225.746	10.19
225.98	18.19
226.215	6.19
226.449	7.19
226.683	20.19
226.918	30.19
227.152	41.19
227.387	37.19
227.621	43.19
227.856	55.19
228.09	48.19
228.324	54.19
228.559	56.19
228.793	58.19
229.027	64.19
229.262	58.19
229.496	76.19
229.73	72.19
229.964	64.19
230.199	62.19
230.433	69.19
230.667	84.19
230.901	81.19
231.136	75.19
231.37	71.19
231.604	82.19
231.838	72.19
232.072	89.19
232.306	70.19
232.541	88.19
232.775	85.19
233.009	94.19
233.243	84.19
233.477	79.19
233.711	88.19
233.945	88.19
234.179	93.19
234.413	78.19
234.647	94.19
234.881	89.19
235.115	88.19
235.349	97.19
235.583	100.19
235.817	86.19
236.051	80.19
236.285	80.19
236.519	76.19
236.753	101.19
236.987	90.19
237.221	87.19
237.455	76.19
237.689	75.19
237.922	75.19
238.156	74.19
238.39	74.19
238.624	74.19
238.858	78.19
239.091	95.19
239.325	93.19
239.559	82.19
239.793	77.19
240.027	89.19
240.26	71.19
240.494	80.19
240.728	84.19
240.961	80.19
241.195	74.19
241.429	89.19
241.662	66.19
241.896	103.19
242.13	86.19
242.363	98.19
242.597	73.19
242.83	74.19
243.064	78.19
243.298	103.19
243.531	75.19
243.765	98.19
243.998	85.19
244.232	83.19
244.465	93.19
244.699	85.19
244.932	86.19
245.166	82.19
245.399	91.19
245.633	80.19
245.866	79.19
246.099	70.19
246.333	84.19
246.566	88.19
246.8	81.19
247.033	81.19
247.266	88.19
247.5	80.19
247.733	101.19
247.966	84.19
248.2	82.19
248.433	80.19
248.666	88.19
248.899	100.19
249.133	84.19
249.366	84.19
249.599	96.19
249.832	96.19
250.066	91.19
250.299	100.19
250.532	91.19
250.765	86.19
250.998	96.19
251.231	85.19
251.465	101.19
251.698	84.19
251.931	87.19
252.164	86.19
252.397	91.19
252.63	89.19
252.863	91.19
253.096	96.19
253.329	89.19
253.562	73.19
253.795	86.19
254.028	87.19
254.261	91.19
254.494	91.19
254.727	88.19
254.96	84.19
255.193	88.19
255.426	107.19
255.659	78.19
255.892	99.19
256.124	91.19
256.357	101.19
256.59	94.19
256.823	84.19
257.056	86.19
257.289	94.19
257.521	78.19
257.754	91.19
257.987	94.19
258.22	94.19
258.452	102.19
258.685	86.19
258.918	96.19
259.151	81.19
259.383	90.19
259.616	94.19
259.849	102.19
260.081	103.19
260.314	99.19
260.547	93.19
260.779	86.19
261.012	77.19
261.244	89.19
261.477	88.19
261.71	91.19
261.942	91.19
262.175	97.19
262.407	90.19
262.64	99.19
262.872	84.19
263.105	93.19
263.337	89.19
263.57	91.19
263.802	100.19
264.035	88.19
264.267	107.19
264.499	81.19
264.732	96.19
264.964	81.19
265.197	103.19
265.429	92.19
265.661	81.19
265.894	84.19
266.126	87.19
266.358	97.19
266.591	99.19
266.823	80.19
267.055	99.19
267.287	100.19
267.52	95.19
267.752	93.19
267.984	93.19
268.216	96.19
268.448	101.19
268.681	99.19
268.913	100.19
269.145	80.19
269.377	94.19
269.609	107.19
269.841	86.19
270.073	87.19
270.306	98.19
270.538	98.19
270.77	99.19
271.002	87.19
271.234	94.19
271.466	100.19
271.698	105.19
271.93	93.19
272.162	88.19
272.394	89.19
272.626	84.19
272.858	96.19
273.09	112.19
273.322	93.19
273.553	90.19
273.785	89.19
274.017	101.19
274.249	86.19
274.481	93.19
274.713	91.19
274.945	102.19
275.176	89.19
275.408	107.19
275.64	104.19
275.872	86.19
276.104	95.19
276.335	100.19
276.567	95.19
276.799	97.19
277.031	107.19
277.262	103.19
277.494	99.19
277.726	106.19
277.957	103.19
278.189	89.19
278.421	87.19
278.652	103.19
278.884	102.19
279.115	108.19
279.347	94.19
279.579	96.19
279.81	103.19
280.042	99.19
280.273	93.19
280.505	97.19
280.736	99.19
280.968	115.19
281.199	111.19
281.431	102.19
281.662	86.19
281.894	101.19
282.125	107.19
282.356	98.19
282.588	103.19
282.819	100.19
283.051	99.19
283.282	113.19
283.513	100.19
283.745	99.19
283.976	113.19
284.207	114.19
284.439	105.19
284.67	103.19
284.901	87.19
285.132	83.19
285.364	96.19
285.595	111.19
285.826	101.19
286.057	99.19
286.288	93.19
286.52	108.19
286.751	112.19
286.982	103.19
287.213	100.19
287.444	98.19
287.675	121.19
287.906	104.19
288.138	108.19
288.369	98.19
288.6	110.19
288.831	93.19
289.062	102.19
289.293	112.19
289.524	100.19
289.755	101.19
289.986	107.19
290.217	103.19
290.448	105.19
290.679	110.19
290.91	101.19
291.141	98.19
291.371	95.19
291.602	107.19
291.833	83.19
292.064	108.19
292.295	111.19
292.526	107.19
292.757	107.19
292.987	108.19
293.218	97.19
293.449	106.19
293.68	97.19
293.91	104.19
294.141	107.19
294.372	102.19
294.603	108.19
294.833	103.19
295.064	110.19
295.295	105.19
295.525	98.19
295.756	102.19
295.987	99.19
296.217	112.19
296.448	103.19
296.679	106.19
296.909	99.19
297.14	103.19
297.37	106.19
297.601	106.19
297.831	96.19
298.062	106.19
298.292	110.19
298.523	109.19
298.753	98.19
298.984	105.19
299.214	102.19
299.445	98.19
299.675	107.19
299.905	122.19
300.136	99.19
300.366	100.19
300.597	110.19
300.827	107.19
301.057	119.19
301.288	92.19
301.518	111.19
301.748	101.19
301.979	96.19
302.209	95.19
302.439	102.19
302.669	108.19
302.9	105.19
303.13	105.19
303.36	93.19
303.59	109.19
303.82	119.19
304.051	98.19
304.281	102.19
304.511	126.19
304.741	106.19
304.971	103.19
305.201	104.19
305.431	105.19
305.661	105.19
305.891	114.19
306.121	102.19
306.352	105.19
306.582	115.19
306.812	114.19
307.042	100.19
307.272	118.19
307.502	111.19
307.731	103.19
307.961	99.19
308.191	107.19
308.421	107.19
308.651	111.19
308.881	105.19
309.111	119.19
309.341	100.19
309.571	110.19
309.8	112.19
310.03	101.19
310.26	91.19
310.49	115.19
310.72	110.19
310.949	104.19
311.179	104.19
311.409	118.19
311.639	115.19
311.868	120.19
312.098	108.19
312.328	110.19
312.557	99.19
312.787	114.19
313.017	105.19
313.246	109.19
313.476	93.19
313.706	122.19
313.935	99.19
314.165	110.19
314.394	109.19
314.624	109.19
314.853	109.19
315.083	115.19
315.312	106.19
315.542	103.19
315.771	109.19
316.001	108.19
316.23	112.19
316.46	104.19
316.689	114.19
316.919	105.19
317.148	108.19
317.377	113.19
317.607	108.19
317.836	109.19
318.065	107.19
318.295	118.19
318.524	97.19
318.753	103.19
318.983	108.19
319.212	110.19
319.441	101.19
319.67	107.19
319.9	104.19
320.129	97.19
320.358	110.19
320.587	115.19
320.816	84.19
321.046	105.19
321.275	108.19
321.504	111.19
321.733	117.19
321.962	101.19
322.191	114.19
322.42	115.19
322.649	119.19
322.878	100.19
323.108	105.19
323.337	108.19
323.566	111.19
323.795	109.19
324.024	111.19
324.253	124.19
324.482	138.19
324.71	150.19
324.939	178.19
325.168	150.19
325.397	127.19
325.626	123.19
325.855	104.19
326.084	116.19
326.313	105.19
326.542	110.19
326.77	123.19
326.999	119.19
327.228	125.19
327.457	138.19
327.686	153.19
327.914	130.19
328.143	100.19
328.372	114.19
328.6	121.19
328.829	104.19
329.058	118.19
329.287	105.19
329.515	114.19
329.744	115.19
329.972	120.19
330.201	114.19
330.43	126.19
330.658	117.19
330.887	123.19
331.115	108.19
331.344	124.19
331.572	105.19
331.801	118.19
332.03	124.19
332.258	111.19
332.486	122.19
332.715	100.19
332.943	125.19
333.172	101.19
333.4	114.19
333.629	121.19
333.857	118.19
334.085	121.19
334.314	121.19
334.542	119.19
334.771	127.19
334.999	118.19
335.227	124.19
335.455	121.19
335.684	122.19
335.912	104.19
336.14	136.19
336.369	117.19
336.597	127.19
336.825	89.19
337.053	126.19
337.281	112.19
337.51	132.19
337.738	120.19
337.966	117.19
338.194	106.19
338.422	108.19
338.65	116.19
338.878	117.19
339.106	109.19
339.334	131.19
339.562	123.19
339.79	121.19
340.018	120.19
340.246	122.19
340.474	100.19
340.702	120.19
340.93	111.19
341.158	126.19
341.386	114.19
341.614	110.19
341.842	124.19
342.07	121.19
342.298	110.19
342.526	111.19
342.754	110.19
342.981	118.19
343.209	101.19
343.437	109.19
343.665	110.19
343.893	117.19
344.12	119.19
344.348	115.19
344.576	121.19
344.804	103.19
345.031	106.19
345.259	117.19
345.487	108.19
345.714	114.19
345.942	123.19
346.17	120.19
346.397	115.19
346.625	96.19
346.853	99.19
347.08	116.19
347.308	117.19
347.535	102.19
347.763	108.19
347.99	121.19
348.218	111.19
348.445	114.19
348.673	114.19
348.9	117.19
349.128	116.19
349.355	120.19
349.583	109.19
349.81	114.19
350.037	103.19
350.265	110.19
350.492	114.19
350.72	97.19
350.947	119.19
351.174	114.19
351.402	111.19
351.629	107.19
351.856	114.19
352.083	100.19
352.311	130.19
352.538	114.19
352.765	115.19
352.992	115.19
353.22	99.19
353.447	100.19
353.674	120.19
353.901	101.19
354.128	113.19
354.355	109.19
354.583	119.19
354.81	132.19
355.037	120.19
355.264	121.19
355.491	102.19
355.718	114.19
355.945	116.19
356.172	102.19
356.399	108.19
356.626	113.19
356.853	110.19
357.08	104.19
357.307	118.19
357.534	114.19
357.761	116.19
357.988	103.19
358.215	105.19
358.441	100.19
358.668	101.19
358.895	115.19
359.122	122.19
359.349	109.19
359.576	102.19
359.802	108.19
360.029	116.19
360.256	109.19
360.483	109.19
360.709	109.19
360.936	111.19
361.163	109.19
361.39	101.19
361.616	108.19
361.843	123.19
362.07	110.19
362.296	111.19
362.523	93.19
362.749	101.19
362.976	122.19
363.203	106.19
363.429	116.19
363.656	106.19
363.882	109.19
364.109	118.19
364.335	112.19
364.562	108.19
364.788	103.19
365.015	127.19
365.241	122.19
365.468	114.19
365.694	110.19
365.92	109.19
366.147	122.19
366.373	107.19
366.599	102.19
366.826	104.19
367.052	104.19
367.278	123.19
367.505	105.19
367.731	104.19
367.957	118.19
368.184	114.19
368.41	115.19
368.636	112.19
368.862	112.19
369.089	106.19
369.315	92.19
369.541	113.19
369.767	120.19
369.993	111.19
370.219	107.19
370.445	125.19
370.672	120.19
370.898	112.19
371.124	116.19
371.35	114.19
371.576	110.19
371.802	109.19
372.028	124.19
372.254	110.19
372.48	132.19
372.706	118.19
372.932	118.19
373.158	122.19
373.384	104.19
373.61	107.19
373.835	116.19
374.061	108.19
374.287	127.19
374.513	107.19
374.739	123.19
374.965	132.19
375.191	126.19
375.416	107.19
375.642	120.19
375.868	120.19
376.094	106.19
376.319	111.19
376.545	106.19
376.771	103.19
376.997	114.19
377.222	114.19
377.448	105.19
377.674	100.19
377.899	116.19
378.125	117.19
378.35	103.19
378.576	95.19
378.802	116.19
379.027	118.19
379.253	114.19
379.478	104.19
379.704	111.19
379.929	117.19
380.155	114.19
380.38	114.19
380.606	116.19
380.831	121.19
381.057	123.19
381.282	108.19
381.507	105.19
381.733	120.19
381.958	98.19
382.184	103.19
382.409	110.19
382.634	125.19
382.86	115.19
383.085	130.19
383.31	120.19
383.535	124.19
383.761	108.19
383.986	116.19
384.211	120.19
384.436	119.19
384.662	118.19
384.887	116.19
385.112	107.19
385.337	112.19
385.562	121.19
385.787	110.19
386.013	129.19
386.238	114.19
386.463	121.19
386.688	114.19
386.913	123.19
387.138	114.19
387.363	129.19
387.588	116.19
387.813	103.19
388.038	132.19
388.263	118.19
388.488	116.19
388.713	115.19
388.938	124.19
389.163	104.19
389.387	114.19
389.612	117.19
389.837	124.19
390.062	122.19
390.287	134.19
390.512	123.19
390.736	127.19
390.961	117.19
391.186	120.19
391.411	115.19
391.636	105.19
391.86	111.19
392.085	123.19
392.31	122.19
392.534	122.19
392.759	118.19
392.984	126.19
393.208	116.19
393.433	118.19
393.658	131.19
393.882	126.19
394.107	101.19
394.331	108.19
394.556	105.19
394.78	105.19
395.005	120.19
395.229	125.19
395.454	124.19
395.678	123.19
395.903	125.19
396.127	111.19
396.352	116.19
396.576	114.19
396.801	108.19
397.025	111.19
397.249	124.19
397.474	134.19
397.698	117.19
397.922	136.19
398.147	106.19
398.371	122.19
398.595	114.19
398.82	121.19
399.044	126.19
399.268	143.19
399.492	140.19
399.717	153.19
399.941	135.19
400.165	140.19
400.389	149.19
400.613	139.19
400.837	144.19
401.062	137.19
401.286	120.19
401.51	120.19
401.734	111.19
401.958	120.19
402.182	109.19
402.406	138.19
402.63	131.19
402.854	132.19
403.078	130.19
403.302	109.19
403.526	114.19
403.75	132.19
403.974	127.19
404.198	130.19
404.422	135.19
404.645	128.19
404.869	138.19
405.093	144.19
405.317	144.19
405.541	144.19
405.765	131.19
405.988	127.19
406.212	139.19
406.436	139.19
406.66	125.19
406.883	126.19
407.107	135.19
407.331	150.19
407.555	147.19
407.778	143.19
408.002	142.19
408.226	136.19
408.449	120.19
408.673	116.19
408.896	148.19
409.12	135.19
409.344	130.19
409.567	148.19
409.791	135.19
410.014	134.19
410.238	127.19
410.461	134.19
410.685	118.19
410.908	118.19
411.132	133.19
411.355	132.19
411.578	127.19
411.802	118.19
412.025	135.19
412.249	111.19
412.472	138.19
412.695	134.19
412.919	138.19
413.142	139.19
413.365	117.19
413.589	115.19
413.812	127.19
414.035	142.19
414.258	130.19
414.482	127.19
414.705	130.19
414.928	133.19
415.151	135.19
415.374	130.19
415.597	130.19
415.821	129.19
416.044	128.19
416.267	132.19
416.49	124.19
416.713	122.19
416.936	131.19
417.159	134.19
417.382	112.19
417.605	125.19
417.828	125.19
418.051	135.19
418.274	128.19
418.497	134.19
418.72	108.19
418.943	129.19
419.166	127.19
419.389	138.19
419.611	136.19
419.834	134.19
420.057	121.19
420.28	123.19
420.503	124.19
420.726	134.19
420.948	129.19
421.171	130.19
421.394	138.19
421.617	126.19
421.839	143.19
422.062	152.19
422.285	124.19
422.507	130.19
422.73	148.19
422.953	121.19
423.175	134.19
423.398	129.19
423.621	132.19
423.843	137.19
424.066	145.19
424.288	135.19
424.511	150.19
424.733	142.19
424.956	135.19
425.178	131.19
425.401	136.19
425.623	134.19
425.846	134.19
426.068	115.19
426.291	110.19
426.513	114.19
426.735	124.19
426.958	139.19
427.18	139.19
427.402	137.19
427.625	139.19
427.847	107.19
428.069	130.19
428.292	134.19
428.514	125.19
428.736	122.19
428.958	124.19
429.181	124.19
429.403	120.19
429.625	140.19
429.847	127.19
430.069	125.19
430.292	136.19
430.514	120.19
430.736	133.19
430.958	126.19
431.18	132.19
431.402	126.19
431.624	119.19
431.846	116.19
432.068	98.19
432.29	124.19
432.512	130.19
432.734	128.19
432.956	115.19
433.178	134.19
433.4	125.19
433.622	133.19
433.844	131.19
434.066	113.19
434.287	130.19
434.509	131.19
434.731	126.19
434.953	128.19
435.175	132.19
435.397	137.19
435.618	131.19
435.84	143.19
436.062	150.19
436.284	137.19
436.505	122.19
436.727	141.19
436.949	122.19
437.17	133.19
437.392	120.19
437.614	132.19
437.835	126.19
438.057	132.19
438.278	136.19
438.5	138.19
438.721	132.19
438.943	127.19
439.165	125.19
439.386	134.19
439.608	130.19
439.829	130.19
440.05	122.19
440.272	135.19
440.493	128.19
440.715	124.19
440.936	125.19
441.158	131.19
441.379	124.19
441.6	139.19
441.822	122.19
442.043	129.19
442.264	126.19
442.486	142.19
442.707	120.19
442.928	127.19
443.149	142.19
443.371	132.19
443.592	139.19
443.813	136.19
444.034	144.19
444.255	141.19
444.476	138.19
444.698	146.19
444.919	134.19
445.14	240.19
445.361	183.19
445.582	130.19
445.803	130.19
446.024	144.19
446.245	136.19
446.466	131.19
446.687	134.19
446.908	130.19
447.129	134.19
447.35	131.19
447.571	140.19
447.792	119.19
448.013	120.19
448.234	130.19
448.455	129.19
448.675	143.19
448.896	139.19
449.117	129.19
449.338	130.19
449.559	132.19
449.779	147.19
450	129.19
450.221	138.19
450.442	116.19
450.662	127.19
450.883	110.19
451.104	116.19
451.324	128.19
451.545	124.19
451.766	116.19
451.986	132.19
452.207	135.19
452.428	141.19
452.648	132.19
452.869	114.19
453.089	122.19
453.31	117.19
453.53	114.19
453.751	116.19
453.971	129.19
454.192	109.19
454.412	104.19
454.633	134.19
454.853	126.19
455.073	112.19
455.294	122.19
455.514	127.19
455.734	130.19
455.955	124.19
456.175	115.19
456.395	129.19
456.616	114.19
456.836	110.19
457.056	124.19
457.276	112.19
457.497	122.19
457.717	110.19
457.937	132.19
458.157	124.19
458.377	119.19
458.598	120.19
458.818	127.19
459.038	123.19
459.258	117.19
459.478	122.19
459.698	122.19
459.918	134.19
460.138	128.19
460.358	143.19
460.578	121.19
460.798	127.19
461.018	134.19
461.238	132.19
461.458	145.19
461.678	114.19
461.898	116.19
462.118	128.19
462.338	125.19
462.558	117.19
462.777	137.19
462.997	151.19
463.217	164.19
463.437	152.19
463.657	149.19
463.876	135.19
464.096	138.19
464.316	126.19
464.536	127.19
464.755	147.19
464.975	136.19
465.195	143.19
465.414	139.19
465.634	127.19
465.854	122.19
466.073	120.19
466.293	123.19
466.512	123.19
466.732	128.19
466.951	117.19
467.171	127.19
467.391	112.19
467.61	114.19
467.829	118.19
468.049	124.19
468.268	124.19
468.488	123.19
468.707	135.19
468.927	121.19
469.146	120.19
469.365	109.19
469.585	118.19
469.804	134.19
470.023	134.19
470.243	121.19
470.462	124.19
470.681	104.19
470.901	131.19
471.12	122.19
471.339	112.19
471.558	133.19
471.777	126.19
471.997	124.19
472.216	110.19
472.435	130.19
472.654	122.19
472.873	132.19
473.092	119.19
473.311	114.19
473.53	130.19
473.749	116.19
473.968	125.19
474.187	111.19
474.406	126.19
474.625	123.19
474.844	122.19
475.063	123.19
475.282	114.19
475.501	115.19
475.72	118.19
475.939	120.19
476.158	128.19
476.377	134.19
476.596	125.19
476.814	108.19
477.033	128.19
477.252	123.19
477.471	133.19
477.69	114.19
477.908	145.19
478.127	141.19
478.346	134.19
478.564	136.19
478.783	132.19
479.002	135.19
479.22	126.19
479.439	141.19
479.658	129.19
479.876	112.19
480.095	126.19
480.313	127.19
480.532	130.19
480.751	145.19
480.969	115.19
481.188	141.19
481.406	136.19
481.624	128.19
481.843	130.19
482.061	119.19
482.28	132.19
482.498	139.19
482.717	136.19
482.935	135.19
483.153	133.19
483.372	127.19
483.59	134.19
483.808	130.19
484.027	124.19
484.245	130.19
484.463	103.19
484.681	138.19
484.9	130.19
485.118	125.19
485.336	125.19
485.554	134.19
485.772	126.19
485.99	134.19
486.209	127.19
486.427	130.19
486.645	146.19
486.863	126.19
487.081	139.19
487.299	126.19
487.517	137.19
487.735	130.19
487.953	134.19
488.171	125.19
488.389	123.19
488.607	131.19
488.825	151.19
489.043	135.19
489.261	140.19
489.479	129.19
489.696	128.19
489.914	138.19
490.132	162.19
490.35	136.19
490.568	149.19
490.786	138.19
491.003	137.19
491.221	153.19
491.439	152.19
491.657	138.19
491.874	153.19
492.092	128.19
492.31	159.19
492.527	130.19
492.745	151.19
492.963	148.19
493.18	169.19
493.398	134.19
493.615	144.19
493.833	165.19
494.05	166.19
494.268	155.19
494.485	157.19
494.703	140.19
494.92	142.19
495.138	136.19
495.355	159.19
495.573	149.19
495.79	143.19
496.008	149.19
496.225	159.19
496.442	154.19
496.66	152.19
496.877	145.19
497.094	152.19
497.312	152.19
497.529	149.19
497.746	156.19
497.963	126.19
498.181	168.19
498.398	150.19
498.615	143.19
498.832	152.19
499.049	174.19
499.267	174.19
499.484	179.19
499.701	174.19
499.918	179.19
500.135	200.19
500.352	213.19
500.569	223.19
500.786	197.19
501.003	199.19
501.22	194.19
501.437	185.19
501.654	171.19
501.871	154.19
502.088	169.19
502.305	169.19
502.522	152.19
502.739	159.19
502.956	150.19
503.172	152.19
503.389	142.19
503.606	158.19
503.823	141.19
504.04	151.19
504.256	149.19
504.473	138.19
504.69	136.19
504.907	157.19
505.123	150.19
