Data from 1968.PennyLincolnUp.Lamp.En5.5.200Scan.071719.P1._HRD10591_14-49-59-969.txt Node
Date: Thu Jul 18 14:49:59 EDT 2019
User: cochatt
Spectrometer: HR+D1059
Trigger mode: 1
Integration Time (sec): 1.000000E-1
Scans to average: 1
Electric dark correction enabled: true
Nonlinearity correction enabled: false
Boxcar width: 0
XAxis mode: Wavelengths
Number of Pixels in Spectrum: 2048
>>>>>Begin Spectral Data<<<<<
223.165	-17
223.4	-17
223.635	-17
223.869	4
224.104	-21
224.338	-18
224.573	-21
224.808	-20
225.042	-8
225.277	-10
225.511	0
225.746	-2
225.98	14
226.215	10
226.449	19
226.683	24
226.918	14
227.152	32
227.387	38
227.621	36
227.856	44
228.09	50
228.324	44
228.559	54
228.793	54
229.027	62
229.262	69
229.496	65
229.73	81
229.964	75
230.199	71
230.433	68
230.667	79
230.901	87
231.136	92
231.37	82
231.604	105
231.838	90
232.072	85
232.306	81
232.541	87
232.775	86
233.009	97
233.243	78
233.477	82
233.711	81
233.945	76
234.179	89
234.413	96
234.647	90
234.881	84
235.115	67
235.349	88
235.583	89
235.817	92
236.051	86
236.285	81
236.519	79
236.753	91
236.987	91
237.221	91
237.455	91
237.689	85
237.922	78
238.156	68
238.39	81
238.624	58
238.858	93
239.091	86
239.325	93
239.559	86
239.793	80
240.027	85
240.26	80
240.494	98
240.728	89
240.961	76
241.195	84
241.429	77
241.662	90
241.896	87
242.13	84
242.363	79
242.597	77
242.83	80
243.064	82
243.298	101
243.531	89
243.765	89
243.998	64
244.232	82
244.465	84
244.699	93
244.932	82
245.166	89
245.399	90
245.633	85
245.866	90
246.099	91
246.333	92
246.566	94
246.8	87
247.033	88
247.266	94
247.5	85
247.733	81
247.966	69
248.2	80
248.433	89
248.666	84
248.899	76
249.133	88
249.366	82
249.599	87
249.832	88
250.066	77
250.299	90
250.532	90
250.765	90
250.998	85
251.231	88
251.465	109
251.698	90
251.931	83
252.164	82
252.397	80
252.63	97
252.863	92
253.096	105
253.329	104
253.562	87
253.795	80
254.028	104
254.261	97
254.494	102
254.727	95
254.96	106
255.193	89
255.426	83
255.659	95
255.892	86
256.124	102
256.357	98
256.59	90
256.823	102
257.056	96
257.289	102
257.521	107
257.754	100
257.987	93
258.22	99
258.452	87
258.685	89
258.918	86
259.151	96
259.383	81
259.616	95
259.849	96
260.081	87
260.314	90
260.547	101
260.779	91
261.012	98
261.244	85
261.477	81
261.71	97
261.942	104
262.175	94
262.407	102
262.64	98
262.872	100
263.105	99
263.337	113
263.57	100
263.802	106
264.035	85
264.267	103
264.499	86
264.732	89
264.964	104
265.197	98
265.429	93
265.661	111
265.894	92
266.126	101
266.358	95
266.591	90
266.823	76
267.055	90
267.287	102
267.52	98
267.752	96
267.984	104
268.216	86
268.448	92
268.681	96
268.913	90
269.145	108
269.377	98
269.609	119
269.841	111
270.073	99
270.306	98
270.538	95
270.77	82
271.002	94
271.234	112
271.466	105
271.698	100
271.93	94
272.162	98
272.394	109
272.626	100
272.858	111
273.09	94
273.322	101
273.553	97
273.785	108
274.017	105
274.249	91
274.481	102
274.713	78
274.945	98
275.176	110
275.408	94
275.64	98
275.872	99
276.104	106
276.335	96
276.567	106
276.799	95
277.031	98
277.262	101
277.494	88
277.726	104
277.957	104
278.189	94
278.421	90
278.652	102
278.884	87
279.115	86
279.347	110
279.579	102
279.81	105
280.042	88
280.273	100
280.505	90
280.736	97
280.968	103
281.199	104
281.431	107
281.662	104
281.894	87
282.125	105
282.356	104
282.588	106
282.819	100
283.051	105
283.282	101
283.513	96
283.745	92
283.976	102
284.207	100
284.439	97
284.67	99
284.901	103
285.132	122
285.364	112
285.595	105
285.826	98
286.057	106
286.288	108
286.52	95
286.751	92
286.982	94
287.213	106
287.444	98
287.675	86
287.906	96
288.138	93
288.369	107
288.6	103
288.831	101
289.062	116
289.293	102
289.524	110
289.755	102
289.986	96
290.217	98
290.448	105
290.679	109
290.91	98
291.141	100
291.371	108
291.602	111
291.833	106
292.064	101
292.295	96
292.526	103
292.757	104
292.987	113
293.218	108
293.449	108
293.68	106
293.91	90
294.141	121
294.372	117
294.603	102
294.833	120
295.064	116
295.295	109
295.525	116
295.756	97
295.987	113
296.217	99
296.448	101
296.679	118
296.909	108
297.14	104
297.37	108
297.601	108
297.831	117
298.062	98
298.292	106
298.523	106
298.753	100
298.984	105
299.214	110
299.445	112
299.675	104
299.905	95
300.136	98
300.366	101
300.597	109
300.827	118
301.057	116
301.288	110
301.518	114
301.748	102
301.979	96
302.209	114
302.439	108
302.669	121
302.9	128
303.13	117
303.36	103
303.59	122
303.82	134
304.051	128
304.281	100
304.511	116
304.741	108
304.971	107
305.201	113
305.431	93
305.661	99
305.891	103
306.121	112
306.352	112
306.582	116
306.812	101
307.042	92
307.272	103
307.502	111
307.731	108
307.961	110
308.191	108
308.421	116
308.651	119
308.881	114
309.111	107
309.341	98
309.571	103
309.8	105
310.03	109
310.26	108
310.49	119
310.72	98
310.949	107
311.179	105
311.409	94
311.639	107
311.868	100
312.098	119
312.328	112
312.557	101
312.787	111
313.017	116
313.246	93
313.476	108
313.706	105
313.935	111
314.165	126
314.394	111
314.624	112
314.853	116
315.083	116
315.312	113
315.542	106
315.771	90
316.001	112
316.23	96
316.46	103
316.689	125
316.919	108
317.148	112
317.377	121
317.607	122
317.836	113
318.065	112
318.295	116
318.524	119
318.753	100
318.983	103
319.212	104
319.441	116
319.67	112
319.9	90
320.129	127
320.358	111
320.587	104
320.816	99
321.046	99
321.275	115
321.504	113
321.733	121
321.962	112
322.191	110
322.42	103
322.649	120
322.878	114
323.108	113
323.337	111
323.566	113
323.795	114
324.024	124
324.253	116
324.482	135
324.71	158
324.939	168
325.168	160
325.397	121
325.626	109
325.855	93
326.084	123
326.313	117
326.542	110
326.77	126
326.999	134
327.228	136
327.457	150
327.686	155
327.914	132
328.143	125
328.372	123
328.6	129
328.829	115
329.058	116
329.287	136
329.515	114
329.744	113
329.972	116
330.201	122
330.43	122
330.658	122
330.887	113
331.115	134
331.344	129
331.572	119
331.801	111
332.03	132
332.258	106
332.486	120
332.715	121
332.943	116
333.172	121
333.4	128
333.629	130
333.857	117
334.085	123
334.314	132
334.542	124
334.771	126
334.999	136
335.227	121
335.455	112
335.684	116
335.912	114
336.14	115
336.369	116
336.597	126
336.825	117
337.053	118
337.281	121
337.51	126
337.738	123
337.966	117
338.194	117
338.422	124
338.65	114
338.878	125
339.106	128
339.334	124
339.562	109
339.79	109
340.018	109
340.246	112
340.474	120
340.702	113
340.93	104
341.158	121
341.386	124
341.614	118
341.842	125
342.07	103
342.298	122
342.526	114
342.754	105
342.981	118
343.209	116
343.437	126
343.665	118
343.893	122
344.12	139
344.348	112
344.576	114
344.804	111
345.031	122
345.259	129
345.487	106
345.714	119
345.942	106
346.17	107
346.397	106
346.625	102
346.853	131
347.08	120
347.308	116
347.535	121
347.763	99
347.99	103
348.218	113
348.445	105
348.673	118
348.9	120
349.128	122
349.355	111
349.583	103
349.81	105
350.037	121
350.265	128
350.492	103
350.72	112
350.947	114
351.174	111
351.402	124
351.629	108
351.856	108
352.083	118
352.311	104
352.538	108
352.765	107
352.992	118
353.22	106
353.447	127
353.674	107
353.901	105
354.128	111
354.355	124
354.583	105
354.81	122
355.037	124
355.264	112
355.491	107
355.718	93
355.945	118
356.172	110
356.399	103
356.626	126
356.853	110
357.08	111
357.307	102
357.534	116
357.761	124
357.988	121
358.215	126
358.441	109
358.668	123
358.895	120
359.122	109
359.349	120
359.576	111
359.802	102
360.029	108
360.256	118
360.483	103
360.709	111
360.936	117
361.163	106
361.39	112
361.616	102
361.843	97
362.07	108
362.296	116
362.523	113
362.749	109
362.976	108
363.203	121
363.429	119
363.656	107
363.882	128
364.109	124
364.335	117
364.562	112
364.788	109
365.015	108
365.241	121
365.468	118
365.694	111
365.92	103
366.147	113
366.373	118
366.599	104
366.826	125
367.052	124
367.278	118
367.505	121
367.731	116
367.957	103
368.184	116
368.41	117
368.636	114
368.862	116
369.089	126
369.315	125
369.541	121
369.767	118
369.993	121
370.219	111
370.445	128
370.672	115
370.898	109
371.124	114
371.35	108
371.576	128
371.802	105
372.028	116
372.254	120
372.48	107
372.706	117
372.932	128
373.158	120
373.384	111
373.61	113
373.835	128
374.061	113
374.287	136
374.513	112
374.739	123
374.965	116
375.191	118
375.416	120
375.642	126
375.868	112
376.094	111
376.319	103
376.545	108
376.771	116
376.997	109
377.222	121
377.448	132
377.674	110
377.899	107
378.125	113
378.35	131
378.576	114
378.802	111
379.027	129
379.253	118
379.478	118
379.704	117
379.929	125
380.155	103
380.38	117
380.606	122
380.831	121
381.057	116
381.282	97
381.507	132
381.733	119
381.958	128
382.184	106
382.409	116
382.634	116
382.86	115
383.085	123
383.31	127
383.535	126
383.761	117
383.986	128
384.211	109
384.436	131
384.662	125
384.887	114
385.112	129
385.337	115
385.562	117
385.787	119
386.013	120
386.238	116
386.463	125
386.688	122
386.913	127
387.138	112
387.363	113
387.588	128
387.813	112
388.038	111
388.263	135
388.488	137
388.713	124
388.938	108
389.163	118
389.387	128
389.612	122
389.837	120
390.062	121
390.287	138
390.512	120
390.736	121
390.961	127
391.186	126
391.411	119
391.636	121
391.86	134
392.085	135
392.31	134
392.534	128
392.759	119
392.984	132
393.208	109
393.433	133
393.658	121
393.882	106
394.107	122
394.331	130
394.556	118
394.78	121
395.005	132
395.229	126
395.454	124
395.678	132
395.903	131
396.127	124
396.352	117
396.576	109
396.801	134
397.025	129
397.249	140
397.474	126
397.698	125
397.922	116
398.147	126
398.371	124
398.595	129
398.82	147
399.044	136
399.268	141
399.492	141
399.717	132
399.941	149
400.165	152
400.389	138
400.613	124
400.837	132
401.062	146
401.286	136
401.51	132
401.734	126
401.958	114
402.182	132
402.406	140
402.63	136
402.854	130
403.078	129
403.302	141
403.526	125
403.75	129
403.974	122
404.198	138
404.422	134
404.645	130
404.869	125
405.093	144
405.317	137
405.541	141
405.765	146
405.988	111
406.212	138
406.436	136
406.66	137
406.883	133
407.107	151
407.331	136
407.555	139
407.778	168
408.002	154
408.226	145
408.449	135
408.673	141
408.896	139
409.12	143
409.344	123
409.567	132
409.791	140
410.014	152
410.238	137
410.461	147
410.685	130
410.908	132
411.132	126
411.355	137
411.578	130
411.802	136
412.025	148
412.249	143
412.472	121
412.695	126
412.919	129
413.142	129
413.365	129
413.589	136
413.812	139
414.035	134
414.258	150
414.482	140
414.705	118
414.928	133
415.151	130
415.374	131
415.597	134
415.821	133
416.044	126
416.267	130
416.49	125
416.713	121
416.936	124
417.159	126
417.382	133
417.605	116
417.828	121
418.051	131
418.274	129
418.497	128
418.72	139
418.943	142
419.166	141
419.389	139
419.611	131
419.834	130
420.057	136
420.28	126
420.503	122
420.726	128
420.948	123
421.171	135
421.394	136
421.617	119
421.839	135
422.062	145
422.285	126
422.507	133
422.73	146
422.953	138
423.175	145
423.398	122
423.621	129
423.843	142
424.066	132
424.288	135
424.511	128
424.733	150
424.956	134
425.178	128
425.401	153
425.623	144
425.846	127
426.068	136
426.291	127
426.513	138
426.735	126
426.958	140
427.18	141
427.402	154
427.625	139
427.847	137
428.069	144
428.292	138
428.514	127
428.736	123
428.958	125
429.181	111
429.403	124
429.625	143
429.847	119
430.069	129
430.292	139
430.514	137
430.736	126
430.958	132
431.18	116
431.402	144
431.624	130
431.846	131
432.068	130
432.29	128
432.512	118
432.734	126
432.956	125
433.178	126
433.4	124
433.622	116
433.844	114
434.066	140
434.287	129
434.509	124
434.731	128
434.953	130
435.175	128
435.397	132
435.618	147
435.84	140
436.062	152
436.284	145
436.505	128
436.727	136
436.949	139
437.17	134
437.392	120
437.614	131
437.835	116
438.057	130
438.278	132
438.5	140
438.721	136
438.943	150
439.165	132
439.386	116
439.608	136
439.829	129
440.05	122
440.272	125
440.493	126
440.715	133
440.936	136
441.158	123
441.379	125
441.6	123
441.822	135
442.043	142
442.264	158
442.486	132
442.707	143
442.928	135
443.149	120
443.371	136
443.592	135
443.813	136
444.034	153
444.255	144
444.476	139
444.698	123
444.919	131
445.14	254
445.361	201
445.582	145
445.803	149
446.024	150
446.245	127
446.466	134
446.687	141
446.908	135
447.129	136
447.35	129
447.571	131
447.792	129
448.013	124
448.234	124
448.455	136
448.675	134
448.896	141
449.117	136
449.338	128
449.559	127
449.779	147
450	124
450.221	127
450.442	134
450.662	120
450.883	116
451.104	138
451.324	144
451.545	124
451.766	116
451.986	126
452.207	116
452.428	120
452.648	128
452.869	127
453.089	133
453.31	127
453.53	122
453.751	111
453.971	118
454.192	120
454.412	123
454.633	128
454.853	113
455.073	112
455.294	121
455.514	135
455.734	119
455.955	116
456.175	135
456.395	113
456.616	122
456.836	124
457.056	125
457.276	109
457.497	109
457.717	104
457.937	117
458.157	126
458.377	113
458.598	120
458.818	117
459.038	147
459.258	130
459.478	123
459.698	111
459.918	127
460.138	117
460.358	148
460.578	132
460.798	142
461.018	132
461.238	143
461.458	135
461.678	128
461.898	138
462.118	136
462.338	140
462.558	139
462.777	138
462.997	147
463.217	154
463.437	136
463.657	149
463.876	146
464.096	129
464.316	127
464.536	147
464.755	136
464.975	139
465.195	129
465.414	138
465.634	124
465.854	132
466.073	138
466.293	128
466.512	123
466.732	125
466.951	132
467.171	126
467.391	127
467.61	127
467.829	105
468.049	125
468.268	119
468.488	116
468.707	122
468.927	129
469.146	124
469.365	117
469.585	139
469.804	130
470.023	130
470.243	137
470.462	132
470.681	118
470.901	122
471.12	132
471.339	152
471.558	132
471.777	132
471.997	130
472.216	120
472.435	136
472.654	129
472.873	120
473.092	112
473.311	116
473.53	124
473.749	130
473.968	120
474.187	130
474.406	119
474.625	113
474.844	124
475.063	127
475.282	121
475.501	129
475.72	133
475.939	132
476.158	99
476.377	124
476.596	124
476.814	117
477.033	129
477.252	127
477.471	139
477.69	139
477.908	129
478.127	122
478.346	136
478.564	133
478.783	127
479.002	129
479.22	125
479.439	136
479.658	142
479.876	148
480.095	146
480.313	136
480.532	132
480.751	131
480.969	120
481.188	126
481.406	136
481.624	144
481.843	153
482.061	122
482.28	124
482.498	129
482.717	119
482.935	123
483.153	138
483.372	127
483.59	133
483.808	123
484.027	144
484.245	127
484.463	129
484.681	141
484.9	132
485.118	125
485.336	126
485.554	128
485.772	118
485.99	128
486.209	139
486.427	140
486.645	144
486.863	114
487.081	133
487.299	132
487.517	141
487.735	143
487.953	137
488.171	148
488.389	141
488.607	140
488.825	149
489.043	157
489.261	123
489.479	151
489.696	134
489.914	141
490.132	141
490.35	128
490.568	157
490.786	141
491.003	142
491.221	129
491.439	146
491.657	144
491.874	133
492.092	142
492.31	152
492.527	152
492.745	151
492.963	150
493.18	143
493.398	148
493.615	140
493.833	156
494.05	157
494.268	159
494.485	151
494.703	146
494.92	147
495.138	146
495.355	138
495.573	153
495.79	146
496.008	161
496.225	153
496.442	177
496.66	158
496.877	150
497.094	160
497.312	156
497.529	155
497.746	150
497.963	134
498.181	162
498.398	143
498.615	164
498.832	146
499.049	162
499.267	169
499.484	181
499.701	178
499.918	185
500.135	185
500.352	225
500.569	215
500.786	216
501.003	197
501.22	203
501.437	189
501.654	197
501.871	190
502.088	183
502.305	161
502.522	166
502.739	161
502.956	144
503.172	154
503.389	162
503.606	150
503.823	156
504.04	150
504.256	140
504.473	142
504.69	155
504.907	153
505.123	139
505.34	125
505.557	157
505.773	132
505.99	134
506.207	152
506.423	142
506.64	132
506.856	130
507.073	127
507.289	142
507.506	144
507.722	136
507.939	139
508.155	137
508.372	147
508.588	138
508.805	144
509.021	134
509.238	125
509.454	128
509.67	136
509.887	139
510.103	132
510.319	121
510.536	122
510.752	159
510.968	153
511.184	142
511.401	130
511.617	136
511.833	130
512.049	130
512.265	137
512.481	145
512.698	131
512.914	134
513.13	134
513.346	129
513.562	127
513.778	146
513.994	132
514.21	134
514.426	141
514.642	143
514.858	136
515.074	128
515.29	144
515.506	174
515.721	154
515.937	136
516.153	127
516.369	131
516.585	130
516.801	149
517.016	134
517.232	132
517.448	144
517.664	136
517.879	134
518.095	141
518.311	134
518.527	142
518.742	134
518.958	130
519.173	126
519.389	134
519.605	132
519.82	138
520.036	148
520.251	121
520.467	117
520.682	137
520.898	136
521.113	137
521.329	129
521.544	140
521.76	133
521.975	182
522.19	186
522.406	141
522.621	136
522.836	126
523.052	129
523.267	134
523.482	129
523.698	120
523.913	125
524.128	127
524.343	117
524.559	126
524.774	142
524.989	130
525.204	123
525.419	130
525.634	130
525.849	111
526.064	136
526.28	122
526.495	126
526.71	138
526.925	127
527.14	138
527.355	130
527.57	122
527.785	126
527.999	127
528.214	136
528.429	127
528.644	121
528.859	129
529.074	138
529.289	121
529.503	128
529.718	136
529.933	137
530.148	112
530.363	121
530.577	119
530.792	123
531.007	114
531.221	118
531.436	129
531.651	129
531.865	124
532.08	118
532.295	131
532.509	129
532.724	138
532.938	112
533.153	114
533.367	130
533.582	129
533.796	130
534.011	137
534.225	121
534.44	124
534.654	120
534.868	127
535.083	129
535.297	124
535.511	136
535.726	121
535.94	136
536.154	126
536.369	132
536.583	122
536.797	118
537.011	128
537.225	123
537.44	116
537.654	129
537.868	140
538.082	116
538.296	123
538.51	112
538.724	114
538.938	134
539.153	140
539.367	120
539.581	137
539.795	120
540.009	117
540.222	114
540.436	128
540.65	126
540.864	126
541.078	128
541.292	126
541.506	130
541.72	125
541.934	145
542.147	146
542.361	143
542.575	132
542.789	137
543.002	136
543.216	123
543.43	132
543.644	128
543.857	140
544.071	138
544.285	143
544.498	142
544.712	139
544.925	143
545.139	142
545.352	134
545.566	142
545.779	130
545.993	135
546.206	136
546.42	147
546.633	138
546.847	156
547.06	130
547.274	122
547.487	122
547.7	124
547.914	132
548.127	139
548.34	125
548.554	124
548.767	136
548.98	140
549.193	127
549.407	136
549.62	127
549.833	138
550.046	136
550.259	133
550.473	126
550.686	133
550.899	120
551.112	133
551.325	130
551.538	114
551.751	130
551.964	142
552.177	133
552.39	133
552.603	151
552.816	136
553.029	143
553.242	136
553.455	128
553.667	136
553.88	128
554.093	124
554.306	123
554.519	136
554.732	125
554.944	120
555.157	122
555.37	123
555.583	128
555.795	117
556.008	122
556.221	114
556.433	121
556.646	128
556.859	126
557.071	126
557.284	126
557.496	127
557.709	116
557.921	122
558.134	121
558.346	107
558.559	118
558.771	118
558.984	126
559.196	119
559.409	123
559.621	116
559.833	118
560.046	117
560.258	123
560.47	119
560.683	128
560.895	125
561.107	115
561.32	107
561.532	126
561.744	121
561.956	121
562.168	120
562.381	117
562.593	119
562.805	133
563.017	127
563.229	128
563.441	119
563.653	119
563.865	109
564.077	134
564.289	122
564.501	104
564.713	112
564.925	121
565.137	124
565.349	130
565.561	126
565.773	136
565.985	127
566.197	127
566.408	122
566.62	127
566.832	130
567.044	126
567.255	138
