Data from 1968.PennyLincolnUp.Lamp.En5.5.200Scan.071719.P1._HRD10591_14-52-21-970.txt Node
Date: Thu Jul 18 14:52:21 EDT 2019
User: cochatt
Spectrometer: HR+D1059
Trigger mode: 1
Integration Time (sec): 1.000000E-1
Scans to average: 1
Electric dark correction enabled: true
Nonlinearity correction enabled: false
Boxcar width: 0
XAxis mode: Wavelengths
Number of Pixels in Spectrum: 2048
>>>>>Begin Spectral Data<<<<<
223.165	-16.5
223.4	-16.5
223.635	-16.5
223.869	-21.5
224.104	-23.5
224.338	-8.5
224.573	-17.5
224.808	-16.5
225.042	-19.5
225.277	-7.5
225.511	14.5
225.746	6.5
225.98	14.5
226.215	20.5
226.449	9.5
226.683	9.5
226.918	24.5
227.152	31.5
227.387	37.5
227.621	36.5
227.856	33.5
228.09	44.5
228.324	47.5
228.559	69.5
228.793	67.5
229.027	69.5
229.262	75.5
229.496	78.5
229.73	77.5
229.964	79.5
230.199	68.5
230.433	67.5
230.667	72.5
230.901	72.5
231.136	81.5
231.37	72.5
231.604	87.5
231.838	97.5
232.072	78.5
232.306	92.5
232.541	89.5
232.775	95.5
233.009	83.5
233.243	86.5
233.477	77.5
233.711	87.5
233.945	99.5
234.179	71.5
234.413	84.5
234.647	89.5
234.881	92.5
235.115	86.5
235.349	96.5
235.583	81.5
235.817	70.5
236.051	93.5
236.285	79.5
236.519	87.5
236.753	85.5
236.987	80.5
237.221	87.5
237.455	85.5
237.689	92.5
237.922	79.5
238.156	80.5
238.39	76.5
238.624	81.5
238.858	93.5
239.091	88.5
239.325	81.5
239.559	80.5
239.793	86.5
240.027	87.5
240.26	88.5
240.494	82.5
240.728	91.5
240.961	77.5
241.195	81.5
241.429	73.5
241.662	89.5
241.896	73.5
242.13	90.5
242.363	74.5
242.597	84.5
242.83	86.5
243.064	90.5
243.298	96.5
243.531	99.5
243.765	82.5
243.998	102.5
244.232	98.5
244.465	86.5
244.699	93.5
244.932	87.5
245.166	77.5
245.399	79.5
245.633	97.5
245.866	79.5
246.099	90.5
246.333	74.5
246.566	79.5
246.8	81.5
247.033	81.5
247.266	106.5
247.5	89.5
247.733	96.5
247.966	81.5
248.2	83.5
248.433	91.5
248.666	97.5
248.899	79.5
249.133	85.5
249.366	92.5
249.599	99.5
249.832	81.5
250.066	94.5
250.299	86.5
250.532	75.5
250.765	83.5
250.998	94.5
251.231	84.5
251.465	91.5
251.698	86.5
251.931	101.5
252.164	88.5
252.397	82.5
252.63	89.5
252.863	87.5
253.096	93.5
253.329	105.5
253.562	87.5
253.795	75.5
254.028	80.5
254.261	97.5
254.494	78.5
254.727	89.5
254.96	98.5
255.193	96.5
255.426	97.5
255.659	83.5
255.892	84.5
256.124	89.5
256.357	92.5
256.59	88.5
256.823	101.5
257.056	81.5
257.289	93.5
257.521	101.5
257.754	74.5
257.987	88.5
258.22	91.5
258.452	64.5
258.685	75.5
258.918	86.5
259.151	84.5
259.383	89.5
259.616	97.5
259.849	88.5
260.081	100.5
260.314	80.5
260.547	93.5
260.779	83.5
261.012	67.5
261.244	91.5
261.477	96.5
261.71	81.5
261.942	89.5
262.175	101.5
262.407	79.5
262.64	96.5
262.872	101.5
263.105	101.5
263.337	100.5
263.57	97.5
263.802	96.5
264.035	94.5
264.267	101.5
264.499	80.5
264.732	93.5
264.964	93.5
265.197	101.5
265.429	97.5
265.661	92.5
265.894	109.5
266.126	95.5
266.358	74.5
266.591	98.5
266.823	90.5
267.055	93.5
267.287	89.5
267.52	90.5
267.752	95.5
267.984	113.5
268.216	109.5
268.448	84.5
268.681	100.5
268.913	91.5
269.145	84.5
269.377	104.5
269.609	92.5
269.841	102.5
270.073	104.5
270.306	87.5
270.538	112.5
270.77	114.5
271.002	100.5
271.234	101.5
271.466	89.5
271.698	104.5
271.93	101.5
272.162	108.5
272.394	95.5
272.626	104.5
272.858	99.5
273.09	106.5
273.322	93.5
273.553	94.5
273.785	95.5
274.017	109.5
274.249	99.5
274.481	89.5
274.713	101.5
274.945	100.5
275.176	93.5
275.408	112.5
275.64	107.5
275.872	98.5
276.104	89.5
276.335	97.5
276.567	98.5
276.799	87.5
277.031	96.5
277.262	93.5
277.494	100.5
277.726	98.5
277.957	104.5
278.189	89.5
278.421	109.5
278.652	96.5
278.884	92.5
279.115	82.5
279.347	107.5
279.579	99.5
279.81	96.5
280.042	104.5
280.273	103.5
280.505	93.5
280.736	100.5
280.968	95.5
281.199	86.5
281.431	85.5
281.662	92.5
281.894	98.5
282.125	102.5
282.356	104.5
282.588	104.5
282.819	98.5
283.051	103.5
283.282	101.5
283.513	110.5
283.745	100.5
283.976	109.5
284.207	101.5
284.439	105.5
284.67	96.5
284.901	101.5
285.132	107.5
285.364	97.5
285.595	110.5
285.826	103.5
286.057	104.5
286.288	89.5
286.52	104.5
286.751	110.5
286.982	92.5
287.213	96.5
287.444	106.5
287.675	93.5
287.906	103.5
288.138	106.5
288.369	103.5
288.6	107.5
288.831	98.5
289.062	105.5
289.293	112.5
289.524	104.5
289.755	108.5
289.986	107.5
290.217	100.5
290.448	104.5
290.679	103.5
290.91	109.5
291.141	88.5
291.371	97.5
291.602	104.5
291.833	112.5
292.064	97.5
292.295	102.5
292.526	94.5
292.757	100.5
292.987	97.5
293.218	116.5
293.449	103.5
293.68	107.5
293.91	106.5
294.141	99.5
294.372	110.5
294.603	101.5
294.833	110.5
295.064	106.5
295.295	112.5
295.525	95.5
295.756	104.5
295.987	97.5
296.217	105.5
296.448	104.5
296.679	104.5
296.909	96.5
297.14	107.5
297.37	126.5
297.601	98.5
297.831	115.5
298.062	107.5
298.292	105.5
298.523	115.5
298.753	99.5
298.984	103.5
299.214	108.5
299.445	103.5
299.675	112.5
299.905	96.5
300.136	107.5
300.366	105.5
300.597	96.5
300.827	102.5
301.057	111.5
301.288	105.5
301.518	106.5
301.748	106.5
301.979	118.5
302.209	99.5
302.439	104.5
302.669	93.5
302.9	107.5
303.13	110.5
303.36	121.5
303.59	115.5
303.82	100.5
304.051	99.5
304.281	103.5
304.511	127.5
304.741	112.5
304.971	99.5
305.201	107.5
305.431	120.5
305.661	103.5
305.891	101.5
306.121	97.5
306.352	90.5
306.582	115.5
306.812	108.5
307.042	94.5
307.272	99.5
307.502	88.5
307.731	112.5
307.961	91.5
308.191	96.5
308.421	106.5
308.651	105.5
308.881	93.5
309.111	109.5
309.341	106.5
309.571	109.5
309.8	103.5
310.03	106.5
310.26	102.5
310.49	116.5
310.72	104.5
310.949	110.5
311.179	108.5
311.409	84.5
311.639	104.5
311.868	120.5
312.098	115.5
312.328	115.5
312.557	118.5
312.787	117.5
313.017	110.5
313.246	108.5
313.476	93.5
313.706	98.5
313.935	99.5
314.165	104.5
314.394	110.5
314.624	120.5
314.853	110.5
315.083	112.5
315.312	107.5
315.542	112.5
315.771	109.5
316.001	107.5
316.23	122.5
316.46	93.5
316.689	107.5
316.919	110.5
317.148	102.5
317.377	98.5
317.607	113.5
317.836	109.5
318.065	102.5
318.295	108.5
318.524	105.5
318.753	110.5
318.983	84.5
319.212	109.5
319.441	105.5
319.67	122.5
319.9	112.5
320.129	113.5
320.358	119.5
320.587	111.5
320.816	94.5
321.046	82.5
321.275	111.5
321.504	120.5
321.733	108.5
321.962	104.5
322.191	102.5
322.42	99.5
322.649	143.5
322.878	127.5
323.108	118.5
323.337	102.5
323.566	100.5
323.795	125.5
324.024	126.5
324.253	124.5
324.482	125.5
324.71	158.5
324.939	189.5
325.168	159.5
325.397	123.5
325.626	119.5
325.855	104.5
326.084	125.5
326.313	112.5
326.542	123.5
326.77	121.5
326.999	119.5
327.228	138.5
327.457	155.5
327.686	164.5
327.914	135.5
328.143	121.5
328.372	121.5
328.6	119.5
328.829	116.5
329.058	108.5
329.287	99.5
329.515	118.5
329.744	123.5
329.972	120.5
330.201	109.5
330.43	99.5
330.658	121.5
330.887	109.5
331.115	111.5
331.344	106.5
331.572	113.5
331.801	102.5
332.03	122.5
332.258	94.5
332.486	107.5
332.715	123.5
332.943	111.5
333.172	113.5
333.4	129.5
333.629	113.5
333.857	102.5
334.085	122.5
334.314	130.5
334.542	112.5
334.771	125.5
334.999	123.5
335.227	112.5
335.455	115.5
335.684	113.5
335.912	112.5
336.14	111.5
336.369	104.5
336.597	120.5
336.825	111.5
337.053	109.5
337.281	110.5
337.51	127.5
337.738	111.5
337.966	116.5
338.194	125.5
338.422	108.5
338.65	123.5
338.878	106.5
339.106	128.5
339.334	104.5
339.562	114.5
339.79	101.5
340.018	113.5
340.246	105.5
340.474	116.5
340.702	117.5
340.93	99.5
341.158	116.5
341.386	113.5
341.614	112.5
341.842	100.5
342.07	124.5
342.298	116.5
342.526	105.5
342.754	113.5
342.981	108.5
343.209	99.5
343.437	126.5
343.665	117.5
343.893	114.5
344.12	125.5
344.348	122.5
344.576	114.5
344.804	118.5
345.031	100.5
345.259	99.5
345.487	110.5
345.714	115.5
345.942	115.5
346.17	96.5
346.397	116.5
346.625	116.5
346.853	109.5
347.08	105.5
347.308	104.5
347.535	121.5
347.763	127.5
347.99	116.5
348.218	123.5
348.445	112.5
348.673	129.5
348.9	109.5
349.128	127.5
349.355	111.5
349.583	110.5
349.81	108.5
350.037	106.5
350.265	112.5
350.492	116.5
350.72	107.5
350.947	121.5
351.174	112.5
351.402	106.5
351.629	107.5
351.856	106.5
352.083	119.5
352.311	108.5
352.538	104.5
352.765	107.5
352.992	107.5
353.22	109.5
353.447	111.5
353.674	103.5
353.901	125.5
354.128	113.5
354.355	107.5
354.583	110.5
354.81	100.5
355.037	111.5
355.264	115.5
355.491	112.5
355.718	107.5
355.945	114.5
356.172	115.5
356.399	116.5
356.626	107.5
356.853	109.5
357.08	94.5
357.307	97.5
357.534	106.5
357.761	102.5
357.988	112.5
358.215	113.5
358.441	107.5
358.668	112.5
358.895	103.5
359.122	105.5
359.349	120.5
359.576	125.5
359.802	99.5
360.029	97.5
360.256	115.5
360.483	119.5
360.709	112.5
360.936	125.5
361.163	93.5
361.39	101.5
361.616	108.5
361.843	91.5
362.07	120.5
362.296	122.5
362.523	121.5
362.749	119.5
362.976	112.5
363.203	103.5
363.429	118.5
363.656	104.5
363.882	106.5
364.109	110.5
364.335	113.5
364.562	109.5
364.788	103.5
365.015	96.5
365.241	111.5
365.468	109.5
365.694	119.5
365.92	119.5
366.147	102.5
366.373	97.5
366.599	109.5
366.826	116.5
367.052	124.5
367.278	122.5
367.505	120.5
367.731	107.5
367.957	111.5
368.184	105.5
368.41	102.5
368.636	103.5
368.862	102.5
369.089	108.5
369.315	109.5
369.541	129.5
369.767	107.5
369.993	117.5
370.219	96.5
370.445	99.5
370.672	106.5
370.898	115.5
371.124	115.5
371.35	113.5
371.576	119.5
371.802	113.5
372.028	94.5
372.254	113.5
372.48	109.5
372.706	117.5
372.932	107.5
373.158	119.5
373.384	96.5
373.61	110.5
373.835	107.5
374.061	102.5
374.287	112.5
374.513	108.5
374.739	104.5
374.965	118.5
375.191	105.5
375.416	106.5
375.642	114.5
375.868	112.5
376.094	112.5
376.319	121.5
376.545	115.5
376.771	126.5
376.997	113.5
377.222	122.5
377.448	119.5
377.674	110.5
377.899	121.5
378.125	97.5
378.35	108.5
378.576	101.5
378.802	101.5
379.027	100.5
379.253	97.5
379.478	112.5
379.704	116.5
379.929	110.5
380.155	129.5
380.38	115.5
380.606	119.5
380.831	127.5
381.057	119.5
381.282	124.5
381.507	115.5
381.733	119.5
381.958	116.5
382.184	106.5
382.409	125.5
382.634	103.5
382.86	123.5
383.085	127.5
383.31	120.5
383.535	109.5
383.761	105.5
383.986	120.5
384.211	123.5
384.436	112.5
384.662	117.5
384.887	113.5
385.112	114.5
385.337	128.5
385.562	123.5
385.787	102.5
386.013	132.5
386.238	123.5
386.463	120.5
386.688	125.5
386.913	110.5
387.138	116.5
387.363	115.5
387.588	124.5
387.813	104.5
388.038	107.5
388.263	116.5
388.488	115.5
388.713	99.5
388.938	110.5
389.163	117.5
389.387	102.5
389.612	131.5
389.837	118.5
390.062	115.5
390.287	112.5
390.512	107.5
390.736	120.5
390.961	115.5
391.186	109.5
391.411	136.5
391.636	127.5
391.86	124.5
392.085	129.5
392.31	122.5
392.534	123.5
392.759	116.5
392.984	125.5
393.208	122.5
393.433	125.5
393.658	116.5
393.882	124.5
394.107	126.5
394.331	106.5
394.556	125.5
394.78	127.5
395.005	124.5
395.229	120.5
395.454	127.5
395.678	115.5
395.903	127.5
396.127	125.5
396.352	125.5
396.576	112.5
396.801	115.5
397.025	129.5
397.249	127.5
397.474	118.5
397.698	115.5
397.922	127.5
398.147	110.5
398.371	124.5
398.595	120.5
398.82	118.5
399.044	116.5
399.268	127.5
399.492	152.5
399.717	139.5
399.941	151.5
400.165	135.5
400.389	127.5
400.613	143.5
400.837	132.5
401.062	133.5
401.286	122.5
401.51	123.5
401.734	121.5
401.958	131.5
402.182	106.5
402.406	123.5
402.63	126.5
402.854	127.5
403.078	144.5
403.302	124.5
403.526	127.5
403.75	135.5
403.974	128.5
404.198	124.5
404.422	137.5
404.645	126.5
404.869	125.5
405.093	128.5
405.317	137.5
405.541	132.5
405.765	130.5
405.988	123.5
406.212	153.5
406.436	147.5
406.66	131.5
406.883	131.5
407.107	128.5
407.331	156.5
407.555	132.5
407.778	149.5
408.002	141.5
408.226	139.5
408.449	130.5
408.673	145.5
408.896	135.5
409.12	121.5
409.344	127.5
409.567	127.5
409.791	120.5
410.014	125.5
410.238	112.5
410.461	128.5
410.685	120.5
410.908	128.5
411.132	138.5
411.355	142.5
411.578	127.5
411.802	125.5
412.025	137.5
412.249	142.5
412.472	137.5
412.695	124.5
412.919	133.5
413.142	151.5
413.365	139.5
413.589	119.5
413.812	137.5
414.035	124.5
414.258	115.5
414.482	124.5
414.705	117.5
414.928	135.5
415.151	123.5
415.374	134.5
415.597	136.5
415.821	132.5
416.044	132.5
416.267	125.5
416.49	142.5
416.713	110.5
416.936	135.5
417.159	135.5
417.382	142.5
417.605	136.5
417.828	137.5
418.051	131.5
418.274	139.5
418.497	128.5
418.72	124.5
418.943	128.5
419.166	125.5
419.389	128.5
419.611	127.5
419.834	130.5
420.057	131.5
420.28	129.5
420.503	127.5
420.726	135.5
420.948	133.5
421.171	123.5
421.394	130.5
421.617	142.5
421.839	132.5
422.062	150.5
422.285	137.5
422.507	126.5
422.73	152.5
422.953	128.5
423.175	137.5
423.398	137.5
423.621	128.5
423.843	139.5
424.066	137.5
424.288	139.5
424.511	134.5
424.733	152.5
424.956	128.5
425.178	139.5
425.401	141.5
425.623	117.5
425.846	140.5
426.068	125.5
426.291	135.5
426.513	120.5
426.735	137.5
426.958	125.5
427.18	131.5
427.402	151.5
427.625	144.5
427.847	129.5
428.069	132.5
428.292	117.5
428.514	108.5
428.736	129.5
428.958	126.5
429.181	137.5
429.403	122.5
429.625	105.5
429.847	135.5
430.069	139.5
430.292	137.5
430.514	134.5
430.736	127.5
430.958	128.5
431.18	120.5
431.402	127.5
431.624	129.5
431.846	125.5
432.068	126.5
432.29	122.5
432.512	129.5
432.734	127.5
432.956	129.5
433.178	132.5
433.4	141.5
433.622	123.5
433.844	127.5
434.066	127.5
434.287	123.5
434.509	129.5
434.731	117.5
434.953	134.5
435.175	125.5
435.397	135.5
435.618	133.5
435.84	126.5
436.062	156.5
436.284	139.5
436.505	144.5
436.727	126.5
436.949	134.5
437.17	127.5
437.392	131.5
437.614	131.5
437.835	129.5
438.057	140.5
438.278	128.5
438.5	133.5
438.721	149.5
438.943	137.5
439.165	134.5
439.386	140.5
439.608	119.5
439.829	119.5
440.05	136.5
440.272	147.5
440.493	129.5
440.715	132.5
440.936	135.5
441.158	127.5
441.379	128.5
441.6	130.5
441.822	129.5
442.043	124.5
442.264	135.5
442.486	142.5
442.707	126.5
442.928	138.5
443.149	133.5
443.371	149.5
443.592	129.5
443.813	142.5
444.034	131.5
444.255	131.5
444.476	144.5
444.698	126.5
444.919	130.5
445.14	209.5
445.361	181.5
445.582	133.5
445.803	142.5
446.024	151.5
446.245	131.5
446.466	143.5
446.687	134.5
446.908	124.5
447.129	118.5
447.35	128.5
447.571	123.5
447.792	95.5
448.013	120.5
448.234	126.5
448.455	111.5
448.675	150.5
448.896	151.5
449.117	126.5
449.338	134.5
449.559	142.5
449.779	140.5
450	138.5
450.221	127.5
450.442	129.5
450.662	120.5
450.883	137.5
451.104	129.5
451.324	125.5
451.545	120.5
451.766	120.5
451.986	131.5
452.207	116.5
452.428	110.5
452.648	111.5
452.869	107.5
453.089	124.5
453.31	127.5
453.53	121.5
453.751	115.5
453.971	117.5
454.192	117.5
454.412	129.5
454.633	121.5
454.853	119.5
455.073	127.5
455.294	122.5
455.514	119.5
455.734	132.5
455.955	122.5
456.175	140.5
456.395	123.5
456.616	116.5
456.836	128.5
457.056	117.5
457.276	125.5
457.497	117.5
457.717	136.5
457.937	112.5
458.157	112.5
458.377	100.5
458.598	124.5
458.818	117.5
459.038	103.5
459.258	123.5
459.478	113.5
459.698	126.5
459.918	113.5
460.138	119.5
460.358	133.5
460.578	123.5
460.798	116.5
461.018	131.5
461.238	123.5
461.458	125.5
461.678	135.5
461.898	122.5
462.118	116.5
462.338	121.5
462.558	126.5
462.777	144.5
462.997	131.5
463.217	143.5
463.437	137.5
463.657	136.5
463.876	126.5
464.096	134.5
464.316	128.5
464.536	135.5
464.755	133.5
464.975	126.5
465.195	128.5
465.414	124.5
465.634	124.5
465.854	125.5
466.073	125.5
466.293	120.5
466.512	123.5
466.732	131.5
466.951	129.5
467.171	125.5
467.391	120.5
467.61	125.5
467.829	115.5
468.049	128.5
468.268	115.5
468.488	107.5
468.707	122.5
468.927	122.5
469.146	120.5
469.365	131.5
469.585	131.5
469.804	121.5
470.023	128.5
470.243	127.5
470.462	115.5
470.681	124.5
470.901	118.5
471.12	137.5
471.339	118.5
471.558	133.5
471.777	122.5
471.997	131.5
472.216	105.5
472.435	133.5
472.654	118.5
472.873	120.5
473.092	110.5
473.311	117.5
473.53	106.5
473.749	113.5
473.968	128.5
474.187	125.5
474.406	138.5
474.625	117.5
474.844	119.5
475.063	121.5
475.282	115.5
475.501	121.5
475.72	113.5
475.939	113.5
476.158	121.5
476.377	124.5
476.596	119.5
476.814	117.5
477.033	128.5
477.252	136.5
477.471	120.5
477.69	133.5
477.908	111.5
478.127	137.5
478.346	135.5
478.564	121.5
478.783	123.5
479.002	117.5
479.22	129.5
479.439	128.5
479.658	141.5
479.876	140.5
480.095	126.5
480.313	131.5
480.532	127.5
480.751	144.5
480.969	128.5
481.188	151.5
481.406	125.5
481.624	133.5
481.843	136.5
482.061	117.5
482.28	123.5
482.498	122.5
482.717	127.5
482.935	131.5
483.153	131.5
483.372	129.5
483.59	128.5
483.808	136.5
484.027	128.5
484.245	130.5
484.463	121.5
484.681	132.5
484.9	135.5
485.118	134.5
485.336	126.5
485.554	124.5
485.772	140.5
485.99	137.5
486.209	140.5
486.427	142.5
486.645	140.5
486.863	133.5
487.081	139.5
487.299	129.5
487.517	119.5
487.735	138.5
487.953	141.5
488.171	122.5
488.389	136.5
488.607	127.5
488.825	114.5
489.043	121.5
489.261	135.5
489.479	136.5
489.696	130.5
489.914	139.5
490.132	141.5
490.35	147.5
490.568	142.5
490.786	150.5
491.003	141.5
491.221	135.5
491.439	131.5
491.657	127.5
491.874	141.5
492.092	164.5
492.31	151.5
492.527	152.5
492.745	151.5
492.963	157.5
493.18	127.5
493.398	146.5
493.615	159.5
493.833	145.5
494.05	136.5
494.268	124.5
494.485	151.5
494.703	141.5
494.92	127.5
495.138	122.5
495.355	141.5
495.573	142.5
495.79	160.5
496.008	161.5
496.225	145.5
496.442	153.5
496.66	159.5
496.877	148.5
497.094	152.5
497.312	133.5
497.529	151.5
497.746	155.5
497.963	153.5
498.181	159.5
498.398	161.5
498.615	167.5
498.832	164.5
499.049	171.5
499.267	167.5
499.484	167.5
499.701	193.5
499.918	196.5
500.135	181.5
500.352	212.5
500.569	199.5
500.786	203.5
501.003	195.5
501.22	188.5
501.437	201.5
501.654	187.5
501.871	161.5
502.088	174.5
502.305	167.5
502.522	149.5
502.739	139.5
502.956	140.5
503.172	147.5
503.389	149.5
503.606	133.5
503.823	122.5
504.04	141.5
504.256	135.5
504.473	143.5
504.69	148.5
504.907	141.5
505.123	149.5
505.34	151.5
505.557	131.5
505.773	147.5
505.99	140.5
506.207	133.5
506.423	137.5
506.64	123.5
506.856	123.5
507.073	130.5
507.289	126.5
507.506	129.5
507.722	128.5
507.939	128.5
508.155	133.5
508.372	135.5
508.588	117.5
508.805	128.5
509.021	123.5
509.238	132.5
509.454	125.5
509.67	134.5
509.887	123.5
510.103	128.5
510.319	126.5
510.536	138.5
510.752	170.5
510.968	152.5
511.184	125.5
511.401	126.5
511.617	135.5
511.833	124.5
512.049	119.5
512.265	119.5
512.481	119.5
512.698	121.5
512.914	124.5
513.13	117.5
513.346	121.5
513.562	122.5
513.778	131.5
513.994	129.5
514.21	122.5
514.426	125.5
514.642	116.5
514.858	123.5
515.074	141.5
515.29	145.5
515.506	156.5
515.721	143.5
515.937	123.5
516.153	129.5
516.369	125.5
516.585	141.5
516.801	140.5
517.016	132.5
517.232	150.5
517.448	141.5
517.664	145.5
517.879	142.5
518.095	126.5
518.311	148.5
518.527	128.5
518.742	132.5
518.958	135.5
519.173	137.5
519.389	145.5
519.605	130.5
519.82	114.5
520.036	125.5
520.251	131.5
520.467	132.5
520.682	128.5
520.898	130.5
521.113	119.5
521.329	121.5
521.544	137.5
521.76	146.5
521.975	183.5
522.19	180.5
522.406	132.5
522.621	129.5
522.836	120.5
523.052	126.5
523.267	119.5
523.482	109.5
523.698	108.5
