Data from 1968.PennyLincolnUp.Lamp.En5.5.200Scan.071719.P1._HRD10591_14-50-45-970.txt Node
Date: Thu Jul 18 14:50:45 EDT 2019
User: cochatt
Spectrometer: HR+D1059
Trigger mode: 1
Integration Time (sec): 1.000000E-1
Scans to average: 1
Electric dark correction enabled: true
Nonlinearity correction enabled: false
Boxcar width: 0
XAxis mode: Wavelengths
Number of Pixels in Spectrum: 2048
>>>>>Begin Spectral Data<<<<<
223.165	-9.44
223.4	-9.44
223.635	-9.44
223.869	-21.44
224.104	-11.44
224.338	-6.44
224.573	-7.44
224.808	-23.44
225.042	-21.44
225.277	2.56
225.511	-6.44
225.746	-3.44
225.98	5.56
226.215	12.56
226.449	14.56
226.683	19.56
226.918	20.56
227.152	35.56
227.387	37.56
227.621	29.56
227.856	41.56
228.09	39.56
228.324	51.56
228.559	49.56
228.793	57.56
229.027	61.56
229.262	67.56
229.496	65.56
229.73	78.56
229.964	76.56
230.199	54.56
230.433	75.56
230.667	63.56
230.901	78.56
231.136	76.56
231.37	74.56
231.604	84.56
231.838	92.56
232.072	84.56
232.306	101.56
232.541	87.56
232.775	96.56
233.009	88.56
233.243	84.56
233.477	100.56
233.711	96.56
233.945	89.56
234.179	99.56
234.413	76.56
234.647	85.56
234.881	85.56
235.115	71.56
235.349	87.56
235.583	81.56
235.817	70.56
236.051	80.56
236.285	63.56
236.519	93.56
236.753	75.56
236.987	82.56
237.221	77.56
237.455	80.56
237.689	84.56
237.922	72.56
238.156	90.56
238.39	84.56
238.624	76.56
238.858	72.56
239.091	81.56
239.325	90.56
239.559	78.56
239.793	83.56
240.027	90.56
240.26	86.56
240.494	94.56
240.728	88.56
240.961	93.56
241.195	88.56
241.429	90.56
241.662	78.56
241.896	98.56
242.13	93.56
242.363	81.56
242.597	85.56
242.83	78.56
243.064	84.56
243.298	100.56
243.531	78.56
243.765	87.56
243.998	89.56
244.232	85.56
244.465	78.56
244.699	93.56
244.932	90.56
245.166	90.56
245.399	75.56
245.633	89.56
245.866	90.56
246.099	83.56
246.333	79.56
246.566	85.56
246.8	85.56
247.033	80.56
247.266	92.56
247.5	83.56
247.733	88.56
247.966	99.56
248.2	73.56
248.433	75.56
248.666	81.56
248.899	83.56
249.133	88.56
249.366	87.56
249.599	79.56
249.832	81.56
250.066	77.56
250.299	86.56
250.532	90.56
250.765	84.56
250.998	81.56
251.231	85.56
251.465	77.56
251.698	80.56
251.931	78.56
252.164	97.56
252.397	76.56
252.63	84.56
252.863	97.56
253.096	87.56
253.329	92.56
253.562	80.56
253.795	103.56
254.028	94.56
254.261	77.56
254.494	97.56
254.727	90.56
254.96	88.56
255.193	85.56
255.426	93.56
255.659	70.56
255.892	86.56
256.124	97.56
256.357	87.56
256.59	98.56
256.823	95.56
257.056	89.56
257.289	88.56
257.521	91.56
257.754	98.56
257.987	81.56
258.22	90.56
258.452	76.56
258.685	69.56
258.918	97.56
259.151	104.56
259.383	95.56
259.616	70.56
259.849	95.56
260.081	100.56
260.314	86.56
260.547	84.56
260.779	85.56
261.012	100.56
261.244	71.56
261.477	87.56
261.71	89.56
261.942	98.56
262.175	91.56
262.407	86.56
262.64	94.56
262.872	91.56
263.105	81.56
263.337	97.56
263.57	91.56
263.802	100.56
264.035	103.56
264.267	91.56
264.499	96.56
264.732	79.56
264.964	89.56
265.197	96.56
265.429	102.56
265.661	91.56
265.894	105.56
266.126	98.56
266.358	93.56
266.591	95.56
266.823	79.56
267.055	103.56
267.287	111.56
267.52	96.56
267.752	86.56
267.984	113.56
268.216	93.56
268.448	92.56
268.681	89.56
268.913	99.56
269.145	79.56
269.377	97.56
269.609	84.56
269.841	100.56
270.073	89.56
270.306	93.56
270.538	86.56
270.77	101.56
271.002	102.56
271.234	95.56
271.466	95.56
271.698	83.56
271.93	104.56
272.162	96.56
272.394	87.56
272.626	84.56
272.858	97.56
273.09	86.56
273.322	100.56
273.553	86.56
273.785	101.56
274.017	110.56
274.249	78.56
274.481	94.56
274.713	81.56
274.945	116.56
275.176	95.56
275.408	83.56
275.64	94.56
275.872	92.56
276.104	98.56
276.335	111.56
276.567	96.56
276.799	112.56
277.031	99.56
277.262	105.56
277.494	94.56
277.726	100.56
277.957	93.56
278.189	96.56
278.421	81.56
278.652	91.56
278.884	80.56
279.115	98.56
279.347	88.56
279.579	112.56
279.81	98.56
280.042	103.56
280.273	105.56
280.505	98.56
280.736	88.56
280.968	79.56
281.199	92.56
281.431	96.56
281.662	93.56
281.894	96.56
282.125	94.56
282.356	97.56
282.588	102.56
282.819	93.56
283.051	94.56
283.282	97.56
283.513	100.56
283.745	93.56
283.976	89.56
284.207	98.56
284.439	98.56
284.67	108.56
284.901	91.56
285.132	81.56
285.364	102.56
285.595	96.56
285.826	106.56
286.057	103.56
286.288	104.56
286.52	106.56
286.751	122.56
286.982	101.56
287.213	91.56
287.444	95.56
287.675	101.56
287.906	99.56
288.138	97.56
288.369	97.56
288.6	108.56
288.831	103.56
289.062	97.56
289.293	105.56
289.524	115.56
289.755	98.56
289.986	100.56
290.217	105.56
290.448	101.56
290.679	93.56
290.91	114.56
291.141	104.56
291.371	97.56
291.602	104.56
291.833	101.56
292.064	99.56
292.295	105.56
292.526	90.56
292.757	99.56
292.987	111.56
293.218	110.56
293.449	107.56
293.68	113.56
293.91	113.56
294.141	103.56
294.372	106.56
294.603	95.56
294.833	107.56
295.064	106.56
295.295	105.56
295.525	92.56
295.756	88.56
295.987	90.56
296.217	92.56
296.448	105.56
296.679	107.56
296.909	104.56
297.14	109.56
297.37	102.56
297.601	105.56
297.831	108.56
298.062	105.56
298.292	109.56
298.523	104.56
298.753	100.56
298.984	109.56
299.214	96.56
299.445	94.56
299.675	112.56
299.905	93.56
300.136	109.56
300.366	93.56
300.597	111.56
300.827	100.56
301.057	104.56
301.288	108.56
301.518	105.56
301.748	112.56
301.979	96.56
302.209	90.56
302.439	101.56
302.669	98.56
302.9	116.56
303.13	103.56
303.36	98.56
303.59	98.56
303.82	93.56
304.051	99.56
304.281	115.56
304.511	114.56
304.741	111.56
304.971	112.56
305.201	112.56
305.431	109.56
305.661	90.56
305.891	110.56
306.121	114.56
306.352	105.56
306.582	107.56
306.812	107.56
307.042	97.56
307.272	97.56
307.502	96.56
307.731	106.56
307.961	112.56
308.191	110.56
308.421	116.56
308.651	116.56
308.881	108.56
309.111	106.56
309.341	106.56
309.571	118.56
309.8	113.56
310.03	106.56
310.26	121.56
310.49	114.56
310.72	116.56
310.949	109.56
311.179	108.56
311.409	113.56
311.639	110.56
311.868	112.56
312.098	111.56
312.328	106.56
312.557	100.56
312.787	96.56
313.017	110.56
313.246	112.56
313.476	114.56
313.706	103.56
313.935	112.56
314.165	107.56
314.394	114.56
314.624	112.56
314.853	112.56
315.083	103.56
315.312	90.56
315.542	95.56
315.771	94.56
316.001	105.56
316.23	106.56
316.46	101.56
316.689	114.56
316.919	104.56
317.148	100.56
317.377	124.56
317.607	118.56
317.836	108.56
318.065	97.56
318.295	115.56
318.524	107.56
318.753	109.56
318.983	107.56
319.212	108.56
319.441	112.56
319.67	98.56
319.9	102.56
320.129	109.56
320.358	105.56
320.587	100.56
320.816	110.56
321.046	110.56
321.275	113.56
321.504	104.56
321.733	114.56
321.962	99.56
322.191	92.56
322.42	105.56
322.649	117.56
322.878	122.56
323.108	103.56
323.337	108.56
323.566	106.56
323.795	110.56
324.024	124.56
324.253	122.56
324.482	139.56
324.71	158.56
324.939	189.56
325.168	153.56
325.397	127.56
325.626	136.56
325.855	109.56
326.084	118.56
326.313	116.56
326.542	106.56
326.77	120.56
326.999	122.56
327.228	137.56
327.457	162.56
327.686	170.56
327.914	132.56
328.143	132.56
328.372	120.56
328.6	118.56
328.829	119.56
329.058	124.56
329.287	118.56
329.515	111.56
329.744	113.56
329.972	110.56
330.201	118.56
330.43	117.56
330.658	107.56
330.887	118.56
331.115	109.56
331.344	111.56
331.572	104.56
331.801	121.56
332.03	120.56
332.258	123.56
332.486	113.56
332.715	108.56
332.943	124.56
333.172	123.56
333.4	103.56
333.629	116.56
333.857	108.56
334.085	122.56
334.314	114.56
334.542	121.56
334.771	122.56
334.999	105.56
335.227	116.56
335.455	126.56
335.684	100.56
335.912	126.56
336.14	111.56
336.369	114.56
336.597	110.56
336.825	117.56
337.053	109.56
337.281	122.56
337.51	122.56
337.738	109.56
337.966	105.56
338.194	101.56
338.422	115.56
338.65	100.56
338.878	109.56
339.106	121.56
339.334	104.56
339.562	109.56
339.79	117.56
340.018	122.56
340.246	113.56
340.474	109.56
340.702	115.56
340.93	102.56
341.158	101.56
341.386	102.56
341.614	114.56
341.842	114.56
342.07	109.56
342.298	116.56
342.526	112.56
342.754	115.56
342.981	124.56
343.209	104.56
343.437	122.56
343.665	114.56
343.893	100.56
344.12	125.56
344.348	114.56
344.576	124.56
344.804	101.56
345.031	112.56
345.259	118.56
345.487	116.56
345.714	116.56
345.942	113.56
346.17	122.56
346.397	118.56
346.625	109.56
346.853	104.56
347.08	125.56
347.308	109.56
347.535	120.56
347.763	109.56
347.99	122.56
348.218	125.56
348.445	116.56
348.673	104.56
348.9	109.56
349.128	113.56
349.355	109.56
349.583	97.56
349.81	98.56
350.037	118.56
350.265	105.56
350.492	125.56
350.72	114.56
350.947	98.56
351.174	120.56
351.402	132.56
351.629	134.56
351.856	108.56
352.083	103.56
352.311	121.56
352.538	114.56
352.765	114.56
352.992	106.56
353.22	100.56
353.447	112.56
353.674	103.56
353.901	120.56
354.128	108.56
354.355	113.56
354.583	114.56
354.81	118.56
355.037	128.56
355.264	117.56
355.491	106.56
355.718	126.56
355.945	108.56
356.172	117.56
356.399	110.56
356.626	112.56
356.853	111.56
357.08	116.56
357.307	120.56
357.534	114.56
357.761	107.56
357.988	123.56
358.215	118.56
358.441	108.56
358.668	97.56
358.895	102.56
359.122	100.56
359.349	102.56
359.576	112.56
359.802	109.56
360.029	115.56
360.256	128.56
360.483	114.56
360.709	115.56
360.936	120.56
361.163	99.56
361.39	108.56
361.616	116.56
361.843	96.56
362.07	108.56
362.296	113.56
362.523	108.56
362.749	112.56
362.976	120.56
363.203	129.56
363.429	114.56
363.656	119.56
363.882	107.56
364.109	137.56
364.335	123.56
364.562	104.56
364.788	104.56
365.015	100.56
365.241	106.56
365.468	114.56
365.694	98.56
365.92	114.56
366.147	113.56
366.373	104.56
366.599	102.56
366.826	104.56
367.052	106.56
367.278	109.56
367.505	104.56
367.731	113.56
367.957	102.56
368.184	97.56
368.41	117.56
368.636	104.56
368.862	112.56
369.089	120.56
369.315	105.56
369.541	116.56
369.767	107.56
369.993	120.56
370.219	114.56
370.445	120.56
370.672	112.56
370.898	115.56
371.124	113.56
371.35	96.56
371.576	110.56
371.802	112.56
372.028	108.56
372.254	100.56
372.48	113.56
372.706	109.56
372.932	116.56
373.158	112.56
373.384	97.56
373.61	114.56
373.835	118.56
374.061	102.56
374.287	114.56
374.513	112.56
374.739	127.56
374.965	120.56
375.191	122.56
375.416	115.56
375.642	128.56
375.868	120.56
376.094	95.56
376.319	113.56
376.545	102.56
376.771	113.56
376.997	128.56
377.222	111.56
377.448	117.56
377.674	110.56
377.899	106.56
378.125	107.56
378.35	120.56
378.576	92.56
378.802	103.56
379.027	116.56
379.253	114.56
379.478	126.56
379.704	120.56
379.929	116.56
380.155	104.56
380.38	118.56
380.606	96.56
380.831	116.56
381.057	126.56
381.282	114.56
381.507	117.56
381.733	116.56
381.958	113.56
382.184	112.56
382.409	101.56
382.634	106.56
382.86	119.56
383.085	115.56
383.31	114.56
383.535	108.56
383.761	115.56
383.986	114.56
384.211	109.56
384.436	107.56
384.662	126.56
384.887	107.56
385.112	121.56
385.337	137.56
385.562	121.56
385.787	109.56
386.013	111.56
386.238	122.56
386.463	134.56
386.688	125.56
386.913	119.56
387.138	115.56
387.363	112.56
387.588	113.56
387.813	118.56
388.038	114.56
388.263	124.56
388.488	122.56
388.713	105.56
388.938	127.56
389.163	114.56
389.387	126.56
389.612	118.56
389.837	114.56
390.062	127.56
390.287	115.56
390.512	121.56
390.736	119.56
390.961	116.56
391.186	119.56
391.411	125.56
391.636	108.56
391.86	130.56
392.085	132.56
392.31	127.56
392.534	133.56
392.759	136.56
392.984	127.56
393.208	125.56
393.433	123.56
393.658	133.56
393.882	109.56
394.107	128.56
394.331	126.56
394.556	133.56
394.78	102.56
395.005	119.56
395.229	122.56
395.454	121.56
395.678	126.56
395.903	112.56
396.127	130.56
396.352	127.56
396.576	114.56
396.801	126.56
397.025	118.56
397.249	122.56
397.474	129.56
397.698	114.56
397.922	124.56
398.147	124.56
398.371	135.56
398.595	128.56
398.82	122.56
399.044	129.56
399.268	140.56
399.492	142.56
399.717	152.56
399.941	151.56
400.165	145.56
400.389	133.56
400.613	132.56
400.837	143.56
401.062	133.56
401.286	133.56
401.51	138.56
401.734	128.56
401.958	126.56
402.182	139.56
402.406	127.56
402.63	118.56
402.854	114.56
403.078	126.56
403.302	132.56
403.526	130.56
403.75	141.56
403.974	124.56
404.198	132.56
404.422	142.56
404.645	125.56
404.869	131.56
405.093	137.56
405.317	139.56
405.541	128.56
405.765	129.56
405.988	132.56
406.212	135.56
406.436	128.56
406.66	127.56
406.883	134.56
407.107	140.56
407.331	146.56
407.555	164.56
407.778	143.56
408.002	145.56
408.226	143.56
408.449	146.56
408.673	132.56
408.896	116.56
409.12	117.56
409.344	142.56
409.567	121.56
409.791	137.56
410.014	130.56
410.238	125.56
410.461	130.56
410.685	125.56
410.908	144.56
411.132	146.56
411.355	137.56
411.578	132.56
411.802	134.56
412.025	121.56
412.249	136.56
412.472	119.56
412.695	124.56
412.919	137.56
413.142	136.56
413.365	125.56
413.589	125.56
413.812	125.56
414.035	130.56
414.258	130.56
414.482	122.56
414.705	137.56
414.928	130.56
415.151	129.56
415.374	135.56
415.597	128.56
415.821	116.56
416.044	126.56
416.267	128.56
416.49	138.56
416.713	128.56
416.936	134.56
417.159	136.56
417.382	145.56
417.605	137.56
417.828	137.56
418.051	123.56
418.274	138.56
418.497	134.56
418.72	129.56
418.943	129.56
419.166	152.56
419.389	139.56
419.611	143.56
419.834	128.56
420.057	121.56
420.28	135.56
420.503	122.56
420.726	134.56
420.948	131.56
421.171	127.56
421.394	136.56
421.617	135.56
421.839	133.56
422.062	139.56
422.285	125.56
422.507	129.56
422.73	138.56
422.953	152.56
423.175	140.56
423.398	138.56
423.621	125.56
423.843	140.56
424.066	137.56
424.288	149.56
424.511	126.56
424.733	140.56
424.956	150.56
425.178	146.56
425.401	144.56
425.623	153.56
425.846	146.56
426.068	145.56
426.291	130.56
426.513	124.56
426.735	127.56
426.958	125.56
427.18	140.56
427.402	136.56
427.625	157.56
427.847	140.56
428.069	143.56
428.292	125.56
428.514	124.56
428.736	135.56
428.958	122.56
429.181	124.56
429.403	117.56
429.625	128.56
429.847	128.56
430.069	142.56
430.292	135.56
430.514	130.56
430.736	125.56
430.958	138.56
431.18	130.56
431.402	134.56
431.624	115.56
431.846	120.56
432.068	128.56
432.29	152.56
432.512	137.56
432.734	129.56
432.956	128.56
433.178	128.56
433.4	136.56
433.622	126.56
433.844	114.56
434.066	144.56
434.287	121.56
434.509	123.56
434.731	117.56
434.953	112.56
435.175	138.56
435.397	130.56
435.618	126.56
435.84	118.56
436.062	134.56
436.284	138.56
436.505	139.56
436.727	123.56
436.949	125.56
437.17	121.56
437.392	116.56
437.614	130.56
437.835	131.56
438.057	130.56
438.278	132.56
438.5	132.56
438.721	137.56
438.943	138.56
439.165	122.56
439.386	138.56
439.608	137.56
439.829	129.56
440.05	120.56
440.272	124.56
440.493	128.56
440.715	129.56
440.936	134.56
441.158	142.56
441.379	127.56
441.6	156.56
441.822	130.56
442.043	131.56
442.264	152.56
442.486	139.56
442.707	124.56
442.928	137.56
443.149	132.56
443.371	134.56
443.592	134.56
443.813	121.56
444.034	130.56
444.255	162.56
444.476	127.56
444.698	134.56
444.919	133.56
445.14	204.56
445.361	173.56
445.582	146.56
445.803	146.56
446.024	133.56
446.245	133.56
446.466	149.56
446.687	126.56
446.908	124.56
447.129	135.56
447.35	138.56
447.571	135.56
447.792	125.56
448.013	122.56
448.234	118.56
448.455	129.56
448.675	144.56
448.896	130.56
449.117	141.56
449.338	138.56
449.559	140.56
449.779	131.56
450	140.56
450.221	134.56
450.442	125.56
450.662	123.56
450.883	120.56
451.104	137.56
451.324	124.56
451.545	125.56
451.766	120.56
451.986	120.56
452.207	125.56
452.428	121.56
452.648	129.56
452.869	135.56
453.089	123.56
453.31	129.56
453.53	128.56
453.751	125.56
453.971	120.56
454.192	124.56
454.412	123.56
454.633	117.56
454.853	114.56
455.073	126.56
455.294	126.56
455.514	128.56
455.734	117.56
455.955	109.56
456.175	119.56
456.395	112.56
456.616	117.56
456.836	122.56
457.056	115.56
457.276	130.56
457.497	116.56
457.717	109.56
457.937	128.56
458.157	136.56
458.377	114.56
458.598	111.56
458.818	116.56
459.038	121.56
459.258	124.56
459.478	137.56
459.698	123.56
459.918	121.56
460.138	129.56
460.358	132.56
460.578	128.56
460.798	122.56
461.018	135.56
461.238	139.56
461.458	148.56
461.678	126.56
461.898	125.56
462.118	139.56
462.338	137.56
462.558	138.56
462.777	136.56
462.997	147.56
463.217	149.56
463.437	149.56
463.657	149.56
463.876	133.56
464.096	154.56
464.316	132.56
464.536	143.56
464.755	144.56
464.975	137.56
465.195	128.56
465.414	133.56
465.634	137.56
465.854	121.56
466.073	130.56
466.293	128.56
466.512	130.56
466.732	119.56
466.951	128.56
467.171	121.56
467.391	132.56
467.61	132.56
467.829	126.56
468.049	127.56
468.268	117.56
468.488	134.56
468.707	135.56
468.927	136.56
469.146	131.56
469.365	138.56
469.585	124.56
469.804	140.56
470.023	120.56
470.243	129.56
470.462	111.56
470.681	110.56
470.901	124.56
471.12	134.56
471.339	121.56
471.558	115.56
471.777	127.56
471.997	128.56
472.216	134.56
472.435	130.56
472.654	112.56
472.873	129.56
473.092	119.56
473.311	126.56
473.53	128.56
473.749	121.56
473.968	120.56
474.187	123.56
474.406	140.56
474.625	109.56
474.844	123.56
475.063	97.56
475.282	123.56
475.501	131.56
475.72	115.56
475.939	123.56
476.158	122.56
476.377	122.56
476.596	114.56
476.814	132.56
477.033	146.56
477.252	134.56
477.471	120.56
477.69	137.56
477.908	134.56
478.127	150.56
478.346	129.56
478.564	136.56
478.783	131.56
479.002	129.56
479.22	144.56
479.439	139.56
479.658	127.56
479.876	130.56
480.095	135.56
480.313	138.56
480.532	133.56
480.751	137.56
480.969	130.56
481.188	122.56
481.406	127.56
481.624	126.56
481.843	133.56
482.061	124.56
482.28	119.56
482.498	116.56
482.717	126.56
482.935	123.56
483.153	138.56
483.372	141.56
483.59	138.56
483.808	121.56
484.027	119.56
484.245	135.56
484.463	141.56
484.681	146.56
484.9	135.56
485.118	141.56
485.336	137.56
485.554	118.56
485.772	137.56
485.99	134.56
486.209	131.56
486.427	127.56
486.645	125.56
486.863	131.56
487.081	133.56
487.299	139.56
487.517	138.56
487.735	136.56
487.953	140.56
488.171	128.56
488.389	150.56
488.607	145.56
488.825	143.56
489.043	141.56
489.261	132.56
489.479	142.56
489.696	155.56
489.914	141.56
490.132	123.56
490.35	155.56
490.568	134.56
490.786	150.56
491.003	140.56
491.221	128.56
491.439	141.56
491.657	158.56
491.874	137.56
492.092	152.56
492.31	140.56
492.527	142.56
492.745	152.56
492.963	148.56
493.18	141.56
493.398	153.56
493.615	132.56
493.833	134.56
494.05	156.56
494.268	155.56
494.485	148.56
494.703	166.56
494.92	153.56
495.138	141.56
495.355	147.56
495.573	149.56
495.79	154.56
496.008	147.56
496.225	149.56
496.442	149.56
496.66	146.56
496.877	153.56
497.094	151.56
497.312	153.56
497.529	163.56
497.746	147.56
497.963	151.56
498.181	166.56
498.398	161.56
498.615	154.56
498.832	152.56
499.049	166.56
499.267	151.56
499.484	180.56
499.701	180.56
499.918	189.56
500.135	188.56
500.352	194.56
500.569	223.56
500.786	224.56
501.003	207.56
501.22	201.56
501.437	179.56
501.654	168.56
501.871	186.56
502.088	174.56
502.305	168.56
502.522	165.56
502.739	144.56
502.956	152.56
503.172	146.56
503.389	153.56
503.606	136.56
503.823	140.56
504.04	160.56
504.256	137.56
504.473	165.56
504.69	162.56
504.907	149.56
505.123	133.56
505.34	152.56
505.557	141.56
505.773	144.56
