Data from 1968.PennyLincolnUp.Lamp.En5.5.200Scan.071719.P1._HRD10591_14-51-38-970.txt Node
Date: Thu Jul 18 14:51:38 EDT 2019
User: cochatt
Spectrometer: HR+D1059
Trigger mode: 1
Integration Time (sec): 1.000000E-1
Scans to average: 1
Electric dark correction enabled: true
Nonlinearity correction enabled: false
Boxcar width: 0
XAxis mode: Wavelengths
Number of Pixels in Spectrum: 2048
>>>>>Begin Spectral Data<<<<<
223.165	-9.44
223.4	-9.44
223.635	-9.44
223.869	-9.44
224.104	-12.44
224.338	-11.44
224.573	-3.44
224.808	-22.44
225.042	-24.44
225.277	-10.44
225.511	-8.44
225.746	-0.44
225.98	10.56
226.215	10.56
226.449	21.56
226.683	16.56
226.918	15.56
227.152	37.56
227.387	37.56
227.621	51.56
227.856	44.56
228.09	46.56
228.324	42.56
228.559	35.56
228.793	58.56
229.027	70.56
229.262	69.56
229.496	63.56
229.73	72.56
229.964	97.56
230.199	79.56
230.433	74.56
230.667	73.56
230.901	80.56
231.136	83.56
231.37	64.56
231.604	74.56
231.838	77.56
232.072	78.56
232.306	86.56
232.541	91.56
232.775	75.56
233.009	85.56
233.243	101.56
233.477	78.56
233.711	78.56
233.945	88.56
234.179	88.56
234.413	86.56
234.647	75.56
234.881	90.56
235.115	83.56
235.349	107.56
235.583	89.56
235.817	90.56
236.051	86.56
236.285	87.56
236.519	91.56
236.753	86.56
236.987	87.56
237.221	76.56
237.455	95.56
237.689	87.56
237.922	84.56
238.156	80.56
238.39	68.56
238.624	83.56
238.858	81.56
239.091	85.56
239.325	76.56
239.559	80.56
239.793	83.56
240.027	84.56
240.26	80.56
240.494	84.56
240.728	87.56
240.961	85.56
241.195	87.56
241.429	78.56
241.662	71.56
241.896	80.56
242.13	86.56
242.363	82.56
242.597	73.56
242.83	98.56
243.064	75.56
243.298	77.56
243.531	78.56
243.765	90.56
243.998	102.56
244.232	87.56
244.465	76.56
244.699	91.56
244.932	72.56
245.166	93.56
245.399	96.56
245.633	76.56
245.866	86.56
246.099	72.56
246.333	90.56
246.566	75.56
246.8	78.56
247.033	102.56
247.266	91.56
247.5	80.56
247.733	72.56
247.966	77.56
248.2	94.56
248.433	87.56
248.666	87.56
248.899	92.56
249.133	104.56
249.366	99.56
249.599	76.56
249.832	89.56
250.066	76.56
250.299	94.56
250.532	78.56
250.765	99.56
250.998	87.56
251.231	91.56
251.465	95.56
251.698	92.56
251.931	88.56
252.164	96.56
252.397	93.56
252.63	84.56
252.863	92.56
253.096	93.56
253.329	97.56
253.562	84.56
253.795	96.56
254.028	88.56
254.261	97.56
254.494	105.56
254.727	106.56
254.96	104.56
255.193	92.56
255.426	87.56
255.659	92.56
255.892	87.56
256.124	83.56
256.357	96.56
256.59	101.56
256.823	99.56
257.056	87.56
257.289	85.56
257.521	81.56
257.754	89.56
257.987	94.56
258.22	86.56
258.452	81.56
258.685	91.56
258.918	85.56
259.151	86.56
259.383	99.56
259.616	105.56
259.849	81.56
260.081	91.56
260.314	100.56
260.547	91.56
260.779	99.56
261.012	92.56
261.244	105.56
261.477	99.56
261.71	88.56
261.942	96.56
262.175	80.56
262.407	89.56
262.64	114.56
262.872	103.56
263.105	84.56
263.337	100.56
263.57	83.56
263.802	88.56
264.035	99.56
264.267	89.56
264.499	80.56
264.732	93.56
264.964	80.56
265.197	94.56
265.429	88.56
265.661	97.56
265.894	90.56
266.126	96.56
266.358	93.56
266.591	87.56
266.823	90.56
267.055	84.56
267.287	79.56
267.52	79.56
267.752	86.56
267.984	91.56
268.216	100.56
268.448	85.56
268.681	108.56
268.913	88.56
269.145	86.56
269.377	96.56
269.609	98.56
269.841	96.56
270.073	91.56
270.306	90.56
270.538	93.56
270.77	98.56
271.002	99.56
271.234	97.56
271.466	101.56
271.698	98.56
271.93	106.56
272.162	103.56
272.394	103.56
272.626	100.56
272.858	100.56
273.09	85.56
273.322	101.56
273.553	89.56
273.785	87.56
274.017	92.56
274.249	94.56
274.481	90.56
274.713	89.56
274.945	103.56
275.176	98.56
275.408	99.56
275.64	96.56
275.872	108.56
276.104	101.56
276.335	103.56
276.567	106.56
276.799	100.56
277.031	87.56
277.262	110.56
277.494	95.56
277.726	109.56
277.957	102.56
278.189	103.56
278.421	94.56
278.652	91.56
278.884	94.56
279.115	101.56
279.347	114.56
279.579	96.56
279.81	116.56
280.042	102.56
280.273	91.56
280.505	88.56
280.736	107.56
280.968	114.56
281.199	107.56
281.431	105.56
281.662	84.56
281.894	105.56
282.125	98.56
282.356	95.56
282.588	95.56
282.819	100.56
283.051	97.56
283.282	90.56
283.513	103.56
283.745	98.56
283.976	103.56
284.207	103.56
284.439	94.56
284.67	89.56
284.901	96.56
285.132	105.56
285.364	100.56
285.595	99.56
285.826	100.56
286.057	114.56
286.288	95.56
286.52	92.56
286.751	110.56
286.982	107.56
287.213	103.56
287.444	96.56
287.675	88.56
287.906	93.56
288.138	88.56
288.369	98.56
288.6	97.56
288.831	100.56
289.062	103.56
289.293	92.56
289.524	103.56
289.755	93.56
289.986	93.56
290.217	96.56
290.448	110.56
290.679	106.56
290.91	104.56
291.141	106.56
291.371	95.56
291.602	100.56
291.833	92.56
292.064	107.56
292.295	92.56
292.526	105.56
292.757	98.56
292.987	97.56
293.218	105.56
293.449	117.56
293.68	99.56
293.91	97.56
294.141	109.56
294.372	101.56
294.603	114.56
294.833	104.56
295.064	101.56
295.295	118.56
295.525	114.56
295.756	107.56
295.987	103.56
296.217	106.56
296.448	113.56
296.679	102.56
296.909	95.56
297.14	118.56
297.37	110.56
297.601	96.56
297.831	104.56
298.062	102.56
298.292	108.56
298.523	115.56
298.753	97.56
298.984	90.56
299.214	92.56
299.445	121.56
299.675	109.56
299.905	88.56
300.136	114.56
300.366	117.56
300.597	111.56
300.827	90.56
301.057	106.56
301.288	99.56
301.518	100.56
301.748	105.56
301.979	118.56
302.209	122.56
302.439	109.56
302.669	119.56
302.9	112.56
303.13	103.56
303.36	94.56
303.59	103.56
303.82	118.56
304.051	97.56
304.281	109.56
304.511	89.56
304.741	101.56
304.971	118.56
305.201	108.56
305.431	101.56
305.661	117.56
305.891	106.56
306.121	103.56
306.352	98.56
306.582	104.56
306.812	104.56
307.042	107.56
307.272	111.56
307.502	114.56
307.731	106.56
307.961	117.56
308.191	92.56
308.421	105.56
308.651	100.56
308.881	109.56
309.111	107.56
309.341	103.56
309.571	105.56
309.8	116.56
310.03	112.56
310.26	104.56
310.49	105.56
310.72	100.56
310.949	104.56
311.179	111.56
311.409	115.56
311.639	103.56
311.868	103.56
312.098	102.56
312.328	118.56
312.557	111.56
312.787	102.56
313.017	115.56
313.246	111.56
313.476	103.56
313.706	113.56
313.935	120.56
314.165	108.56
314.394	122.56
314.624	101.56
314.853	109.56
315.083	107.56
315.312	111.56
315.542	107.56
315.771	132.56
316.001	106.56
316.23	109.56
316.46	110.56
316.689	112.56
316.919	103.56
317.148	116.56
317.377	116.56
317.607	98.56
317.836	107.56
318.065	106.56
318.295	108.56
318.524	107.56
318.753	99.56
318.983	101.56
319.212	106.56
319.441	100.56
319.67	108.56
319.9	120.56
320.129	108.56
320.358	102.56
320.587	111.56
320.816	104.56
321.046	124.56
321.275	108.56
321.504	123.56
321.733	120.56
321.962	114.56
322.191	120.56
322.42	114.56
322.649	106.56
322.878	110.56
323.108	107.56
323.337	113.56
323.566	109.56
323.795	115.56
324.024	107.56
324.253	116.56
324.482	140.56
324.71	172.56
324.939	184.56
325.168	164.56
325.397	128.56
325.626	127.56
325.855	123.56
326.084	106.56
326.313	120.56
326.542	111.56
326.77	120.56
326.999	113.56
327.228	134.56
327.457	142.56
327.686	172.56
327.914	135.56
328.143	125.56
328.372	127.56
328.6	125.56
328.829	116.56
329.058	117.56
329.287	122.56
329.515	121.56
329.744	118.56
329.972	131.56
330.201	128.56
330.43	131.56
330.658	120.56
330.887	131.56
331.115	120.56
331.344	121.56
331.572	121.56
331.801	114.56
332.03	111.56
332.258	125.56
332.486	121.56
332.715	123.56
332.943	111.56
333.172	130.56
333.4	130.56
333.629	117.56
333.857	115.56
334.085	120.56
334.314	134.56
334.542	127.56
334.771	134.56
334.999	126.56
335.227	115.56
335.455	130.56
335.684	113.56
335.912	111.56
336.14	120.56
336.369	121.56
336.597	124.56
336.825	117.56
337.053	127.56
337.281	118.56
337.51	125.56
337.738	108.56
337.966	116.56
338.194	104.56
338.422	118.56
338.65	110.56
338.878	114.56
339.106	126.56
339.334	118.56
339.562	111.56
339.79	94.56
340.018	116.56
340.246	101.56
340.474	108.56
340.702	121.56
340.93	114.56
341.158	113.56
341.386	120.56
341.614	99.56
341.842	100.56
342.07	113.56
342.298	117.56
342.526	108.56
342.754	114.56
342.981	92.56
343.209	116.56
343.437	123.56
343.665	119.56
343.893	111.56
344.12	114.56
344.348	114.56
344.576	115.56
344.804	115.56
345.031	109.56
345.259	95.56
345.487	124.56
345.714	110.56
345.942	106.56
346.17	114.56
346.397	109.56
346.625	90.56
346.853	114.56
347.08	97.56
347.308	114.56
347.535	109.56
347.763	105.56
347.99	121.56
348.218	98.56
348.445	101.56
348.673	123.56
348.9	108.56
349.128	122.56
349.355	102.56
349.583	111.56
349.81	122.56
350.037	114.56
350.265	108.56
350.492	105.56
350.72	108.56
350.947	116.56
351.174	116.56
351.402	119.56
351.629	106.56
351.856	116.56
352.083	107.56
352.311	119.56
352.538	104.56
352.765	104.56
352.992	113.56
353.22	118.56
353.447	106.56
353.674	114.56
353.901	121.56
354.128	93.56
354.355	120.56
354.583	116.56
354.81	114.56
355.037	111.56
355.264	100.56
355.491	112.56
355.718	101.56
355.945	115.56
356.172	109.56
356.399	121.56
356.626	99.56
356.853	111.56
357.08	115.56
357.307	108.56
357.534	111.56
357.761	108.56
357.988	103.56
358.215	117.56
358.441	117.56
358.668	107.56
358.895	114.56
359.122	103.56
359.349	107.56
359.576	115.56
359.802	112.56
360.029	116.56
360.256	108.56
360.483	98.56
360.709	117.56
360.936	124.56
361.163	104.56
361.39	119.56
361.616	108.56
361.843	102.56
362.07	114.56
362.296	105.56
362.523	104.56
362.749	105.56
362.976	124.56
363.203	111.56
363.429	109.56
363.656	120.56
363.882	112.56
364.109	112.56
364.335	115.56
364.562	101.56
364.788	97.56
365.015	115.56
365.241	103.56
365.468	121.56
365.694	126.56
365.92	114.56
366.147	104.56
366.373	123.56
366.599	109.56
366.826	116.56
367.052	110.56
367.278	112.56
367.505	98.56
367.731	110.56
367.957	113.56
368.184	120.56
368.41	105.56
368.636	108.56
368.862	115.56
369.089	108.56
369.315	106.56
369.541	111.56
369.767	114.56
369.993	108.56
370.219	108.56
370.445	95.56
370.672	102.56
370.898	111.56
371.124	104.56
371.35	117.56
371.576	109.56
371.802	125.56
372.028	106.56
372.254	102.56
372.48	116.56
372.706	101.56
372.932	124.56
373.158	109.56
373.384	127.56
373.61	104.56
373.835	118.56
374.061	110.56
374.287	124.56
374.513	114.56
374.739	116.56
374.965	119.56
375.191	116.56
375.416	123.56
375.642	110.56
375.868	126.56
376.094	117.56
376.319	112.56
376.545	124.56
376.771	111.56
376.997	110.56
377.222	115.56
377.448	101.56
377.674	116.56
377.899	110.56
378.125	122.56
378.35	103.56
378.576	110.56
378.802	110.56
379.027	106.56
379.253	106.56
379.478	125.56
379.704	107.56
379.929	102.56
380.155	102.56
380.38	119.56
380.606	131.56
380.831	130.56
381.057	117.56
381.282	138.56
381.507	112.56
381.733	128.56
381.958	105.56
382.184	103.56
382.409	104.56
382.634	117.56
382.86	124.56
383.085	110.56
383.31	133.56
383.535	119.56
383.761	114.56
383.986	111.56
384.211	117.56
384.436	118.56
384.662	106.56
384.887	116.56
385.112	118.56
385.337	123.56
385.562	120.56
385.787	122.56
386.013	123.56
386.238	124.56
386.463	111.56
386.688	100.56
386.913	124.56
387.138	110.56
387.363	117.56
387.588	123.56
387.813	126.56
388.038	107.56
388.263	116.56
388.488	112.56
388.713	112.56
388.938	101.56
389.163	122.56
389.387	118.56
389.612	111.56
389.837	111.56
390.062	127.56
390.287	106.56
390.512	106.56
390.736	116.56
390.961	118.56
391.186	120.56
391.411	127.56
391.636	120.56
391.86	106.56
392.085	125.56
392.31	115.56
392.534	114.56
392.759	115.56
392.984	110.56
393.208	127.56
393.433	106.56
393.658	116.56
393.882	102.56
394.107	126.56
394.331	116.56
394.556	115.56
394.78	122.56
395.005	130.56
395.229	134.56
395.454	123.56
395.678	109.56
395.903	117.56
396.127	120.56
396.352	131.56
396.576	123.56
396.801	119.56
397.025	120.56
397.249	123.56
397.474	141.56
397.698	121.56
397.922	119.56
398.147	122.56
398.371	110.56
398.595	122.56
398.82	115.56
399.044	138.56
399.268	122.56
399.492	142.56
399.717	148.56
399.941	154.56
400.165	135.56
400.389	130.56
400.613	137.56
400.837	133.56
401.062	127.56
401.286	120.56
401.51	114.56
401.734	128.56
401.958	142.56
402.182	112.56
402.406	113.56
402.63	124.56
402.854	128.56
403.078	130.56
403.302	130.56
403.526	131.56
403.75	142.56
403.974	132.56
404.198	124.56
404.422	125.56
404.645	114.56
404.869	131.56
405.093	124.56
405.317	139.56
405.541	128.56
405.765	132.56
405.988	125.56
406.212	127.56
406.436	145.56
406.66	125.56
406.883	136.56
407.107	147.56
407.331	148.56
407.555	152.56
407.778	133.56
408.002	143.56
408.226	143.56
408.449	120.56
408.673	144.56
408.896	140.56
409.12	136.56
409.344	140.56
409.567	142.56
409.791	136.56
410.014	141.56
410.238	143.56
410.461	127.56
410.685	130.56
410.908	134.56
411.132	141.56
411.355	125.56
411.578	139.56
411.802	137.56
412.025	131.56
412.249	139.56
412.472	122.56
412.695	128.56
412.919	131.56
413.142	141.56
413.365	133.56
413.589	115.56
413.812	125.56
414.035	134.56
414.258	119.56
414.482	131.56
414.705	124.56
414.928	126.56
415.151	115.56
415.374	126.56
415.597	128.56
415.821	134.56
416.044	111.56
416.267	112.56
416.49	123.56
416.713	131.56
416.936	140.56
417.159	119.56
417.382	112.56
417.605	128.56
417.828	129.56
418.051	128.56
418.274	131.56
418.497	114.56
418.72	126.56
418.943	125.56
419.166	117.56
419.389	143.56
419.611	140.56
419.834	131.56
420.057	138.56
420.28	134.56
420.503	131.56
420.726	136.56
420.948	129.56
421.171	133.56
421.394	141.56
421.617	131.56
421.839	130.56
422.062	138.56
422.285	137.56
422.507	135.56
422.73	134.56
422.953	127.56
423.175	116.56
423.398	123.56
423.621	124.56
423.843	138.56
424.066	149.56
424.288	137.56
424.511	120.56
424.733	151.56
424.956	149.56
425.178	127.56
425.401	136.56
425.623	144.56
425.846	125.56
426.068	138.56
426.291	137.56
426.513	121.56
426.735	131.56
426.958	124.56
427.18	126.56
427.402	148.56
427.625	130.56
427.847	128.56
428.069	135.56
428.292	121.56
428.514	130.56
428.736	137.56
428.958	111.56
429.181	111.56
429.403	132.56
429.625	119.56
429.847	122.56
430.069	133.56
430.292	150.56
430.514	128.56
430.736	131.56
430.958	122.56
431.18	116.56
431.402	127.56
431.624	129.56
431.846	130.56
432.068	136.56
432.29	127.56
432.512	122.56
432.734	128.56
432.956	127.56
433.178	117.56
433.4	125.56
433.622	130.56
433.844	128.56
434.066	133.56
434.287	138.56
434.509	120.56
434.731	115.56
434.953	130.56
435.175	123.56
435.397	111.56
435.618	137.56
435.84	150.56
436.062	142.56
436.284	159.56
436.505	119.56
436.727	107.56
436.949	127.56
437.17	134.56
437.392	127.56
437.614	109.56
437.835	109.56
438.057	119.56
438.278	123.56
438.5	140.56
438.721	143.56
438.943	150.56
439.165	145.56
439.386	132.56
439.608	134.56
439.829	136.56
440.05	136.56
440.272	137.56
440.493	125.56
440.715	126.56
440.936	124.56
441.158	123.56
441.379	134.56
441.6	138.56
441.822	134.56
442.043	134.56
442.264	136.56
442.486	145.56
442.707	126.56
442.928	128.56
443.149	127.56
443.371	131.56
443.592	152.56
443.813	156.56
444.034	144.56
444.255	130.56
444.476	122.56
444.698	123.56
444.919	133.56
445.14	276.56
445.361	173.56
445.582	121.56
445.803	159.56
446.024	154.56
446.245	136.56
446.466	144.56
446.687	132.56
446.908	133.56
447.129	122.56
447.35	124.56
447.571	122.56
447.792	125.56
448.013	130.56
448.234	136.56
448.455	125.56
448.675	127.56
448.896	135.56
449.117	127.56
449.338	123.56
449.559	133.56
449.779	130.56
450	149.56
450.221	124.56
450.442	118.56
450.662	139.56
450.883	103.56
451.104	126.56
451.324	121.56
451.545	123.56
451.766	115.56
451.986	109.56
452.207	112.56
452.428	124.56
452.648	118.56
452.869	118.56
453.089	127.56
453.31	126.56
453.53	125.56
453.751	106.56
453.971	115.56
454.192	118.56
454.412	107.56
454.633	132.56
454.853	108.56
455.073	131.56
455.294	105.56
455.514	122.56
455.734	120.56
455.955	117.56
456.175	98.56
456.395	118.56
456.616	101.56
456.836	106.56
457.056	114.56
457.276	116.56
457.497	125.56
457.717	123.56
457.937	108.56
458.157	106.56
458.377	105.56
458.598	132.56
458.818	132.56
459.038	141.56
459.258	126.56
459.478	126.56
459.698	111.56
459.918	122.56
460.138	129.56
460.358	117.56
460.578	130.56
460.798	130.56
461.018	136.56
461.238	136.56
461.458	123.56
461.678	111.56
461.898	124.56
462.118	118.56
462.338	135.56
462.558	139.56
462.777	136.56
462.997	146.56
463.217	143.56
463.437	134.56
463.657	125.56
463.876	135.56
464.096	117.56
464.316	124.56
464.536	126.56
464.755	134.56
464.975	132.56
465.195	138.56
465.414	136.56
465.634	133.56
465.854	124.56
466.073	130.56
466.293	127.56
466.512	129.56
466.732	116.56
466.951	109.56
467.171	124.56
467.391	113.56
467.61	119.56
467.829	130.56
468.049	138.56
468.268	126.56
468.488	111.56
468.707	124.56
468.927	138.56
469.146	116.56
469.365	135.56
469.585	134.56
469.804	118.56
470.023	125.56
470.243	133.56
470.462	125.56
470.681	137.56
470.901	119.56
471.12	130.56
471.339	126.56
471.558	124.56
471.777	123.56
471.997	119.56
472.216	117.56
472.435	122.56
472.654	110.56
472.873	130.56
473.092	110.56
473.311	116.56
473.53	109.56
473.749	119.56
473.968	126.56
474.187	132.56
474.406	134.56
474.625	138.56
474.844	129.56
475.063	120.56
475.282	128.56
475.501	123.56
475.72	120.56
475.939	120.56
476.158	129.56
476.377	133.56
476.596	120.56
476.814	115.56
477.033	124.56
477.252	112.56
477.471	128.56
477.69	131.56
477.908	120.56
478.127	132.56
478.346	124.56
478.564	126.56
478.783	128.56
479.002	123.56
479.22	134.56
479.439	117.56
479.658	142.56
479.876	138.56
480.095	127.56
480.313	126.56
480.532	129.56
480.751	126.56
480.969	128.56
481.188	135.56
481.406	134.56
481.624	137.56
481.843	133.56
482.061	126.56
482.28	131.56
482.498	122.56
482.717	122.56
482.935	129.56
483.153	132.56
483.372	141.56
483.59	137.56
483.808	132.56
484.027	134.56
484.245	138.56
484.463	131.56
484.681	119.56
484.9	128.56
485.118	137.56
485.336	118.56
485.554	123.56
485.772	127.56
485.99	130.56
486.209	128.56
486.427	132.56
486.645	144.56
486.863	121.56
487.081	121.56
487.299	128.56
487.517	136.56
487.735	131.56
487.953	134.56
488.171	142.56
488.389	136.56
488.607	131.56
488.825	133.56
489.043	132.56
489.261	145.56
489.479	130.56
489.696	135.56
489.914	139.56
490.132	141.56
490.35	128.56
490.568	143.56
490.786	150.56
491.003	134.56
491.221	130.56
491.439	149.56
491.657	141.56
491.874	139.56
492.092	135.56
492.31	148.56
492.527	150.56
492.745	137.56
492.963	132.56
493.18	148.56
493.398	137.56
493.615	152.56
493.833	145.56
494.05	136.56
494.268	141.56
494.485	144.56
494.703	150.56
494.92	145.56
495.138	147.56
495.355	135.56
495.573	145.56
495.79	146.56
496.008	165.56
496.225	140.56
496.442	150.56
496.66	147.56
496.877	151.56
497.094	165.56
497.312	169.56
497.529	150.56
497.746	148.56
497.963	150.56
498.181	135.56
498.398	160.56
498.615	163.56
498.832	161.56
499.049	163.56
499.267	187.56
499.484	174.56
499.701	178.56
499.918	187.56
500.135	188.56
500.352	204.56
500.569	219.56
500.786	208.56
501.003	195.56
501.22	194.56
501.437	193.56
501.654	183.56
501.871	168.56
502.088	165.56
502.305	167.56
502.522	157.56
502.739	130.56
502.956	150.56
503.172	136.56
503.389	144.56
503.606	140.56
503.823	159.56
504.04	159.56
504.256	124.56
504.473	138.56
504.69	144.56
504.907	142.56
505.123	147.56
505.34	150.56
