Data from 1968.PennyLincolnUp.Lamp.En5.5.200Scan.071719.P1._HRD10591_14-49-29-970.txt Node
Date: Thu Jul 18 14:49:29 EDT 2019
User: cochatt
Spectrometer: HR+D1059
Trigger mode: 1
Integration Time (sec): 1.000000E-1
Scans to average: 1
Electric dark correction enabled: true
Nonlinearity correction enabled: false
Boxcar width: 0
XAxis mode: Wavelengths
Number of Pixels in Spectrum: 2048
>>>>>Begin Spectral Data<<<<<
223.165	-3.69
223.4	-3.69
223.635	-3.69
223.869	-12.69
224.104	-17.69
224.338	-12.69
224.573	-13.69
224.808	-16.69
225.042	-7.69
225.277	-10.69
225.511	0.31
225.746	14.31
225.98	3.31
226.215	3.31
226.449	21.31
226.683	8.31
226.918	12.31
227.152	32.31
227.387	42.31
227.621	54.31
227.856	43.31
228.09	52.31
228.324	41.31
228.559	62.31
228.793	53.31
229.027	48.31
229.262	77.31
229.496	64.31
229.73	60.31
229.964	89.31
230.199	75.31
230.433	84.31
230.667	85.31
230.901	75.31
231.136	86.31
231.37	87.31
231.604	86.31
231.838	88.31
232.072	84.31
232.306	97.31
232.541	78.31
232.775	84.31
233.009	83.31
233.243	93.31
233.477	91.31
233.711	88.31
233.945	83.31
234.179	96.31
234.413	84.31
234.647	87.31
234.881	80.31
235.115	81.31
235.349	86.31
235.583	88.31
235.817	75.31
236.051	91.31
236.285	99.31
236.519	88.31
236.753	93.31
236.987	84.31
237.221	84.31
237.455	85.31
237.689	80.31
237.922	71.31
238.156	83.31
238.39	77.31
238.624	88.31
238.858	95.31
239.091	68.31
239.325	78.31
239.559	76.31
239.793	89.31
240.027	87.31
240.26	81.31
240.494	76.31
240.728	93.31
240.961	73.31
241.195	91.31
241.429	71.31
241.662	73.31
241.896	101.31
242.13	90.31
242.363	74.31
242.597	84.31
242.83	77.31
243.064	81.31
243.298	98.31
243.531	89.31
243.765	86.31
243.998	86.31
244.232	89.31
244.465	90.31
244.699	88.31
244.932	86.31
245.166	87.31
245.399	81.31
245.633	103.31
245.866	77.31
246.099	82.31
246.333	77.31
246.566	88.31
246.8	83.31
247.033	90.31
247.266	80.31
247.5	87.31
247.733	83.31
247.966	87.31
248.2	90.31
248.433	89.31
248.666	92.31
248.899	87.31
249.133	99.31
249.366	88.31
249.599	93.31
249.832	83.31
250.066	99.31
250.299	85.31
250.532	90.31
250.765	94.31
250.998	91.31
251.231	94.31
251.465	84.31
251.698	83.31
251.931	79.31
252.164	101.31
252.397	91.31
252.63	86.31
252.863	83.31
253.096	85.31
253.329	94.31
253.562	102.31
253.795	93.31
254.028	83.31
254.261	86.31
254.494	111.31
254.727	81.31
254.96	100.31
255.193	96.31
255.426	96.31
255.659	97.31
255.892	100.31
256.124	89.31
256.357	95.31
256.59	98.31
256.823	100.31
257.056	102.31
257.289	91.31
257.521	91.31
257.754	100.31
257.987	94.31
258.22	87.31
258.452	97.31
258.685	89.31
258.918	77.31
259.151	85.31
259.383	88.31
259.616	90.31
259.849	94.31
260.081	82.31
260.314	79.31
260.547	78.31
260.779	85.31
261.012	88.31
261.244	94.31
261.477	89.31
261.71	89.31
261.942	95.31
262.175	94.31
262.407	91.31
262.64	92.31
262.872	107.31
263.105	92.31
263.337	90.31
263.57	88.31
263.802	80.31
264.035	94.31
264.267	91.31
264.499	96.31
264.732	100.31
264.964	95.31
265.197	89.31
265.429	92.31
265.661	88.31
265.894	86.31
266.126	86.31
266.358	92.31
266.591	96.31
266.823	81.31
267.055	85.31
267.287	87.31
267.52	92.31
267.752	81.31
267.984	89.31
268.216	94.31
268.448	102.31
268.681	88.31
268.913	107.31
269.145	93.31
269.377	101.31
269.609	79.31
269.841	97.31
270.073	90.31
270.306	91.31
270.538	100.31
270.77	100.31
271.002	103.31
271.234	113.31
271.466	107.31
271.698	79.31
271.93	95.31
272.162	117.31
272.394	117.31
272.626	86.31
272.858	94.31
273.09	100.31
273.322	113.31
273.553	108.31
273.785	91.31
274.017	108.31
274.249	89.31
274.481	89.31
274.713	92.31
274.945	90.31
275.176	96.31
275.408	118.31
275.64	89.31
275.872	107.31
276.104	97.31
276.335	87.31
276.567	95.31
276.799	113.31
277.031	99.31
277.262	96.31
277.494	93.31
277.726	103.31
277.957	102.31
278.189	102.31
278.421	95.31
278.652	103.31
278.884	93.31
279.115	103.31
279.347	104.31
279.579	100.31
279.81	86.31
280.042	88.31
280.273	94.31
280.505	93.31
280.736	102.31
280.968	104.31
281.199	101.31
281.431	99.31
281.662	91.31
281.894	103.31
282.125	97.31
282.356	110.31
282.588	97.31
282.819	105.31
283.051	91.31
283.282	104.31
283.513	109.31
283.745	101.31
283.976	106.31
284.207	95.31
284.439	105.31
284.67	95.31
284.901	107.31
285.132	101.31
285.364	92.31
285.595	107.31
285.826	103.31
286.057	109.31
286.288	120.31
286.52	105.31
286.751	89.31
286.982	103.31
287.213	103.31
287.444	88.31
287.675	107.31
287.906	99.31
288.138	99.31
288.369	107.31
288.6	99.31
288.831	96.31
289.062	109.31
289.293	86.31
289.524	104.31
289.755	106.31
289.986	100.31
290.217	112.31
290.448	99.31
290.679	93.31
290.91	108.31
291.141	91.31
291.371	98.31
291.602	94.31
291.833	100.31
292.064	102.31
292.295	86.31
292.526	109.31
292.757	109.31
292.987	109.31
293.218	88.31
293.449	98.31
293.68	100.31
293.91	108.31
294.141	100.31
294.372	103.31
294.603	110.31
294.833	101.31
295.064	99.31
295.295	107.31
295.525	116.31
295.756	119.31
295.987	101.31
296.217	103.31
296.448	100.31
296.679	102.31
296.909	103.31
297.14	110.31
297.37	114.31
297.601	105.31
297.831	94.31
298.062	101.31
298.292	100.31
298.523	120.31
298.753	108.31
298.984	108.31
299.214	108.31
299.445	109.31
299.675	102.31
299.905	98.31
300.136	108.31
300.366	94.31
300.597	111.31
300.827	102.31
301.057	106.31
301.288	110.31
301.518	109.31
301.748	101.31
301.979	94.31
302.209	96.31
302.439	107.31
302.669	119.31
302.9	107.31
303.13	108.31
303.36	96.31
303.59	111.31
303.82	100.31
304.051	95.31
304.281	113.31
304.511	102.31
304.741	106.31
304.971	107.31
305.201	101.31
305.431	111.31
305.661	106.31
305.891	97.31
306.121	100.31
306.352	109.31
306.582	101.31
306.812	83.31
307.042	111.31
307.272	113.31
307.502	110.31
307.731	115.31
307.961	104.31
308.191	106.31
308.421	100.31
308.651	104.31
308.881	120.31
309.111	112.31
309.341	102.31
309.571	91.31
309.8	104.31
310.03	115.31
310.26	91.31
310.49	116.31
310.72	107.31
310.949	106.31
311.179	117.31
311.409	107.31
311.639	109.31
311.868	97.31
312.098	109.31
312.328	120.31
312.557	107.31
312.787	91.31
313.017	118.31
313.246	119.31
313.476	111.31
313.706	97.31
313.935	101.31
314.165	114.31
314.394	108.31
314.624	108.31
314.853	106.31
315.083	116.31
315.312	112.31
315.542	111.31
315.771	120.31
316.001	99.31
316.23	111.31
316.46	120.31
316.689	105.31
316.919	108.31
317.148	105.31
317.377	103.31
317.607	115.31
317.836	102.31
318.065	105.31
318.295	110.31
318.524	99.31
318.753	112.31
318.983	109.31
319.212	125.31
319.441	117.31
319.67	109.31
319.9	123.31
320.129	121.31
320.358	106.31
320.587	109.31
320.816	112.31
321.046	109.31
321.275	109.31
321.504	115.31
321.733	126.31
321.962	96.31
322.191	105.31
322.42	112.31
322.649	112.31
322.878	118.31
323.108	120.31
323.337	130.31
323.566	117.31
323.795	100.31
324.024	112.31
324.253	104.31
324.482	124.31
324.71	150.31
324.939	175.31
325.168	152.31
325.397	124.31
325.626	115.31
325.855	101.31
326.084	98.31
326.313	123.31
326.542	110.31
326.77	125.31
326.999	115.31
327.228	133.31
327.457	150.31
327.686	143.31
327.914	123.31
328.143	131.31
328.372	108.31
328.6	108.31
328.829	113.31
329.058	104.31
329.287	106.31
329.515	110.31
329.744	113.31
329.972	121.31
330.201	107.31
330.43	120.31
330.658	115.31
330.887	115.31
331.115	121.31
331.344	120.31
331.572	112.31
331.801	130.31
332.03	115.31
332.258	115.31
332.486	121.31
332.715	113.31
332.943	106.31
333.172	121.31
333.4	121.31
333.629	125.31
333.857	122.31
334.085	126.31
334.314	125.31
334.542	120.31
334.771	123.31
334.999	121.31
335.227	117.31
335.455	109.31
335.684	108.31
335.912	105.31
336.14	116.31
336.369	110.31
336.597	117.31
336.825	119.31
337.053	117.31
337.281	115.31
337.51	113.31
337.738	127.31
337.966	113.31
338.194	121.31
338.422	127.31
338.65	122.31
338.878	117.31
339.106	132.31
339.334	107.31
339.562	119.31
339.79	108.31
340.018	114.31
340.246	116.31
340.474	99.31
340.702	95.31
340.93	112.31
341.158	125.31
341.386	122.31
341.614	110.31
341.842	123.31
342.07	100.31
342.298	103.31
342.526	113.31
342.754	113.31
342.981	108.31
343.209	99.31
343.437	108.31
343.665	121.31
343.893	124.31
344.12	121.31
344.348	117.31
344.576	124.31
344.804	114.31
345.031	103.31
345.259	96.31
345.487	95.31
345.714	120.31
345.942	123.31
346.17	101.31
346.397	123.31
346.625	112.31
346.853	111.31
347.08	103.31
347.308	107.31
347.535	89.31
347.763	121.31
347.99	115.31
348.218	121.31
348.445	118.31
348.673	105.31
348.9	127.31
349.128	112.31
349.355	110.31
349.583	95.31
349.81	118.31
350.037	107.31
350.265	108.31
350.492	111.31
350.72	109.31
350.947	97.31
351.174	111.31
351.402	106.31
351.629	104.31
351.856	116.31
352.083	105.31
352.311	112.31
352.538	104.31
352.765	110.31
352.992	123.31
353.22	108.31
353.447	110.31
353.674	105.31
353.901	120.31
354.128	113.31
354.355	120.31
354.583	117.31
354.81	109.31
355.037	112.31
355.264	108.31
355.491	124.31
355.718	121.31
355.945	115.31
356.172	100.31
356.399	105.31
356.626	110.31
356.853	116.31
357.08	115.31
357.307	117.31
357.534	109.31
357.761	115.31
357.988	108.31
358.215	115.31
358.441	112.31
358.668	112.31
358.895	102.31
359.122	108.31
359.349	121.31
359.576	104.31
359.802	109.31
360.029	123.31
360.256	110.31
360.483	111.31
360.709	98.31
360.936	104.31
361.163	108.31
361.39	116.31
361.616	116.31
361.843	92.31
362.07	117.31
362.296	109.31
362.523	101.31
362.749	112.31
362.976	102.31
363.203	120.31
363.429	113.31
363.656	101.31
363.882	115.31
364.109	101.31
364.335	97.31
364.562	112.31
364.788	107.31
365.015	106.31
365.241	118.31
365.468	118.31
365.694	96.31
365.92	105.31
366.147	121.31
366.373	114.31
366.599	128.31
366.826	119.31
367.052	108.31
367.278	111.31
367.505	106.31
367.731	108.31
367.957	112.31
368.184	116.31
368.41	120.31
368.636	101.31
368.862	121.31
369.089	115.31
369.315	118.31
369.541	108.31
369.767	117.31
369.993	113.31
370.219	93.31
370.445	109.31
370.672	115.31
370.898	129.31
371.124	120.31
371.35	106.31
371.576	109.31
371.802	111.31
372.028	116.31
372.254	115.31
372.48	118.31
372.706	115.31
372.932	115.31
373.158	125.31
373.384	112.31
373.61	123.31
373.835	123.31
374.061	115.31
374.287	112.31
374.513	113.31
374.739	109.31
374.965	132.31
375.191	115.31
375.416	122.31
375.642	116.31
375.868	130.31
376.094	120.31
376.319	109.31
376.545	112.31
376.771	120.31
376.997	114.31
377.222	105.31
377.448	127.31
377.674	111.31
377.899	105.31
378.125	125.31
378.35	119.31
378.576	90.31
378.802	121.31
379.027	109.31
379.253	105.31
379.478	119.31
379.704	115.31
379.929	112.31
380.155	116.31
380.38	115.31
380.606	124.31
380.831	117.31
381.057	128.31
381.282	115.31
381.507	107.31
381.733	123.31
381.958	111.31
382.184	105.31
382.409	121.31
382.634	121.31
382.86	109.31
383.085	110.31
383.31	113.31
383.535	129.31
383.761	112.31
383.986	127.31
384.211	120.31
384.436	115.31
384.662	136.31
384.887	122.31
385.112	127.31
385.337	116.31
385.562	121.31
385.787	127.31
386.013	124.31
386.238	130.31
386.463	128.31
386.688	113.31
386.913	124.31
387.138	111.31
387.363	127.31
387.588	116.31
387.813	127.31
388.038	126.31
388.263	111.31
388.488	131.31
388.713	125.31
388.938	113.31
389.163	125.31
389.387	116.31
389.612	121.31
389.837	109.31
390.062	120.31
390.287	121.31
390.512	123.31
390.736	128.31
390.961	122.31
391.186	120.31
391.411	128.31
391.636	110.31
391.86	123.31
392.085	109.31
392.31	135.31
392.534	129.31
392.759	127.31
392.984	124.31
393.208	125.31
393.433	132.31
393.658	122.31
393.882	123.31
394.107	127.31
394.331	113.31
394.556	117.31
394.78	131.31
395.005	135.31
395.229	121.31
395.454	117.31
395.678	122.31
395.903	135.31
396.127	137.31
396.352	124.31
396.576	121.31
396.801	125.31
397.025	118.31
397.249	124.31
397.474	133.31
397.698	117.31
397.922	122.31
398.147	120.31
398.371	128.31
398.595	126.31
398.82	124.31
399.044	119.31
399.268	119.31
399.492	140.31
399.717	149.31
399.941	149.31
400.165	143.31
400.389	133.31
400.613	129.31
400.837	126.31
401.062	129.31
401.286	142.31
401.51	152.31
401.734	135.31
401.958	133.31
402.182	121.31
402.406	126.31
402.63	133.31
402.854	137.31
403.078	119.31
403.302	133.31
403.526	136.31
403.75	131.31
403.974	121.31
404.198	124.31
404.422	131.31
404.645	119.31
404.869	147.31
405.093	138.31
405.317	134.31
405.541	141.31
405.765	128.31
405.988	143.31
406.212	149.31
406.436	115.31
406.66	125.31
406.883	131.31
407.107	146.31
407.331	147.31
407.555	142.31
407.778	134.31
408.002	140.31
408.226	139.31
408.449	148.31
408.673	135.31
408.896	133.31
409.12	131.31
409.344	142.31
409.567	131.31
409.791	116.31
410.014	125.31
410.238	136.31
410.461	129.31
410.685	116.31
410.908	127.31
411.132	124.31
411.355	138.31
411.578	148.31
411.802	134.31
412.025	129.31
412.249	135.31
412.472	119.31
412.695	134.31
412.919	133.31
413.142	131.31
413.365	149.31
413.589	138.31
413.812	135.31
414.035	127.31
414.258	132.31
414.482	124.31
414.705	136.31
414.928	133.31
415.151	134.31
415.374	129.31
415.597	138.31
415.821	136.31
416.044	123.31
416.267	125.31
416.49	127.31
416.713	122.31
416.936	125.31
417.159	136.31
417.382	125.31
417.605	109.31
417.828	121.31
418.051	131.31
418.274	131.31
418.497	128.31
418.72	141.31
418.943	121.31
419.166	148.31
419.389	137.31
419.611	142.31
419.834	135.31
420.057	135.31
420.28	128.31
420.503	123.31
420.726	129.31
420.948	126.31
421.171	141.31
421.394	129.31
421.617	127.31
421.839	131.31
422.062	128.31
422.285	135.31
422.507	144.31
422.73	144.31
422.953	151.31
423.175	144.31
423.398	127.31
423.621	147.31
423.843	127.31
424.066	140.31
424.288	137.31
424.511	145.31
424.733	137.31
424.956	147.31
425.178	128.31
425.401	123.31
425.623	136.31
425.846	126.31
426.068	127.31
426.291	119.31
426.513	119.31
426.735	123.31
426.958	143.31
427.18	138.31
427.402	147.31
427.625	143.31
427.847	136.31
428.069	146.31
428.292	125.31
428.514	125.31
428.736	126.31
428.958	117.31
429.181	135.31
429.403	127.31
429.625	121.31
429.847	122.31
430.069	120.31
430.292	131.31
430.514	124.31
430.736	125.31
430.958	123.31
431.18	127.31
431.402	131.31
431.624	137.31
431.846	124.31
432.068	126.31
432.29	108.31
432.512	131.31
432.734	123.31
432.956	131.31
433.178	122.31
433.4	115.31
433.622	128.31
433.844	131.31
434.066	127.31
434.287	128.31
434.509	127.31
434.731	130.31
434.953	122.31
435.175	113.31
435.397	141.31
435.618	126.31
435.84	126.31
436.062	146.31
436.284	128.31
436.505	129.31
436.727	149.31
436.949	129.31
437.17	131.31
437.392	114.31
437.614	119.31
437.835	132.31
438.057	135.31
438.278	137.31
438.5	144.31
438.721	125.31
438.943	133.31
439.165	110.31
439.386	120.31
439.608	122.31
439.829	141.31
440.05	110.31
440.272	126.31
440.493	125.31
440.715	133.31
440.936	132.31
441.158	133.31
441.379	112.31
441.6	131.31
441.822	141.31
442.043	130.31
442.264	141.31
442.486	151.31
442.707	119.31
442.928	132.31
443.149	138.31
443.371	125.31
443.592	127.31
443.813	139.31
444.034	138.31
444.255	145.31
444.476	137.31
444.698	137.31
444.919	129.31
445.14	259.31
445.361	194.31
445.582	157.31
445.803	147.31
446.024	123.31
446.245	150.31
446.466	131.31
446.687	127.31
446.908	133.31
447.129	137.31
447.35	128.31
447.571	127.31
447.792	127.31
448.013	124.31
448.234	123.31
448.455	134.31
448.675	119.31
448.896	142.31
449.117	129.31
449.338	127.31
449.559	130.31
449.779	143.31
450	137.31
450.221	128.31
450.442	127.31
450.662	132.31
450.883	127.31
451.104	117.31
451.324	113.31
451.545	131.31
451.766	124.31
451.986	117.31
452.207	138.31
452.428	123.31
452.648	118.31
452.869	111.31
453.089	107.31
453.31	121.31
453.53	137.31
453.751	123.31
453.971	115.31
454.192	117.31
454.412	121.31
454.633	115.31
454.853	120.31
455.073	119.31
455.294	112.31
455.514	125.31
455.734	123.31
455.955	111.31
456.175	131.31
456.395	125.31
456.616	125.31
456.836	118.31
457.056	113.31
457.276	121.31
457.497	112.31
457.717	117.31
457.937	115.31
458.157	121.31
458.377	122.31
458.598	131.31
458.818	126.31
459.038	109.31
459.258	119.31
459.478	129.31
459.698	128.31
459.918	137.31
460.138	132.31
460.358	119.31
460.578	137.31
460.798	135.31
461.018	126.31
461.238	127.31
461.458	144.31
461.678	115.31
461.898	115.31
462.118	109.31
462.338	126.31
462.558	125.31
462.777	129.31
462.997	139.31
463.217	140.31
463.437	151.31
463.657	133.31
463.876	131.31
464.096	140.31
464.316	123.31
464.536	139.31
464.755	141.31
464.975	139.31
465.195	132.31
465.414	136.31
465.634	142.31
465.854	113.31
466.073	115.31
466.293	130.31
466.512	128.31
466.732	123.31
466.951	125.31
467.171	115.31
467.391	125.31
467.61	125.31
467.829	118.31
468.049	126.31
468.268	131.31
468.488	132.31
468.707	122.31
468.927	126.31
469.146	90.31
469.365	105.31
469.585	124.31
469.804	121.31
470.023	130.31
470.243	121.31
470.462	120.31
470.681	134.31
470.901	137.31
471.12	122.31
471.339	127.31
471.558	127.31
471.777	122.31
471.997	115.31
472.216	129.31
472.435	135.31
472.654	134.31
472.873	133.31
473.092	129.31
473.311	123.31
473.53	134.31
473.749	133.31
473.968	131.31
474.187	130.31
474.406	138.31
474.625	128.31
474.844	126.31
475.063	104.31
475.282	112.31
475.501	122.31
475.72	125.31
475.939	128.31
476.158	125.31
476.377	112.31
476.596	110.31
476.814	113.31
477.033	143.31
477.252	125.31
477.471	129.31
477.69	135.31
477.908	121.31
478.127	132.31
478.346	126.31
478.564	136.31
478.783	125.31
479.002	140.31
479.22	128.31
479.439	140.31
479.658	129.31
479.876	143.31
480.095	124.31
480.313	138.31
480.532	131.31
480.751	137.31
480.969	129.31
481.188	130.31
481.406	143.31
481.624	129.31
481.843	133.31
482.061	129.31
482.28	133.31
482.498	113.31
482.717	121.31
482.935	119.31
483.153	117.31
483.372	155.31
483.59	133.31
483.808	127.31
484.027	136.31
484.245	104.31
484.463	129.31
484.681	133.31
484.9	136.31
485.118	128.31
485.336	133.31
485.554	121.31
485.772	125.31
485.99	135.31
486.209	117.31
486.427	116.31
486.645	134.31
486.863	142.31
487.081	131.31
487.299	137.31
487.517	139.31
487.735	140.31
487.953	127.31
488.171	149.31
488.389	142.31
488.607	141.31
488.825	128.31
489.043	138.31
489.261	133.31
489.479	129.31
489.696	133.31
489.914	136.31
490.132	153.31
490.35	106.31
490.568	121.31
490.786	146.31
491.003	139.31
491.221	163.31
491.439	131.31
491.657	132.31
491.874	142.31
492.092	138.31
492.31	148.31
492.527	142.31
492.745	141.31
492.963	139.31
493.18	143.31
493.398	143.31
493.615	149.31
493.833	149.31
494.05	131.31
494.268	139.31
494.485	158.31
494.703	135.31
494.92	146.31
495.138	151.31
495.355	162.31
495.573	149.31
495.79	146.31
496.008	163.31
496.225	157.31
496.442	137.31
496.66	147.31
496.877	136.31
497.094	151.31
497.312	140.31
497.529	153.31
497.746	157.31
497.963	153.31
498.181	136.31
498.398	153.31
498.615	168.31
498.832	163.31
499.049	172.31
499.267	172.31
499.484	189.31
499.701	181.31
499.918	192.31
500.135	199.31
500.352	221.31
500.569	233.31
500.786	216.31
501.003	209.31
501.22	198.31
501.437	181.31
501.654	177.31
501.871	172.31
502.088	156.31
502.305	164.31
502.522	168.31
502.739	152.31
502.956	143.31
503.172	157.31
503.389	151.31
503.606	144.31
503.823	149.31
504.04	137.31
504.256	151.31
504.473	136.31
504.69	147.31
504.907	135.31
505.123	143.31
505.34	122.31
