Data from 1968.PennyLincolnUp.Lamp.En5.5.200Scan.071719.P1._HRD10591_14-49-08-969.txt Node
Date: Thu Jul 18 14:49:08 EDT 2019
User: cochatt
Spectrometer: HR+D1059
Trigger mode: 1
Integration Time (sec): 1.000000E-1
Scans to average: 1
Electric dark correction enabled: true
Nonlinearity correction enabled: false
Boxcar width: 0
XAxis mode: Wavelengths
Number of Pixels in Spectrum: 2048
>>>>>Begin Spectral Data<<<<<
223.165	-7.62
223.4	-7.62
223.635	-7.62
223.869	-11.62
224.104	-13.62
224.338	-25.62
224.573	-8.62
224.808	-18.62
225.042	-3.62
225.277	-18.62
225.511	3.38
225.746	-2.62
225.98	9.38
226.215	17.38
226.449	-1.62
226.683	15.38
226.918	39.38
227.152	27.38
227.387	33.38
227.621	53.38
227.856	33.38
228.09	45.38
228.324	53.38
228.559	60.38
228.793	75.38
229.027	106.38
229.262	97.38
229.496	111.38
229.73	113.38
229.964	126.38
230.199	108.38
230.433	122.38
230.667	114.38
230.901	106.38
231.136	107.38
231.37	101.38
231.604	108.38
231.838	121.38
232.072	106.38
232.306	118.38
232.541	120.38
232.775	128.38
233.009	135.38
233.243	122.38
233.477	129.38
233.711	130.38
233.945	124.38
234.179	118.38
234.413	119.38
234.647	124.38
234.881	130.38
235.115	132.38
235.349	128.38
235.583	127.38
235.817	122.38
236.051	125.38
236.285	120.38
236.519	118.38
236.753	130.38
236.987	145.38
237.221	154.38
237.455	183.38
237.689	168.38
237.922	133.38
238.156	133.38
238.39	134.38
238.624	135.38
238.858	127.38
239.091	131.38
239.325	146.38
239.559	142.38
239.793	135.38
240.027	138.38
240.26	136.38
240.494	134.38
240.728	150.38
240.961	152.38
241.195	141.38
241.429	156.38
241.662	151.38
241.896	143.38
242.13	151.38
242.363	145.38
242.597	156.38
242.83	159.38
243.064	165.38
243.298	155.38
243.531	170.38
243.765	164.38
243.998	153.38
244.232	148.38
244.465	162.38
244.699	160.38
244.932	154.38
245.166	158.38
245.399	153.38
245.633	166.38
245.866	167.38
246.099	154.38
246.333	176.38
246.566	164.38
246.8	165.38
247.033	165.38
247.266	183.38
247.5	191.38
247.733	169.38
247.966	172.38
248.2	206.38
248.433	202.38
248.666	186.38
248.899	188.38
249.133	214.38
249.366	206.38
249.599	192.38
249.832	170.38
250.066	177.38
250.299	193.38
250.532	218.38
250.765	203.38
250.998	208.38
251.231	229.38
251.465	223.38
251.698	229.38
251.931	220.38
252.164	200.38
252.397	204.38
252.63	199.38
252.863	220.38
253.096	235.38
253.329	230.38
253.562	205.38
253.795	222.38
254.028	213.38
254.261	244.38
254.494	233.38
254.727	240.38
254.96	252.38
255.193	249.38
255.426	248.38
255.659	226.38
255.892	242.38
256.124	230.38
256.357	227.38
256.59	228.38
256.823	211.38
257.056	225.38
257.289	222.38
257.521	219.38
257.754	230.38
257.987	212.38
258.22	210.38
258.452	240.38
258.685	230.38
258.918	222.38
259.151	231.38
259.383	229.38
259.616	222.38
259.849	229.38
260.081	238.38
260.314	248.38
260.547	257.38
260.779	252.38
261.012	239.38
261.244	241.38
261.477	237.38
261.71	236.38
261.942	241.38
262.175	260.38
262.407	245.38
262.64	217.38
262.872	244.38
263.105	237.38
263.337	248.38
263.57	240.38
263.802	231.38
264.035	232.38
264.267	222.38
264.499	255.38
264.732	256.38
264.964	247.38
265.197	258.38
265.429	231.38
265.661	250.38
265.894	256.38
266.126	253.38
266.358	252.38
266.591	252.38
266.823	247.38
267.055	240.38
267.287	248.38
267.52	247.38
267.752	269.38
267.984	274.38
268.216	264.38
268.448	262.38
268.681	258.38
268.913	266.38
269.145	280.38
269.377	287.38
269.609	278.38
269.841	298.38
270.073	299.38
270.306	292.38
270.538	306.38
270.77	298.38
271.002	329.38
271.234	293.38
271.466	314.38
271.698	302.38
271.93	312.38
272.162	323.38
272.394	320.38
272.626	310.38
272.858	301.38
273.09	287.38
273.322	303.38
273.553	284.38
273.785	304.38
274.017	297.38
274.249	311.38
274.481	294.38
274.713	291.38
274.945	298.38
275.176	300.38
275.408	290.38
275.64	292.38
275.872	291.38
276.104	299.38
276.335	302.38
276.567	310.38
276.799	301.38
277.031	315.38
277.262	340.38
277.494	314.38
277.726	315.38
277.957	302.38
278.189	313.38
278.421	321.38
278.652	311.38
278.884	303.38
279.115	325.38
279.347	324.38
279.579	324.38
279.81	340.38
280.042	345.38
280.273	335.38
280.505	346.38
280.736	333.38
280.968	331.38
281.199	329.38
281.431	324.38
281.662	301.38
281.894	340.38
282.125	324.38
282.356	320.38
282.588	349.38
282.819	341.38
283.051	334.38
283.282	320.38
283.513	328.38
283.745	337.38
283.976	337.38
284.207	334.38
284.439	330.38
284.67	336.38
284.901	340.38
285.132	347.38
285.364	346.38
285.595	346.38
285.826	342.38
286.057	344.38
286.288	341.38
286.52	334.38
286.751	338.38
286.982	350.38
287.213	335.38
287.444	361.38
287.675	353.38
287.906	352.38
288.138	365.38
288.369	380.38
288.6	370.38
288.831	357.38
289.062	366.38
289.293	354.38
289.524	358.38
289.755	361.38
289.986	359.38
290.217	353.38
290.448	363.38
290.679	349.38
290.91	362.38
291.141	358.38
291.371	358.38
291.602	359.38
291.833	361.38
292.064	387.38
292.295	385.38
292.526	358.38
292.757	382.38
292.987	358.38
293.218	345.38
293.449	346.38
293.68	368.38
293.91	357.38
294.141	371.38
294.372	366.38
294.603	342.38
294.833	357.38
295.064	361.38
295.295	360.38
295.525	373.38
295.756	370.38
295.987	372.38
296.217	382.38
296.448	394.38
296.679	386.38
296.909	390.38
297.14	381.38
297.37	392.38
297.601	408.38
297.831	374.38
298.062	397.38
298.292	368.38
298.523	400.38
298.753	394.38
298.984	395.38
299.214	402.38
299.445	410.38
299.675	401.38
299.905	399.38
300.136	391.38
300.366	392.38
300.597	410.38
300.827	427.38
301.057	426.38
301.288	410.38
301.518	413.38
301.748	418.38
301.979	426.38
302.209	414.38
302.439	431.38
302.669	411.38
302.9	402.38
303.13	416.38
303.36	412.38
303.59	410.38
303.82	393.38
304.051	434.38
304.281	431.38
304.511	410.38
304.741	397.38
304.971	424.38
305.201	412.38
305.431	412.38
305.661	427.38
305.891	421.38
306.121	407.38
306.352	411.38
306.582	410.38
306.812	416.38
307.042	397.38
307.272	407.38
307.502	401.38
307.731	423.38
307.961	406.38
308.191	418.38
308.421	419.38
308.651	405.38
308.881	420.38
309.111	415.38
309.341	428.38
309.571	412.38
309.8	459.38
310.03	450.38
310.26	436.38
310.49	431.38
310.72	443.38
310.949	454.38
311.179	429.38
311.409	423.38
311.639	455.38
311.868	451.38
312.098	428.38
312.328	463.38
312.557	466.38
312.787	459.38
313.017	480.38
313.246	447.38
313.476	460.38
313.706	449.38
313.935	478.38
314.165	455.38
314.394	452.38
314.624	477.38
314.853	449.38
315.083	462.38
315.312	466.38
315.542	462.38
315.771	455.38
316.001	447.38
316.23	451.38
316.46	451.38
316.689	450.38
316.919	451.38
317.148	470.38
317.377	437.38
317.607	475.38
317.836	471.38
318.065	457.38
318.295	470.38
318.524	453.38
318.753	441.38
318.983	452.38
319.212	458.38
319.441	453.38
319.67	434.38
319.9	459.38
320.129	467.38
320.358	464.38
320.587	444.38
320.816	455.38
321.046	458.38
321.275	483.38
321.504	433.38
321.733	476.38
321.962	465.38
322.191	465.38
322.42	466.38
322.649	476.38
322.878	496.38
323.108	504.38
323.337	522.38
323.566	529.38
323.795	533.38
324.024	566.38
324.253	612.38
324.482	746.38
324.71	1064.38
324.939	1450.38
325.168	1285.38
325.397	752.38
325.626	589.38
325.855	536.38
326.084	529.38
326.313	518.38
326.542	536.38
326.77	538.38
326.999	614.38
327.228	729.38
327.457	1003.38
327.686	1185.38
327.914	857.38
328.143	655.38
328.372	586.38
328.6	556.38
328.829	577.38
329.058	567.38
329.287	562.38
329.515	548.38
329.744	530.38
329.972	546.38
330.201	540.38
330.43	573.38
330.658	555.38
330.887	628.38
331.115	588.38
331.344	559.38
331.572	540.38
331.801	575.38
332.03	552.38
332.258	580.38
332.486	571.38
332.715	574.38
332.943	620.38
333.172	632.38
333.4	617.38
333.629	619.38
333.857	648.38
334.085	618.38
334.314	621.38
334.542	646.38
334.771	599.38
334.999	629.38
335.227	599.38
335.455	597.38
335.684	573.38
335.912	583.38
336.14	598.38
336.369	568.38
336.597	583.38
336.825	557.38
337.053	572.38
337.281	566.38
337.51	558.38
337.738	554.38
337.966	544.38
338.194	550.38
338.422	558.38
338.65	560.38
338.878	526.38
339.106	533.38
339.334	526.38
339.562	528.38
339.79	519.38
340.018	512.38
340.246	513.38
340.474	524.38
340.702	497.38
340.93	535.38
341.158	522.38
341.386	528.38
341.614	521.38
341.842	506.38
342.07	507.38
342.298	492.38
342.526	509.38
342.754	496.38
342.981	536.38
343.209	498.38
343.437	524.38
343.665	566.38
343.893	571.38
344.12	601.38
344.348	570.38
344.576	558.38
344.804	558.38
345.031	557.38
345.259	526.38
345.487	543.38
345.714	510.38
345.942	503.38
346.17	517.38
346.397	495.38
346.625	486.38
346.853	500.38
347.08	496.38
347.308	492.38
347.535	496.38
347.763	506.38
347.99	501.38
348.218	508.38
348.445	495.38
348.673	502.38
348.9	485.38
349.128	513.38
349.355	486.38
349.583	493.38
349.81	500.38
350.037	480.38
350.265	473.38
350.492	481.38
350.72	491.38
350.947	481.38
351.174	486.38
351.402	493.38
351.629	493.38
351.856	486.38
352.083	496.38
352.311	496.38
352.538	500.38
352.765	520.38
352.992	479.38
353.22	490.38
353.447	505.38
353.674	468.38
353.901	481.38
354.128	497.38
354.355	474.38
354.583	464.38
354.81	486.38
355.037	481.38
355.264	492.38
355.491	473.38
355.718	469.38
355.945	480.38
356.172	487.38
356.399	493.38
356.626	481.38
356.853	480.38
357.08	479.38
357.307	494.38
357.534	487.38
357.761	487.38
357.988	487.38
358.215	470.38
358.441	488.38
358.668	478.38
358.895	487.38
359.122	485.38
359.349	496.38
359.576	489.38
359.802	510.38
360.029	528.38
360.256	505.38
360.483	512.38
360.709	478.38
360.936	504.38
361.163	495.38
361.39	502.38
361.616	486.38
361.843	491.38
362.07	502.38
362.296	484.38
362.523	497.38
362.749	486.38
362.976	484.38
363.203	490.38
363.429	507.38
363.656	485.38
363.882	485.38
364.109	474.38
364.335	469.38
364.562	479.38
364.788	477.38
365.015	475.38
365.241	491.38
365.468	502.38
365.694	477.38
365.92	495.38
366.147	464.38
366.373	478.38
366.599	500.38
366.826	480.38
367.052	475.38
367.278	479.38
367.505	463.38
367.731	498.38
367.957	480.38
368.184	480.38
368.41	459.38
368.636	501.38
368.862	477.38
369.089	498.38
369.315	480.38
369.541	494.38
369.767	494.38
369.993	486.38
370.219	479.38
370.445	504.38
370.672	483.38
370.898	509.38
371.124	501.38
371.35	521.38
371.576	507.38
371.802	498.38
372.028	500.38
372.254	508.38
372.48	522.38
372.706	506.38
372.932	524.38
373.158	516.38
373.384	514.38
373.61	517.38
373.835	525.38
374.061	521.38
374.287	522.38
374.513	542.38
374.739	530.38
374.965	530.38
375.191	545.38
375.416	568.38
375.642	558.38
375.868	530.38
376.094	548.38
376.319	508.38
376.545	500.38
376.771	501.38
376.997	542.38
377.222	515.38
377.448	478.38
377.674	522.38
377.899	485.38
378.125	521.38
378.35	511.38
378.576	492.38
378.802	520.38
379.027	518.38
379.253	486.38
379.478	524.38
379.704	509.38
379.929	524.38
380.155	518.38
380.38	520.38
380.606	536.38
380.831	516.38
381.057	524.38
381.282	508.38
381.507	504.38
381.733	519.38
381.958	531.38
382.184	526.38
382.409	542.38
382.634	544.38
382.86	528.38
383.085	551.38
383.31	550.38
383.535	554.38
383.761	589.38
383.986	556.38
384.211	577.38
384.436	594.38
384.662	597.38
384.887	601.38
385.112	612.38
385.337	605.38
385.562	620.38
385.787	618.38
386.013	617.38
386.238	630.38
386.463	622.38
386.688	589.38
386.913	582.38
387.138	601.38
387.363	623.38
387.588	586.38
387.813	583.38
388.038	592.38
388.263	602.38
388.488	646.38
388.713	601.38
388.938	593.38
389.163	569.38
389.387	568.38
389.612	576.38
389.837	582.38
390.062	559.38
390.287	560.38
390.512	559.38
390.736	602.38
390.961	609.38
391.186	598.38
391.411	603.38
391.636	620.38
391.86	629.38
392.085	644.38
392.31	650.38
392.534	646.38
392.759	615.38
392.984	618.38
393.208	671.38
393.433	792.38
393.658	831.38
393.882	652.38
394.107	610.38
394.331	629.38
394.556	608.38
394.78	624.38
395.005	643.38
395.229	600.38
395.454	630.38
395.678	644.38
395.903	662.38
396.127	662.38
396.352	669.38
396.576	642.38
396.801	683.38
397.025	764.38
397.249	710.38
397.474	652.38
397.698	642.38
397.922	634.38
398.147	636.38
398.371	658.38
398.595	679.38
398.82	694.38
399.044	730.38
399.268	783.38
399.492	848.38
399.717	926.38
399.941	943.38
400.165	930.38
400.389	860.38
400.613	798.38
400.837	732.38
401.062	705.38
401.286	712.38
401.51	686.38
401.734	664.38
401.958	696.38
402.182	697.38
402.406	721.38
402.63	725.38
402.854	741.38
403.078	705.38
403.302	753.38
403.526	738.38
403.75	764.38
403.974	728.38
404.198	775.38
404.422	772.38
404.645	766.38
404.869	760.38
405.093	761.38
405.317	790.38
405.541	792.38
405.765	758.38
405.988	736.38
406.212	764.38
406.436	792.38
406.66	812.38
406.883	799.38
407.107	831.38
407.331	899.38
407.555	918.38
407.778	910.38
408.002	857.38
408.226	839.38
408.449	806.38
408.673	789.38
408.896	813.38
409.12	810.38
409.344	783.38
409.567	745.38
409.791	749.38
410.014	731.38
410.238	751.38
410.461	721.38
410.685	722.38
410.908	738.38
411.132	777.38
411.355	750.38
411.578	749.38
411.802	711.38
412.025	695.38
412.249	720.38
412.472	728.38
412.695	741.38
412.919	722.38
413.142	725.38
413.365	720.38
413.589	700.38
413.812	664.38
414.035	704.38
414.258	702.38
414.482	679.38
414.705	668.38
414.928	688.38
415.151	677.38
415.374	672.38
415.597	692.38
415.821	692.38
416.044	663.38
416.267	681.38
416.49	678.38
416.713	683.38
416.936	658.38
417.159	666.38
417.382	683.38
417.605	672.38
417.828	689.38
418.051	696.38
418.274	659.38
418.497	660.38
418.72	676.38
418.943	682.38
419.166	744.38
419.389	777.38
419.611	754.38
419.834	733.38
420.057	732.38
420.28	690.38
420.503	704.38
420.726	686.38
420.948	699.38
421.171	721.38
421.394	748.38
421.617	702.38
421.839	689.38
422.062	714.38
422.285	697.38
422.507	770.38
422.73	839.38
422.953	854.38
423.175	757.38
423.398	731.38
423.621	752.38
423.843	741.38
424.066	748.38
424.288	745.38
424.511	719.38
424.733	783.38
424.956	805.38
425.178	778.38
425.401	780.38
425.623	807.38
425.846	717.38
426.068	674.38
426.291	676.38
426.513	684.38
426.735	693.38
426.958	718.38
427.18	746.38
427.402	838.38
427.625	884.38
427.847	809.38
428.069	714.38
428.292	692.38
428.514	670.38
428.736	663.38
428.958	671.38
429.181	629.38
429.403	637.38
429.625	628.38
429.847	640.38
430.069	683.38
430.292	685.38
430.514	655.38
430.736	649.38
430.958	647.38
431.18	616.38
431.402	621.38
431.624	584.38
431.846	609.38
432.068	616.38
432.29	642.38
432.512	618.38
432.734	646.38
432.956	640.38
433.178	655.38
433.4	638.38
433.622	654.38
433.844	617.38
434.066	642.38
434.287	644.38
434.509	640.38
434.731	646.38
434.953	672.38
435.175	668.38
435.397	702.38
435.618	694.38
435.84	696.38
436.062	783.38
436.284	765.38
436.505	673.38
436.727	688.38
436.949	645.38
437.17	626.38
437.392	610.38
437.614	643.38
437.835	637.38
438.057	708.38
438.278	768.38
438.5	764.38
438.721	822.38
438.943	792.38
439.165	668.38
439.386	667.38
439.608	666.38
439.829	663.38
440.05	674.38
440.272	704.38
440.493	686.38
440.715	654.38
440.936	653.38
441.158	643.38
441.379	661.38
441.6	686.38
441.822	694.38
442.043	720.38
442.264	766.38
442.486	765.38
442.707	734.38
442.928	713.38
443.149	716.38
443.371	693.38
443.592	772.38
443.813	798.38
444.034	837.38
444.255	770.38
444.476	750.38
444.698	772.38
444.919	761.38
445.14	866.38
445.361	816.38
445.582	764.38
445.803	752.38
446.024	799.38
446.245	798.38
446.466	748.38
446.687	684.38
446.908	646.38
447.129	646.38
447.35	613.38
447.571	623.38
447.792	597.38
448.013	616.38
448.234	611.38
448.455	642.38
448.675	729.38
448.896	773.38
449.117	697.38
449.338	678.38
449.559	728.38
449.779	813.38
450	720.38
450.221	635.38
450.442	606.38
450.662	590.38
450.883	605.38
451.104	625.38
451.324	600.38
451.545	590.38
451.766	559.38
451.986	566.38
452.207	579.38
452.428	578.38
452.648	557.38
452.869	558.38
453.089	564.38
453.31	577.38
453.53	596.38
453.751	584.38
453.971	576.38
454.192	578.38
454.412	575.38
454.633	550.38
454.853	556.38
455.073	556.38
455.294	594.38
455.514	598.38
455.734	603.38
455.955	544.38
456.175	533.38
456.395	549.38
456.616	528.38
456.836	546.38
457.056	542.38
457.276	546.38
457.497	538.38
457.717	548.38
457.937	548.38
458.157	569.38
458.377	548.38
458.598	588.38
458.818	614.38
459.038	670.38
459.258	689.38
459.478	666.38
459.698	649.38
459.918	669.38
460.138	656.38
460.358	671.38
460.578	677.38
460.798	702.38
461.018	700.38
461.238	696.38
461.458	695.38
461.678	700.38
461.898	705.38
462.118	702.38
462.338	722.38
462.558	761.38
462.777	747.38
462.997	798.38
463.217	881.38
463.437	832.38
463.657	814.38
463.876	806.38
464.096	790.38
464.316	794.38
464.536	774.38
464.755	786.38
464.975	773.38
465.195	741.38
465.414	769.38
465.634	705.38
465.854	657.38
466.073	664.38
466.293	620.38
466.512	624.38
466.732	618.38
466.951	598.38
467.171	594.38
467.391	596.38
467.61	607.38
467.829	607.38
468.049	601.38
468.268	591.38
468.488	585.38
468.707	581.38
468.927	606.38
469.146	582.38
469.365	604.38
469.585	590.38
469.804	620.38
470.023	614.38
470.243	626.38
470.462	635.38
470.681	656.38
470.901	648.38
471.12	634.38
471.339	605.38
471.558	609.38
471.777	621.38
471.997	593.38
472.216	597.38
472.435	623.38
472.654	604.38
472.873	584.38
473.092	602.38
473.311	593.38
473.53	588.38
473.749	596.38
473.968	621.38
474.187	666.38
474.406	696.38
474.625	641.38
474.844	568.38
475.063	596.38
475.282	597.38
475.501	622.38
475.72	589.38
475.939	608.38
476.158	622.38
476.377	618.38
476.596	618.38
476.814	649.38
477.033	636.38
477.252	638.38
477.471	651.38
477.69	649.38
477.908	660.38
478.127	702.38
478.346	689.38
478.564	702.38
478.783	697.38
479.002	728.38
479.22	749.38
479.439	743.38
479.658	724.38
479.876	736.38
480.095	777.38
480.313	793.38
480.532	794.38
480.751	768.38
480.969	753.38
481.188	774.38
481.406	762.38
481.624	744.38
481.843	714.38
482.061	717.38
482.28	704.38
482.498	716.38
482.717	704.38
482.935	705.38
483.153	720.38
483.372	659.38
483.59	705.38
483.808	698.38
484.027	699.38
484.245	692.38
484.463	724.38
484.681	699.38
484.9	757.38
485.118	736.38
485.336	698.38
485.554	731.38
485.772	712.38
485.99	744.38
486.209	765.38
486.427	747.38
486.645	732.38
486.863	760.38
487.081	754.38
487.299	759.38
487.517	767.38
487.735	744.38
487.953	754.38
488.171	746.38
488.389	737.38
488.607	746.38
488.825	751.38
489.043	741.38
489.261	741.38
489.479	760.38
489.696	778.38
489.914	760.38
490.132	752.38
490.35	766.38
490.568	749.38
490.786	788.38
491.003	766.38
491.221	786.38
491.439	801.38
491.657	789.38
491.874	790.38
492.092	837.38
492.31	821.38
492.527	833.38
492.745	832.38
492.963	818.38
493.18	822.38
493.398	823.38
493.615	860.38
493.833	838.38
494.05	865.38
494.268	839.38
494.485	871.38
494.703	840.38
494.92	832.38
495.138	830.38
495.355	827.38
495.573	827.38
495.79	846.38
496.008	868.38
496.225	854.38
496.442	873.38
496.66	853.38
496.877	876.38
497.094	866.38
497.312	882.38
497.529	880.38
497.746	920.38
497.963	931.38
498.181	989.38
498.398	1013.38
498.615	1056.38
498.832	1104.38
499.049	1136.38
499.267	1205.38
499.484	1288.38
499.701	1382.38
499.918	1476.38
500.135	1616.38
500.352	1739.38
500.569	1816.38
500.786	1822.38
501.003	1774.38
501.22	1580.38
501.437	1463.38
501.654	1341.38
