Data from 1968.PennyLincolnUp.Lamp.En5.5.200Scan.071719.P1._HRD10591_14-51-37-970.txt Node
Date: Thu Jul 18 14:51:37 EDT 2019
User: cochatt
Spectrometer: HR+D1059
Trigger mode: 1
Integration Time (sec): 1.000000E-1
Scans to average: 1
Electric dark correction enabled: true
Nonlinearity correction enabled: false
Boxcar width: 0
XAxis mode: Wavelengths
Number of Pixels in Spectrum: 2048
>>>>>Begin Spectral Data<<<<<
223.165	-2.25
223.4	-2.25
223.635	-2.25
223.869	-15.25
224.104	-21.25
224.338	-17.25
224.573	-4.25
224.808	-18.25
225.042	-1.25
225.277	-12.25
225.511	-5.25
225.746	8.75
225.98	-0.25
226.215	6.75
226.449	4.75
226.683	24.75
226.918	28.75
227.152	23.75
227.387	37.75
227.621	23.75
227.856	46.75
228.09	45.75
228.324	52.75
228.559	59.75
228.793	61.75
229.027	69.75
229.262	58.75
229.496	69.75
229.73	68.75
229.964	74.75
230.199	80.75
230.433	80.75
230.667	77.75
230.901	79.75
231.136	64.75
231.37	85.75
231.604	79.75
231.838	83.75
232.072	83.75
232.306	84.75
232.541	83.75
232.775	86.75
233.009	95.75
233.243	74.75
233.477	85.75
233.711	88.75
233.945	80.75
234.179	93.75
234.413	68.75
234.647	90.75
234.881	91.75
235.115	84.75
235.349	86.75
235.583	68.75
235.817	76.75
236.051	88.75
236.285	87.75
236.519	87.75
236.753	79.75
236.987	82.75
237.221	58.75
237.455	82.75
237.689	76.75
237.922	67.75
238.156	88.75
238.39	78.75
238.624	92.75
238.858	83.75
239.091	82.75
239.325	79.75
239.559	75.75
239.793	82.75
240.027	83.75
240.26	81.75
240.494	77.75
240.728	84.75
240.961	80.75
241.195	75.75
241.429	84.75
241.662	88.75
241.896	70.75
242.13	65.75
242.363	80.75
242.597	83.75
242.83	80.75
243.064	84.75
243.298	77.75
243.531	88.75
243.765	102.75
243.998	91.75
244.232	73.75
244.465	83.75
244.699	70.75
244.932	85.75
245.166	75.75
245.399	80.75
245.633	83.75
245.866	78.75
246.099	92.75
246.333	87.75
246.566	67.75
246.8	87.75
247.033	82.75
247.266	74.75
247.5	90.75
247.733	85.75
247.966	83.75
248.2	97.75
248.433	88.75
248.666	82.75
248.899	84.75
249.133	96.75
249.366	94.75
249.599	101.75
249.832	86.75
250.066	88.75
250.299	93.75
250.532	81.75
250.765	86.75
250.998	100.75
251.231	97.75
251.465	76.75
251.698	94.75
251.931	86.75
252.164	88.75
252.397	76.75
252.63	92.75
252.863	94.75
253.096	91.75
253.329	92.75
253.562	91.75
253.795	96.75
254.028	97.75
254.261	94.75
254.494	94.75
254.727	78.75
254.96	92.75
255.193	97.75
255.426	71.75
255.659	82.75
255.892	85.75
256.124	93.75
256.357	94.75
256.59	89.75
256.823	85.75
257.056	91.75
257.289	77.75
257.521	95.75
257.754	81.75
257.987	77.75
258.22	87.75
258.452	79.75
258.685	77.75
258.918	97.75
259.151	89.75
259.383	89.75
259.616	86.75
259.849	77.75
260.081	92.75
260.314	97.75
260.547	97.75
260.779	103.75
261.012	91.75
261.244	94.75
261.477	93.75
261.71	93.75
261.942	96.75
262.175	91.75
262.407	83.75
262.64	79.75
262.872	85.75
263.105	93.75
263.337	95.75
263.57	84.75
263.802	105.75
264.035	77.75
264.267	89.75
264.499	92.75
264.732	88.75
264.964	73.75
265.197	88.75
265.429	98.75
265.661	94.75
265.894	90.75
266.126	91.75
266.358	109.75
266.591	102.75
266.823	85.75
267.055	85.75
267.287	90.75
267.52	91.75
267.752	95.75
267.984	72.75
268.216	107.75
268.448	104.75
268.681	88.75
268.913	91.75
269.145	99.75
269.377	77.75
269.609	106.75
269.841	104.75
270.073	98.75
270.306	105.75
270.538	92.75
270.77	93.75
271.002	95.75
271.234	98.75
271.466	98.75
271.698	106.75
271.93	97.75
272.162	88.75
272.394	102.75
272.626	94.75
272.858	92.75
273.09	100.75
273.322	94.75
273.553	79.75
273.785	78.75
274.017	97.75
274.249	105.75
274.481	101.75
274.713	100.75
274.945	100.75
275.176	105.75
275.408	101.75
275.64	104.75
275.872	93.75
276.104	96.75
276.335	103.75
276.567	83.75
276.799	100.75
277.031	88.75
277.262	104.75
277.494	97.75
277.726	92.75
277.957	92.75
278.189	100.75
278.421	98.75
278.652	91.75
278.884	91.75
279.115	81.75
279.347	93.75
279.579	104.75
279.81	100.75
280.042	92.75
280.273	87.75
280.505	89.75
280.736	86.75
280.968	88.75
281.199	90.75
281.431	92.75
281.662	107.75
281.894	98.75
282.125	96.75
282.356	104.75
282.588	104.75
282.819	96.75
283.051	85.75
283.282	90.75
283.513	97.75
283.745	93.75
283.976	90.75
284.207	97.75
284.439	93.75
284.67	101.75
284.901	102.75
285.132	87.75
285.364	100.75
285.595	90.75
285.826	91.75
286.057	97.75
286.288	102.75
286.52	88.75
286.751	86.75
286.982	96.75
287.213	82.75
287.444	102.75
287.675	94.75
287.906	88.75
288.138	112.75
288.369	99.75
288.6	106.75
288.831	98.75
289.062	99.75
289.293	98.75
289.524	96.75
289.755	112.75
289.986	89.75
290.217	101.75
290.448	86.75
290.679	112.75
290.91	99.75
291.141	105.75
291.371	84.75
291.602	100.75
291.833	93.75
292.064	97.75
292.295	93.75
292.526	106.75
292.757	97.75
292.987	93.75
293.218	104.75
293.449	96.75
293.68	93.75
293.91	107.75
294.141	95.75
294.372	89.75
294.603	93.75
294.833	84.75
295.064	100.75
295.295	101.75
295.525	98.75
295.756	88.75
295.987	103.75
296.217	85.75
296.448	106.75
296.679	104.75
296.909	92.75
297.14	105.75
297.37	103.75
297.601	103.75
297.831	97.75
298.062	102.75
298.292	91.75
298.523	106.75
298.753	81.75
298.984	98.75
299.214	102.75
299.445	91.75
299.675	105.75
299.905	117.75
300.136	104.75
300.366	116.75
300.597	109.75
300.827	115.75
301.057	98.75
301.288	109.75
301.518	101.75
301.748	108.75
301.979	99.75
302.209	99.75
302.439	92.75
302.669	95.75
302.9	106.75
303.13	113.75
303.36	111.75
303.59	105.75
303.82	97.75
304.051	110.75
304.281	104.75
304.511	99.75
304.741	83.75
304.971	107.75
305.201	104.75
305.431	105.75
305.661	104.75
305.891	99.75
306.121	108.75
306.352	91.75
306.582	94.75
306.812	96.75
307.042	98.75
307.272	116.75
307.502	105.75
307.731	99.75
307.961	115.75
308.191	104.75
308.421	109.75
308.651	100.75
308.881	109.75
309.111	104.75
309.341	102.75
309.571	96.75
309.8	114.75
310.03	112.75
310.26	103.75
310.49	105.75
310.72	121.75
310.949	99.75
311.179	120.75
311.409	104.75
311.639	98.75
311.868	113.75
312.098	124.75
312.328	110.75
312.557	112.75
312.787	113.75
313.017	114.75
313.246	107.75
313.476	95.75
313.706	90.75
313.935	109.75
314.165	111.75
314.394	92.75
314.624	105.75
314.853	102.75
315.083	91.75
315.312	114.75
315.542	105.75
315.771	106.75
316.001	87.75
316.23	104.75
316.46	104.75
316.689	106.75
316.919	104.75
317.148	108.75
317.377	99.75
317.607	98.75
317.836	126.75
318.065	104.75
318.295	99.75
318.524	101.75
318.753	105.75
318.983	96.75
319.212	101.75
319.441	105.75
319.67	105.75
319.9	105.75
320.129	83.75
320.358	105.75
320.587	112.75
320.816	98.75
321.046	118.75
321.275	114.75
321.504	97.75
321.733	108.75
321.962	104.75
322.191	107.75
322.42	116.75
322.649	104.75
322.878	118.75
323.108	115.75
323.337	113.75
323.566	104.75
323.795	110.75
324.024	106.75
324.253	124.75
324.482	132.75
324.71	152.75
324.939	170.75
325.168	159.75
325.397	129.75
325.626	124.75
325.855	101.75
326.084	95.75
326.313	104.75
326.542	118.75
326.77	98.75
326.999	117.75
327.228	136.75
327.457	145.75
327.686	159.75
327.914	130.75
328.143	109.75
328.372	119.75
328.6	117.75
328.829	106.75
329.058	112.75
329.287	106.75
329.515	108.75
329.744	108.75
329.972	109.75
330.201	107.75
330.43	104.75
330.658	110.75
330.887	103.75
331.115	109.75
331.344	96.75
331.572	110.75
331.801	123.75
332.03	126.75
332.258	116.75
332.486	119.75
332.715	120.75
332.943	126.75
333.172	118.75
333.4	122.75
333.629	110.75
333.857	121.75
334.085	121.75
334.314	122.75
334.542	115.75
334.771	109.75
334.999	91.75
335.227	100.75
335.455	113.75
335.684	134.75
335.912	122.75
336.14	103.75
336.369	126.75
336.597	102.75
336.825	112.75
337.053	102.75
337.281	114.75
337.51	108.75
337.738	114.75
337.966	102.75
338.194	110.75
338.422	100.75
338.65	101.75
338.878	112.75
339.106	95.75
339.334	106.75
339.562	107.75
339.79	88.75
340.018	104.75
340.246	95.75
340.474	113.75
340.702	104.75
340.93	114.75
341.158	104.75
341.386	98.75
341.614	110.75
341.842	93.75
342.07	105.75
342.298	105.75
342.526	95.75
342.754	106.75
342.981	94.75
343.209	102.75
343.437	118.75
343.665	121.75
343.893	112.75
344.12	122.75
344.348	100.75
344.576	105.75
344.804	105.75
345.031	119.75
345.259	110.75
345.487	103.75
345.714	96.75
345.942	86.75
346.17	120.75
346.397	107.75
346.625	99.75
346.853	112.75
347.08	116.75
347.308	103.75
347.535	108.75
347.763	102.75
347.99	117.75
348.218	108.75
348.445	102.75
348.673	107.75
348.9	108.75
349.128	96.75
349.355	97.75
349.583	106.75
349.81	98.75
350.037	108.75
350.265	104.75
350.492	97.75
350.72	116.75
350.947	126.75
351.174	113.75
351.402	107.75
351.629	116.75
351.856	104.75
352.083	106.75
352.311	109.75
352.538	99.75
352.765	113.75
352.992	105.75
353.22	107.75
353.447	106.75
353.674	95.75
353.901	100.75
354.128	104.75
354.355	101.75
354.583	90.75
354.81	111.75
355.037	105.75
355.264	94.75
355.491	105.75
355.718	116.75
355.945	104.75
356.172	100.75
356.399	102.75
356.626	112.75
356.853	96.75
357.08	121.75
357.307	102.75
357.534	114.75
357.761	104.75
357.988	105.75
358.215	94.75
358.441	114.75
358.668	107.75
358.895	124.75
359.122	108.75
359.349	113.75
359.576	112.75
359.802	107.75
360.029	107.75
360.256	110.75
360.483	110.75
360.709	104.75
360.936	96.75
361.163	108.75
361.39	103.75
361.616	118.75
361.843	113.75
362.07	123.75
362.296	102.75
362.523	113.75
362.749	109.75
362.976	100.75
363.203	111.75
363.429	114.75
363.656	110.75
363.882	105.75
364.109	103.75
364.335	108.75
364.562	102.75
364.788	100.75
365.015	123.75
365.241	99.75
365.468	105.75
365.694	111.75
365.92	88.75
366.147	106.75
366.373	112.75
366.599	111.75
366.826	114.75
367.052	99.75
367.278	90.75
367.505	106.75
367.731	107.75
367.957	99.75
368.184	105.75
368.41	108.75
368.636	93.75
368.862	113.75
369.089	112.75
369.315	117.75
369.541	115.75
369.767	106.75
369.993	107.75
370.219	98.75
370.445	101.75
370.672	101.75
370.898	101.75
371.124	112.75
371.35	92.75
371.576	110.75
371.802	99.75
372.028	113.75
372.254	109.75
372.48	91.75
372.706	101.75
372.932	106.75
373.158	114.75
373.384	108.75
373.61	124.75
373.835	112.75
374.061	104.75
374.287	120.75
374.513	99.75
374.739	111.75
374.965	114.75
375.191	121.75
375.416	107.75
375.642	117.75
375.868	116.75
376.094	103.75
376.319	102.75
376.545	96.75
376.771	115.75
376.997	127.75
377.222	101.75
377.448	102.75
377.674	109.75
377.899	94.75
378.125	108.75
378.35	90.75
378.576	113.75
378.802	109.75
379.027	99.75
379.253	110.75
379.478	107.75
379.704	102.75
379.929	118.75
380.155	112.75
380.38	114.75
380.606	102.75
380.831	104.75
381.057	107.75
381.282	104.75
381.507	125.75
381.733	111.75
381.958	100.75
382.184	106.75
382.409	86.75
382.634	114.75
382.86	115.75
383.085	113.75
383.31	116.75
383.535	101.75
383.761	111.75
383.986	120.75
384.211	122.75
384.436	126.75
384.662	121.75
384.887	104.75
385.112	105.75
385.337	102.75
385.562	113.75
385.787	96.75
386.013	108.75
386.238	117.75
386.463	126.75
386.688	110.75
386.913	105.75
387.138	105.75
387.363	97.75
387.588	125.75
387.813	122.75
388.038	109.75
388.263	130.75
388.488	114.75
388.713	97.75
388.938	112.75
389.163	120.75
389.387	117.75
389.612	114.75
389.837	108.75
390.062	110.75
390.287	123.75
390.512	108.75
390.736	123.75
390.961	122.75
391.186	109.75
391.411	114.75
391.636	112.75
391.86	102.75
392.085	110.75
392.31	109.75
392.534	117.75
392.759	116.75
392.984	108.75
393.208	118.75
393.433	118.75
393.658	116.75
393.882	103.75
394.107	110.75
394.331	119.75
394.556	98.75
394.78	108.75
395.005	101.75
395.229	117.75
395.454	132.75
395.678	119.75
395.903	120.75
396.127	121.75
396.352	120.75
396.576	106.75
396.801	110.75
397.025	121.75
397.249	138.75
397.474	111.75
397.698	115.75
397.922	102.75
398.147	102.75
398.371	104.75
398.595	129.75
398.82	117.75
399.044	118.75
399.268	129.75
399.492	148.75
399.717	135.75
399.941	150.75
400.165	136.75
400.389	135.75
400.613	120.75
400.837	117.75
401.062	123.75
401.286	128.75
401.51	118.75
401.734	117.75
401.958	126.75
402.182	128.75
402.406	125.75
402.63	126.75
402.854	101.75
403.078	116.75
403.302	122.75
403.526	126.75
403.75	123.75
403.974	128.75
404.198	130.75
404.422	127.75
404.645	121.75
404.869	138.75
405.093	141.75
405.317	113.75
405.541	139.75
405.765	127.75
405.988	115.75
406.212	124.75
406.436	133.75
406.66	118.75
406.883	133.75
407.107	116.75
407.331	140.75
407.555	119.75
407.778	136.75
408.002	125.75
408.226	131.75
408.449	114.75
408.673	132.75
408.896	129.75
409.12	136.75
409.344	126.75
409.567	118.75
409.791	117.75
410.014	128.75
410.238	122.75
410.461	128.75
410.685	116.75
410.908	129.75
411.132	120.75
411.355	119.75
411.578	133.75
411.802	122.75
412.025	138.75
412.249	134.75
412.472	131.75
412.695	148.75
412.919	124.75
413.142	126.75
413.365	140.75
413.589	128.75
413.812	125.75
414.035	141.75
414.258	124.75
414.482	120.75
414.705	126.75
414.928	110.75
415.151	122.75
415.374	116.75
415.597	130.75
415.821	127.75
416.044	130.75
416.267	137.75
416.49	123.75
416.713	124.75
416.936	125.75
417.159	131.75
417.382	124.75
417.605	122.75
417.828	128.75
418.051	141.75
418.274	139.75
418.497	128.75
418.72	132.75
418.943	133.75
419.166	124.75
419.389	116.75
419.611	114.75
419.834	120.75
420.057	118.75
420.28	133.75
420.503	125.75
420.726	137.75
420.948	120.75
421.171	129.75
421.394	117.75
421.617	132.75
421.839	117.75
422.062	128.75
422.285	123.75
422.507	121.75
422.73	123.75
422.953	133.75
423.175	125.75
423.398	129.75
423.621	132.75
423.843	114.75
424.066	125.75
424.288	120.75
424.511	126.75
424.733	129.75
424.956	125.75
425.178	151.75
425.401	131.75
425.623	143.75
425.846	137.75
426.068	133.75
426.291	129.75
426.513	134.75
426.735	126.75
426.958	125.75
427.18	121.75
427.402	142.75
427.625	152.75
427.847	125.75
428.069	140.75
428.292	128.75
428.514	130.75
428.736	129.75
428.958	126.75
429.181	126.75
429.403	115.75
429.625	123.75
429.847	120.75
430.069	129.75
430.292	123.75
430.514	115.75
430.736	122.75
430.958	120.75
431.18	116.75
431.402	119.75
431.624	117.75
431.846	106.75
432.068	126.75
432.29	112.75
432.512	120.75
432.734	125.75
432.956	120.75
433.178	128.75
433.4	133.75
433.622	122.75
433.844	135.75
434.066	103.75
434.287	124.75
434.509	124.75
434.731	117.75
434.953	125.75
435.175	126.75
435.397	137.75
435.618	118.75
435.84	125.75
436.062	140.75
436.284	134.75
436.505	121.75
436.727	112.75
436.949	140.75
437.17	119.75
437.392	123.75
437.614	125.75
437.835	119.75
438.057	124.75
438.278	141.75
438.5	130.75
438.721	134.75
438.943	140.75
439.165	123.75
439.386	136.75
439.608	128.75
439.829	121.75
440.05	132.75
440.272	111.75
440.493	119.75
440.715	125.75
440.936	130.75
441.158	125.75
441.379	122.75
441.6	142.75
441.822	133.75
442.043	125.75
442.264	142.75
442.486	135.75
442.707	132.75
442.928	120.75
443.149	130.75
443.371	140.75
443.592	140.75
443.813	139.75
444.034	126.75
444.255	131.75
444.476	132.75
444.698	142.75
444.919	131.75
445.14	264.75
445.361	191.75
445.582	120.75
445.803	133.75
446.024	151.75
446.245	132.75
446.466	132.75
446.687	125.75
446.908	123.75
447.129	109.75
447.35	132.75
447.571	128.75
447.792	134.75
448.013	130.75
448.234	116.75
448.455	120.75
448.675	130.75
448.896	124.75
449.117	133.75
449.338	121.75
449.559	130.75
449.779	144.75
450	119.75
450.221	125.75
450.442	134.75
450.662	118.75
450.883	126.75
451.104	118.75
451.324	130.75
451.545	110.75
451.766	107.75
451.986	116.75
452.207	106.75
452.428	113.75
452.648	122.75
452.869	120.75
453.089	133.75
453.31	119.75
453.53	120.75
453.751	104.75
453.971	108.75
454.192	122.75
454.412	130.75
454.633	130.75
454.853	125.75
455.073	105.75
455.294	103.75
455.514	114.75
455.734	102.75
455.955	109.75
456.175	124.75
456.395	109.75
456.616	103.75
456.836	109.75
457.056	118.75
457.276	126.75
457.497	106.75
457.717	107.75
457.937	112.75
458.157	120.75
458.377	122.75
458.598	121.75
458.818	116.75
459.038	101.75
459.258	123.75
459.478	133.75
459.698	129.75
459.918	127.75
460.138	122.75
460.358	115.75
460.578	128.75
460.798	126.75
461.018	139.75
461.238	130.75
461.458	136.75
461.678	118.75
461.898	124.75
462.118	134.75
462.338	125.75
462.558	131.75
462.777	126.75
462.997	138.75
463.217	119.75
463.437	131.75
463.657	140.75
463.876	130.75
464.096	146.75
464.316	120.75
464.536	140.75
464.755	129.75
464.975	136.75
465.195	119.75
465.414	137.75
465.634	126.75
465.854	118.75
466.073	134.75
466.293	117.75
466.512	116.75
466.732	113.75
466.951	128.75
467.171	117.75
467.391	132.75
467.61	123.75
467.829	121.75
468.049	105.75
468.268	121.75
468.488	124.75
468.707	124.75
468.927	112.75
469.146	122.75
469.365	107.75
469.585	112.75
469.804	118.75
470.023	128.75
470.243	129.75
470.462	124.75
470.681	114.75
470.901	103.75
471.12	128.75
471.339	114.75
471.558	132.75
471.777	117.75
471.997	121.75
472.216	128.75
472.435	124.75
472.654	119.75
472.873	106.75
473.092	111.75
473.311	108.75
473.53	115.75
473.749	114.75
473.968	123.75
474.187	120.75
474.406	141.75
474.625	115.75
474.844	108.75
475.063	122.75
475.282	118.75
475.501	132.75
475.72	135.75
475.939	123.75
476.158	123.75
476.377	127.75
476.596	120.75
476.814	124.75
477.033	113.75
477.252	121.75
477.471	129.75
477.69	119.75
477.908	123.75
478.127	135.75
478.346	140.75
478.564	131.75
478.783	121.75
479.002	137.75
479.22	125.75
479.439	129.75
479.658	137.75
479.876	140.75
480.095	134.75
480.313	129.75
480.532	134.75
480.751	136.75
480.969	136.75
481.188	130.75
481.406	128.75
481.624	127.75
481.843	124.75
482.061	124.75
482.28	121.75
482.498	136.75
482.717	131.75
482.935	119.75
483.153	128.75
483.372	116.75
483.59	124.75
483.808	137.75
484.027	128.75
484.245	122.75
484.463	129.75
484.681	128.75
484.9	138.75
485.118	121.75
485.336	117.75
485.554	116.75
485.772	131.75
485.99	128.75
486.209	139.75
486.427	134.75
486.645	126.75
486.863	147.75
487.081	126.75
487.299	118.75
487.517	119.75
487.735	116.75
487.953	149.75
488.171	123.75
488.389	138.75
488.607	133.75
488.825	138.75
489.043	129.75
489.261	137.75
489.479	146.75
489.696	132.75
489.914	134.75
490.132	130.75
490.35	125.75
490.568	118.75
490.786	134.75
491.003	125.75
491.221	139.75
491.439	140.75
491.657	140.75
491.874	131.75
492.092	140.75
492.31	146.75
492.527	147.75
492.745	138.75
492.963	142.75
493.18	142.75
493.398	149.75
493.615	141.75
493.833	142.75
494.05	147.75
494.268	124.75
494.485	146.75
494.703	136.75
494.92	133.75
495.138	150.75
495.355	143.75
495.573	120.75
495.79	133.75
496.008	133.75
496.225	124.75
496.442	141.75
496.66	128.75
496.877	143.75
497.094	147.75
497.312	140.75
497.529	154.75
497.746	133.75
497.963	140.75
498.181	141.75
498.398	143.75
498.615	147.75
498.832	161.75
499.049	157.75
499.267	165.75
499.484	160.75
499.701	180.75
499.918	185.75
500.135	184.75
500.352	197.75
500.569	207.75
500.786	207.75
501.003	198.75
501.22	187.75
501.437	187.75
501.654	159.75
501.871	165.75
502.088	156.75
502.305	165.75
502.522	149.75
502.739	155.75
502.956	142.75
503.172	136.75
503.389	130.75
503.606	125.75
503.823	151.75
504.04	122.75
504.256	148.75
504.473	147.75
504.69	154.75
504.907	149.75
505.123	153.75
505.34	140.75
505.557	140.75
505.773	136.75
505.99	137.75
506.207	128.75
506.423	125.75
