Data from 1968.PennyLincolnUp.Lamp.En5.5.200Scan.071719.P1._HRD10591_14-50-28-969.txt Node
Date: Thu Jul 18 14:50:28 EDT 2019
User: cochatt
Spectrometer: HR+D1059
Trigger mode: 1
Integration Time (sec): 1.000000E-1
Scans to average: 1
Electric dark correction enabled: true
Nonlinearity correction enabled: false
Boxcar width: 0
XAxis mode: Wavelengths
Number of Pixels in Spectrum: 2048
>>>>>Begin Spectral Data<<<<<
223.165	-5.19
223.4	-5.19
223.635	-5.19
223.869	-18.19
224.104	-7.19
224.338	-13.19
224.573	-27.19
224.808	-8.19
225.042	-10.19
225.277	-16.19
225.511	-10.19
225.746	3.81
225.98	5.81
226.215	6.81
226.449	20.81
226.683	25.81
226.918	22.81
227.152	29.81
227.387	43.81
227.621	40.81
227.856	57.81
228.09	51.81
228.324	53.81
228.559	55.81
228.793	51.81
229.027	67.81
229.262	73.81
229.496	68.81
229.73	74.81
229.964	71.81
230.199	79.81
230.433	72.81
230.667	60.81
230.901	67.81
231.136	88.81
231.37	83.81
231.604	84.81
231.838	60.81
232.072	77.81
232.306	77.81
232.541	89.81
232.775	78.81
233.009	84.81
233.243	91.81
233.477	86.81
233.711	90.81
233.945	83.81
234.179	84.81
234.413	85.81
234.647	85.81
234.881	77.81
235.115	84.81
235.349	75.81
235.583	76.81
235.817	81.81
236.051	85.81
236.285	75.81
236.519	89.81
236.753	76.81
236.987	77.81
237.221	81.81
237.455	86.81
237.689	91.81
237.922	97.81
238.156	91.81
238.39	75.81
238.624	72.81
238.858	78.81
239.091	77.81
239.325	80.81
239.559	89.81
239.793	73.81
240.027	89.81
240.26	75.81
240.494	87.81
240.728	86.81
240.961	84.81
241.195	78.81
241.429	82.81
241.662	82.81
241.896	79.81
242.13	84.81
242.363	91.81
242.597	91.81
242.83	75.81
243.064	76.81
243.298	72.81
243.531	93.81
243.765	91.81
243.998	89.81
244.232	75.81
244.465	74.81
244.699	78.81
244.932	82.81
245.166	77.81
245.399	71.81
245.633	96.81
245.866	85.81
246.099	82.81
246.333	75.81
246.566	71.81
246.8	89.81
247.033	85.81
247.266	94.81
247.5	75.81
247.733	85.81
247.966	83.81
248.2	69.81
248.433	78.81
248.666	85.81
248.899	84.81
249.133	93.81
249.366	93.81
249.599	81.81
249.832	88.81
250.066	92.81
250.299	78.81
250.532	97.81
250.765	78.81
250.998	88.81
251.231	83.81
251.465	95.81
251.698	93.81
251.931	73.81
252.164	62.81
252.397	90.81
252.63	93.81
252.863	76.81
253.096	86.81
253.329	81.81
253.562	84.81
253.795	82.81
254.028	92.81
254.261	86.81
254.494	97.81
254.727	83.81
254.96	101.81
255.193	86.81
255.426	93.81
255.659	89.81
255.892	101.81
256.124	84.81
256.357	84.81
256.59	80.81
256.823	68.81
257.056	77.81
257.289	90.81
257.521	88.81
257.754	96.81
257.987	81.81
258.22	73.81
258.452	83.81
258.685	90.81
258.918	78.81
259.151	103.81
259.383	92.81
259.616	100.81
259.849	82.81
260.081	89.81
260.314	89.81
260.547	93.81
260.779	96.81
261.012	86.81
261.244	94.81
261.477	94.81
261.71	92.81
261.942	109.81
262.175	88.81
262.407	77.81
262.64	91.81
262.872	79.81
263.105	101.81
263.337	92.81
263.57	88.81
263.802	86.81
264.035	99.81
264.267	81.81
264.499	90.81
264.732	82.81
264.964	83.81
265.197	85.81
265.429	89.81
265.661	82.81
265.894	95.81
266.126	89.81
266.358	89.81
266.591	91.81
266.823	74.81
267.055	82.81
267.287	83.81
267.52	86.81
267.752	94.81
267.984	98.81
268.216	72.81
268.448	100.81
268.681	84.81
268.913	89.81
269.145	110.81
269.377	90.81
269.609	79.81
269.841	77.81
270.073	88.81
270.306	88.81
270.538	89.81
270.77	84.81
271.002	97.81
271.234	94.81
271.466	104.81
271.698	83.81
271.93	99.81
272.162	89.81
272.394	99.81
272.626	92.81
272.858	90.81
273.09	98.81
273.322	96.81
273.553	99.81
273.785	101.81
274.017	93.81
274.249	97.81
274.481	100.81
274.713	95.81
274.945	96.81
275.176	91.81
275.408	100.81
275.64	71.81
275.872	99.81
276.104	100.81
276.335	98.81
276.567	94.81
276.799	92.81
277.031	117.81
277.262	94.81
277.494	101.81
277.726	110.81
277.957	78.81
278.189	98.81
278.421	99.81
278.652	102.81
278.884	109.81
279.115	93.81
279.347	98.81
279.579	98.81
279.81	105.81
280.042	75.81
280.273	82.81
280.505	93.81
280.736	98.81
280.968	96.81
281.199	102.81
281.431	92.81
281.662	84.81
281.894	112.81
282.125	87.81
282.356	101.81
282.588	101.81
282.819	89.81
283.051	96.81
283.282	86.81
283.513	94.81
283.745	107.81
283.976	107.81
284.207	83.81
284.439	104.81
284.67	89.81
284.901	100.81
285.132	97.81
285.364	99.81
285.595	102.81
285.826	115.81
286.057	100.81
286.288	94.81
286.52	100.81
286.751	96.81
286.982	98.81
287.213	104.81
287.444	94.81
287.675	92.81
287.906	116.81
288.138	94.81
288.369	91.81
288.6	91.81
288.831	102.81
289.062	94.81
289.293	101.81
289.524	115.81
289.755	95.81
289.986	100.81
290.217	99.81
290.448	96.81
290.679	98.81
290.91	96.81
291.141	97.81
291.371	113.81
291.602	104.81
291.833	105.81
292.064	103.81
292.295	104.81
292.526	106.81
292.757	105.81
292.987	97.81
293.218	105.81
293.449	107.81
293.68	100.81
293.91	100.81
294.141	98.81
294.372	110.81
294.603	97.81
294.833	102.81
295.064	102.81
295.295	98.81
295.525	106.81
295.756	104.81
295.987	91.81
296.217	95.81
296.448	108.81
296.679	100.81
296.909	105.81
297.14	117.81
297.37	114.81
297.601	100.81
297.831	114.81
298.062	102.81
298.292	88.81
298.523	96.81
298.753	85.81
298.984	111.81
299.214	99.81
299.445	96.81
299.675	105.81
299.905	112.81
300.136	87.81
300.366	108.81
300.597	109.81
300.827	96.81
301.057	112.81
301.288	105.81
301.518	106.81
301.748	104.81
301.979	105.81
302.209	97.81
302.439	93.81
302.669	115.81
302.9	111.81
303.13	92.81
303.36	90.81
303.59	110.81
303.82	115.81
304.051	103.81
304.281	112.81
304.511	106.81
304.741	107.81
304.971	109.81
305.201	93.81
305.431	98.81
305.661	106.81
305.891	105.81
306.121	111.81
306.352	114.81
306.582	99.81
306.812	98.81
307.042	99.81
307.272	110.81
307.502	97.81
307.731	112.81
307.961	85.81
308.191	95.81
308.421	114.81
308.651	107.81
308.881	94.81
309.111	98.81
309.341	91.81
309.571	108.81
309.8	96.81
310.03	112.81
310.26	114.81
310.49	100.81
310.72	105.81
310.949	102.81
311.179	99.81
311.409	95.81
311.639	105.81
311.868	120.81
312.098	112.81
312.328	107.81
312.557	112.81
312.787	112.81
313.017	120.81
313.246	108.81
313.476	106.81
313.706	109.81
313.935	106.81
314.165	112.81
314.394	109.81
314.624	101.81
314.853	135.81
315.083	98.81
315.312	100.81
315.542	105.81
315.771	103.81
316.001	99.81
316.23	105.81
316.46	103.81
316.689	88.81
316.919	106.81
317.148	114.81
317.377	106.81
317.607	116.81
317.836	112.81
318.065	119.81
318.295	118.81
318.524	104.81
318.753	105.81
318.983	115.81
319.212	103.81
319.441	94.81
319.67	95.81
319.9	90.81
320.129	132.81
320.358	114.81
320.587	114.81
320.816	116.81
321.046	104.81
321.275	108.81
321.504	104.81
321.733	117.81
321.962	108.81
322.191	98.81
322.42	113.81
322.649	101.81
322.878	117.81
323.108	93.81
323.337	109.81
323.566	94.81
323.795	112.81
324.024	116.81
324.253	132.81
324.482	133.81
324.71	160.81
324.939	189.81
325.168	152.81
325.397	126.81
325.626	114.81
325.855	116.81
326.084	116.81
326.313	113.81
326.542	128.81
326.77	110.81
326.999	120.81
327.228	129.81
327.457	138.81
327.686	164.81
327.914	132.81
328.143	125.81
328.372	107.81
328.6	124.81
328.829	128.81
329.058	106.81
329.287	113.81
329.515	112.81
329.744	114.81
329.972	115.81
330.201	111.81
330.43	104.81
330.658	117.81
330.887	116.81
331.115	108.81
331.344	122.81
331.572	122.81
331.801	113.81
332.03	106.81
332.258	116.81
332.486	116.81
332.715	119.81
332.943	107.81
333.172	100.81
333.4	110.81
333.629	125.81
333.857	117.81
334.085	117.81
334.314	114.81
334.542	122.81
334.771	124.81
334.999	112.81
335.227	117.81
335.455	110.81
335.684	108.81
335.912	118.81
336.14	108.81
336.369	101.81
336.597	114.81
336.825	118.81
337.053	123.81
337.281	101.81
337.51	117.81
337.738	114.81
337.966	122.81
338.194	120.81
338.422	109.81
338.65	123.81
338.878	113.81
339.106	111.81
339.334	106.81
339.562	99.81
339.79	98.81
340.018	108.81
340.246	108.81
340.474	116.81
340.702	118.81
340.93	113.81
341.158	104.81
341.386	114.81
341.614	108.81
341.842	100.81
342.07	109.81
342.298	110.81
342.526	103.81
342.754	110.81
342.981	107.81
343.209	121.81
343.437	114.81
343.665	118.81
343.893	130.81
344.12	101.81
344.348	108.81
344.576	112.81
344.804	119.81
345.031	128.81
345.259	116.81
345.487	121.81
345.714	120.81
345.942	114.81
346.17	114.81
346.397	111.81
346.625	101.81
346.853	104.81
347.08	113.81
347.308	98.81
347.535	104.81
347.763	103.81
347.99	125.81
348.218	122.81
348.445	97.81
348.673	104.81
348.9	101.81
349.128	112.81
349.355	114.81
349.583	117.81
349.81	107.81
350.037	121.81
350.265	101.81
350.492	107.81
350.72	105.81
350.947	100.81
351.174	103.81
351.402	115.81
351.629	99.81
351.856	109.81
352.083	109.81
352.311	130.81
352.538	110.81
352.765	106.81
352.992	114.81
353.22	101.81
353.447	112.81
353.674	104.81
353.901	94.81
354.128	107.81
354.355	117.81
354.583	117.81
354.81	91.81
355.037	107.81
355.264	107.81
355.491	107.81
355.718	113.81
355.945	116.81
356.172	111.81
356.399	122.81
356.626	103.81
356.853	101.81
357.08	112.81
357.307	109.81
357.534	106.81
357.761	83.81
357.988	118.81
358.215	119.81
358.441	97.81
358.668	107.81
358.895	115.81
359.122	110.81
359.349	107.81
359.576	107.81
359.802	103.81
360.029	105.81
360.256	110.81
360.483	123.81
360.709	104.81
360.936	114.81
361.163	114.81
361.39	109.81
361.616	112.81
361.843	101.81
362.07	104.81
362.296	110.81
362.523	99.81
362.749	105.81
362.976	105.81
363.203	101.81
363.429	126.81
363.656	116.81
363.882	109.81
364.109	106.81
364.335	103.81
364.562	102.81
364.788	116.81
365.015	107.81
365.241	122.81
365.468	118.81
365.694	114.81
365.92	134.81
366.147	114.81
366.373	123.81
366.599	105.81
366.826	100.81
367.052	108.81
367.278	102.81
367.505	118.81
367.731	105.81
367.957	123.81
368.184	117.81
368.41	114.81
368.636	106.81
368.862	108.81
369.089	115.81
369.315	101.81
369.541	100.81
369.767	117.81
369.993	120.81
370.219	121.81
370.445	114.81
370.672	107.81
370.898	120.81
371.124	119.81
371.35	116.81
371.576	108.81
371.802	113.81
372.028	98.81
372.254	114.81
372.48	114.81
372.706	117.81
372.932	123.81
373.158	106.81
373.384	109.81
373.61	121.81
373.835	126.81
374.061	120.81
374.287	117.81
374.513	114.81
374.739	107.81
374.965	112.81
375.191	118.81
375.416	117.81
375.642	116.81
375.868	129.81
376.094	107.81
376.319	116.81
376.545	106.81
376.771	100.81
376.997	106.81
377.222	132.81
377.448	116.81
377.674	123.81
377.899	109.81
378.125	114.81
378.35	120.81
378.576	108.81
378.802	118.81
379.027	119.81
379.253	116.81
379.478	118.81
379.704	112.81
379.929	112.81
380.155	105.81
380.38	104.81
380.606	117.81
380.831	119.81
381.057	129.81
381.282	132.81
381.507	107.81
381.733	112.81
381.958	107.81
382.184	115.81
382.409	107.81
382.634	118.81
382.86	112.81
383.085	116.81
383.31	103.81
383.535	114.81
383.761	117.81
383.986	113.81
384.211	118.81
384.436	121.81
384.662	103.81
384.887	121.81
385.112	120.81
385.337	107.81
385.562	122.81
385.787	121.81
386.013	118.81
386.238	102.81
386.463	118.81
386.688	120.81
386.913	129.81
387.138	119.81
387.363	124.81
387.588	133.81
387.813	113.81
388.038	113.81
388.263	131.81
388.488	104.81
388.713	106.81
388.938	113.81
389.163	125.81
389.387	117.81
389.612	124.81
389.837	116.81
390.062	118.81
390.287	125.81
390.512	108.81
390.736	101.81
390.961	119.81
391.186	126.81
391.411	136.81
391.636	115.81
391.86	115.81
392.085	114.81
392.31	129.81
392.534	121.81
392.759	122.81
392.984	131.81
393.208	120.81
393.433	128.81
393.658	128.81
393.882	120.81
394.107	118.81
394.331	135.81
394.556	113.81
394.78	124.81
395.005	132.81
395.229	121.81
395.454	114.81
395.678	122.81
395.903	117.81
396.127	124.81
396.352	134.81
396.576	129.81
396.801	126.81
397.025	124.81
397.249	122.81
397.474	110.81
397.698	112.81
397.922	108.81
398.147	131.81
398.371	104.81
398.595	124.81
398.82	127.81
399.044	117.81
399.268	138.81
399.492	130.81
399.717	148.81
399.941	149.81
400.165	156.81
400.389	138.81
400.613	131.81
400.837	125.81
401.062	121.81
401.286	118.81
401.51	105.81
401.734	124.81
401.958	114.81
402.182	142.81
402.406	147.81
402.63	136.81
402.854	137.81
403.078	129.81
403.302	128.81
403.526	133.81
403.75	135.81
403.974	136.81
404.198	146.81
404.422	143.81
404.645	141.81
404.869	134.81
405.093	127.81
405.317	122.81
405.541	132.81
405.765	137.81
405.988	121.81
406.212	137.81
406.436	131.81
406.66	132.81
406.883	130.81
407.107	131.81
407.331	129.81
407.555	137.81
407.778	124.81
408.002	139.81
408.226	129.81
408.449	153.81
408.673	137.81
408.896	130.81
409.12	116.81
409.344	143.81
409.567	128.81
409.791	139.81
410.014	130.81
410.238	118.81
410.461	128.81
410.685	139.81
410.908	138.81
411.132	135.81
411.355	129.81
411.578	123.81
411.802	117.81
412.025	135.81
412.249	128.81
412.472	137.81
412.695	129.81
412.919	140.81
413.142	124.81
413.365	130.81
413.589	120.81
413.812	131.81
414.035	134.81
414.258	140.81
414.482	132.81
414.705	116.81
414.928	125.81
415.151	119.81
415.374	132.81
415.597	124.81
415.821	117.81
416.044	119.81
416.267	122.81
416.49	117.81
416.713	132.81
416.936	117.81
417.159	126.81
417.382	114.81
417.605	125.81
417.828	137.81
418.051	133.81
418.274	131.81
418.497	125.81
418.72	136.81
418.943	128.81
419.166	129.81
419.389	137.81
419.611	123.81
419.834	131.81
420.057	139.81
420.28	126.81
420.503	133.81
420.726	133.81
420.948	145.81
421.171	132.81
421.394	144.81
421.617	116.81
421.839	137.81
422.062	128.81
422.285	118.81
422.507	123.81
422.73	126.81
422.953	122.81
423.175	135.81
423.398	114.81
423.621	128.81
423.843	141.81
424.066	144.81
424.288	132.81
424.511	157.81
424.733	140.81
424.956	134.81
425.178	128.81
425.401	146.81
425.623	138.81
425.846	120.81
426.068	139.81
426.291	137.81
426.513	128.81
426.735	125.81
426.958	122.81
427.18	122.81
427.402	127.81
427.625	150.81
427.847	124.81
428.069	140.81
428.292	134.81
428.514	125.81
428.736	122.81
428.958	121.81
429.181	122.81
429.403	117.81
429.625	134.81
429.847	118.81
430.069	127.81
430.292	130.81
430.514	122.81
430.736	122.81
430.958	118.81
431.18	128.81
431.402	126.81
431.624	113.81
431.846	117.81
432.068	142.81
432.29	115.81
432.512	115.81
432.734	117.81
432.956	117.81
433.178	141.81
433.4	124.81
433.622	109.81
433.844	110.81
434.066	128.81
434.287	129.81
434.509	132.81
434.731	129.81
434.953	120.81
435.175	130.81
435.397	115.81
435.618	116.81
435.84	130.81
436.062	146.81
436.284	137.81
436.505	137.81
436.727	129.81
436.949	122.81
437.17	117.81
437.392	113.81
437.614	107.81
437.835	132.81
438.057	143.81
438.278	122.81
438.5	135.81
438.721	134.81
438.943	134.81
439.165	130.81
439.386	106.81
439.608	123.81
439.829	124.81
440.05	117.81
440.272	124.81
440.493	119.81
440.715	133.81
440.936	116.81
441.158	114.81
441.379	130.81
441.6	124.81
441.822	130.81
442.043	122.81
442.264	138.81
442.486	126.81
442.707	126.81
442.928	128.81
443.149	132.81
443.371	130.81
443.592	142.81
443.813	136.81
444.034	136.81
444.255	135.81
444.476	138.81
444.698	140.81
444.919	150.81
445.14	270.81
445.361	205.81
445.582	136.81
445.803	149.81
446.024	148.81
446.245	146.81
446.466	132.81
446.687	120.81
446.908	141.81
447.129	128.81
447.35	109.81
447.571	117.81
447.792	141.81
448.013	125.81
448.234	116.81
448.455	122.81
448.675	142.81
448.896	124.81
449.117	130.81
449.338	135.81
449.559	137.81
449.779	137.81
450	136.81
450.221	112.81
450.442	130.81
450.662	125.81
450.883	126.81
451.104	131.81
451.324	123.81
451.545	115.81
451.766	128.81
451.986	121.81
452.207	116.81
452.428	114.81
452.648	115.81
452.869	123.81
453.089	120.81
453.31	112.81
453.53	101.81
453.751	119.81
453.971	118.81
454.192	126.81
454.412	130.81
454.633	134.81
454.853	130.81
455.073	113.81
455.294	109.81
455.514	124.81
455.734	125.81
455.955	121.81
456.175	123.81
456.395	130.81
456.616	124.81
456.836	105.81
457.056	114.81
457.276	109.81
457.497	108.81
457.717	123.81
457.937	114.81
458.157	114.81
458.377	104.81
458.598	118.81
458.818	122.81
459.038	129.81
459.258	130.81
459.478	130.81
459.698	121.81
459.918	127.81
460.138	127.81
460.358	127.81
460.578	137.81
460.798	149.81
461.018	120.81
461.238	135.81
461.458	133.81
461.678	124.81
461.898	131.81
462.118	135.81
462.338	122.81
462.558	143.81
462.777	113.81
462.997	128.81
463.217	137.81
463.437	149.81
463.657	132.81
463.876	148.81
464.096	142.81
464.316	130.81
464.536	138.81
464.755	142.81
464.975	128.81
465.195	129.81
465.414	128.81
465.634	124.81
465.854	125.81
466.073	124.81
466.293	134.81
466.512	124.81
466.732	132.81
466.951	126.81
467.171	109.81
467.391	127.81
467.61	128.81
467.829	113.81
468.049	117.81
468.268	116.81
468.488	120.81
468.707	125.81
468.927	128.81
469.146	119.81
469.365	125.81
469.585	121.81
469.804	130.81
470.023	126.81
470.243	133.81
470.462	118.81
470.681	130.81
470.901	123.81
471.12	123.81
471.339	128.81
471.558	118.81
471.777	106.81
471.997	123.81
472.216	130.81
472.435	116.81
472.654	120.81
472.873	107.81
473.092	115.81
473.311	121.81
473.53	124.81
473.749	118.81
473.968	123.81
474.187	127.81
474.406	132.81
474.625	125.81
474.844	136.81
475.063	136.81
475.282	126.81
475.501	122.81
475.72	125.81
475.939	113.81
476.158	132.81
476.377	150.81
476.596	137.81
476.814	117.81
477.033	123.81
477.252	112.81
477.471	118.81
477.69	142.81
477.908	119.81
478.127	120.81
478.346	139.81
478.564	152.81
478.783	126.81
479.002	137.81
479.22	125.81
479.439	140.81
479.658	133.81
479.876	136.81
480.095	136.81
480.313	128.81
480.532	133.81
480.751	131.81
480.969	135.81
481.188	132.81
481.406	142.81
481.624	137.81
481.843	132.81
482.061	136.81
482.28	117.81
482.498	134.81
482.717	115.81
482.935	134.81
483.153	129.81
483.372	126.81
483.59	135.81
483.808	141.81
484.027	130.81
484.245	122.81
484.463	133.81
484.681	145.81
484.9	131.81
485.118	132.81
485.336	126.81
485.554	99.81
485.772	138.81
485.99	124.81
486.209	155.81
486.427	134.81
486.645	128.81
486.863	120.81
487.081	124.81
487.299	135.81
487.517	128.81
487.735	131.81
487.953	122.81
488.171	143.81
488.389	123.81
488.607	141.81
488.825	130.81
489.043	135.81
489.261	121.81
489.479	141.81
489.696	142.81
489.914	125.81
490.132	132.81
490.35	148.81
490.568	132.81
490.786	128.81
491.003	141.81
491.221	126.81
491.439	123.81
491.657	145.81
491.874	143.81
492.092	139.81
492.31	155.81
492.527	144.81
492.745	133.81
492.963	137.81
493.18	140.81
493.398	146.81
493.615	141.81
493.833	138.81
494.05	148.81
494.268	147.81
494.485	138.81
494.703	148.81
494.92	138.81
495.138	139.81
495.355	152.81
495.573	147.81
495.79	146.81
496.008	149.81
496.225	147.81
496.442	150.81
496.66	150.81
496.877	141.81
497.094	140.81
497.312	145.81
497.529	138.81
497.746	153.81
497.963	150.81
498.181	140.81
498.398	149.81
498.615	156.81
498.832	176.81
499.049	160.81
499.267	166.81
499.484	177.81
499.701	189.81
499.918	171.81
500.135	201.81
500.352	217.81
500.569	222.81
500.786	226.81
501.003	192.81
501.22	188.81
501.437	168.81
501.654	182.81
501.871	166.81
502.088	173.81
502.305	163.81
502.522	156.81
502.739	160.81
502.956	151.81
503.172	145.81
503.389	155.81
503.606	134.81
503.823	139.81
504.04	146.81
504.256	138.81
504.473	145.81
504.69	148.81
504.907	140.81
505.123	136.81
505.34	143.81
505.557	136.81
505.773	154.81
505.99	133.81
