Data from 1968.PennyLincolnUp.Lamp.En5.5.200Scan.071719.P1._HRD10591_14-50-56-969.txt Node
Date: Thu Jul 18 14:50:56 EDT 2019
User: cochatt
Spectrometer: HR+D1059
Trigger mode: 1
Integration Time (sec): 1.000000E-1
Scans to average: 1
Electric dark correction enabled: true
Nonlinearity correction enabled: false
Boxcar width: 0
XAxis mode: Wavelengths
Number of Pixels in Spectrum: 2048
>>>>>Begin Spectral Data<<<<<
223.165	-13.5
223.4	-13.5
223.635	-13.5
223.869	-10.5
224.104	-19.5
224.338	-20.5
224.573	-18.5
224.808	-10.5
225.042	-12.5
225.277	-3.5
225.511	-0.5
225.746	0.5
225.98	5.5
226.215	22.5
226.449	18.5
226.683	21.5
226.918	19.5
227.152	21.5
227.387	32.5
227.621	44.5
227.856	40.5
228.09	46.5
228.324	40.5
228.559	47.5
228.793	51.5
229.027	47.5
229.262	58.5
229.496	72.5
229.73	79.5
229.964	90.5
230.199	71.5
230.433	85.5
230.667	82.5
230.901	74.5
231.136	87.5
231.37	80.5
231.604	77.5
231.838	88.5
232.072	82.5
232.306	76.5
232.541	68.5
232.775	74.5
233.009	63.5
233.243	74.5
233.477	78.5
233.711	89.5
233.945	91.5
234.179	84.5
234.413	96.5
234.647	84.5
234.881	88.5
235.115	90.5
235.349	77.5
235.583	70.5
235.817	78.5
236.051	92.5
236.285	79.5
236.519	73.5
236.753	71.5
236.987	79.5
237.221	84.5
237.455	76.5
237.689	81.5
237.922	78.5
238.156	74.5
238.39	75.5
238.624	83.5
238.858	65.5
239.091	74.5
239.325	77.5
239.559	77.5
239.793	75.5
240.027	85.5
240.26	87.5
240.494	92.5
240.728	72.5
240.961	91.5
241.195	91.5
241.429	80.5
241.662	74.5
241.896	83.5
242.13	83.5
242.363	78.5
242.597	69.5
242.83	83.5
243.064	90.5
243.298	70.5
243.531	86.5
243.765	81.5
243.998	84.5
244.232	89.5
244.465	81.5
244.699	87.5
244.932	99.5
245.166	49.5
245.399	86.5
245.633	82.5
245.866	79.5
246.099	79.5
246.333	91.5
246.566	71.5
246.8	76.5
247.033	90.5
247.266	86.5
247.5	75.5
247.733	78.5
247.966	86.5
248.2	73.5
248.433	83.5
248.666	78.5
248.899	99.5
249.133	98.5
249.366	99.5
249.599	80.5
249.832	87.5
250.066	98.5
250.299	90.5
250.532	93.5
250.765	89.5
250.998	92.5
251.231	86.5
251.465	90.5
251.698	85.5
251.931	83.5
252.164	90.5
252.397	74.5
252.63	104.5
252.863	102.5
253.096	89.5
253.329	84.5
253.562	89.5
253.795	101.5
254.028	78.5
254.261	85.5
254.494	80.5
254.727	99.5
254.96	91.5
255.193	90.5
255.426	88.5
255.659	92.5
255.892	95.5
256.124	100.5
256.357	94.5
256.59	74.5
256.823	84.5
257.056	95.5
257.289	85.5
257.521	89.5
257.754	82.5
257.987	93.5
258.22	106.5
258.452	79.5
258.685	98.5
258.918	95.5
259.151	71.5
259.383	94.5
259.616	93.5
259.849	90.5
260.081	93.5
260.314	106.5
260.547	100.5
260.779	97.5
261.012	101.5
261.244	94.5
261.477	84.5
261.71	93.5
261.942	89.5
262.175	94.5
262.407	104.5
262.64	78.5
262.872	91.5
263.105	98.5
263.337	107.5
263.57	93.5
263.802	77.5
264.035	90.5
264.267	90.5
264.499	94.5
264.732	91.5
264.964	104.5
265.197	79.5
265.429	105.5
265.661	93.5
265.894	94.5
266.126	109.5
266.358	89.5
266.591	98.5
266.823	103.5
267.055	100.5
267.287	100.5
267.52	101.5
267.752	97.5
267.984	97.5
268.216	82.5
268.448	89.5
268.681	102.5
268.913	98.5
269.145	85.5
269.377	94.5
269.609	94.5
269.841	84.5
270.073	76.5
270.306	102.5
270.538	89.5
270.77	91.5
271.002	88.5
271.234	107.5
271.466	90.5
271.698	98.5
271.93	110.5
272.162	106.5
272.394	98.5
272.626	95.5
272.858	89.5
273.09	103.5
273.322	102.5
273.553	101.5
273.785	104.5
274.017	95.5
274.249	100.5
274.481	85.5
274.713	101.5
274.945	104.5
275.176	106.5
275.408	102.5
275.64	97.5
275.872	99.5
276.104	97.5
276.335	106.5
276.567	97.5
276.799	97.5
277.031	98.5
277.262	98.5
277.494	109.5
277.726	106.5
277.957	96.5
278.189	91.5
278.421	103.5
278.652	112.5
278.884	79.5
279.115	97.5
279.347	89.5
279.579	98.5
279.81	84.5
280.042	85.5
280.273	91.5
280.505	105.5
280.736	88.5
280.968	108.5
281.199	114.5
281.431	95.5
281.662	110.5
281.894	95.5
282.125	94.5
282.356	108.5
282.588	104.5
282.819	98.5
283.051	80.5
283.282	90.5
283.513	107.5
283.745	90.5
283.976	110.5
284.207	93.5
284.439	98.5
284.67	103.5
284.901	98.5
285.132	111.5
285.364	100.5
285.595	109.5
285.826	94.5
286.057	98.5
286.288	99.5
286.52	101.5
286.751	98.5
286.982	107.5
287.213	100.5
287.444	113.5
287.675	107.5
287.906	113.5
288.138	108.5
288.369	97.5
288.6	107.5
288.831	100.5
289.062	100.5
289.293	110.5
289.524	103.5
289.755	102.5
289.986	98.5
290.217	95.5
290.448	109.5
290.679	89.5
290.91	100.5
291.141	100.5
291.371	99.5
291.602	91.5
291.833	108.5
292.064	105.5
292.295	92.5
292.526	94.5
292.757	106.5
292.987	112.5
293.218	99.5
293.449	106.5
293.68	100.5
293.91	105.5
294.141	97.5
294.372	98.5
294.603	112.5
294.833	104.5
295.064	109.5
295.295	109.5
295.525	106.5
295.756	100.5
295.987	100.5
296.217	108.5
296.448	103.5
296.679	109.5
296.909	105.5
297.14	100.5
297.37	105.5
297.601	106.5
297.831	86.5
298.062	111.5
298.292	106.5
298.523	101.5
298.753	96.5
298.984	107.5
299.214	89.5
299.445	97.5
299.675	96.5
299.905	102.5
300.136	108.5
300.366	104.5
300.597	99.5
300.827	95.5
301.057	115.5
301.288	102.5
301.518	107.5
301.748	105.5
301.979	97.5
302.209	113.5
302.439	92.5
302.669	108.5
302.9	103.5
303.13	116.5
303.36	109.5
303.59	94.5
303.82	98.5
304.051	109.5
304.281	114.5
304.511	99.5
304.741	105.5
304.971	83.5
305.201	99.5
305.431	94.5
305.661	109.5
305.891	105.5
306.121	99.5
306.352	85.5
306.582	108.5
306.812	118.5
307.042	109.5
307.272	107.5
307.502	105.5
307.731	95.5
307.961	115.5
308.191	102.5
308.421	107.5
308.651	109.5
308.881	108.5
309.111	108.5
309.341	116.5
309.571	113.5
309.8	120.5
310.03	99.5
310.26	121.5
310.49	110.5
310.72	115.5
310.949	111.5
311.179	119.5
311.409	110.5
311.639	98.5
311.868	121.5
312.098	99.5
312.328	125.5
312.557	110.5
312.787	106.5
313.017	120.5
313.246	111.5
313.476	99.5
313.706	101.5
313.935	115.5
314.165	106.5
314.394	90.5
314.624	107.5
314.853	101.5
315.083	120.5
315.312	121.5
315.542	103.5
315.771	96.5
316.001	116.5
316.23	106.5
316.46	97.5
316.689	113.5
316.919	105.5
317.148	106.5
317.377	107.5
317.607	121.5
317.836	113.5
318.065	114.5
318.295	104.5
318.524	95.5
318.753	97.5
318.983	107.5
319.212	125.5
319.441	110.5
319.67	98.5
319.9	109.5
320.129	116.5
320.358	117.5
320.587	114.5
320.816	95.5
321.046	119.5
321.275	113.5
321.504	118.5
321.733	104.5
321.962	104.5
322.191	92.5
322.42	113.5
322.649	110.5
322.878	106.5
323.108	104.5
323.337	113.5
323.566	118.5
323.795	99.5
324.024	116.5
324.253	121.5
324.482	136.5
324.71	155.5
324.939	174.5
325.168	148.5
325.397	128.5
325.626	120.5
325.855	115.5
326.084	121.5
326.313	114.5
326.542	120.5
326.77	118.5
326.999	135.5
327.228	127.5
327.457	151.5
327.686	183.5
327.914	133.5
328.143	130.5
328.372	121.5
328.6	114.5
328.829	107.5
329.058	121.5
329.287	121.5
329.515	107.5
329.744	105.5
329.972	120.5
330.201	123.5
330.43	114.5
330.658	97.5
330.887	135.5
331.115	115.5
331.344	113.5
331.572	111.5
331.801	102.5
332.03	113.5
332.258	131.5
332.486	103.5
332.715	115.5
332.943	102.5
333.172	133.5
333.4	113.5
333.629	128.5
333.857	111.5
334.085	133.5
334.314	111.5
334.542	117.5
334.771	135.5
334.999	105.5
335.227	105.5
335.455	99.5
335.684	119.5
335.912	119.5
336.14	105.5
336.369	121.5
336.597	98.5
336.825	113.5
337.053	96.5
337.281	120.5
337.51	121.5
337.738	106.5
337.966	117.5
338.194	119.5
338.422	133.5
338.65	106.5
338.878	123.5
339.106	110.5
339.334	115.5
339.562	113.5
339.79	123.5
340.018	106.5
340.246	119.5
340.474	108.5
340.702	106.5
340.93	109.5
341.158	110.5
341.386	117.5
341.614	113.5
341.842	126.5
342.07	114.5
342.298	102.5
342.526	115.5
342.754	114.5
342.981	105.5
343.209	120.5
343.437	119.5
343.665	111.5
343.893	102.5
344.12	113.5
344.348	126.5
344.576	122.5
344.804	120.5
345.031	101.5
345.259	109.5
345.487	130.5
345.714	115.5
345.942	120.5
346.17	102.5
346.397	100.5
346.625	117.5
346.853	110.5
347.08	103.5
347.308	116.5
347.535	115.5
347.763	105.5
347.99	105.5
348.218	102.5
348.445	109.5
348.673	121.5
348.9	122.5
349.128	115.5
349.355	132.5
349.583	125.5
349.81	108.5
350.037	123.5
350.265	117.5
350.492	105.5
350.72	106.5
350.947	110.5
351.174	106.5
351.402	115.5
351.629	119.5
351.856	108.5
352.083	102.5
352.311	110.5
352.538	114.5
352.765	108.5
352.992	107.5
353.22	109.5
353.447	109.5
353.674	115.5
353.901	113.5
354.128	115.5
354.355	110.5
354.583	122.5
354.81	109.5
355.037	109.5
355.264	108.5
355.491	101.5
355.718	109.5
355.945	103.5
356.172	104.5
356.399	115.5
356.626	124.5
356.853	107.5
357.08	101.5
357.307	103.5
357.534	111.5
357.761	114.5
357.988	107.5
358.215	119.5
358.441	110.5
358.668	102.5
358.895	129.5
359.122	125.5
359.349	108.5
359.576	118.5
359.802	100.5
360.029	105.5
360.256	120.5
360.483	133.5
360.709	105.5
360.936	120.5
361.163	103.5
361.39	105.5
361.616	115.5
361.843	119.5
362.07	126.5
362.296	114.5
362.523	97.5
362.749	101.5
362.976	108.5
363.203	115.5
363.429	99.5
363.656	114.5
363.882	110.5
364.109	121.5
364.335	106.5
364.562	119.5
364.788	105.5
365.015	104.5
365.241	112.5
365.468	125.5
365.694	118.5
365.92	106.5
366.147	106.5
366.373	114.5
366.599	119.5
366.826	115.5
367.052	110.5
367.278	115.5
367.505	115.5
367.731	113.5
367.957	105.5
368.184	99.5
368.41	107.5
368.636	109.5
368.862	114.5
369.089	115.5
369.315	93.5
369.541	123.5
369.767	106.5
369.993	115.5
370.219	105.5
370.445	102.5
370.672	120.5
370.898	110.5
371.124	117.5
371.35	109.5
371.576	113.5
371.802	108.5
372.028	94.5
372.254	117.5
372.48	108.5
372.706	101.5
372.932	114.5
373.158	121.5
373.384	106.5
373.61	115.5
373.835	119.5
374.061	114.5
374.287	124.5
374.513	103.5
374.739	133.5
374.965	118.5
375.191	117.5
375.416	114.5
375.642	121.5
375.868	120.5
376.094	107.5
376.319	118.5
376.545	125.5
376.771	106.5
376.997	109.5
377.222	118.5
377.448	110.5
377.674	122.5
377.899	106.5
378.125	103.5
378.35	106.5
378.576	122.5
378.802	108.5
379.027	107.5
379.253	103.5
379.478	96.5
379.704	110.5
379.929	119.5
380.155	110.5
380.38	109.5
380.606	95.5
380.831	121.5
381.057	118.5
381.282	106.5
381.507	96.5
381.733	118.5
381.958	114.5
382.184	116.5
382.409	118.5
382.634	115.5
382.86	119.5
383.085	123.5
383.31	127.5
383.535	105.5
383.761	110.5
383.986	107.5
384.211	110.5
384.436	109.5
384.662	130.5
384.887	123.5
385.112	127.5
385.337	129.5
385.562	109.5
385.787	110.5
386.013	114.5
386.238	130.5
386.463	129.5
386.688	116.5
386.913	126.5
387.138	121.5
387.363	122.5
387.588	120.5
387.813	101.5
388.038	120.5
388.263	119.5
388.488	118.5
388.713	123.5
388.938	115.5
389.163	137.5
389.387	113.5
389.612	139.5
389.837	107.5
390.062	127.5
390.287	108.5
390.512	117.5
390.736	106.5
390.961	115.5
391.186	122.5
391.411	122.5
391.636	122.5
391.86	109.5
392.085	135.5
392.31	108.5
392.534	122.5
392.759	115.5
392.984	117.5
393.208	119.5
393.433	113.5
393.658	118.5
393.882	130.5
394.107	130.5
394.331	123.5
394.556	121.5
394.78	121.5
395.005	102.5
395.229	119.5
395.454	109.5
395.678	119.5
395.903	118.5
396.127	132.5
396.352	121.5
396.576	113.5
396.801	113.5
397.025	126.5
397.249	129.5
397.474	114.5
397.698	115.5
397.922	125.5
398.147	113.5
398.371	127.5
398.595	129.5
398.82	120.5
399.044	125.5
399.268	127.5
399.492	149.5
399.717	126.5
399.941	142.5
400.165	149.5
400.389	143.5
400.613	128.5
400.837	139.5
401.062	133.5
401.286	134.5
401.51	137.5
401.734	132.5
401.958	120.5
402.182	125.5
402.406	122.5
402.63	134.5
402.854	135.5
403.078	134.5
403.302	129.5
403.526	111.5
403.75	108.5
403.974	126.5
404.198	135.5
404.422	136.5
404.645	125.5
404.869	139.5
405.093	139.5
405.317	136.5
405.541	132.5
405.765	141.5
405.988	153.5
406.212	137.5
406.436	142.5
406.66	133.5
406.883	132.5
407.107	142.5
407.331	139.5
407.555	148.5
407.778	153.5
408.002	143.5
408.226	141.5
408.449	143.5
408.673	135.5
408.896	130.5
409.12	138.5
409.344	135.5
409.567	129.5
409.791	136.5
410.014	132.5
410.238	122.5
410.461	124.5
410.685	118.5
410.908	129.5
411.132	133.5
411.355	125.5
411.578	125.5
411.802	128.5
412.025	129.5
412.249	121.5
412.472	134.5
412.695	140.5
412.919	124.5
413.142	135.5
413.365	119.5
413.589	121.5
413.812	135.5
414.035	142.5
414.258	129.5
414.482	125.5
414.705	132.5
414.928	127.5
415.151	127.5
415.374	129.5
415.597	125.5
415.821	136.5
416.044	137.5
416.267	117.5
416.49	136.5
416.713	129.5
416.936	125.5
417.159	136.5
417.382	117.5
417.605	124.5
417.828	121.5
418.051	135.5
418.274	125.5
418.497	139.5
418.72	137.5
418.943	133.5
419.166	124.5
419.389	139.5
419.611	136.5
419.834	135.5
420.057	133.5
420.28	133.5
420.503	131.5
420.726	111.5
420.948	127.5
421.171	131.5
421.394	124.5
421.617	114.5
421.839	126.5
422.062	129.5
422.285	121.5
422.507	129.5
422.73	141.5
422.953	129.5
423.175	131.5
423.398	125.5
423.621	135.5
423.843	135.5
424.066	138.5
424.288	125.5
424.511	125.5
424.733	132.5
424.956	144.5
425.178	145.5
425.401	129.5
425.623	154.5
425.846	120.5
426.068	134.5
426.291	124.5
426.513	122.5
426.735	134.5
426.958	133.5
427.18	129.5
427.402	152.5
427.625	153.5
427.847	141.5
428.069	138.5
428.292	121.5
428.514	122.5
428.736	123.5
428.958	118.5
429.181	135.5
429.403	120.5
429.625	133.5
429.847	132.5
430.069	139.5
430.292	128.5
430.514	125.5
430.736	108.5
430.958	116.5
431.18	131.5
431.402	125.5
431.624	127.5
431.846	114.5
432.068	117.5
432.29	115.5
432.512	122.5
432.734	120.5
432.956	121.5
433.178	144.5
433.4	127.5
433.622	120.5
433.844	122.5
434.066	119.5
434.287	129.5
434.509	132.5
434.731	123.5
434.953	129.5
435.175	130.5
435.397	133.5
435.618	121.5
435.84	125.5
436.062	129.5
436.284	152.5
436.505	119.5
436.727	125.5
436.949	126.5
437.17	125.5
437.392	129.5
437.614	121.5
437.835	118.5
438.057	131.5
438.278	127.5
438.5	129.5
438.721	134.5
438.943	133.5
439.165	118.5
439.386	120.5
439.608	123.5
439.829	134.5
440.05	133.5
440.272	125.5
440.493	130.5
440.715	129.5
440.936	120.5
441.158	127.5
441.379	114.5
441.6	133.5
441.822	129.5
442.043	143.5
442.264	130.5
442.486	144.5
442.707	126.5
442.928	145.5
443.149	130.5
443.371	140.5
443.592	130.5
443.813	141.5
444.034	141.5
444.255	146.5
444.476	132.5
444.698	146.5
444.919	135.5
445.14	208.5
445.361	165.5
445.582	137.5
445.803	132.5
446.024	137.5
446.245	148.5
446.466	133.5
446.687	130.5
446.908	131.5
447.129	118.5
447.35	130.5
447.571	125.5
447.792	135.5
448.013	111.5
448.234	107.5
448.455	135.5
448.675	134.5
448.896	126.5
449.117	123.5
449.338	131.5
449.559	132.5
449.779	146.5
450	128.5
450.221	111.5
450.442	117.5
450.662	108.5
450.883	124.5
451.104	136.5
451.324	129.5
451.545	124.5
451.766	111.5
451.986	111.5
452.207	106.5
452.428	121.5
452.648	123.5
452.869	111.5
453.089	97.5
453.31	121.5
453.53	111.5
453.751	118.5
453.971	120.5
454.192	119.5
454.412	121.5
454.633	119.5
454.853	108.5
455.073	137.5
455.294	146.5
455.514	145.5
455.734	136.5
455.955	123.5
456.175	117.5
456.395	111.5
456.616	109.5
456.836	126.5
457.056	115.5
457.276	126.5
457.497	121.5
457.717	123.5
457.937	113.5
458.157	117.5
458.377	118.5
458.598	118.5
458.818	126.5
459.038	113.5
459.258	119.5
459.478	114.5
459.698	111.5
459.918	129.5
460.138	119.5
460.358	133.5
460.578	125.5
460.798	131.5
461.018	129.5
461.238	133.5
461.458	125.5
461.678	122.5
461.898	131.5
462.118	137.5
462.338	137.5
462.558	137.5
462.777	148.5
462.997	134.5
463.217	134.5
463.437	135.5
463.657	149.5
463.876	125.5
464.096	129.5
464.316	137.5
464.536	112.5
464.755	127.5
464.975	136.5
465.195	138.5
465.414	131.5
465.634	122.5
465.854	110.5
466.073	121.5
466.293	116.5
466.512	130.5
466.732	122.5
466.951	127.5
467.171	129.5
467.391	118.5
467.61	135.5
467.829	127.5
468.049	125.5
468.268	128.5
468.488	113.5
468.707	124.5
468.927	123.5
469.146	122.5
469.365	137.5
469.585	127.5
469.804	125.5
470.023	118.5
470.243	125.5
470.462	133.5
470.681	132.5
470.901	139.5
471.12	135.5
471.339	122.5
471.558	125.5
471.777	122.5
471.997	131.5
472.216	132.5
472.435	127.5
472.654	128.5
472.873	124.5
473.092	118.5
473.311	113.5
473.53	121.5
473.749	126.5
473.968	110.5
474.187	125.5
474.406	127.5
474.625	122.5
474.844	138.5
475.063	115.5
475.282	115.5
475.501	108.5
475.72	127.5
475.939	135.5
476.158	134.5
476.377	136.5
476.596	123.5
476.814	129.5
477.033	135.5
477.252	125.5
477.471	117.5
477.69	119.5
477.908	121.5
478.127	119.5
478.346	124.5
478.564	132.5
478.783	134.5
479.002	131.5
479.22	133.5
479.439	135.5
479.658	129.5
479.876	139.5
480.095	126.5
480.313	135.5
480.532	126.5
480.751	141.5
480.969	141.5
481.188	123.5
481.406	132.5
481.624	126.5
481.843	125.5
482.061	136.5
482.28	130.5
482.498	131.5
482.717	127.5
482.935	143.5
483.153	119.5
483.372	132.5
483.59	130.5
483.808	129.5
484.027	127.5
484.245	124.5
484.463	121.5
484.681	135.5
484.9	133.5
485.118	128.5
485.336	120.5
485.554	142.5
485.772	147.5
485.99	129.5
486.209	135.5
486.427	124.5
486.645	134.5
486.863	135.5
487.081	131.5
487.299	133.5
487.517	145.5
487.735	123.5
487.953	160.5
488.171	136.5
488.389	150.5
488.607	127.5
488.825	137.5
489.043	120.5
489.261	144.5
489.479	138.5
489.696	143.5
489.914	141.5
490.132	142.5
490.35	135.5
490.568	133.5
490.786	145.5
491.003	151.5
491.221	138.5
491.439	129.5
491.657	135.5
491.874	155.5
492.092	148.5
492.31	150.5
492.527	155.5
492.745	144.5
492.963	135.5
493.18	153.5
493.398	142.5
493.615	142.5
493.833	142.5
494.05	142.5
494.268	134.5
494.485	141.5
494.703	138.5
494.92	143.5
495.138	148.5
495.355	133.5
495.573	149.5
495.79	130.5
496.008	133.5
496.225	142.5
496.442	148.5
496.66	146.5
496.877	155.5
497.094	152.5
497.312	155.5
497.529	146.5
497.746	124.5
497.963	145.5
498.181	162.5
498.398	135.5
498.615	160.5
498.832	141.5
499.049	152.5
499.267	165.5
499.484	161.5
499.701	170.5
499.918	185.5
500.135	214.5
500.352	209.5
500.569	224.5
500.786	189.5
501.003	185.5
501.22	189.5
501.437	188.5
501.654	170.5
501.871	181.5
502.088	172.5
502.305	161.5
502.522	163.5
502.739	157.5
502.956	147.5
503.172	146.5
503.389	135.5
503.606	139.5
503.823	149.5
504.04	146.5
504.256	144.5
504.473	143.5
504.69	146.5
504.907	144.5
505.123	150.5
505.34	147.5
505.557	131.5
505.773	139.5
505.99	138.5
506.207	140.5
506.423	126.5
506.64	138.5
506.856	123.5
507.073	145.5
507.289	151.5
507.506	137.5
507.722	123.5
507.939	140.5
508.155	137.5
508.372	143.5
508.588	131.5
508.805	127.5
509.021	126.5
509.238	137.5
509.454	140.5
509.67	119.5
509.887	138.5
510.103	141.5
510.319	131.5
510.536	146.5
510.752	177.5
510.968	137.5
511.184	133.5
511.401	138.5
511.617	123.5
511.833	124.5
512.049	129.5
512.265	137.5
512.481	114.5
512.698	118.5
512.914	120.5
513.13	133.5
513.346	130.5
513.562	120.5
513.778	123.5
513.994	127.5
514.21	131.5
514.426	132.5
514.642	139.5
514.858	134.5
515.074	136.5
515.29	152.5
515.506	166.5
515.721	143.5
515.937	131.5
516.153	152.5
516.369	125.5
516.585	128.5
516.801	133.5
517.016	142.5
517.232	133.5
517.448	140.5
517.664	138.5
517.879	153.5
518.095	151.5
518.311	154.5
518.527	146.5
518.742	153.5
518.958	127.5
519.173	127.5
519.389	138.5
519.605	127.5
519.82	130.5
520.036	142.5
520.251	128.5
520.467	126.5
520.682	133.5
520.898	131.5
521.113	126.5
521.329	110.5
521.544	120.5
521.76	134.5
521.975	186.5
522.19	179.5
522.406	154.5
522.621	121.5
522.836	126.5
523.052	113.5
523.267	121.5
523.482	117.5
523.698	124.5
