Data from 1968.PennyLincolnUp.Lamp.En5.5.200Scan.071719.P1._HRD10591_14-49-06-970.txt Node
Date: Thu Jul 18 14:49:06 EDT 2019
User: cochatt
Spectrometer: HR+D1059
Trigger mode: 1
Integration Time (sec): 1.000000E-1
Scans to average: 1
Electric dark correction enabled: true
Nonlinearity correction enabled: false
Boxcar width: 0
XAxis mode: Wavelengths
Number of Pixels in Spectrum: 2048
>>>>>Begin Spectral Data<<<<<
223.165	-20.06
223.4	-20.06
223.635	-20.06
223.869	-14.06
224.104	-18.06
224.338	-13.06
224.573	-6.06
224.808	-13.06
225.042	-7.06
225.277	-6.06
225.511	-9.06
225.746	-4.06
225.98	5.94
226.215	20.94
226.449	11.94
226.683	16.94
226.918	20.94
227.152	33.94
227.387	36.94
227.621	36.94
227.856	41.94
228.09	29.94
228.324	42.94
228.559	60.94
228.793	68.94
229.027	79.94
229.262	86.94
229.496	105.94
229.73	99.94
229.964	122.94
230.199	104.94
230.433	103.94
230.667	107.94
230.901	94.94
231.136	107.94
231.37	91.94
231.604	97.94
231.838	106.94
232.072	116.94
232.306	104.94
232.541	111.94
232.775	106.94
233.009	112.94
233.243	105.94
233.477	91.94
233.711	102.94
233.945	91.94
234.179	111.94
234.413	116.94
234.647	110.94
234.881	100.94
235.115	99.94
235.349	108.94
235.583	111.94
235.817	101.94
236.051	104.94
236.285	96.94
236.519	100.94
236.753	106.94
236.987	137.94
237.221	146.94
237.455	171.94
237.689	152.94
237.922	123.94
238.156	118.94
238.39	108.94
238.624	93.94
238.858	101.94
239.091	96.94
239.325	106.94
239.559	103.94
239.793	114.94
240.027	122.94
240.26	117.94
240.494	106.94
240.728	129.94
240.961	145.94
241.195	95.94
241.429	126.94
241.662	117.94
241.896	94.94
242.13	119.94
242.363	107.94
242.597	122.94
242.83	117.94
243.064	125.94
243.298	118.94
243.531	123.94
243.765	136.94
243.998	120.94
244.232	127.94
244.465	118.94
244.699	127.94
244.932	139.94
245.166	123.94
245.399	136.94
245.633	146.94
245.866	133.94
246.099	128.94
246.333	127.94
246.566	128.94
246.8	135.94
247.033	137.94
247.266	133.94
247.5	156.94
247.733	129.94
247.966	126.94
248.2	142.94
248.433	139.94
248.666	135.94
248.899	137.94
249.133	157.94
249.366	155.94
249.599	162.94
249.832	151.94
250.066	151.94
250.299	161.94
250.532	149.94
250.765	150.94
250.998	157.94
251.231	167.94
251.465	168.94
251.698	170.94
251.931	147.94
252.164	152.94
252.397	156.94
252.63	156.94
252.863	176.94
253.096	173.94
253.329	186.94
253.562	167.94
253.795	170.94
254.028	163.94
254.261	157.94
254.494	159.94
254.727	193.94
254.96	208.94
255.193	185.94
255.426	204.94
255.659	173.94
255.892	165.94
256.124	159.94
256.357	172.94
256.59	182.94
256.823	162.94
257.056	159.94
257.289	165.94
257.521	169.94
257.754	157.94
257.987	181.94
258.22	168.94
258.452	152.94
258.685	169.94
258.918	148.94
259.151	164.94
259.383	162.94
259.616	176.94
259.849	182.94
260.081	185.94
260.314	196.94
260.547	190.94
260.779	194.94
261.012	183.94
261.244	191.94
261.477	197.94
261.71	177.94
261.942	181.94
262.175	181.94
262.407	190.94
262.64	169.94
262.872	188.94
263.105	194.94
263.337	172.94
263.57	179.94
263.802	174.94
264.035	173.94
264.267	178.94
264.499	177.94
264.732	177.94
264.964	167.94
265.197	162.94
265.429	165.94
265.661	178.94
265.894	177.94
266.126	180.94
266.358	167.94
266.591	175.94
266.823	189.94
267.055	181.94
267.287	174.94
267.52	169.94
267.752	180.94
267.984	193.94
268.216	194.94
268.448	171.94
268.681	184.94
268.913	193.94
269.145	196.94
269.377	199.94
269.609	212.94
269.841	203.94
270.073	205.94
270.306	226.94
270.538	231.94
270.77	241.94
271.002	215.94
271.234	220.94
271.466	224.94
271.698	219.94
271.93	233.94
272.162	233.94
272.394	237.94
272.626	218.94
272.858	235.94
273.09	229.94
273.322	203.94
273.553	192.94
273.785	213.94
274.017	190.94
274.249	214.94
274.481	217.94
274.713	223.94
274.945	229.94
275.176	203.94
275.408	214.94
275.64	216.94
275.872	207.94
276.104	206.94
276.335	212.94
276.567	228.94
276.799	223.94
277.031	236.94
277.262	220.94
277.494	245.94
277.726	236.94
277.957	208.94
278.189	218.94
278.421	208.94
278.652	205.94
278.884	228.94
279.115	220.94
279.347	221.94
279.579	237.94
279.81	241.94
280.042	245.94
280.273	254.94
280.505	264.94
280.736	221.94
280.968	203.94
281.199	222.94
281.431	211.94
281.662	222.94
281.894	202.94
282.125	216.94
282.356	235.94
282.588	244.94
282.819	237.94
283.051	225.94
283.282	197.94
283.513	230.94
283.745	236.94
283.976	228.94
284.207	238.94
284.439	215.94
284.67	213.94
284.901	210.94
285.132	234.94
285.364	213.94
285.595	231.94
285.826	228.94
286.057	212.94
286.288	232.94
286.52	221.94
286.751	221.94
286.982	226.94
287.213	238.94
287.444	235.94
287.675	237.94
287.906	246.94
288.138	240.94
288.369	257.94
288.6	243.94
288.831	243.94
289.062	234.94
289.293	244.94
289.524	230.94
289.755	231.94
289.986	226.94
290.217	231.94
290.448	227.94
290.679	232.94
290.91	244.94
291.141	234.94
291.371	229.94
291.602	243.94
291.833	241.94
292.064	224.94
292.295	228.94
292.526	231.94
292.757	236.94
292.987	227.94
293.218	236.94
293.449	226.94
293.68	243.94
293.91	230.94
294.141	232.94
294.372	224.94
294.603	251.94
294.833	249.94
295.064	234.94
295.295	245.94
295.525	233.94
295.756	256.94
295.987	253.94
296.217	259.94
296.448	260.94
296.679	249.94
296.909	244.94
297.14	238.94
297.37	249.94
297.601	256.94
297.831	235.94
298.062	282.94
298.292	238.94
298.523	247.94
298.753	251.94
298.984	270.94
299.214	247.94
299.445	257.94
299.675	261.94
299.905	239.94
300.136	234.94
300.366	251.94
300.597	247.94
300.827	266.94
301.057	257.94
301.288	267.94
301.518	262.94
301.748	257.94
301.979	272.94
302.209	271.94
302.439	271.94
302.669	259.94
302.9	257.94
303.13	259.94
303.36	234.94
303.59	265.94
303.82	282.94
304.051	271.94
304.281	267.94
304.511	246.94
304.741	254.94
304.971	235.94
305.201	268.94
305.431	267.94
305.661	277.94
305.891	252.94
306.121	266.94
306.352	264.94
306.582	268.94
306.812	272.94
307.042	257.94
307.272	247.94
307.502	269.94
307.731	274.94
307.961	271.94
308.191	242.94
308.421	261.94
308.651	257.94
308.881	285.94
309.111	274.94
309.341	297.94
309.571	291.94
309.8	285.94
310.03	284.94
310.26	305.94
310.49	296.94
310.72	295.94
310.949	302.94
311.179	296.94
311.409	306.94
311.639	282.94
311.868	287.94
312.098	299.94
312.328	297.94
312.557	303.94
312.787	299.94
313.017	319.94
313.246	310.94
313.476	292.94
313.706	290.94
313.935	302.94
314.165	303.94
314.394	303.94
314.624	308.94
314.853	308.94
315.083	309.94
315.312	281.94
315.542	284.94
315.771	303.94
316.001	297.94
316.23	288.94
316.46	288.94
316.689	291.94
316.919	293.94
317.148	311.94
317.377	313.94
317.607	294.94
317.836	304.94
318.065	309.94
318.295	300.94
318.524	314.94
318.753	299.94
318.983	285.94
319.212	283.94
319.441	288.94
319.67	317.94
319.9	309.94
320.129	298.94
320.358	295.94
320.587	310.94
320.816	299.94
321.046	317.94
321.275	300.94
321.504	296.94
321.733	312.94
321.962	310.94
322.191	312.94
322.42	321.94
322.649	316.94
322.878	339.94
323.108	346.94
323.337	346.94
323.566	356.94
323.795	393.94
324.024	420.94
324.253	513.94
324.482	748.94
324.71	1093.94
324.939	1431.94
325.168	1171.94
325.397	631.94
325.626	468.94
325.855	403.94
326.084	358.94
326.313	355.94
326.542	375.94
326.77	413.94
326.999	487.94
327.228	690.94
327.457	943.94
327.686	1059.94
327.914	711.94
328.143	503.94
328.372	448.94
328.6	419.94
328.829	401.94
329.058	425.94
329.287	421.94
329.515	402.94
329.744	387.94
329.972	355.94
330.201	369.94
330.43	396.94
330.658	412.94
330.887	443.94
331.115	432.94
331.344	377.94
331.572	375.94
331.801	371.94
332.03	356.94
332.258	351.94
332.486	333.94
332.715	329.94
332.943	354.94
333.172	372.94
333.4	382.94
333.629	362.94
333.857	369.94
334.085	398.94
334.314	394.94
334.542	405.94
334.771	389.94
334.999	381.94
335.227	385.94
335.455	355.94
335.684	358.94
335.912	346.94
336.14	371.94
336.369	356.94
336.597	363.94
336.825	338.94
337.053	349.94
337.281	357.94
337.51	340.94
337.738	338.94
337.966	341.94
338.194	347.94
338.422	363.94
338.65	339.94
338.878	342.94
339.106	337.94
339.334	318.94
339.562	301.94
339.79	323.94
340.018	346.94
340.246	315.94
340.474	315.94
340.702	331.94
340.93	338.94
341.158	319.94
341.386	322.94
341.614	333.94
341.842	328.94
342.07	321.94
342.298	331.94
342.526	284.94
342.754	293.94
342.981	313.94
343.209	324.94
343.437	338.94
343.665	337.94
343.893	327.94
344.12	360.94
344.348	358.94
344.576	340.94
344.804	326.94
345.031	355.94
345.259	318.94
345.487	331.94
345.714	329.94
345.942	314.94
346.17	309.94
346.397	317.94
346.625	315.94
346.853	298.94
347.08	292.94
347.308	300.94
347.535	317.94
347.763	331.94
347.99	310.94
348.218	341.94
348.445	320.94
348.673	335.94
348.9	333.94
349.128	312.94
349.355	305.94
349.583	308.94
349.81	309.94
350.037	297.94
350.265	308.94
350.492	292.94
350.72	299.94
350.947	299.94
351.174	323.94
351.402	331.94
351.629	298.94
351.856	316.94
352.083	293.94
352.311	315.94
352.538	300.94
352.765	329.94
352.992	297.94
353.22	305.94
353.447	312.94
353.674	305.94
353.901	309.94
354.128	302.94
354.355	286.94
354.583	322.94
354.81	302.94
355.037	298.94
355.264	298.94
355.491	283.94
355.718	281.94
355.945	277.94
356.172	287.94
356.399	284.94
356.626	291.94
356.853	298.94
357.08	309.94
357.307	300.94
357.534	295.94
357.761	298.94
357.988	312.94
358.215	299.94
358.441	294.94
358.668	286.94
358.895	315.94
359.122	317.94
359.349	319.94
359.576	302.94
359.802	317.94
360.029	349.94
360.256	354.94
360.483	333.94
360.709	325.94
360.936	322.94
361.163	312.94
361.39	309.94
361.616	312.94
361.843	301.94
362.07	306.94
362.296	321.94
362.523	297.94
362.749	309.94
362.976	309.94
363.203	302.94
363.429	279.94
363.656	296.94
363.882	295.94
364.109	297.94
364.335	299.94
364.562	287.94
364.788	305.94
365.015	286.94
365.241	296.94
365.468	291.94
365.694	294.94
365.92	302.94
366.147	310.94
366.373	314.94
366.599	299.94
366.826	291.94
367.052	290.94
367.278	293.94
367.505	289.94
367.731	290.94
367.957	290.94
368.184	294.94
368.41	294.94
368.636	301.94
368.862	306.94
369.089	305.94
369.315	289.94
369.541	330.94
369.767	299.94
369.993	312.94
370.219	312.94
370.445	307.94
370.672	312.94
370.898	309.94
371.124	298.94
371.35	306.94
371.576	305.94
371.802	290.94
372.028	302.94
372.254	302.94
372.48	302.94
372.706	305.94
372.932	303.94
373.158	315.94
373.384	320.94
373.61	295.94
373.835	308.94
374.061	299.94
374.287	317.94
374.513	305.94
374.739	317.94
374.965	308.94
375.191	315.94
375.416	313.94
375.642	302.94
375.868	314.94
376.094	308.94
376.319	325.94
376.545	322.94
376.771	288.94
376.997	293.94
377.222	318.94
377.448	317.94
377.674	293.94
377.899	307.94
378.125	298.94
378.35	316.94
378.576	294.94
378.802	289.94
379.027	327.94
379.253	313.94
379.478	307.94
379.704	315.94
379.929	296.94
380.155	301.94
380.38	318.94
380.606	313.94
380.831	311.94
381.057	321.94
381.282	314.94
381.507	312.94
381.733	318.94
381.958	334.94
382.184	329.94
382.409	301.94
382.634	330.94
382.86	305.94
383.085	351.94
383.31	324.94
383.535	332.94
383.761	321.94
383.986	348.94
384.211	334.94
384.436	345.94
384.662	345.94
384.887	356.94
385.112	358.94
385.337	371.94
385.562	376.94
385.787	353.94
386.013	354.94
386.238	370.94
386.463	366.94
386.688	369.94
386.913	372.94
387.138	362.94
387.363	356.94
387.588	363.94
387.813	351.94
388.038	350.94
388.263	347.94
388.488	354.94
388.713	335.94
388.938	369.94
389.163	347.94
389.387	325.94
389.612	325.94
389.837	331.94
390.062	330.94
390.287	331.94
390.512	330.94
390.736	354.94
390.961	366.94
391.186	349.94
391.411	343.94
391.636	379.94
391.86	353.94
392.085	379.94
392.31	394.94
392.534	379.94
392.759	380.94
392.984	382.94
393.208	463.94
393.433	568.94
393.658	597.94
393.882	413.94
394.107	380.94
394.331	358.94
394.556	365.94
394.78	362.94
395.005	345.94
395.229	355.94
395.454	362.94
395.678	377.94
395.903	383.94
396.127	402.94
396.352	410.94
396.576	420.94
396.801	463.94
397.025	521.94
397.249	438.94
397.474	402.94
397.698	385.94
397.922	388.94
398.147	403.94
398.371	371.94
398.595	390.94
398.82	389.94
399.044	417.94
399.268	447.94
399.492	478.94
399.717	533.94
399.941	531.94
400.165	503.94
400.389	473.94
400.613	443.94
400.837	423.94
401.062	416.94
401.286	405.94
401.51	413.94
401.734	401.94
401.958	408.94
402.182	426.94
402.406	415.94
402.63	418.94
402.854	413.94
403.078	428.94
403.302	450.94
403.526	438.94
403.75	442.94
403.974	414.94
404.198	421.94
404.422	445.94
404.645	437.94
404.869	468.94
405.093	441.94
405.317	453.94
405.541	469.94
405.765	437.94
405.988	424.94
406.212	458.94
406.436	462.94
406.66	484.94
406.883	463.94
407.107	486.94
407.331	472.94
407.555	537.94
407.778	554.94
408.002	503.94
408.226	482.94
408.449	457.94
408.673	452.94
408.896	483.94
409.12	475.94
409.344	469.94
409.567	419.94
409.791	419.94
410.014	441.94
410.238	413.94
410.461	403.94
410.685	433.94
410.908	447.94
411.132	455.94
411.355	452.94
411.578	433.94
411.802	426.94
412.025	417.94
412.249	411.94
412.472	423.94
412.695	425.94
412.919	411.94
413.142	409.94
413.365	404.94
413.589	405.94
413.812	413.94
414.035	403.94
414.258	377.94
414.482	405.94
414.705	422.94
414.928	407.94
415.151	406.94
415.374	418.94
415.597	402.94
415.821	411.94
416.044	398.94
416.267	402.94
416.49	404.94
416.713	382.94
416.936	406.94
417.159	396.94
417.382	376.94
417.605	386.94
417.828	403.94
418.051	417.94
418.274	410.94
418.497	390.94
418.72	415.94
418.943	422.94
419.166	409.94
419.389	437.94
419.611	441.94
419.834	421.94
420.057	434.94
420.28	408.94
420.503	409.94
420.726	390.94
420.948	413.94
421.171	447.94
421.394	447.94
421.617	438.94
421.839	424.94
422.062	441.94
422.285	456.94
422.507	450.94
422.73	506.94
422.953	517.94
423.175	457.94
423.398	445.94
423.621	430.94
423.843	427.94
424.066	434.94
424.288	444.94
424.511	458.94
424.733	480.94
424.956	508.94
425.178	473.94
425.401	457.94
425.623	501.94
425.846	461.94
426.068	436.94
426.291	395.94
426.513	414.94
426.735	407.94
426.958	447.94
427.18	501.94
427.402	561.94
427.625	593.94
427.847	551.94
428.069	471.94
428.292	428.94
428.514	424.94
428.736	402.94
428.958	380.94
429.181	393.94
429.403	400.94
429.625	385.94
429.847	418.94
430.069	438.94
430.292	430.94
430.514	378.94
430.736	391.94
430.958	402.94
431.18	360.94
431.402	348.94
431.624	364.94
431.846	380.94
432.068	369.94
432.29	390.94
432.512	370.94
432.734	395.94
432.956	393.94
433.178	384.94
433.4	388.94
433.622	369.94
433.844	371.94
434.066	362.94
434.287	371.94
434.509	377.94
434.731	387.94
434.953	410.94
435.175	410.94
435.397	410.94
435.618	431.94
435.84	445.94
436.062	481.94
436.284	503.94
436.505	454.94
436.727	416.94
436.949	397.94
437.17	390.94
437.392	403.94
437.614	402.94
437.835	413.94
438.057	465.94
438.278	526.94
438.5	521.94
438.721	557.94
438.943	526.94
439.165	433.94
439.386	422.94
439.608	406.94
439.829	424.94
440.05	449.94
440.272	475.94
440.493	439.94
440.715	415.94
440.936	415.94
441.158	412.94
441.379	411.94
441.6	433.94
441.822	444.94
442.043	456.94
442.264	504.94
442.486	525.94
442.707	455.94
442.928	453.94
443.149	452.94
443.371	462.94
443.592	467.94
443.813	534.94
444.034	545.94
444.255	488.94
444.476	459.94
444.698	447.94
444.919	452.94
445.14	591.94
445.361	519.94
445.582	486.94
445.803	491.94
446.024	529.94
446.245	547.94
446.466	504.94
446.687	434.94
446.908	419.94
447.129	398.94
447.35	390.94
447.571	400.94
447.792	383.94
448.013	387.94
448.234	392.94
448.455	423.94
448.675	476.94
448.896	538.94
449.117	456.94
449.338	453.94
449.559	513.94
449.779	552.94
450	440.94
450.221	420.94
450.442	394.94
450.662	362.94
450.883	392.94
451.104	399.94
451.324	385.94
451.545	391.94
451.766	371.94
451.986	349.94
452.207	364.94
452.428	344.94
452.648	355.94
452.869	378.94
453.089	355.94
453.31	372.94
453.53	366.94
453.751	356.94
453.971	328.94
454.192	388.94
454.412	353.94
454.633	351.94
454.853	354.94
455.073	361.94
455.294	377.94
455.514	383.94
455.734	380.94
455.955	328.94
456.175	341.94
456.395	323.94
456.616	339.94
456.836	342.94
457.056	321.94
457.276	318.94
457.497	324.94
457.717	322.94
457.937	337.94
458.157	349.94
458.377	335.94
458.598	356.94
458.818	419.94
459.038	468.94
459.258	467.94
459.478	405.94
459.698	409.94
459.918	407.94
460.138	407.94
460.358	410.94
460.578	425.94
460.798	420.94
461.018	403.94
461.238	412.94
461.458	415.94
461.678	413.94
461.898	417.94
462.118	399.94
462.338	420.94
462.558	445.94
462.777	439.94
462.997	471.94
463.217	487.94
463.437	490.94
463.657	440.94
463.876	444.94
464.096	460.94
464.316	462.94
464.536	449.94
464.755	449.94
464.975	446.94
465.195	488.94
465.414	526.94
465.634	449.94
465.854	409.94
466.073	406.94
466.293	377.94
466.512	378.94
466.732	368.94
466.951	352.94
467.171	358.94
467.391	356.94
467.61	386.94
467.829	383.94
468.049	391.94
468.268	372.94
468.488	369.94
468.707	356.94
468.927	350.94
469.146	364.94
469.365	367.94
469.585	367.94
469.804	358.94
470.023	388.94
470.243	395.94
470.462	405.94
470.681	412.94
470.901	396.94
471.12	382.94
471.339	370.94
471.558	366.94
471.777	384.94
471.997	381.94
472.216	379.94
472.435	372.94
472.654	369.94
472.873	373.94
473.092	364.94
473.311	369.94
473.53	383.94
473.749	358.94
473.968	402.94
474.187	451.94
474.406	471.94
474.625	382.94
474.844	369.94
475.063	370.94
475.282	368.94
475.501	378.94
475.72	363.94
475.939	362.94
476.158	375.94
476.377	372.94
476.596	367.94
476.814	389.94
477.033	389.94
477.252	380.94
477.471	375.94
477.69	409.94
477.908	409.94
478.127	420.94
478.346	410.94
478.564	414.94
478.783	409.94
479.002	433.94
479.22	451.94
479.439	453.94
479.658	436.94
479.876	475.94
480.095	450.94
480.313	472.94
480.532	485.94
480.751	468.94
480.969	460.94
481.188	489.94
481.406	495.94
481.624	452.94
481.843	438.94
482.061	414.94
482.28	424.94
482.498	412.94
482.717	404.94
482.935	451.94
483.153	438.94
483.372	426.94
483.59	414.94
483.808	410.94
484.027	447.94
484.245	440.94
484.463	438.94
484.681	442.94
484.9	438.94
485.118	445.94
485.336	451.94
485.554	446.94
485.772	468.94
485.99	439.94
486.209	444.94
486.427	441.94
486.645	455.94
486.863	474.94
487.081	473.94
487.299	463.94
487.517	470.94
487.735	437.94
487.953	458.94
488.171	483.94
488.389	455.94
488.607	446.94
488.825	445.94
489.043	463.94
489.261	449.94
489.479	463.94
489.696	472.94
489.914	462.94
490.132	481.94
490.35	460.94
490.568	480.94
490.786	486.94
491.003	459.94
491.221	476.94
491.439	509.94
491.657	498.94
491.874	507.94
492.092	507.94
492.31	475.94
492.527	511.94
492.745	539.94
492.963	502.94
493.18	526.94
493.398	513.94
493.615	533.94
493.833	505.94
494.05	540.94
494.268	513.94
494.485	518.94
494.703	526.94
494.92	526.94
495.138	525.94
495.355	514.94
495.573	522.94
495.79	536.94
496.008	532.94
496.225	537.94
496.442	520.94
496.66	543.94
496.877	524.94
497.094	516.94
497.312	543.94
497.529	537.94
497.746	559.94
497.963	563.94
498.181	597.94
498.398	611.94
498.615	630.94
498.832	612.94
499.049	643.94
499.267	677.94
499.484	746.94
499.701	778.94
499.918	852.94
500.135	879.94
500.352	966.94
500.569	1000.94
500.786	955.94
501.003	945.94
501.22	875.94
501.437	811.94
501.654	774.94
501.871	733.94
502.088	687.94
