Data from 1968.PennyLincolnUp.Lamp.En5.5.200Scan.071719.P1._HRD10591_14-49-21-969.txt Node
Date: Thu Jul 18 14:49:21 EDT 2019
User: cochatt
Spectrometer: HR+D1059
Trigger mode: 1
Integration Time (sec): 1.000000E-1
Scans to average: 1
Electric dark correction enabled: true
Nonlinearity correction enabled: false
Boxcar width: 0
XAxis mode: Wavelengths
Number of Pixels in Spectrum: 2048
>>>>>Begin Spectral Data<<<<<
223.165	-12.38
223.4	-12.38
223.635	-12.38
223.869	-15.38
224.104	-19.38
224.338	-17.38
224.573	-9.38
224.808	-22.38
225.042	-4.38
225.277	-15.38
225.511	-2.38
225.746	-9.38
225.98	1.62
226.215	8.62
226.449	18.62
226.683	38.62
226.918	26.62
227.152	33.62
227.387	27.62
227.621	44.62
227.856	23.62
228.09	46.62
228.324	45.62
228.559	50.62
228.793	50.62
229.027	69.62
229.262	56.62
229.496	66.62
229.73	57.62
229.964	84.62
230.199	70.62
230.433	69.62
230.667	73.62
230.901	73.62
231.136	88.62
231.37	83.62
231.604	92.62
231.838	85.62
232.072	81.62
232.306	83.62
232.541	66.62
232.775	74.62
233.009	78.62
233.243	81.62
233.477	72.62
233.711	84.62
233.945	68.62
234.179	92.62
234.413	75.62
234.647	74.62
234.881	88.62
235.115	82.62
235.349	89.62
235.583	82.62
235.817	87.62
236.051	86.62
236.285	77.62
236.519	81.62
236.753	77.62
236.987	88.62
237.221	81.62
237.455	74.62
237.689	69.62
237.922	78.62
238.156	66.62
238.39	85.62
238.624	76.62
238.858	80.62
239.091	79.62
239.325	68.62
239.559	66.62
239.793	78.62
240.027	78.62
240.26	73.62
240.494	70.62
240.728	79.62
240.961	84.62
241.195	84.62
241.429	81.62
241.662	82.62
241.896	68.62
242.13	76.62
242.363	83.62
242.597	85.62
242.83	91.62
243.064	82.62
243.298	86.62
243.531	84.62
243.765	73.62
243.998	75.62
244.232	74.62
244.465	77.62
244.699	69.62
244.932	66.62
245.166	72.62
245.399	80.62
245.633	73.62
245.866	79.62
246.099	75.62
246.333	81.62
246.566	92.62
246.8	87.62
247.033	71.62
247.266	83.62
247.5	82.62
247.733	98.62
247.966	84.62
248.2	81.62
248.433	87.62
248.666	79.62
248.899	88.62
249.133	86.62
249.366	78.62
249.599	85.62
249.832	93.62
250.066	103.62
250.299	90.62
250.532	96.62
250.765	89.62
250.998	82.62
251.231	86.62
251.465	80.62
251.698	85.62
251.931	87.62
252.164	85.62
252.397	87.62
252.63	91.62
252.863	84.62
253.096	99.62
253.329	85.62
253.562	86.62
253.795	78.62
254.028	82.62
254.261	77.62
254.494	82.62
254.727	105.62
254.96	89.62
255.193	92.62
255.426	91.62
255.659	85.62
255.892	84.62
256.124	90.62
256.357	88.62
256.59	91.62
256.823	97.62
257.056	83.62
257.289	93.62
257.521	96.62
257.754	93.62
257.987	86.62
258.22	103.62
258.452	84.62
258.685	93.62
258.918	84.62
259.151	96.62
259.383	87.62
259.616	95.62
259.849	75.62
260.081	99.62
260.314	91.62
260.547	87.62
260.779	78.62
261.012	79.62
261.244	91.62
261.477	91.62
261.71	84.62
261.942	87.62
262.175	99.62
262.407	84.62
262.64	92.62
262.872	102.62
263.105	91.62
263.337	86.62
263.57	92.62
263.802	80.62
264.035	90.62
264.267	96.62
264.499	101.62
264.732	101.62
264.964	82.62
265.197	84.62
265.429	87.62
265.661	90.62
265.894	104.62
266.126	100.62
266.358	78.62
266.591	91.62
266.823	98.62
267.055	93.62
267.287	100.62
267.52	99.62
267.752	92.62
267.984	97.62
268.216	91.62
268.448	99.62
268.681	92.62
268.913	96.62
269.145	88.62
269.377	101.62
269.609	93.62
269.841	96.62
270.073	86.62
270.306	96.62
270.538	89.62
270.77	85.62
271.002	89.62
271.234	90.62
271.466	102.62
271.698	77.62
271.93	85.62
272.162	82.62
272.394	100.62
272.626	80.62
272.858	88.62
273.09	92.62
273.322	99.62
273.553	93.62
273.785	90.62
274.017	94.62
274.249	86.62
274.481	96.62
274.713	88.62
274.945	98.62
275.176	100.62
275.408	105.62
275.64	94.62
275.872	103.62
276.104	97.62
276.335	95.62
276.567	92.62
276.799	86.62
277.031	102.62
277.262	112.62
277.494	93.62
277.726	89.62
277.957	95.62
278.189	102.62
278.421	93.62
278.652	89.62
278.884	98.62
279.115	102.62
279.347	105.62
279.579	83.62
279.81	103.62
280.042	90.62
280.273	89.62
280.505	114.62
280.736	94.62
280.968	95.62
281.199	91.62
281.431	101.62
281.662	90.62
281.894	95.62
282.125	105.62
282.356	106.62
282.588	110.62
282.819	102.62
283.051	98.62
283.282	91.62
283.513	98.62
283.745	89.62
283.976	87.62
284.207	97.62
284.439	101.62
284.67	97.62
284.901	104.62
285.132	109.62
285.364	104.62
285.595	108.62
285.826	92.62
286.057	97.62
286.288	92.62
286.52	106.62
286.751	92.62
286.982	94.62
287.213	115.62
287.444	97.62
287.675	99.62
287.906	96.62
288.138	96.62
288.369	95.62
288.6	101.62
288.831	88.62
289.062	109.62
289.293	88.62
289.524	103.62
289.755	89.62
289.986	109.62
290.217	88.62
290.448	102.62
290.679	77.62
290.91	85.62
291.141	105.62
291.371	98.62
291.602	97.62
291.833	93.62
292.064	100.62
292.295	93.62
292.526	95.62
292.757	93.62
292.987	97.62
293.218	92.62
293.449	90.62
293.68	94.62
293.91	95.62
294.141	104.62
294.372	89.62
294.603	101.62
294.833	104.62
295.064	90.62
295.295	105.62
295.525	105.62
295.756	101.62
295.987	95.62
296.217	90.62
296.448	96.62
296.679	98.62
296.909	107.62
297.14	92.62
297.37	100.62
297.601	96.62
297.831	95.62
298.062	101.62
298.292	88.62
298.523	93.62
298.753	97.62
298.984	93.62
299.214	96.62
299.445	108.62
299.675	105.62
299.905	102.62
300.136	108.62
300.366	103.62
300.597	112.62
300.827	107.62
301.057	105.62
301.288	95.62
301.518	109.62
301.748	103.62
301.979	114.62
302.209	103.62
302.439	93.62
302.669	99.62
302.9	99.62
303.13	116.62
303.36	116.62
303.59	111.62
303.82	100.62
304.051	107.62
304.281	109.62
304.511	122.62
304.741	95.62
304.971	96.62
305.201	94.62
305.431	97.62
305.661	98.62
305.891	99.62
306.121	119.62
306.352	104.62
306.582	103.62
306.812	92.62
307.042	108.62
307.272	112.62
307.502	102.62
307.731	101.62
307.961	103.62
308.191	93.62
308.421	106.62
308.651	97.62
308.881	101.62
309.111	115.62
309.341	97.62
309.571	102.62
309.8	112.62
310.03	107.62
310.26	105.62
310.49	106.62
310.72	102.62
310.949	107.62
311.179	117.62
311.409	100.62
311.639	101.62
311.868	101.62
312.098	99.62
312.328	108.62
312.557	110.62
312.787	118.62
313.017	109.62
313.246	110.62
313.476	112.62
313.706	116.62
313.935	90.62
314.165	104.62
314.394	91.62
314.624	108.62
314.853	115.62
315.083	102.62
315.312	102.62
315.542	98.62
315.771	104.62
316.001	108.62
316.23	115.62
316.46	105.62
316.689	96.62
316.919	111.62
317.148	86.62
317.377	106.62
317.607	109.62
317.836	107.62
318.065	97.62
318.295	95.62
318.524	105.62
318.753	107.62
318.983	105.62
319.212	117.62
319.441	95.62
319.67	103.62
319.9	125.62
320.129	114.62
320.358	107.62
320.587	104.62
320.816	111.62
321.046	106.62
321.275	118.62
321.504	106.62
321.733	113.62
321.962	106.62
322.191	122.62
322.42	114.62
322.649	87.62
322.878	96.62
323.108	113.62
323.337	112.62
323.566	110.62
323.795	95.62
324.024	112.62
324.253	107.62
324.482	126.62
324.71	137.62
324.939	158.62
325.168	148.62
325.397	125.62
325.626	109.62
325.855	115.62
326.084	110.62
326.313	122.62
326.542	109.62
326.77	118.62
326.999	114.62
327.228	122.62
327.457	123.62
327.686	152.62
327.914	115.62
328.143	96.62
328.372	106.62
328.6	115.62
328.829	114.62
329.058	113.62
329.287	112.62
329.515	110.62
329.744	105.62
329.972	102.62
330.201	116.62
330.43	109.62
330.658	112.62
330.887	104.62
331.115	109.62
331.344	89.62
331.572	109.62
331.801	95.62
332.03	108.62
332.258	114.62
332.486	118.62
332.715	117.62
332.943	114.62
333.172	101.62
333.4	106.62
333.629	106.62
333.857	124.62
334.085	117.62
334.314	108.62
334.542	112.62
334.771	112.62
334.999	113.62
335.227	122.62
335.455	114.62
335.684	119.62
335.912	110.62
336.14	104.62
336.369	104.62
336.597	107.62
336.825	107.62
337.053	118.62
337.281	114.62
337.51	102.62
337.738	114.62
337.966	128.62
338.194	133.62
338.422	106.62
338.65	112.62
338.878	104.62
339.106	101.62
339.334	105.62
339.562	93.62
339.79	102.62
340.018	121.62
340.246	108.62
340.474	122.62
340.702	94.62
340.93	97.62
341.158	114.62
341.386	125.62
341.614	93.62
341.842	106.62
342.07	114.62
342.298	99.62
342.526	97.62
342.754	110.62
342.981	109.62
343.209	116.62
343.437	114.62
343.665	116.62
343.893	117.62
344.12	112.62
344.348	116.62
344.576	111.62
344.804	103.62
345.031	106.62
345.259	118.62
345.487	114.62
345.714	112.62
345.942	118.62
346.17	114.62
346.397	111.62
346.625	90.62
346.853	110.62
347.08	96.62
347.308	104.62
347.535	119.62
347.763	105.62
347.99	109.62
348.218	104.62
348.445	107.62
348.673	103.62
348.9	100.62
349.128	116.62
349.355	116.62
349.583	107.62
349.81	115.62
350.037	100.62
350.265	112.62
350.492	102.62
350.72	116.62
350.947	115.62
351.174	105.62
351.402	110.62
351.629	105.62
351.856	105.62
352.083	111.62
352.311	120.62
352.538	102.62
352.765	112.62
352.992	104.62
353.22	93.62
353.447	114.62
353.674	88.62
353.901	101.62
354.128	102.62
354.355	97.62
354.583	97.62
354.81	115.62
355.037	112.62
355.264	100.62
355.491	108.62
355.718	104.62
355.945	113.62
356.172	108.62
356.399	118.62
356.626	114.62
356.853	115.62
357.08	106.62
357.307	102.62
357.534	104.62
357.761	93.62
357.988	105.62
358.215	114.62
358.441	96.62
358.668	104.62
358.895	90.62
359.122	111.62
359.349	114.62
359.576	107.62
359.802	120.62
360.029	101.62
360.256	100.62
360.483	115.62
360.709	119.62
360.936	107.62
361.163	105.62
361.39	98.62
361.616	97.62
361.843	104.62
362.07	103.62
362.296	110.62
362.523	100.62
362.749	114.62
362.976	110.62
363.203	113.62
363.429	114.62
363.656	100.62
363.882	95.62
364.109	110.62
364.335	106.62
364.562	93.62
364.788	109.62
365.015	102.62
365.241	110.62
365.468	108.62
365.694	102.62
365.92	91.62
366.147	103.62
366.373	101.62
366.599	116.62
366.826	110.62
367.052	98.62
367.278	118.62
367.505	104.62
367.731	112.62
367.957	114.62
368.184	130.62
368.41	120.62
368.636	102.62
368.862	110.62
369.089	99.62
369.315	100.62
369.541	102.62
369.767	109.62
369.993	99.62
370.219	115.62
370.445	120.62
370.672	104.62
370.898	110.62
371.124	108.62
371.35	117.62
371.576	106.62
371.802	98.62
372.028	101.62
372.254	117.62
372.48	128.62
372.706	100.62
372.932	108.62
373.158	112.62
373.384	122.62
373.61	124.62
373.835	105.62
374.061	99.62
374.287	109.62
374.513	105.62
374.739	103.62
374.965	100.62
375.191	107.62
375.416	109.62
375.642	119.62
375.868	116.62
376.094	116.62
376.319	116.62
376.545	115.62
376.771	101.62
376.997	114.62
377.222	117.62
377.448	113.62
377.674	104.62
377.899	101.62
378.125	103.62
378.35	100.62
378.576	96.62
378.802	99.62
379.027	113.62
379.253	98.62
379.478	118.62
379.704	118.62
379.929	108.62
380.155	118.62
380.38	115.62
380.606	108.62
380.831	109.62
381.057	120.62
381.282	112.62
381.507	107.62
381.733	104.62
381.958	84.62
382.184	118.62
382.409	108.62
382.634	114.62
382.86	124.62
383.085	117.62
383.31	109.62
383.535	122.62
383.761	104.62
383.986	117.62
384.211	111.62
384.436	105.62
384.662	121.62
384.887	107.62
385.112	112.62
385.337	126.62
385.562	108.62
385.787	116.62
386.013	120.62
386.238	117.62
386.463	116.62
386.688	127.62
386.913	107.62
387.138	121.62
387.363	122.62
387.588	110.62
387.813	118.62
388.038	116.62
388.263	123.62
388.488	131.62
388.713	110.62
388.938	118.62
389.163	108.62
389.387	116.62
389.612	106.62
389.837	109.62
390.062	122.62
390.287	109.62
390.512	109.62
390.736	115.62
390.961	116.62
391.186	125.62
391.411	117.62
391.636	120.62
391.86	114.62
392.085	110.62
392.31	115.62
392.534	110.62
392.759	123.62
392.984	125.62
393.208	114.62
393.433	129.62
393.658	128.62
393.882	115.62
394.107	112.62
394.331	104.62
394.556	112.62
394.78	118.62
395.005	124.62
395.229	116.62
395.454	129.62
395.678	118.62
395.903	140.62
396.127	120.62
396.352	120.62
396.576	134.62
396.801	104.62
397.025	119.62
397.249	111.62
397.474	112.62
397.698	121.62
397.922	134.62
398.147	114.62
398.371	113.62
398.595	123.62
398.82	127.62
399.044	136.62
399.268	124.62
399.492	137.62
399.717	145.62
399.941	155.62
400.165	139.62
400.389	136.62
400.613	122.62
400.837	118.62
401.062	133.62
401.286	128.62
401.51	124.62
401.734	121.62
401.958	115.62
402.182	124.62
402.406	129.62
402.63	126.62
402.854	134.62
403.078	132.62
403.302	128.62
403.526	125.62
403.75	129.62
403.974	133.62
404.198	120.62
404.422	133.62
404.645	137.62
404.869	139.62
405.093	126.62
405.317	145.62
405.541	142.62
405.765	137.62
405.988	141.62
406.212	122.62
406.436	130.62
406.66	142.62
406.883	146.62
407.107	141.62
407.331	140.62
407.555	157.62
407.778	133.62
408.002	138.62
408.226	121.62
408.449	123.62
408.673	140.62
408.896	132.62
409.12	120.62
409.344	137.62
409.567	141.62
409.791	137.62
410.014	132.62
410.238	130.62
410.461	149.62
410.685	124.62
410.908	120.62
411.132	138.62
411.355	132.62
411.578	126.62
411.802	122.62
412.025	123.62
412.249	132.62
412.472	130.62
412.695	122.62
412.919	120.62
413.142	136.62
413.365	123.62
413.589	123.62
413.812	140.62
414.035	129.62
414.258	109.62
414.482	117.62
414.705	135.62
414.928	148.62
415.151	133.62
415.374	125.62
415.597	107.62
415.821	129.62
416.044	126.62
416.267	129.62
416.49	127.62
416.713	123.62
416.936	125.62
417.159	131.62
417.382	122.62
417.605	124.62
417.828	136.62
418.051	136.62
418.274	125.62
418.497	126.62
418.72	116.62
418.943	123.62
419.166	123.62
419.389	134.62
419.611	118.62
419.834	137.62
420.057	136.62
420.28	148.62
420.503	132.62
420.726	124.62
420.948	141.62
421.171	123.62
421.394	137.62
421.617	126.62
421.839	121.62
422.062	126.62
422.285	114.62
422.507	113.62
422.73	124.62
422.953	120.62
423.175	128.62
423.398	132.62
423.621	116.62
423.843	144.62
424.066	136.62
424.288	140.62
424.511	124.62
424.733	139.62
424.956	142.62
425.178	131.62
425.401	134.62
425.623	120.62
425.846	128.62
426.068	132.62
426.291	149.62
426.513	114.62
426.735	124.62
426.958	143.62
427.18	135.62
427.402	129.62
427.625	132.62
427.847	121.62
428.069	124.62
428.292	129.62
428.514	119.62
428.736	125.62
428.958	134.62
429.181	119.62
429.403	115.62
429.625	116.62
429.847	122.62
430.069	132.62
430.292	128.62
430.514	129.62
430.736	119.62
430.958	127.62
431.18	121.62
431.402	125.62
431.624	112.62
431.846	123.62
432.068	116.62
432.29	115.62
432.512	129.62
432.734	129.62
432.956	118.62
433.178	122.62
433.4	118.62
433.622	137.62
433.844	130.62
434.066	119.62
434.287	132.62
434.509	118.62
434.731	107.62
434.953	132.62
435.175	132.62
435.397	140.62
435.618	128.62
435.84	134.62
436.062	142.62
436.284	131.62
436.505	127.62
436.727	121.62
436.949	117.62
437.17	118.62
437.392	124.62
437.614	118.62
437.835	120.62
438.057	138.62
438.278	116.62
438.5	132.62
438.721	140.62
438.943	135.62
439.165	125.62
439.386	121.62
439.608	123.62
439.829	147.62
440.05	136.62
440.272	143.62
440.493	125.62
440.715	127.62
440.936	125.62
441.158	122.62
441.379	118.62
441.6	130.62
441.822	135.62
442.043	134.62
442.264	145.62
442.486	138.62
442.707	115.62
442.928	130.62
443.149	133.62
443.371	131.62
443.592	128.62
443.813	136.62
444.034	126.62
444.255	132.62
444.476	136.62
444.698	143.62
444.919	131.62
445.14	263.62
445.361	192.62
445.582	137.62
445.803	131.62
446.024	128.62
446.245	136.62
446.466	127.62
446.687	134.62
446.908	137.62
447.129	140.62
447.35	110.62
447.571	124.62
447.792	120.62
448.013	135.62
448.234	138.62
448.455	130.62
448.675	117.62
448.896	132.62
449.117	110.62
449.338	115.62
449.559	134.62
449.779	131.62
450	131.62
450.221	128.62
450.442	112.62
450.662	127.62
450.883	110.62
451.104	122.62
451.324	124.62
451.545	134.62
451.766	123.62
451.986	114.62
452.207	111.62
452.428	118.62
452.648	124.62
452.869	121.62
453.089	121.62
453.31	101.62
453.53	118.62
453.751	112.62
453.971	123.62
454.192	114.62
454.412	126.62
454.633	113.62
454.853	117.62
455.073	122.62
455.294	114.62
455.514	109.62
455.734	132.62
455.955	105.62
456.175	116.62
456.395	108.62
456.616	108.62
456.836	112.62
457.056	107.62
457.276	104.62
457.497	116.62
457.717	134.62
457.937	115.62
458.157	118.62
458.377	123.62
458.598	124.62
458.818	117.62
459.038	122.62
459.258	128.62
459.478	112.62
459.698	110.62
459.918	103.62
460.138	114.62
460.358	126.62
460.578	131.62
460.798	135.62
461.018	126.62
461.238	119.62
461.458	128.62
461.678	114.62
461.898	125.62
462.118	136.62
462.338	128.62
462.558	125.62
462.777	122.62
462.997	147.62
463.217	130.62
463.437	135.62
463.657	126.62
463.876	141.62
464.096	127.62
464.316	137.62
464.536	127.62
464.755	137.62
464.975	132.62
465.195	126.62
465.414	121.62
465.634	128.62
465.854	136.62
466.073	96.62
466.293	116.62
466.512	130.62
466.732	125.62
466.951	113.62
467.171	122.62
467.391	123.62
467.61	123.62
467.829	120.62
468.049	130.62
468.268	107.62
468.488	124.62
468.707	114.62
468.927	123.62
469.146	118.62
469.365	123.62
469.585	121.62
469.804	119.62
470.023	115.62
470.243	123.62
470.462	132.62
470.681	121.62
470.901	125.62
471.12	112.62
471.339	114.62
471.558	116.62
471.777	124.62
471.997	125.62
472.216	120.62
472.435	113.62
472.654	116.62
472.873	142.62
473.092	119.62
473.311	121.62
473.53	128.62
473.749	114.62
473.968	131.62
474.187	119.62
474.406	134.62
474.625	115.62
474.844	126.62
475.063	124.62
475.282	114.62
475.501	115.62
475.72	123.62
475.939	113.62
476.158	126.62
476.377	131.62
476.596	134.62
476.814	123.62
477.033	115.62
477.252	124.62
477.471	133.62
477.69	111.62
477.908	125.62
478.127	139.62
478.346	130.62
478.564	132.62
478.783	122.62
479.002	122.62
479.22	132.62
479.439	126.62
479.658	125.62
479.876	128.62
480.095	104.62
480.313	115.62
480.532	124.62
480.751	136.62
480.969	128.62
481.188	126.62
481.406	133.62
481.624	133.62
481.843	117.62
482.061	125.62
482.28	127.62
482.498	115.62
482.717	130.62
482.935	136.62
483.153	132.62
483.372	130.62
483.59	133.62
483.808	128.62
484.027	132.62
484.245	119.62
484.463	121.62
484.681	126.62
484.9	116.62
485.118	118.62
485.336	116.62
485.554	140.62
485.772	118.62
485.99	142.62
486.209	128.62
486.427	128.62
486.645	131.62
486.863	124.62
487.081	119.62
487.299	120.62
487.517	136.62
487.735	142.62
487.953	126.62
488.171	141.62
488.389	138.62
488.607	129.62
488.825	132.62
489.043	134.62
489.261	120.62
489.479	138.62
489.696	124.62
489.914	137.62
490.132	130.62
490.35	136.62
490.568	120.62
490.786	146.62
491.003	125.62
491.221	132.62
491.439	120.62
491.657	139.62
491.874	133.62
492.092	138.62
492.31	140.62
492.527	146.62
492.745	150.62
492.963	142.62
493.18	146.62
493.398	143.62
493.615	150.62
493.833	141.62
494.05	142.62
494.268	153.62
494.485	152.62
494.703	142.62
494.92	146.62
495.138	140.62
495.355	138.62
495.573	145.62
495.79	152.62
496.008	135.62
496.225	146.62
496.442	139.62
496.66	147.62
496.877	154.62
497.094	153.62
497.312	136.62
497.529	135.62
497.746	143.62
497.963	148.62
498.181	154.62
498.398	141.62
498.615	150.62
498.832	154.62
499.049	155.62
499.267	165.62
499.484	195.62
499.701	184.62
499.918	175.62
500.135	200.62
500.352	212.62
500.569	213.62
500.786	227.62
501.003	206.62
501.22	190.62
501.437	200.62
501.654	184.62
501.871	178.62
502.088	161.62
502.305	155.62
502.522	151.62
502.739	165.62
502.956	152.62
503.172	154.62
503.389	155.62
503.606	138.62
503.823	146.62
504.04	148.62
504.256	147.62
504.473	132.62
504.69	150.62
504.907	150.62
505.123	128.62
505.34	144.62
505.557	131.62
505.773	130.62
505.99	116.62
506.207	126.62
