Data from 1968.PennyLincolnUp.Lamp.En5.5.200Scan.071719.P1._HRD10591_14-50-08-969.txt Node
Date: Thu Jul 18 14:50:08 EDT 2019
User: cochatt
Spectrometer: HR+D1059
Trigger mode: 1
Integration Time (sec): 1.000000E-1
Scans to average: 1
Electric dark correction enabled: true
Nonlinearity correction enabled: false
Boxcar width: 0
XAxis mode: Wavelengths
Number of Pixels in Spectrum: 2048
>>>>>Begin Spectral Data<<<<<
223.165	-13.25
223.4	-13.25
223.635	-13.25
223.869	2.75
224.104	-9.25
224.338	-17.25
224.573	-27.25
224.808	-15.25
225.042	-10.25
225.277	-6.25
225.511	3.75
225.746	5.75
225.98	-7.25
226.215	21.75
226.449	18.75
226.683	11.75
226.918	12.75
227.152	28.75
227.387	30.75
227.621	34.75
227.856	39.75
228.09	38.75
228.324	38.75
228.559	42.75
228.793	50.75
229.027	65.75
229.262	59.75
229.496	56.75
229.73	74.75
229.964	57.75
230.199	68.75
230.433	67.75
230.667	79.75
230.901	75.75
231.136	68.75
231.37	75.75
231.604	82.75
231.838	80.75
232.072	83.75
232.306	79.75
232.541	81.75
232.775	79.75
233.009	90.75
233.243	72.75
233.477	60.75
233.711	85.75
233.945	84.75
234.179	87.75
234.413	95.75
234.647	74.75
234.881	72.75
235.115	69.75
235.349	89.75
235.583	82.75
235.817	78.75
236.051	76.75
236.285	70.75
236.519	78.75
236.753	74.75
236.987	72.75
237.221	79.75
237.455	96.75
237.689	84.75
237.922	87.75
238.156	78.75
238.39	82.75
238.624	74.75
238.858	68.75
239.091	74.75
239.325	72.75
239.559	73.75
239.793	88.75
240.027	75.75
240.26	79.75
240.494	79.75
240.728	82.75
240.961	93.75
241.195	92.75
241.429	86.75
241.662	75.75
241.896	76.75
242.13	71.75
242.363	85.75
242.597	85.75
242.83	68.75
243.064	80.75
243.298	82.75
243.531	69.75
243.765	82.75
243.998	84.75
244.232	76.75
244.465	79.75
244.699	71.75
244.932	71.75
245.166	73.75
245.399	72.75
245.633	68.75
245.866	72.75
246.099	69.75
246.333	85.75
246.566	81.75
246.8	81.75
247.033	91.75
247.266	72.75
247.5	94.75
247.733	91.75
247.966	88.75
248.2	77.75
248.433	92.75
248.666	71.75
248.899	82.75
249.133	95.75
249.366	79.75
249.599	94.75
249.832	82.75
250.066	86.75
250.299	83.75
250.532	94.75
250.765	78.75
250.998	74.75
251.231	79.75
251.465	73.75
251.698	86.75
251.931	86.75
252.164	80.75
252.397	88.75
252.63	78.75
252.863	87.75
253.096	92.75
253.329	84.75
253.562	74.75
253.795	87.75
254.028	74.75
254.261	89.75
254.494	95.75
254.727	99.75
254.96	84.75
255.193	83.75
255.426	81.75
255.659	94.75
255.892	94.75
256.124	87.75
256.357	110.75
256.59	82.75
256.823	83.75
257.056	92.75
257.289	93.75
257.521	77.75
257.754	83.75
257.987	83.75
258.22	85.75
258.452	93.75
258.685	89.75
258.918	84.75
259.151	77.75
259.383	70.75
259.616	94.75
259.849	76.75
260.081	93.75
260.314	73.75
260.547	88.75
260.779	94.75
261.012	89.75
261.244	93.75
261.477	79.75
261.71	90.75
261.942	82.75
262.175	94.75
262.407	73.75
262.64	101.75
262.872	87.75
263.105	79.75
263.337	86.75
263.57	74.75
263.802	80.75
264.035	80.75
264.267	96.75
264.499	95.75
264.732	80.75
264.964	97.75
265.197	95.75
265.429	82.75
265.661	85.75
265.894	96.75
266.126	84.75
266.358	80.75
266.591	99.75
266.823	83.75
267.055	80.75
267.287	92.75
267.52	85.75
267.752	97.75
267.984	95.75
268.216	84.75
268.448	84.75
268.681	88.75
268.913	97.75
269.145	90.75
269.377	86.75
269.609	99.75
269.841	96.75
270.073	96.75
270.306	94.75
270.538	96.75
270.77	105.75
271.002	98.75
271.234	96.75
271.466	92.75
271.698	95.75
271.93	86.75
272.162	82.75
272.394	94.75
272.626	98.75
272.858	79.75
273.09	102.75
273.322	91.75
273.553	94.75
273.785	94.75
274.017	99.75
274.249	100.75
274.481	109.75
274.713	96.75
274.945	103.75
275.176	94.75
275.408	92.75
275.64	92.75
275.872	93.75
276.104	97.75
276.335	85.75
276.567	91.75
276.799	71.75
277.031	96.75
277.262	101.75
277.494	100.75
277.726	89.75
277.957	106.75
278.189	102.75
278.421	95.75
278.652	92.75
278.884	84.75
279.115	99.75
279.347	107.75
279.579	96.75
279.81	86.75
280.042	89.75
280.273	80.75
280.505	88.75
280.736	83.75
280.968	99.75
281.199	98.75
281.431	94.75
281.662	103.75
281.894	97.75
282.125	95.75
282.356	98.75
282.588	96.75
282.819	89.75
283.051	108.75
283.282	99.75
283.513	96.75
283.745	106.75
283.976	100.75
284.207	109.75
284.439	104.75
284.67	104.75
284.901	103.75
285.132	110.75
285.364	99.75
285.595	98.75
285.826	87.75
286.057	98.75
286.288	90.75
286.52	104.75
286.751	97.75
286.982	86.75
287.213	89.75
287.444	83.75
287.675	78.75
287.906	90.75
288.138	99.75
288.369	102.75
288.6	92.75
288.831	93.75
289.062	96.75
289.293	98.75
289.524	112.75
289.755	94.75
289.986	97.75
290.217	110.75
290.448	94.75
290.679	111.75
290.91	95.75
291.141	97.75
291.371	105.75
291.602	103.75
291.833	83.75
292.064	96.75
292.295	99.75
292.526	87.75
292.757	95.75
292.987	109.75
293.218	94.75
293.449	89.75
293.68	102.75
293.91	91.75
294.141	86.75
294.372	90.75
294.603	95.75
294.833	93.75
295.064	99.75
295.295	101.75
295.525	90.75
295.756	102.75
295.987	114.75
296.217	107.75
296.448	103.75
296.679	108.75
296.909	89.75
297.14	100.75
297.37	104.75
297.601	111.75
297.831	107.75
298.062	114.75
298.292	90.75
298.523	107.75
298.753	109.75
298.984	97.75
299.214	88.75
299.445	94.75
299.675	110.75
299.905	108.75
300.136	106.75
300.366	101.75
300.597	110.75
300.827	96.75
301.057	98.75
301.288	101.75
301.518	90.75
301.748	104.75
301.979	104.75
302.209	92.75
302.439	103.75
302.669	106.75
302.9	107.75
303.13	110.75
303.36	103.75
303.59	91.75
303.82	89.75
304.051	93.75
304.281	106.75
304.511	100.75
304.741	108.75
304.971	111.75
305.201	90.75
305.431	91.75
305.661	107.75
305.891	102.75
306.121	94.75
306.352	88.75
306.582	105.75
306.812	91.75
307.042	103.75
307.272	89.75
307.502	92.75
307.731	95.75
307.961	91.75
308.191	85.75
308.421	96.75
308.651	105.75
308.881	96.75
309.111	105.75
309.341	90.75
309.571	100.75
309.8	86.75
310.03	94.75
310.26	114.75
310.49	97.75
310.72	91.75
310.949	103.75
311.179	107.75
311.409	94.75
311.639	92.75
311.868	111.75
312.098	112.75
312.328	92.75
312.557	94.75
312.787	96.75
313.017	111.75
313.246	111.75
313.476	105.75
313.706	99.75
313.935	82.75
314.165	106.75
314.394	111.75
314.624	88.75
314.853	103.75
315.083	103.75
315.312	110.75
315.542	103.75
315.771	96.75
316.001	98.75
316.23	105.75
316.46	87.75
316.689	97.75
316.919	90.75
317.148	103.75
317.377	103.75
317.607	103.75
317.836	116.75
318.065	108.75
318.295	110.75
318.524	102.75
318.753	108.75
318.983	102.75
319.212	94.75
319.441	97.75
319.67	98.75
319.9	106.75
320.129	100.75
320.358	98.75
320.587	115.75
320.816	104.75
321.046	119.75
321.275	113.75
321.504	91.75
321.733	113.75
321.962	110.75
322.191	106.75
322.42	106.75
322.649	110.75
322.878	97.75
323.108	110.75
323.337	112.75
323.566	118.75
323.795	115.75
324.024	110.75
324.253	123.75
324.482	122.75
324.71	156.75
324.939	156.75
325.168	139.75
325.397	113.75
325.626	103.75
325.855	120.75
326.084	126.75
326.313	107.75
326.542	111.75
326.77	112.75
326.999	121.75
327.228	105.75
327.457	137.75
327.686	148.75
327.914	141.75
328.143	105.75
328.372	81.75
328.6	101.75
328.829	113.75
329.058	100.75
329.287	110.75
329.515	115.75
329.744	110.75
329.972	111.75
330.201	116.75
330.43	108.75
330.658	115.75
330.887	110.75
331.115	100.75
331.344	110.75
331.572	112.75
331.801	99.75
332.03	99.75
332.258	93.75
332.486	104.75
332.715	121.75
332.943	122.75
333.172	101.75
333.4	106.75
333.629	107.75
333.857	103.75
334.085	115.75
334.314	122.75
334.542	107.75
334.771	112.75
334.999	127.75
335.227	109.75
335.455	110.75
335.684	122.75
335.912	129.75
336.14	110.75
336.369	116.75
336.597	114.75
336.825	114.75
337.053	96.75
337.281	121.75
337.51	101.75
337.738	120.75
337.966	116.75
338.194	110.75
338.422	102.75
338.65	104.75
338.878	116.75
339.106	117.75
339.334	117.75
339.562	91.75
339.79	119.75
340.018	114.75
340.246	118.75
340.474	118.75
340.702	104.75
340.93	110.75
341.158	111.75
341.386	106.75
341.614	113.75
341.842	99.75
342.07	100.75
342.298	99.75
342.526	95.75
342.754	101.75
342.981	110.75
343.209	120.75
343.437	108.75
343.665	110.75
343.893	114.75
344.12	112.75
344.348	113.75
344.576	103.75
344.804	105.75
345.031	107.75
345.259	113.75
345.487	107.75
345.714	83.75
345.942	112.75
346.17	101.75
346.397	109.75
346.625	99.75
346.853	100.75
347.08	111.75
347.308	115.75
347.535	97.75
347.763	120.75
347.99	104.75
348.218	113.75
348.445	97.75
348.673	110.75
348.9	109.75
349.128	107.75
349.355	118.75
349.583	116.75
349.81	99.75
350.037	99.75
350.265	122.75
350.492	97.75
350.72	103.75
350.947	100.75
351.174	116.75
351.402	93.75
351.629	107.75
351.856	97.75
352.083	111.75
352.311	110.75
352.538	103.75
352.765	112.75
352.992	99.75
353.22	110.75
353.447	96.75
353.674	94.75
353.901	100.75
354.128	124.75
354.355	98.75
354.583	101.75
354.81	112.75
355.037	119.75
355.264	99.75
355.491	119.75
355.718	97.75
355.945	104.75
356.172	114.75
356.399	117.75
356.626	109.75
356.853	115.75
357.08	106.75
357.307	104.75
357.534	111.75
357.761	110.75
357.988	113.75
358.215	113.75
358.441	124.75
358.668	120.75
358.895	113.75
359.122	119.75
359.349	107.75
359.576	115.75
359.802	106.75
360.029	104.75
360.256	105.75
360.483	115.75
360.709	115.75
360.936	115.75
361.163	106.75
361.39	113.75
361.616	96.75
361.843	119.75
362.07	116.75
362.296	105.75
362.523	101.75
362.749	102.75
362.976	100.75
363.203	126.75
363.429	115.75
363.656	107.75
363.882	123.75
364.109	112.75
364.335	115.75
364.562	105.75
364.788	116.75
365.015	106.75
365.241	94.75
365.468	119.75
365.694	123.75
365.92	120.75
366.147	97.75
366.373	93.75
366.599	117.75
366.826	104.75
367.052	108.75
367.278	102.75
367.505	101.75
367.731	105.75
367.957	104.75
368.184	110.75
368.41	115.75
368.636	114.75
368.862	101.75
369.089	105.75
369.315	99.75
369.541	103.75
369.767	89.75
369.993	99.75
370.219	105.75
370.445	110.75
370.672	111.75
370.898	122.75
371.124	120.75
371.35	103.75
371.576	110.75
371.802	122.75
372.028	110.75
372.254	105.75
372.48	110.75
372.706	109.75
372.932	123.75
373.158	113.75
373.384	105.75
373.61	118.75
373.835	103.75
374.061	111.75
374.287	98.75
374.513	113.75
374.739	107.75
374.965	118.75
375.191	105.75
375.416	106.75
375.642	107.75
375.868	112.75
376.094	102.75
376.319	111.75
376.545	116.75
376.771	110.75
376.997	111.75
377.222	105.75
377.448	121.75
377.674	106.75
377.899	95.75
378.125	114.75
378.35	99.75
378.576	97.75
378.802	101.75
379.027	102.75
379.253	104.75
379.478	113.75
379.704	112.75
379.929	120.75
380.155	112.75
380.38	101.75
380.606	100.75
380.831	120.75
381.057	112.75
381.282	107.75
381.507	119.75
381.733	106.75
381.958	101.75
382.184	105.75
382.409	104.75
382.634	111.75
382.86	110.75
383.085	107.75
383.31	110.75
383.535	108.75
383.761	120.75
383.986	115.75
384.211	115.75
384.436	112.75
384.662	121.75
384.887	106.75
385.112	90.75
385.337	111.75
385.562	116.75
385.787	112.75
386.013	120.75
386.238	124.75
386.463	109.75
386.688	108.75
386.913	115.75
387.138	111.75
387.363	117.75
387.588	108.75
387.813	124.75
388.038	123.75
388.263	124.75
388.488	113.75
388.713	117.75
388.938	119.75
389.163	120.75
389.387	113.75
389.612	110.75
389.837	112.75
390.062	122.75
390.287	122.75
390.512	126.75
390.736	113.75
390.961	112.75
391.186	114.75
391.411	119.75
391.636	128.75
391.86	117.75
392.085	112.75
392.31	124.75
392.534	121.75
392.759	123.75
392.984	119.75
393.208	96.75
393.433	120.75
393.658	108.75
393.882	125.75
394.107	110.75
394.331	115.75
394.556	120.75
394.78	104.75
395.005	110.75
395.229	126.75
395.454	125.75
395.678	121.75
395.903	116.75
396.127	117.75
396.352	118.75
396.576	120.75
396.801	126.75
397.025	115.75
397.249	113.75
397.474	113.75
397.698	121.75
397.922	131.75
398.147	118.75
398.371	138.75
398.595	119.75
398.82	118.75
399.044	120.75
399.268	131.75
399.492	137.75
399.717	136.75
399.941	141.75
400.165	134.75
400.389	138.75
400.613	128.75
400.837	126.75
401.062	135.75
401.286	124.75
401.51	119.75
401.734	137.75
401.958	128.75
402.182	110.75
402.406	133.75
402.63	123.75
402.854	121.75
403.078	124.75
403.302	134.75
403.526	127.75
403.75	135.75
403.974	136.75
404.198	130.75
404.422	128.75
404.645	130.75
404.869	124.75
405.093	141.75
405.317	130.75
405.541	130.75
405.765	127.75
405.988	136.75
406.212	126.75
406.436	135.75
406.66	127.75
406.883	134.75
407.107	123.75
407.331	130.75
407.555	140.75
407.778	131.75
408.002	130.75
408.226	142.75
408.449	136.75
408.673	119.75
408.896	136.75
409.12	122.75
409.344	141.75
409.567	126.75
409.791	146.75
410.014	126.75
410.238	128.75
410.461	126.75
410.685	130.75
410.908	137.75
411.132	125.75
411.355	137.75
411.578	112.75
411.802	126.75
412.025	120.75
412.249	133.75
412.472	121.75
412.695	138.75
412.919	127.75
413.142	111.75
413.365	120.75
413.589	132.75
413.812	144.75
414.035	142.75
414.258	138.75
414.482	116.75
414.705	119.75
414.928	151.75
415.151	116.75
415.374	111.75
415.597	125.75
415.821	121.75
416.044	115.75
416.267	130.75
416.49	129.75
416.713	119.75
416.936	133.75
417.159	128.75
417.382	130.75
417.605	121.75
417.828	115.75
418.051	121.75
418.274	137.75
418.497	140.75
418.72	103.75
418.943	121.75
419.166	120.75
419.389	126.75
419.611	134.75
419.834	130.75
420.057	130.75
420.28	112.75
420.503	119.75
420.726	120.75
420.948	127.75
421.171	124.75
421.394	135.75
421.617	121.75
421.839	124.75
422.062	132.75
422.285	123.75
422.507	120.75
422.73	137.75
422.953	130.75
423.175	136.75
423.398	128.75
423.621	131.75
423.843	132.75
424.066	135.75
424.288	125.75
424.511	132.75
424.733	141.75
424.956	142.75
425.178	144.75
425.401	132.75
425.623	134.75
425.846	127.75
426.068	130.75
426.291	127.75
426.513	112.75
426.735	131.75
426.958	139.75
427.18	132.75
427.402	148.75
427.625	153.75
427.847	132.75
428.069	107.75
428.292	116.75
428.514	141.75
428.736	139.75
428.958	139.75
429.181	137.75
429.403	109.75
429.625	136.75
429.847	127.75
430.069	135.75
430.292	134.75
430.514	116.75
430.736	110.75
430.958	129.75
431.18	124.75
431.402	110.75
431.624	115.75
431.846	122.75
432.068	107.75
432.29	130.75
432.512	135.75
432.734	119.75
432.956	132.75
433.178	111.75
433.4	118.75
433.622	126.75
433.844	110.75
434.066	120.75
434.287	120.75
434.509	106.75
434.731	122.75
434.953	116.75
435.175	124.75
435.397	126.75
435.618	125.75
435.84	130.75
436.062	126.75
436.284	139.75
436.505	121.75
436.727	137.75
436.949	121.75
437.17	110.75
437.392	118.75
437.614	127.75
437.835	126.75
438.057	129.75
438.278	128.75
438.5	137.75
438.721	136.75
438.943	155.75
439.165	144.75
439.386	132.75
439.608	122.75
439.829	118.75
440.05	129.75
440.272	114.75
440.493	122.75
440.715	124.75
440.936	123.75
441.158	127.75
441.379	121.75
441.6	136.75
441.822	122.75
442.043	120.75
442.264	135.75
442.486	131.75
442.707	117.75
442.928	140.75
443.149	131.75
443.371	131.75
443.592	120.75
443.813	130.75
444.034	139.75
444.255	128.75
444.476	125.75
444.698	130.75
444.919	121.75
445.14	282.75
445.361	191.75
445.582	144.75
445.803	134.75
446.024	127.75
446.245	117.75
446.466	132.75
446.687	142.75
446.908	134.75
447.129	101.75
447.35	123.75
447.571	115.75
447.792	122.75
448.013	127.75
448.234	122.75
448.455	120.75
448.675	113.75
448.896	116.75
449.117	126.75
449.338	136.75
449.559	124.75
449.779	131.75
450	117.75
450.221	116.75
450.442	129.75
450.662	118.75
450.883	116.75
451.104	118.75
451.324	124.75
451.545	124.75
451.766	107.75
451.986	113.75
452.207	99.75
452.428	126.75
452.648	114.75
452.869	114.75
453.089	112.75
453.31	131.75
453.53	122.75
453.751	126.75
453.971	120.75
454.192	110.75
454.412	105.75
454.633	105.75
454.853	104.75
455.073	110.75
455.294	114.75
455.514	133.75
455.734	120.75
455.955	110.75
456.175	126.75
456.395	112.75
456.616	112.75
456.836	111.75
457.056	101.75
457.276	95.75
457.497	116.75
457.717	118.75
457.937	112.75
458.157	123.75
458.377	129.75
458.598	103.75
458.818	113.75
459.038	130.75
459.258	132.75
459.478	113.75
459.698	118.75
459.918	120.75
460.138	125.75
460.358	128.75
460.578	124.75
460.798	120.75
461.018	126.75
461.238	122.75
461.458	138.75
461.678	122.75
461.898	128.75
462.118	118.75
462.338	132.75
462.558	124.75
462.777	134.75
462.997	132.75
463.217	130.75
463.437	136.75
463.657	134.75
463.876	133.75
464.096	127.75
464.316	126.75
464.536	126.75
464.755	132.75
464.975	126.75
465.195	132.75
465.414	119.75
465.634	127.75
465.854	113.75
466.073	111.75
466.293	111.75
466.512	107.75
466.732	119.75
466.951	131.75
467.171	115.75
467.391	116.75
467.61	127.75
467.829	122.75
468.049	126.75
468.268	129.75
468.488	109.75
468.707	115.75
468.927	114.75
469.146	110.75
469.365	97.75
469.585	115.75
469.804	120.75
470.023	128.75
470.243	126.75
470.462	113.75
470.681	122.75
470.901	122.75
471.12	143.75
471.339	138.75
471.558	120.75
471.777	125.75
471.997	110.75
472.216	123.75
472.435	127.75
472.654	114.75
472.873	121.75
473.092	137.75
473.311	113.75
473.53	110.75
473.749	127.75
473.968	123.75
474.187	110.75
474.406	124.75
474.625	132.75
474.844	114.75
475.063	118.75
475.282	105.75
475.501	108.75
475.72	104.75
475.939	118.75
476.158	122.75
476.377	118.75
476.596	119.75
476.814	115.75
477.033	129.75
477.252	114.75
477.471	113.75
477.69	119.75
477.908	118.75
478.127	133.75
478.346	121.75
478.564	116.75
478.783	122.75
479.002	134.75
479.22	130.75
479.439	131.75
479.658	126.75
479.876	123.75
480.095	126.75
480.313	122.75
480.532	130.75
480.751	116.75
480.969	118.75
481.188	126.75
481.406	136.75
481.624	121.75
481.843	127.75
482.061	117.75
482.28	127.75
482.498	127.75
482.717	121.75
482.935	135.75
483.153	127.75
483.372	129.75
483.59	141.75
483.808	132.75
484.027	130.75
484.245	149.75
484.463	128.75
484.681	137.75
484.9	136.75
485.118	141.75
485.336	142.75
485.554	123.75
485.772	132.75
485.99	119.75
486.209	137.75
486.427	133.75
486.645	130.75
486.863	124.75
487.081	131.75
487.299	127.75
487.517	130.75
487.735	125.75
487.953	134.75
488.171	134.75
488.389	122.75
488.607	145.75
488.825	132.75
489.043	115.75
489.261	127.75
489.479	138.75
489.696	139.75
489.914	118.75
490.132	136.75
490.35	136.75
490.568	133.75
490.786	141.75
491.003	150.75
491.221	149.75
491.439	144.75
491.657	135.75
491.874	127.75
492.092	128.75
492.31	137.75
492.527	126.75
492.745	131.75
492.963	127.75
493.18	137.75
493.398	134.75
493.615	153.75
493.833	136.75
494.05	128.75
494.268	131.75
494.485	139.75
494.703	139.75
494.92	151.75
495.138	125.75
495.355	151.75
495.573	134.75
495.79	134.75
496.008	132.75
496.225	137.75
496.442	157.75
496.66	150.75
496.877	147.75
497.094	135.75
497.312	136.75
497.529	140.75
497.746	137.75
497.963	143.75
498.181	148.75
498.398	146.75
498.615	152.75
498.832	152.75
499.049	162.75
499.267	168.75
499.484	164.75
499.701	176.75
499.918	175.75
500.135	204.75
500.352	207.75
500.569	200.75
500.786	206.75
501.003	200.75
501.22	185.75
501.437	185.75
501.654	155.75
501.871	166.75
502.088	152.75
502.305	154.75
502.522	178.75
502.739	152.75
502.956	153.75
503.172	155.75
503.389	139.75
503.606	146.75
503.823	137.75
504.04	136.75
504.256	146.75
504.473	146.75
504.69	144.75
504.907	146.75
505.123	138.75
505.34	126.75
505.557	123.75
505.773	140.75
505.99	143.75
506.207	135.75
506.423	128.75
506.64	143.75
