Data from 1968.PennyLincolnUp.Lamp.En5.5.200Scan.071719.P1._HRD10591_14-49-37-969.txt Node
Date: Thu Jul 18 14:49:37 EDT 2019
User: cochatt
Spectrometer: HR+D1059
Trigger mode: 1
Integration Time (sec): 1.000000E-1
Scans to average: 1
Electric dark correction enabled: true
Nonlinearity correction enabled: false
Boxcar width: 0
XAxis mode: Wavelengths
Number of Pixels in Spectrum: 2048
>>>>>Begin Spectral Data<<<<<
223.165	-9.06
223.4	-9.06
223.635	-9.06
223.869	-17.06
224.104	-10.06
224.338	-14.06
224.573	-15.06
224.808	-3.06
225.042	-10.06
225.277	-3.06
225.511	-11.06
225.746	-1.06
225.98	8.94
226.215	0.94
226.449	2.94
226.683	31.94
226.918	4.94
227.152	43.94
227.387	32.94
227.621	34.94
227.856	41.94
228.09	45.94
228.324	29.94
228.559	42.94
228.793	51.94
229.027	72.94
229.262	61.94
229.496	56.94
229.73	72.94
229.964	69.94
230.199	82.94
230.433	63.94
230.667	68.94
230.901	86.94
231.136	75.94
231.37	86.94
231.604	91.94
231.838	91.94
232.072	83.94
232.306	90.94
232.541	88.94
232.775	75.94
233.009	78.94
233.243	83.94
233.477	78.94
233.711	85.94
233.945	74.94
234.179	72.94
234.413	89.94
234.647	78.94
234.881	87.94
235.115	81.94
235.349	86.94
235.583	78.94
235.817	90.94
236.051	72.94
236.285	75.94
236.519	86.94
236.753	89.94
236.987	89.94
237.221	96.94
237.455	74.94
237.689	83.94
237.922	79.94
238.156	68.94
238.39	78.94
238.624	79.94
238.858	92.94
239.091	89.94
239.325	64.94
239.559	75.94
239.793	83.94
240.027	75.94
240.26	91.94
240.494	78.94
240.728	88.94
240.961	77.94
241.195	93.94
241.429	87.94
241.662	79.94
241.896	84.94
242.13	91.94
242.363	73.94
242.597	64.94
242.83	70.94
243.064	89.94
243.298	69.94
243.531	65.94
243.765	94.94
243.998	74.94
244.232	72.94
244.465	83.94
244.699	84.94
244.932	84.94
245.166	77.94
245.399	73.94
245.633	77.94
245.866	81.94
246.099	73.94
246.333	74.94
246.566	68.94
246.8	66.94
247.033	85.94
247.266	85.94
247.5	89.94
247.733	84.94
247.966	80.94
248.2	77.94
248.433	79.94
248.666	83.94
248.899	87.94
249.133	96.94
249.366	84.94
249.599	93.94
249.832	83.94
250.066	92.94
250.299	74.94
250.532	88.94
250.765	95.94
250.998	88.94
251.231	76.94
251.465	82.94
251.698	77.94
251.931	101.94
252.164	82.94
252.397	87.94
252.63	88.94
252.863	86.94
253.096	89.94
253.329	89.94
253.562	88.94
253.795	96.94
254.028	86.94
254.261	90.94
254.494	100.94
254.727	92.94
254.96	83.94
255.193	97.94
255.426	101.94
255.659	102.94
255.892	94.94
256.124	99.94
256.357	82.94
256.59	83.94
256.823	97.94
257.056	97.94
257.289	98.94
257.521	90.94
257.754	93.94
257.987	102.94
258.22	92.94
258.452	89.94
258.685	85.94
258.918	94.94
259.151	97.94
259.383	100.94
259.616	85.94
259.849	87.94
260.081	86.94
260.314	101.94
260.547	89.94
260.779	84.94
261.012	94.94
261.244	79.94
261.477	90.94
261.71	93.94
261.942	96.94
262.175	98.94
262.407	91.94
262.64	88.94
262.872	94.94
263.105	93.94
263.337	76.94
263.57	85.94
263.802	87.94
264.035	93.94
264.267	104.94
264.499	90.94
264.732	85.94
264.964	90.94
265.197	98.94
265.429	83.94
265.661	89.94
265.894	84.94
266.126	92.94
266.358	95.94
266.591	91.94
266.823	91.94
267.055	89.94
267.287	96.94
267.52	78.94
267.752	96.94
267.984	92.94
268.216	92.94
268.448	92.94
268.681	97.94
268.913	99.94
269.145	90.94
269.377	122.94
269.609	93.94
269.841	94.94
270.073	85.94
270.306	100.94
270.538	92.94
270.77	101.94
271.002	85.94
271.234	85.94
271.466	96.94
271.698	93.94
271.93	102.94
272.162	112.94
272.394	109.94
272.626	104.94
272.858	86.94
273.09	98.94
273.322	99.94
273.553	93.94
273.785	89.94
274.017	97.94
274.249	114.94
274.481	103.94
274.713	95.94
274.945	101.94
275.176	100.94
275.408	96.94
275.64	101.94
275.872	96.94
276.104	80.94
276.335	100.94
276.567	77.94
276.799	86.94
277.031	91.94
277.262	100.94
277.494	92.94
277.726	102.94
277.957	96.94
278.189	87.94
278.421	107.94
278.652	90.94
278.884	82.94
279.115	77.94
279.347	107.94
279.579	97.94
279.81	99.94
280.042	93.94
280.273	96.94
280.505	100.94
280.736	98.94
280.968	87.94
281.199	86.94
281.431	93.94
281.662	95.94
281.894	93.94
282.125	98.94
282.356	90.94
282.588	91.94
282.819	96.94
283.051	95.94
283.282	103.94
283.513	101.94
283.745	106.94
283.976	112.94
284.207	89.94
284.439	97.94
284.67	109.94
284.901	91.94
285.132	96.94
285.364	84.94
285.595	96.94
285.826	120.94
286.057	94.94
286.288	85.94
286.52	91.94
286.751	102.94
286.982	109.94
287.213	88.94
287.444	98.94
287.675	104.94
287.906	96.94
288.138	98.94
288.369	104.94
288.6	93.94
288.831	98.94
289.062	117.94
289.293	98.94
289.524	92.94
289.755	105.94
289.986	98.94
290.217	90.94
290.448	112.94
290.679	99.94
290.91	97.94
291.141	104.94
291.371	109.94
291.602	96.94
291.833	101.94
292.064	104.94
292.295	99.94
292.526	96.94
292.757	93.94
292.987	120.94
293.218	97.94
293.449	103.94
293.68	96.94
293.91	119.94
294.141	97.94
294.372	120.94
294.603	102.94
294.833	99.94
295.064	88.94
295.295	102.94
295.525	102.94
295.756	117.94
295.987	98.94
296.217	106.94
296.448	104.94
296.679	105.94
296.909	103.94
297.14	105.94
297.37	107.94
297.601	101.94
297.831	98.94
298.062	91.94
298.292	107.94
298.523	103.94
298.753	120.94
298.984	122.94
299.214	112.94
299.445	100.94
299.675	95.94
299.905	113.94
300.136	90.94
300.366	108.94
300.597	101.94
300.827	102.94
301.057	115.94
301.288	113.94
301.518	96.94
301.748	107.94
301.979	97.94
302.209	110.94
302.439	115.94
302.669	93.94
302.9	108.94
303.13	99.94
303.36	107.94
303.59	108.94
303.82	112.94
304.051	103.94
304.281	80.94
304.511	102.94
304.741	88.94
304.971	104.94
305.201	104.94
305.431	114.94
305.661	104.94
305.891	101.94
306.121	92.94
306.352	102.94
306.582	94.94
306.812	113.94
307.042	98.94
307.272	106.94
307.502	102.94
307.731	106.94
307.961	108.94
308.191	96.94
308.421	105.94
308.651	98.94
308.881	100.94
309.111	97.94
309.341	109.94
309.571	112.94
309.8	109.94
310.03	104.94
310.26	100.94
310.49	98.94
310.72	110.94
310.949	101.94
311.179	106.94
311.409	85.94
311.639	104.94
311.868	94.94
312.098	115.94
312.328	110.94
312.557	112.94
312.787	94.94
313.017	103.94
313.246	94.94
313.476	107.94
313.706	109.94
313.935	107.94
314.165	117.94
314.394	122.94
314.624	113.94
314.853	108.94
315.083	116.94
315.312	118.94
315.542	102.94
315.771	102.94
316.001	98.94
316.23	99.94
316.46	109.94
316.689	106.94
316.919	117.94
317.148	106.94
317.377	119.94
317.607	105.94
317.836	101.94
318.065	106.94
318.295	97.94
318.524	117.94
318.753	99.94
318.983	115.94
319.212	113.94
319.441	98.94
319.67	100.94
319.9	98.94
320.129	97.94
320.358	97.94
320.587	105.94
320.816	96.94
321.046	123.94
321.275	114.94
321.504	99.94
321.733	118.94
321.962	107.94
322.191	104.94
322.42	96.94
322.649	115.94
322.878	99.94
323.108	124.94
323.337	112.94
323.566	118.94
323.795	97.94
324.024	107.94
324.253	118.94
324.482	120.94
324.71	144.94
324.939	156.94
325.168	140.94
325.397	131.94
325.626	130.94
325.855	118.94
326.084	106.94
326.313	98.94
326.542	112.94
326.77	107.94
326.999	121.94
327.228	121.94
327.457	145.94
327.686	136.94
327.914	120.94
328.143	118.94
328.372	123.94
328.6	107.94
328.829	112.94
329.058	111.94
329.287	129.94
329.515	115.94
329.744	110.94
329.972	110.94
330.201	126.94
330.43	112.94
330.658	99.94
330.887	112.94
331.115	100.94
331.344	120.94
331.572	104.94
331.801	93.94
332.03	114.94
332.258	120.94
332.486	128.94
332.715	100.94
332.943	116.94
333.172	125.94
333.4	121.94
333.629	124.94
333.857	124.94
334.085	125.94
334.314	119.94
334.542	124.94
334.771	126.94
334.999	110.94
335.227	122.94
335.455	112.94
335.684	117.94
335.912	116.94
336.14	110.94
336.369	122.94
336.597	110.94
336.825	118.94
337.053	114.94
337.281	113.94
337.51	129.94
337.738	122.94
337.966	118.94
338.194	102.94
338.422	121.94
338.65	118.94
338.878	115.94
339.106	112.94
339.334	108.94
339.562	118.94
339.79	108.94
340.018	116.94
340.246	102.94
340.474	114.94
340.702	115.94
340.93	117.94
341.158	123.94
341.386	120.94
341.614	109.94
341.842	107.94
342.07	116.94
342.298	110.94
342.526	110.94
342.754	103.94
342.981	104.94
343.209	104.94
343.437	122.94
343.665	118.94
343.893	126.94
344.12	109.94
344.348	117.94
344.576	110.94
344.804	115.94
345.031	118.94
345.259	115.94
345.487	118.94
345.714	100.94
345.942	104.94
346.17	123.94
346.397	111.94
346.625	117.94
346.853	112.94
347.08	103.94
347.308	115.94
347.535	111.94
347.763	106.94
347.99	96.94
348.218	106.94
348.445	117.94
348.673	105.94
348.9	110.94
349.128	108.94
349.355	100.94
349.583	122.94
349.81	99.94
350.037	106.94
350.265	109.94
350.492	123.94
350.72	115.94
350.947	107.94
351.174	104.94
351.402	100.94
351.629	125.94
351.856	109.94
352.083	120.94
352.311	116.94
352.538	109.94
352.765	112.94
352.992	100.94
353.22	104.94
353.447	109.94
353.674	99.94
353.901	100.94
354.128	115.94
354.355	94.94
354.583	99.94
354.81	101.94
355.037	97.94
355.264	99.94
355.491	115.94
355.718	119.94
355.945	117.94
356.172	104.94
356.399	104.94
356.626	104.94
356.853	105.94
357.08	96.94
357.307	110.94
357.534	107.94
357.761	89.94
357.988	99.94
358.215	123.94
358.441	106.94
358.668	95.94
358.895	124.94
359.122	124.94
359.349	98.94
359.576	107.94
359.802	104.94
360.029	121.94
360.256	108.94
360.483	101.94
360.709	108.94
360.936	114.94
361.163	107.94
361.39	120.94
361.616	109.94
361.843	119.94
362.07	100.94
362.296	114.94
362.523	109.94
362.749	124.94
362.976	108.94
363.203	125.94
363.429	98.94
363.656	124.94
363.882	112.94
364.109	124.94
364.335	112.94
364.562	115.94
364.788	117.94
365.015	102.94
365.241	108.94
365.468	102.94
365.694	109.94
365.92	121.94
366.147	113.94
366.373	112.94
366.599	104.94
366.826	105.94
367.052	120.94
367.278	106.94
367.505	109.94
367.731	115.94
367.957	116.94
368.184	114.94
368.41	110.94
368.636	116.94
368.862	109.94
369.089	109.94
369.315	105.94
369.541	100.94
369.767	118.94
369.993	99.94
370.219	120.94
370.445	115.94
370.672	106.94
370.898	107.94
371.124	112.94
371.35	109.94
371.576	109.94
371.802	127.94
372.028	98.94
372.254	121.94
372.48	104.94
372.706	102.94
372.932	116.94
373.158	113.94
373.384	114.94
373.61	112.94
373.835	113.94
374.061	114.94
374.287	104.94
374.513	90.94
374.739	117.94
374.965	123.94
375.191	114.94
375.416	118.94
375.642	122.94
375.868	103.94
376.094	109.94
376.319	102.94
376.545	126.94
376.771	101.94
376.997	87.94
377.222	98.94
377.448	116.94
377.674	118.94
377.899	97.94
378.125	116.94
378.35	115.94
378.576	120.94
378.802	122.94
379.027	106.94
379.253	120.94
379.478	126.94
379.704	104.94
379.929	98.94
380.155	104.94
380.38	114.94
380.606	116.94
380.831	121.94
381.057	122.94
381.282	101.94
381.507	115.94
381.733	96.94
381.958	97.94
382.184	118.94
382.409	109.94
382.634	109.94
382.86	125.94
383.085	131.94
383.31	120.94
383.535	120.94
383.761	119.94
383.986	107.94
384.211	98.94
384.436	130.94
384.662	117.94
384.887	108.94
385.112	126.94
385.337	121.94
385.562	116.94
385.787	130.94
386.013	119.94
386.238	132.94
386.463	134.94
386.688	127.94
386.913	124.94
387.138	116.94
387.363	112.94
387.588	122.94
387.813	127.94
388.038	122.94
388.263	117.94
388.488	121.94
388.713	104.94
388.938	115.94
389.163	118.94
389.387	108.94
389.612	120.94
389.837	119.94
390.062	112.94
390.287	110.94
390.512	116.94
390.736	120.94
390.961	121.94
391.186	131.94
391.411	123.94
391.636	124.94
391.86	124.94
392.085	110.94
392.31	114.94
392.534	126.94
392.759	117.94
392.984	120.94
393.208	131.94
393.433	119.94
393.658	121.94
393.882	114.94
394.107	121.94
394.331	120.94
394.556	101.94
394.78	124.94
395.005	109.94
395.229	120.94
395.454	112.94
395.678	120.94
395.903	121.94
396.127	113.94
396.352	109.94
396.576	119.94
396.801	132.94
397.025	102.94
397.249	130.94
397.474	137.94
397.698	128.94
397.922	118.94
398.147	136.94
398.371	119.94
398.595	128.94
398.82	127.94
399.044	113.94
399.268	138.94
399.492	137.94
399.717	130.94
399.941	146.94
400.165	156.94
400.389	134.94
400.613	134.94
400.837	134.94
401.062	121.94
401.286	117.94
401.51	118.94
401.734	123.94
401.958	129.94
402.182	117.94
402.406	121.94
402.63	123.94
402.854	129.94
403.078	128.94
403.302	151.94
403.526	127.94
403.75	132.94
403.974	131.94
404.198	134.94
404.422	129.94
404.645	128.94
404.869	127.94
405.093	141.94
405.317	147.94
405.541	120.94
405.765	135.94
405.988	123.94
406.212	134.94
406.436	141.94
406.66	141.94
406.883	131.94
407.107	137.94
407.331	139.94
407.555	148.94
407.778	144.94
408.002	134.94
408.226	122.94
408.449	149.94
408.673	126.94
408.896	142.94
409.12	140.94
409.344	140.94
409.567	149.94
409.791	138.94
410.014	132.94
410.238	140.94
410.461	128.94
410.685	122.94
410.908	123.94
411.132	136.94
411.355	128.94
411.578	132.94
411.802	142.94
412.025	127.94
412.249	139.94
412.472	145.94
412.695	142.94
412.919	132.94
413.142	138.94
413.365	132.94
413.589	138.94
413.812	114.94
414.035	132.94
414.258	128.94
414.482	126.94
414.705	129.94
414.928	120.94
415.151	113.94
415.374	125.94
415.597	120.94
415.821	123.94
416.044	125.94
416.267	131.94
416.49	120.94
416.713	119.94
416.936	126.94
417.159	133.94
417.382	120.94
417.605	130.94
417.828	126.94
418.051	136.94
418.274	131.94
418.497	122.94
418.72	126.94
418.943	121.94
419.166	124.94
419.389	137.94
419.611	138.94
419.834	141.94
420.057	138.94
420.28	133.94
420.503	126.94
420.726	129.94
420.948	133.94
421.171	129.94
421.394	127.94
421.617	127.94
421.839	109.94
422.062	116.94
422.285	124.94
422.507	146.94
422.73	139.94
422.953	132.94
423.175	138.94
423.398	117.94
423.621	130.94
423.843	129.94
424.066	133.94
424.288	124.94
424.511	125.94
424.733	145.94
424.956	143.94
425.178	142.94
425.401	142.94
425.623	125.94
425.846	124.94
426.068	148.94
426.291	115.94
426.513	133.94
426.735	145.94
426.958	140.94
427.18	144.94
427.402	128.94
427.625	148.94
427.847	136.94
428.069	136.94
428.292	155.94
428.514	112.94
428.736	138.94
428.958	126.94
429.181	113.94
429.403	130.94
429.625	120.94
429.847	109.94
430.069	138.94
430.292	122.94
430.514	124.94
430.736	130.94
430.958	132.94
431.18	128.94
431.402	126.94
431.624	136.94
431.846	126.94
432.068	130.94
432.29	108.94
432.512	130.94
432.734	116.94
432.956	134.94
433.178	134.94
433.4	130.94
433.622	134.94
433.844	124.94
434.066	112.94
434.287	112.94
434.509	127.94
434.731	120.94
434.953	128.94
435.175	126.94
435.397	114.94
435.618	141.94
435.84	130.94
436.062	136.94
436.284	133.94
436.505	126.94
436.727	127.94
436.949	125.94
437.17	120.94
437.392	123.94
437.614	125.94
437.835	128.94
438.057	114.94
438.278	127.94
438.5	123.94
438.721	142.94
438.943	133.94
439.165	124.94
439.386	120.94
439.608	130.94
439.829	127.94
440.05	134.94
440.272	136.94
440.493	131.94
440.715	120.94
440.936	141.94
441.158	137.94
441.379	116.94
441.6	132.94
441.822	138.94
442.043	134.94
442.264	149.94
442.486	141.94
442.707	135.94
442.928	142.94
443.149	143.94
443.371	147.94
443.592	137.94
443.813	140.94
444.034	150.94
444.255	135.94
444.476	140.94
444.698	137.94
444.919	145.94
445.14	253.94
445.361	183.94
445.582	133.94
445.803	132.94
446.024	134.94
446.245	149.94
446.466	123.94
446.687	130.94
446.908	126.94
447.129	130.94
447.35	141.94
447.571	135.94
447.792	114.94
448.013	136.94
448.234	118.94
448.455	132.94
448.675	127.94
448.896	133.94
449.117	140.94
449.338	136.94
449.559	126.94
449.779	141.94
450	117.94
450.221	110.94
450.442	116.94
450.662	117.94
450.883	122.94
451.104	104.94
451.324	102.94
451.545	124.94
451.766	122.94
451.986	105.94
452.207	112.94
452.428	121.94
452.648	125.94
452.869	128.94
453.089	120.94
453.31	121.94
453.53	128.94
453.751	125.94
453.971	122.94
454.192	136.94
454.412	114.94
454.633	110.94
454.853	110.94
455.073	126.94
455.294	129.94
455.514	128.94
455.734	131.94
455.955	117.94
456.175	118.94
456.395	102.94
456.616	108.94
456.836	123.94
457.056	132.94
457.276	137.94
457.497	120.94
457.717	99.94
457.937	124.94
458.157	121.94
458.377	129.94
458.598	122.94
458.818	143.94
459.038	128.94
459.258	121.94
459.478	115.94
459.698	130.94
459.918	124.94
460.138	124.94
460.358	131.94
460.578	133.94
460.798	146.94
461.018	124.94
461.238	120.94
461.458	124.94
461.678	123.94
461.898	123.94
462.118	139.94
462.338	126.94
462.558	125.94
462.777	131.94
462.997	129.94
463.217	154.94
463.437	134.94
463.657	132.94
463.876	142.94
464.096	136.94
464.316	130.94
464.536	128.94
464.755	126.94
464.975	133.94
465.195	126.94
465.414	130.94
465.634	123.94
465.854	122.94
466.073	122.94
466.293	124.94
466.512	126.94
466.732	123.94
466.951	129.94
467.171	123.94
467.391	134.94
467.61	125.94
467.829	109.94
468.049	130.94
468.268	124.94
468.488	130.94
468.707	115.94
468.927	119.94
469.146	109.94
469.365	119.94
469.585	112.94
469.804	130.94
470.023	122.94
470.243	114.94
470.462	128.94
470.681	128.94
470.901	125.94
471.12	128.94
471.339	112.94
471.558	136.94
471.777	122.94
471.997	128.94
472.216	126.94
472.435	123.94
472.654	136.94
472.873	116.94
473.092	118.94
473.311	120.94
473.53	128.94
473.749	118.94
473.968	129.94
474.187	120.94
474.406	108.94
474.625	132.94
474.844	108.94
475.063	120.94
475.282	140.94
475.501	114.94
475.72	130.94
475.939	129.94
476.158	124.94
476.377	113.94
476.596	116.94
476.814	121.94
477.033	120.94
477.252	127.94
477.471	115.94
477.69	130.94
477.908	134.94
478.127	143.94
478.346	122.94
478.564	142.94
478.783	143.94
479.002	125.94
479.22	130.94
479.439	135.94
479.658	125.94
479.876	124.94
480.095	138.94
480.313	131.94
480.532	132.94
480.751	107.94
480.969	136.94
481.188	142.94
481.406	132.94
481.624	118.94
481.843	127.94
482.061	134.94
482.28	124.94
482.498	129.94
482.717	124.94
482.935	111.94
483.153	104.94
483.372	124.94
483.59	120.94
483.808	131.94
484.027	132.94
484.245	135.94
484.463	132.94
484.681	130.94
484.9	130.94
485.118	133.94
485.336	132.94
485.554	134.94
485.772	124.94
485.99	135.94
486.209	138.94
486.427	125.94
486.645	134.94
486.863	138.94
487.081	134.94
487.299	126.94
487.517	142.94
487.735	153.94
487.953	135.94
488.171	126.94
488.389	121.94
488.607	123.94
488.825	121.94
489.043	124.94
489.261	121.94
489.479	125.94
489.696	151.94
489.914	138.94
490.132	139.94
490.35	132.94
490.568	140.94
490.786	125.94
491.003	129.94
491.221	148.94
491.439	144.94
491.657	129.94
491.874	144.94
492.092	146.94
492.31	160.94
492.527	150.94
492.745	156.94
492.963	169.94
493.18	142.94
493.398	156.94
493.615	155.94
493.833	145.94
494.05	156.94
494.268	143.94
494.485	157.94
494.703	144.94
494.92	133.94
495.138	123.94
495.355	156.94
495.573	141.94
495.79	149.94
496.008	153.94
496.225	147.94
496.442	146.94
496.66	156.94
496.877	142.94
497.094	143.94
497.312	137.94
497.529	124.94
497.746	141.94
497.963	152.94
498.181	146.94
498.398	163.94
498.615	179.94
498.832	163.94
499.049	151.94
499.267	166.94
499.484	176.94
499.701	172.94
499.918	198.94
500.135	184.94
500.352	214.94
500.569	210.94
500.786	215.94
501.003	199.94
501.22	196.94
501.437	185.94
501.654	186.94
501.871	177.94
502.088	150.94
502.305	153.94
502.522	160.94
502.739	141.94
502.956	142.94
503.172	147.94
503.389	133.94
503.606	149.94
503.823	144.94
504.04	136.94
504.256	136.94
504.473	153.94
504.69	150.94
504.907	144.94
505.123	145.94
505.34	140.94
505.557	126.94
505.773	154.94
505.99	131.94
506.207	134.94
