Data from 1968.PennyLincolnUp.Lamp.En5.5.200Scan.071719.P1._HRD10591_14-50-44-969.txt Node
Date: Thu Jul 18 14:50:44 EDT 2019
User: cochatt
Spectrometer: HR+D1059
Trigger mode: 1
Integration Time (sec): 1.000000E-1
Scans to average: 1
Electric dark correction enabled: true
Nonlinearity correction enabled: false
Boxcar width: 0
XAxis mode: Wavelengths
Number of Pixels in Spectrum: 2048
>>>>>Begin Spectral Data<<<<<
223.165	-15.06
223.4	-15.06
223.635	-15.06
223.869	-10.06
224.104	-22.06
224.338	-15.06
224.573	-14.06
224.808	-0.06
225.042	1.94
225.277	-10.06
225.511	-5.06
225.746	-1.06
225.98	-2.06
226.215	11.94
226.449	9.94
226.683	16.94
226.918	35.94
227.152	17.94
227.387	12.94
227.621	47.94
227.856	36.94
228.09	46.94
228.324	54.94
228.559	37.94
228.793	48.94
229.027	72.94
229.262	70.94
229.496	71.94
229.73	60.94
229.964	77.94
230.199	73.94
230.433	70.94
230.667	67.94
230.901	80.94
231.136	71.94
231.37	71.94
231.604	75.94
231.838	66.94
232.072	67.94
232.306	70.94
232.541	80.94
232.775	73.94
233.009	82.94
233.243	85.94
233.477	91.94
233.711	86.94
233.945	83.94
234.179	75.94
234.413	84.94
234.647	88.94
234.881	87.94
235.115	86.94
235.349	87.94
235.583	85.94
235.817	72.94
236.051	56.94
236.285	72.94
236.519	70.94
236.753	81.94
236.987	79.94
237.221	66.94
237.455	83.94
237.689	84.94
237.922	74.94
238.156	50.94
238.39	90.94
238.624	65.94
238.858	75.94
239.091	70.94
239.325	71.94
239.559	89.94
239.793	87.94
240.027	72.94
240.26	69.94
240.494	77.94
240.728	72.94
240.961	77.94
241.195	75.94
241.429	81.94
241.662	78.94
241.896	85.94
242.13	72.94
242.363	90.94
242.597	86.94
242.83	94.94
243.064	96.94
243.298	87.94
243.531	87.94
243.765	68.94
243.998	82.94
244.232	69.94
244.465	82.94
244.699	72.94
244.932	74.94
245.166	73.94
245.399	86.94
245.633	88.94
245.866	83.94
246.099	75.94
246.333	81.94
246.566	85.94
246.8	80.94
247.033	87.94
247.266	90.94
247.5	78.94
247.733	94.94
247.966	81.94
248.2	88.94
248.433	82.94
248.666	94.94
248.899	77.94
249.133	103.94
249.366	81.94
249.599	88.94
249.832	94.94
250.066	90.94
250.299	97.94
250.532	78.94
250.765	85.94
250.998	73.94
251.231	84.94
251.465	81.94
251.698	88.94
251.931	98.94
252.164	65.94
252.397	88.94
252.63	94.94
252.863	93.94
253.096	78.94
253.329	84.94
253.562	95.94
253.795	86.94
254.028	93.94
254.261	87.94
254.494	73.94
254.727	80.94
254.96	97.94
255.193	90.94
255.426	85.94
255.659	82.94
255.892	111.94
256.124	87.94
256.357	90.94
256.59	82.94
256.823	72.94
257.056	87.94
257.289	91.94
257.521	98.94
257.754	85.94
257.987	105.94
258.22	88.94
258.452	97.94
258.685	87.94
258.918	75.94
259.151	81.94
259.383	89.94
259.616	77.94
259.849	87.94
260.081	86.94
260.314	88.94
260.547	75.94
260.779	73.94
261.012	76.94
261.244	88.94
261.477	71.94
261.71	85.94
261.942	95.94
262.175	90.94
262.407	104.94
262.64	86.94
262.872	91.94
263.105	98.94
263.337	96.94
263.57	100.94
263.802	96.94
264.035	96.94
264.267	93.94
264.499	100.94
264.732	104.94
264.964	95.94
265.197	91.94
265.429	91.94
265.661	71.94
265.894	93.94
266.126	98.94
266.358	96.94
266.591	90.94
266.823	87.94
267.055	88.94
267.287	80.94
267.52	80.94
267.752	81.94
267.984	101.94
268.216	110.94
268.448	84.94
268.681	90.94
268.913	95.94
269.145	105.94
269.377	97.94
269.609	93.94
269.841	102.94
270.073	82.94
270.306	95.94
270.538	99.94
270.77	87.94
271.002	98.94
271.234	86.94
271.466	94.94
271.698	89.94
271.93	89.94
272.162	98.94
272.394	103.94
272.626	85.94
272.858	96.94
273.09	93.94
273.322	98.94
273.553	96.94
273.785	98.94
274.017	86.94
274.249	95.94
274.481	83.94
274.713	84.94
274.945	89.94
275.176	105.94
275.408	104.94
275.64	104.94
275.872	113.94
276.104	112.94
276.335	103.94
276.567	105.94
276.799	89.94
277.031	103.94
277.262	94.94
277.494	92.94
277.726	99.94
277.957	105.94
278.189	96.94
278.421	98.94
278.652	84.94
278.884	94.94
279.115	83.94
279.347	88.94
279.579	89.94
279.81	93.94
280.042	111.94
280.273	97.94
280.505	101.94
280.736	88.94
280.968	119.94
281.199	105.94
281.431	100.94
281.662	93.94
281.894	93.94
282.125	94.94
282.356	96.94
282.588	93.94
282.819	95.94
283.051	95.94
283.282	90.94
283.513	91.94
283.745	93.94
283.976	100.94
284.207	95.94
284.439	89.94
284.67	92.94
284.901	106.94
285.132	105.94
285.364	104.94
285.595	91.94
285.826	111.94
286.057	89.94
286.288	90.94
286.52	82.94
286.751	97.94
286.982	101.94
287.213	98.94
287.444	106.94
287.675	87.94
287.906	100.94
288.138	93.94
288.369	93.94
288.6	106.94
288.831	99.94
289.062	100.94
289.293	86.94
289.524	100.94
289.755	101.94
289.986	90.94
290.217	113.94
290.448	95.94
290.679	98.94
290.91	85.94
291.141	96.94
291.371	93.94
291.602	105.94
291.833	102.94
292.064	103.94
292.295	99.94
292.526	97.94
292.757	106.94
292.987	94.94
293.218	97.94
293.449	101.94
293.68	100.94
293.91	103.94
294.141	89.94
294.372	86.94
294.603	99.94
294.833	93.94
295.064	110.94
295.295	98.94
295.525	98.94
295.756	110.94
295.987	86.94
296.217	105.94
296.448	106.94
296.679	98.94
296.909	104.94
297.14	113.94
297.37	88.94
297.601	103.94
297.831	104.94
298.062	114.94
298.292	97.94
298.523	109.94
298.753	112.94
298.984	101.94
299.214	98.94
299.445	99.94
299.675	101.94
299.905	91.94
300.136	100.94
300.366	95.94
300.597	91.94
300.827	113.94
301.057	103.94
301.288	109.94
301.518	106.94
301.748	101.94
301.979	100.94
302.209	96.94
302.439	112.94
302.669	116.94
302.9	101.94
303.13	109.94
303.36	117.94
303.59	97.94
303.82	121.94
304.051	97.94
304.281	95.94
304.511	106.94
304.741	104.94
304.971	111.94
305.201	113.94
305.431	109.94
305.661	102.94
305.891	101.94
306.121	98.94
306.352	99.94
306.582	98.94
306.812	97.94
307.042	102.94
307.272	99.94
307.502	101.94
307.731	86.94
307.961	113.94
308.191	105.94
308.421	105.94
308.651	102.94
308.881	100.94
309.111	105.94
309.341	106.94
309.571	97.94
309.8	115.94
310.03	103.94
310.26	106.94
310.49	106.94
310.72	101.94
310.949	119.94
311.179	111.94
311.409	103.94
311.639	106.94
311.868	93.94
312.098	104.94
312.328	112.94
312.557	101.94
312.787	94.94
313.017	100.94
313.246	111.94
313.476	119.94
313.706	99.94
313.935	105.94
314.165	105.94
314.394	106.94
314.624	90.94
314.853	100.94
315.083	107.94
315.312	99.94
315.542	107.94
315.771	111.94
316.001	100.94
316.23	97.94
316.46	96.94
316.689	115.94
316.919	97.94
317.148	101.94
317.377	101.94
317.607	102.94
317.836	85.94
318.065	113.94
318.295	100.94
318.524	112.94
318.753	117.94
318.983	109.94
319.212	99.94
319.441	106.94
319.67	130.94
319.9	106.94
320.129	105.94
320.358	104.94
320.587	96.94
320.816	99.94
321.046	96.94
321.275	105.94
321.504	115.94
321.733	114.94
321.962	102.94
322.191	109.94
322.42	111.94
322.649	117.94
322.878	111.94
323.108	125.94
323.337	104.94
323.566	113.94
323.795	100.94
324.024	115.94
324.253	123.94
324.482	134.94
324.71	146.94
324.939	177.94
325.168	160.94
325.397	122.94
325.626	110.94
325.855	110.94
326.084	95.94
326.313	125.94
326.542	116.94
326.77	116.94
326.999	123.94
327.228	119.94
327.457	143.94
327.686	154.94
327.914	131.94
328.143	135.94
328.372	111.94
328.6	112.94
328.829	99.94
329.058	106.94
329.287	117.94
329.515	119.94
329.744	97.94
329.972	109.94
330.201	117.94
330.43	103.94
330.658	116.94
330.887	114.94
331.115	119.94
331.344	107.94
331.572	126.94
331.801	111.94
332.03	125.94
332.258	107.94
332.486	105.94
332.715	115.94
332.943	121.94
333.172	125.94
333.4	103.94
333.629	111.94
333.857	121.94
334.085	124.94
334.314	113.94
334.542	117.94
334.771	135.94
334.999	117.94
335.227	116.94
335.455	113.94
335.684	106.94
335.912	113.94
336.14	104.94
336.369	117.94
336.597	113.94
336.825	113.94
337.053	114.94
337.281	122.94
337.51	116.94
337.738	114.94
337.966	101.94
338.194	117.94
338.422	117.94
338.65	104.94
338.878	102.94
339.106	107.94
339.334	123.94
339.562	109.94
339.79	96.94
340.018	95.94
340.246	111.94
340.474	111.94
340.702	118.94
340.93	105.94
341.158	117.94
341.386	94.94
341.614	103.94
341.842	90.94
342.07	100.94
342.298	104.94
342.526	103.94
342.754	105.94
342.981	112.94
343.209	114.94
343.437	104.94
343.665	109.94
343.893	117.94
344.12	119.94
344.348	113.94
344.576	128.94
344.804	110.94
345.031	118.94
345.259	113.94
345.487	106.94
345.714	103.94
345.942	105.94
346.17	112.94
346.397	117.94
346.625	110.94
346.853	91.94
347.08	109.94
347.308	119.94
347.535	102.94
347.763	107.94
347.99	97.94
348.218	106.94
348.445	115.94
348.673	113.94
348.9	105.94
349.128	112.94
349.355	103.94
349.583	123.94
349.81	113.94
350.037	105.94
350.265	87.94
350.492	92.94
350.72	109.94
350.947	103.94
351.174	113.94
351.402	110.94
351.629	102.94
351.856	99.94
352.083	94.94
352.311	103.94
352.538	106.94
352.765	109.94
352.992	106.94
353.22	113.94
353.447	112.94
353.674	114.94
353.901	99.94
354.128	96.94
354.355	94.94
354.583	100.94
354.81	99.94
355.037	119.94
355.264	121.94
355.491	113.94
355.718	96.94
355.945	98.94
356.172	104.94
356.399	106.94
356.626	118.94
356.853	97.94
357.08	100.94
357.307	111.94
357.534	109.94
357.761	116.94
357.988	107.94
358.215	111.94
358.441	106.94
358.668	99.94
358.895	107.94
359.122	99.94
359.349	91.94
359.576	119.94
359.802	112.94
360.029	101.94
360.256	105.94
360.483	117.94
360.709	120.94
360.936	110.94
361.163	114.94
361.39	96.94
361.616	109.94
361.843	112.94
362.07	110.94
362.296	115.94
362.523	114.94
362.749	109.94
362.976	111.94
363.203	124.94
363.429	110.94
363.656	96.94
363.882	109.94
364.109	109.94
364.335	106.94
364.562	114.94
364.788	118.94
365.015	110.94
365.241	113.94
365.468	119.94
365.694	94.94
365.92	109.94
366.147	114.94
366.373	109.94
366.599	93.94
366.826	103.94
367.052	110.94
367.278	107.94
367.505	111.94
367.731	109.94
367.957	107.94
368.184	112.94
368.41	115.94
368.636	112.94
368.862	115.94
369.089	120.94
369.315	106.94
369.541	121.94
369.767	111.94
369.993	101.94
370.219	95.94
370.445	101.94
370.672	102.94
370.898	105.94
371.124	111.94
371.35	99.94
371.576	101.94
371.802	119.94
372.028	121.94
372.254	88.94
372.48	108.94
372.706	103.94
372.932	107.94
373.158	106.94
373.384	111.94
373.61	119.94
373.835	114.94
374.061	109.94
374.287	123.94
374.513	110.94
374.739	117.94
374.965	115.94
375.191	119.94
375.416	130.94
375.642	103.94
375.868	108.94
376.094	109.94
376.319	104.94
376.545	112.94
376.771	116.94
376.997	106.94
377.222	109.94
377.448	115.94
377.674	105.94
377.899	97.94
378.125	114.94
378.35	100.94
378.576	103.94
378.802	109.94
379.027	114.94
379.253	97.94
379.478	104.94
379.704	114.94
379.929	107.94
380.155	111.94
380.38	95.94
380.606	109.94
380.831	105.94
381.057	99.94
381.282	105.94
381.507	94.94
381.733	91.94
381.958	117.94
382.184	111.94
382.409	105.94
382.634	105.94
382.86	108.94
383.085	109.94
383.31	101.94
383.535	131.94
383.761	121.94
383.986	114.94
384.211	118.94
384.436	109.94
384.662	101.94
384.887	105.94
385.112	118.94
385.337	104.94
385.562	123.94
385.787	109.94
386.013	111.94
386.238	127.94
386.463	115.94
386.688	107.94
386.913	115.94
387.138	109.94
387.363	106.94
387.588	119.94
387.813	105.94
388.038	105.94
388.263	115.94
388.488	119.94
388.713	110.94
388.938	120.94
389.163	109.94
389.387	118.94
389.612	114.94
389.837	114.94
390.062	110.94
390.287	116.94
390.512	105.94
390.736	114.94
390.961	105.94
391.186	111.94
391.411	121.94
391.636	104.94
391.86	116.94
392.085	135.94
392.31	123.94
392.534	122.94
392.759	102.94
392.984	122.94
393.208	107.94
393.433	101.94
393.658	119.94
393.882	120.94
394.107	118.94
394.331	128.94
394.556	93.94
394.78	104.94
395.005	128.94
395.229	114.94
395.454	104.94
395.678	99.94
395.903	106.94
396.127	128.94
396.352	101.94
396.576	117.94
396.801	127.94
397.025	98.94
397.249	120.94
397.474	111.94
397.698	135.94
397.922	123.94
398.147	122.94
398.371	115.94
398.595	121.94
398.82	110.94
399.044	117.94
399.268	131.94
399.492	131.94
399.717	132.94
399.941	149.94
400.165	139.94
400.389	126.94
400.613	124.94
400.837	123.94
401.062	117.94
401.286	117.94
401.51	119.94
401.734	105.94
401.958	123.94
402.182	127.94
402.406	124.94
402.63	128.94
402.854	140.94
403.078	145.94
403.302	141.94
403.526	117.94
403.75	128.94
403.974	133.94
404.198	135.94
404.422	128.94
404.645	124.94
404.869	133.94
405.093	122.94
405.317	135.94
405.541	137.94
405.765	129.94
405.988	120.94
406.212	115.94
406.436	132.94
406.66	131.94
406.883	123.94
407.107	131.94
407.331	126.94
407.555	126.94
407.778	150.94
408.002	139.94
408.226	139.94
408.449	140.94
408.673	123.94
408.896	152.94
409.12	141.94
409.344	121.94
409.567	105.94
409.791	130.94
410.014	129.94
410.238	148.94
410.461	129.94
410.685	117.94
410.908	109.94
411.132	132.94
411.355	129.94
411.578	142.94
411.802	121.94
412.025	117.94
412.249	117.94
412.472	118.94
412.695	129.94
412.919	129.94
413.142	127.94
413.365	112.94
413.589	106.94
413.812	123.94
414.035	123.94
414.258	122.94
414.482	131.94
414.705	117.94
414.928	117.94
415.151	139.94
415.374	131.94
415.597	118.94
415.821	131.94
416.044	127.94
416.267	137.94
416.49	128.94
416.713	116.94
416.936	111.94
417.159	126.94
417.382	112.94
417.605	109.94
417.828	113.94
418.051	119.94
418.274	118.94
418.497	115.94
418.72	112.94
418.943	121.94
419.166	121.94
419.389	121.94
419.611	125.94
419.834	115.94
420.057	132.94
420.28	125.94
420.503	134.94
420.726	131.94
420.948	125.94
421.171	125.94
421.394	128.94
421.617	119.94
421.839	118.94
422.062	111.94
422.285	129.94
422.507	134.94
422.73	124.94
422.953	122.94
423.175	121.94
423.398	137.94
423.621	125.94
423.843	147.94
424.066	122.94
424.288	125.94
424.511	137.94
424.733	120.94
424.956	129.94
425.178	143.94
425.401	130.94
425.623	125.94
425.846	123.94
426.068	122.94
426.291	128.94
426.513	129.94
426.735	121.94
426.958	128.94
427.18	118.94
427.402	123.94
427.625	143.94
427.847	137.94
428.069	134.94
428.292	135.94
428.514	122.94
428.736	123.94
428.958	139.94
429.181	113.94
429.403	115.94
429.625	116.94
429.847	137.94
430.069	127.94
430.292	125.94
430.514	122.94
430.736	122.94
430.958	128.94
431.18	119.94
431.402	122.94
431.624	121.94
431.846	123.94
432.068	121.94
432.29	120.94
432.512	127.94
432.734	125.94
432.956	118.94
433.178	122.94
433.4	114.94
433.622	116.94
433.844	113.94
434.066	125.94
434.287	124.94
434.509	127.94
434.731	124.94
434.953	125.94
435.175	124.94
435.397	135.94
435.618	123.94
435.84	130.94
436.062	145.94
436.284	139.94
436.505	125.94
436.727	129.94
436.949	123.94
437.17	128.94
437.392	110.94
437.614	115.94
437.835	130.94
438.057	131.94
438.278	121.94
438.5	135.94
438.721	129.94
438.943	139.94
439.165	140.94
439.386	123.94
439.608	130.94
439.829	130.94
440.05	125.94
440.272	134.94
440.493	109.94
440.715	120.94
440.936	126.94
441.158	133.94
441.379	122.94
441.6	133.94
441.822	139.94
442.043	135.94
442.264	131.94
442.486	125.94
442.707	135.94
442.928	143.94
443.149	118.94
443.371	131.94
443.592	136.94
443.813	118.94
444.034	141.94
444.255	131.94
444.476	122.94
444.698	124.94
444.919	133.94
445.14	224.94
445.361	166.94
445.582	127.94
445.803	130.94
446.024	135.94
446.245	140.94
446.466	147.94
446.687	134.94
446.908	128.94
447.129	135.94
447.35	122.94
447.571	120.94
447.792	125.94
448.013	123.94
448.234	129.94
448.455	124.94
448.675	134.94
448.896	134.94
449.117	138.94
449.338	124.94
449.559	125.94
449.779	135.94
450	133.94
450.221	121.94
450.442	123.94
450.662	127.94
450.883	126.94
451.104	136.94
451.324	102.94
451.545	104.94
451.766	117.94
451.986	117.94
452.207	113.94
452.428	114.94
452.648	115.94
452.869	119.94
453.089	114.94
453.31	111.94
453.53	107.94
453.751	115.94
453.971	123.94
454.192	119.94
454.412	120.94
454.633	109.94
454.853	114.94
455.073	121.94
455.294	119.94
455.514	127.94
455.734	102.94
455.955	105.94
456.175	121.94
456.395	99.94
456.616	119.94
456.836	107.94
457.056	100.94
457.276	93.94
457.497	117.94
457.717	101.94
457.937	104.94
458.157	117.94
458.377	107.94
458.598	106.94
458.818	110.94
459.038	123.94
459.258	121.94
459.478	127.94
459.698	124.94
459.918	127.94
460.138	126.94
460.358	115.94
460.578	115.94
460.798	129.94
461.018	120.94
461.238	139.94
461.458	130.94
461.678	123.94
461.898	123.94
462.118	117.94
462.338	120.94
462.558	120.94
462.777	135.94
462.997	140.94
463.217	140.94
463.437	118.94
463.657	126.94
463.876	125.94
464.096	147.94
464.316	142.94
464.536	132.94
464.755	139.94
464.975	133.94
465.195	132.94
465.414	137.94
465.634	114.94
465.854	114.94
466.073	122.94
466.293	117.94
466.512	121.94
466.732	119.94
466.951	129.94
467.171	113.94
467.391	117.94
467.61	125.94
467.829	116.94
468.049	130.94
468.268	114.94
468.488	111.94
468.707	133.94
468.927	122.94
469.146	118.94
469.365	125.94
469.585	121.94
469.804	114.94
470.023	113.94
470.243	118.94
470.462	115.94
470.681	118.94
470.901	114.94
471.12	119.94
471.339	141.94
471.558	119.94
471.777	115.94
471.997	113.94
472.216	126.94
472.435	114.94
472.654	119.94
472.873	127.94
473.092	133.94
473.311	113.94
473.53	107.94
473.749	119.94
473.968	133.94
474.187	130.94
474.406	130.94
474.625	134.94
474.844	125.94
475.063	141.94
475.282	127.94
475.501	129.94
475.72	120.94
475.939	122.94
476.158	121.94
476.377	134.94
476.596	121.94
476.814	126.94
477.033	117.94
477.252	117.94
477.471	118.94
477.69	129.94
477.908	123.94
478.127	132.94
478.346	127.94
478.564	125.94
478.783	129.94
479.002	138.94
479.22	145.94
479.439	135.94
479.658	144.94
479.876	131.94
480.095	111.94
480.313	142.94
480.532	139.94
480.751	119.94
480.969	126.94
481.188	137.94
481.406	132.94
481.624	115.94
481.843	146.94
482.061	125.94
482.28	117.94
482.498	137.94
482.717	121.94
482.935	123.94
483.153	127.94
483.372	129.94
483.59	127.94
483.808	106.94
484.027	116.94
484.245	131.94
484.463	138.94
484.681	142.94
484.9	116.94
485.118	128.94
485.336	129.94
485.554	124.94
485.772	123.94
485.99	146.94
486.209	125.94
486.427	112.94
486.645	125.94
486.863	127.94
487.081	132.94
487.299	132.94
487.517	134.94
487.735	119.94
487.953	133.94
488.171	139.94
488.389	121.94
488.607	135.94
488.825	127.94
489.043	140.94
489.261	145.94
489.479	149.94
489.696	134.94
489.914	129.94
490.132	130.94
490.35	144.94
490.568	139.94
490.786	145.94
491.003	128.94
491.221	119.94
491.439	133.94
491.657	130.94
491.874	123.94
492.092	118.94
492.31	131.94
492.527	127.94
492.745	152.94
492.963	133.94
493.18	145.94
493.398	138.94
493.615	134.94
493.833	137.94
494.05	146.94
494.268	149.94
494.485	161.94
494.703	140.94
494.92	120.94
495.138	130.94
495.355	133.94
495.573	129.94
495.79	142.94
496.008	122.94
496.225	133.94
496.442	129.94
496.66	146.94
496.877	143.94
497.094	157.94
497.312	142.94
497.529	146.94
497.746	142.94
497.963	131.94
498.181	137.94
498.398	139.94
498.615	158.94
498.832	148.94
499.049	164.94
499.267	173.94
499.484	158.94
499.701	180.94
499.918	191.94
500.135	183.94
500.352	206.94
500.569	215.94
500.786	214.94
501.003	180.94
501.22	200.94
501.437	182.94
501.654	159.94
501.871	164.94
502.088	166.94
502.305	137.94
502.522	147.94
502.739	137.94
502.956	146.94
503.172	149.94
503.389	141.94
503.606	132.94
503.823	138.94
504.04	146.94
504.256	154.94
504.473	155.94
504.69	149.94
504.907	132.94
505.123	137.94
505.34	140.94
505.557	140.94
505.773	129.94
505.99	145.94
506.207	136.94
