Data from 1968.PennyLincolnUp.Lamp.En5.5.200Scan.071719.P1._HRD10591_14-49-26-968.txt Node
Date: Thu Jul 18 14:49:26 EDT 2019
User: cochatt
Spectrometer: HR+D1059
Trigger mode: 1
Integration Time (sec): 1.000000E-1
Scans to average: 1
Electric dark correction enabled: true
Nonlinearity correction enabled: false
Boxcar width: 0
XAxis mode: Wavelengths
Number of Pixels in Spectrum: 2048
>>>>>Begin Spectral Data<<<<<
223.165	-20
223.4	-20
223.635	-20
223.869	-12
224.104	-15
224.338	-10
224.573	-2
224.808	-7
225.042	-16
225.277	-8
225.511	-5
225.746	-5
225.98	12
226.215	13
226.449	8
226.683	22
226.918	15
227.152	30
227.387	39
227.621	54
227.856	40
228.09	42
228.324	59
228.559	59
228.793	55
229.027	78
229.262	65
229.496	64
229.73	71
229.964	63
230.199	72
230.433	84
230.667	79
230.901	83
231.136	88
231.37	91
231.604	73
231.838	87
232.072	92
232.306	86
232.541	87
232.775	77
233.009	97
233.243	79
233.477	85
233.711	93
233.945	78
234.179	93
234.413	91
234.647	87
234.881	92
235.115	85
235.349	88
235.583	79
235.817	80
236.051	79
236.285	89
236.519	79
236.753	77
236.987	64
237.221	93
237.455	86
237.689	79
237.922	89
238.156	82
238.39	73
238.624	76
238.858	86
239.091	103
239.325	84
239.559	80
239.793	74
240.027	78
240.26	74
240.494	81
240.728	94
240.961	76
241.195	73
241.429	88
241.662	79
241.896	75
242.13	66
242.363	99
242.597	94
242.83	89
243.064	90
243.298	81
243.531	90
243.765	85
243.998	79
244.232	86
244.465	88
244.699	82
244.932	90
245.166	86
245.399	81
245.633	85
245.866	93
246.099	89
246.333	103
246.566	90
246.8	67
247.033	81
247.266	105
247.5	78
247.733	73
247.966	72
248.2	104
248.433	88
248.666	87
248.899	78
249.133	87
249.366	96
249.599	90
249.832	95
250.066	73
250.299	83
250.532	99
250.765	86
250.998	98
251.231	90
251.465	97
251.698	84
251.931	84
252.164	84
252.397	92
252.63	110
252.863	91
253.096	94
253.329	81
253.562	101
253.795	93
254.028	105
254.261	85
254.494	102
254.727	89
254.96	88
255.193	94
255.426	90
255.659	86
255.892	91
256.124	80
256.357	90
256.59	86
256.823	97
257.056	99
257.289	99
257.521	105
257.754	86
257.987	84
258.22	90
258.452	97
258.685	93
258.918	101
259.151	97
259.383	97
259.616	91
259.849	81
260.081	81
260.314	95
260.547	91
260.779	97
261.012	88
261.244	105
261.477	101
261.71	91
261.942	97
262.175	100
262.407	90
262.64	88
262.872	99
263.105	102
263.337	89
263.57	98
263.802	100
264.035	97
264.267	85
264.499	89
264.732	97
264.964	92
265.197	92
265.429	101
265.661	99
265.894	100
266.126	90
266.358	98
266.591	87
266.823	94
267.055	88
267.287	93
267.52	87
267.752	94
267.984	73
268.216	96
268.448	102
268.681	100
268.913	84
269.145	91
269.377	96
269.609	93
269.841	100
270.073	93
270.306	77
270.538	84
270.77	104
271.002	92
271.234	110
271.466	97
271.698	86
271.93	100
272.162	102
272.394	100
272.626	107
272.858	99
273.09	91
273.322	89
273.553	84
273.785	80
274.017	106
274.249	107
274.481	88
274.713	107
274.945	100
275.176	98
275.408	103
275.64	94
275.872	112
276.104	88
276.335	100
276.567	90
276.799	94
277.031	108
277.262	108
277.494	107
277.726	99
277.957	94
278.189	82
278.421	108
278.652	96
278.884	104
279.115	93
279.347	94
279.579	108
279.81	118
280.042	107
280.273	106
280.505	95
280.736	107
280.968	96
281.199	104
281.431	104
281.662	98
281.894	116
282.125	107
282.356	101
282.588	84
282.819	91
283.051	102
283.282	100
283.513	92
283.745	105
283.976	99
284.207	103
284.439	109
284.67	100
284.901	86
285.132	108
285.364	88
285.595	113
285.826	106
286.057	113
286.288	112
286.52	104
286.751	102
286.982	104
287.213	100
287.444	92
287.675	101
287.906	103
288.138	92
288.369	99
288.6	107
288.831	93
289.062	92
289.293	98
289.524	111
289.755	105
289.986	88
290.217	111
290.448	104
290.679	116
290.91	113
291.141	115
291.371	93
291.602	87
291.833	107
292.064	110
292.295	94
292.526	116
292.757	108
292.987	109
293.218	102
293.449	113
293.68	106
293.91	93
294.141	116
294.372	101
294.603	98
294.833	99
295.064	104
295.295	107
295.525	110
295.756	93
295.987	94
296.217	96
296.448	112
296.679	98
296.909	108
297.14	106
297.37	105
297.601	113
297.831	111
298.062	107
298.292	99
298.523	104
298.753	94
298.984	100
299.214	83
299.445	103
299.675	96
299.905	119
300.136	113
300.366	108
300.597	110
300.827	82
301.057	115
301.288	97
301.518	85
301.748	112
301.979	93
302.209	95
302.439	100
302.669	111
302.9	110
303.13	111
303.36	118
303.59	101
303.82	107
304.051	110
304.281	98
304.511	109
304.741	108
304.971	109
305.201	104
305.431	102
305.661	101
305.891	101
306.121	117
306.352	110
306.582	102
306.812	96
307.042	109
307.272	105
307.502	108
307.731	115
307.961	99
308.191	107
308.421	105
308.651	100
308.881	103
309.111	110
309.341	102
309.571	98
309.8	96
310.03	86
310.26	113
310.49	105
310.72	92
310.949	95
311.179	92
311.409	115
311.639	125
311.868	104
312.098	115
312.328	110
312.557	131
312.787	125
313.017	118
313.246	113
313.476	101
313.706	89
313.935	100
314.165	108
314.394	106
314.624	114
314.853	119
315.083	106
315.312	117
315.542	121
315.771	116
316.001	109
316.23	106
316.46	101
316.689	101
316.919	100
317.148	121
317.377	120
317.607	107
317.836	108
318.065	109
318.295	98
318.524	115
318.753	97
318.983	103
319.212	118
319.441	114
319.67	131
319.9	108
320.129	111
320.358	99
320.587	110
320.816	108
321.046	106
321.275	108
321.504	115
321.733	113
321.962	100
322.191	102
322.42	106
322.649	106
322.878	126
323.108	120
323.337	107
323.566	106
323.795	121
324.024	113
324.253	110
324.482	123
324.71	147
324.939	184
325.168	155
325.397	128
325.626	122
325.855	112
326.084	105
326.313	115
326.542	123
326.77	123
326.999	115
327.228	122
327.457	135
327.686	157
327.914	139
328.143	121
328.372	115
328.6	127
328.829	132
329.058	120
329.287	117
329.515	126
329.744	107
329.972	118
330.201	118
330.43	112
330.658	125
330.887	106
331.115	105
331.344	111
331.572	100
331.801	115
332.03	113
332.258	101
332.486	106
332.715	108
332.943	120
333.172	134
333.4	119
333.629	125
333.857	108
334.085	113
334.314	125
334.542	123
334.771	120
334.999	123
335.227	127
335.455	113
335.684	118
335.912	114
336.14	133
336.369	125
336.597	124
336.825	108
337.053	110
337.281	118
337.51	117
337.738	111
337.966	127
338.194	117
338.422	124
338.65	118
338.878	104
339.106	112
339.334	107
339.562	121
339.79	119
340.018	123
340.246	100
340.474	112
340.702	123
340.93	103
341.158	109
341.386	121
341.614	104
341.842	107
342.07	122
342.298	108
342.526	101
342.754	110
342.981	112
343.209	109
343.437	124
343.665	125
343.893	116
344.12	120
344.348	118
344.576	111
344.804	105
345.031	123
345.259	121
345.487	131
345.714	116
345.942	105
346.17	124
346.397	119
346.625	117
346.853	112
347.08	102
347.308	119
347.535	117
347.763	115
347.99	107
348.218	112
348.445	100
348.673	106
348.9	106
349.128	127
349.355	110
349.583	111
349.81	107
350.037	127
350.265	121
350.492	120
350.72	105
350.947	108
351.174	105
351.402	106
351.629	114
351.856	109
352.083	115
352.311	113
352.538	118
352.765	117
352.992	127
353.22	127
353.447	122
353.674	115
353.901	111
354.128	111
354.355	108
354.583	121
354.81	127
355.037	111
355.264	104
355.491	121
355.718	115
355.945	99
356.172	120
356.399	114
356.626	119
356.853	109
357.08	105
357.307	108
357.534	127
357.761	107
357.988	92
358.215	109
358.441	103
358.668	105
358.895	123
359.122	114
359.349	111
359.576	115
359.802	103
360.029	120
360.256	113
360.483	115
360.709	117
360.936	120
361.163	118
361.39	111
361.616	115
361.843	109
362.07	117
362.296	132
362.523	110
362.749	117
362.976	103
363.203	108
363.429	117
363.656	123
363.882	119
364.109	101
364.335	111
364.562	118
364.788	107
365.015	111
365.241	112
365.468	107
365.694	106
365.92	105
366.147	104
366.373	112
366.599	116
366.826	119
367.052	105
367.278	133
367.505	115
367.731	109
367.957	104
368.184	117
368.41	101
368.636	112
368.862	118
369.089	113
369.315	110
369.541	118
369.767	126
369.993	119
370.219	103
370.445	111
370.672	102
370.898	103
371.124	104
371.35	119
371.576	114
371.802	122
372.028	119
372.254	105
372.48	110
372.706	107
372.932	110
373.158	104
373.384	106
373.61	121
373.835	99
374.061	98
374.287	123
374.513	119
374.739	120
374.965	99
375.191	107
375.416	132
375.642	117
375.868	111
376.094	130
376.319	122
376.545	121
376.771	115
376.997	111
377.222	120
377.448	119
377.674	108
377.899	126
378.125	126
378.35	103
378.576	139
378.802	117
379.027	127
379.253	119
379.478	125
379.704	123
379.929	110
380.155	114
380.38	116
380.606	119
380.831	125
381.057	121
381.282	126
381.507	116
381.733	129
381.958	107
382.184	121
382.409	117
382.634	125
382.86	112
383.085	120
383.31	112
383.535	111
383.761	120
383.986	115
384.211	131
384.436	116
384.662	125
384.887	128
385.112	111
385.337	115
385.562	117
385.787	108
386.013	125
386.238	119
386.463	123
386.688	111
386.913	124
387.138	115
387.363	129
387.588	111
387.813	121
388.038	117
388.263	121
388.488	124
388.713	115
388.938	117
389.163	124
389.387	120
389.612	105
389.837	111
390.062	111
390.287	116
390.512	135
390.736	130
390.961	117
391.186	128
391.411	125
391.636	120
391.86	123
392.085	123
392.31	117
392.534	127
392.759	130
392.984	125
393.208	123
393.433	120
393.658	121
393.882	118
394.107	128
394.331	115
394.556	119
394.78	121
395.005	121
395.229	115
395.454	133
395.678	129
395.903	124
396.127	109
396.352	128
396.576	116
396.801	129
397.025	129
397.249	121
397.474	124
397.698	130
397.922	128
398.147	131
398.371	131
398.595	122
398.82	126
399.044	134
399.268	145
399.492	147
399.717	156
399.941	146
400.165	140
400.389	125
400.613	124
400.837	142
401.062	153
401.286	139
401.51	130
401.734	127
401.958	126
402.182	139
402.406	120
402.63	110
402.854	133
403.078	134
403.302	150
403.526	133
403.75	127
403.974	131
404.198	134
404.422	143
404.645	140
404.869	132
405.093	128
405.317	126
405.541	139
405.765	138
405.988	134
406.212	132
406.436	134
406.66	131
406.883	129
407.107	134
407.331	137
407.555	140
407.778	136
408.002	142
408.226	134
408.449	141
408.673	131
408.896	125
409.12	125
409.344	129
409.567	143
409.791	135
410.014	126
410.238	141
410.461	133
410.685	136
410.908	141
411.132	134
411.355	115
411.578	134
411.802	130
412.025	126
412.249	137
412.472	121
412.695	119
412.919	129
413.142	122
413.365	133
413.589	138
413.812	135
414.035	127
414.258	130
414.482	139
414.705	133
414.928	131
415.151	131
415.374	137
415.597	131
415.821	139
416.044	118
416.267	123
416.49	127
416.713	129
416.936	123
417.159	128
417.382	129
417.605	127
417.828	118
418.051	128
418.274	119
418.497	123
418.72	123
418.943	130
419.166	136
419.389	142
419.611	142
419.834	132
420.057	134
420.28	119
420.503	139
420.726	127
420.948	125
421.171	137
421.394	157
421.617	127
421.839	133
422.062	124
422.285	142
422.507	130
422.73	143
422.953	139
423.175	132
423.398	141
423.621	131
423.843	139
424.066	145
424.288	135
424.511	136
424.733	136
424.956	154
425.178	132
425.401	140
425.623	128
425.846	132
426.068	133
426.291	130
426.513	129
426.735	123
426.958	119
427.18	126
427.402	142
427.625	144
427.847	140
428.069	132
428.292	138
428.514	124
428.736	130
428.958	114
429.181	111
429.403	114
429.625	115
429.847	135
430.069	121
430.292	127
430.514	120
430.736	138
430.958	139
431.18	121
431.402	133
431.624	111
431.846	113
432.068	116
432.29	119
432.512	120
432.734	143
432.956	132
433.178	131
433.4	136
433.622	144
433.844	136
434.066	122
434.287	125
434.509	119
434.731	110
434.953	131
435.175	135
435.397	139
435.618	127
435.84	136
436.062	149
436.284	141
436.505	129
436.727	125
436.949	128
437.17	126
437.392	133
437.614	127
437.835	131
438.057	101
438.278	123
438.5	122
438.721	132
438.943	142
439.165	134
439.386	133
439.608	129
439.829	133
440.05	131
440.272	128
440.493	138
440.715	115
440.936	125
441.158	124
441.379	133
441.6	133
441.822	123
442.043	151
442.264	124
442.486	144
442.707	138
442.928	140
443.149	135
443.371	139
443.592	139
443.813	155
444.034	164
444.255	141
444.476	131
444.698	141
444.919	143
445.14	259
445.361	200
445.582	149
445.803	127
446.024	141
446.245	145
446.466	121
446.687	124
446.908	149
447.129	117
447.35	141
447.571	122
447.792	111
448.013	118
448.234	127
448.455	137
448.675	154
448.896	137
449.117	120
449.338	121
449.559	125
449.779	157
450	140
450.221	129
450.442	135
450.662	126
450.883	132
451.104	126
451.324	128
451.545	125
451.766	117
451.986	120
452.207	127
452.428	121
452.648	131
452.869	133
453.089	134
453.31	115
453.53	120
453.751	119
453.971	125
454.192	125
454.412	120
454.633	134
454.853	117
455.073	113
455.294	121
455.514	109
455.734	131
455.955	133
456.175	111
456.395	120
456.616	124
456.836	122
457.056	121
457.276	100
457.497	115
457.717	133
457.937	123
458.157	98
458.377	120
458.598	121
458.818	119
459.038	126
459.258	131
459.478	118
459.698	118
459.918	124
460.138	116
460.358	131
460.578	124
460.798	139
461.018	134
461.238	126
461.458	128
461.678	131
461.898	133
462.118	137
462.338	131
462.558	123
462.777	139
462.997	148
463.217	139
463.437	145
463.657	144
463.876	145
464.096	138
464.316	141
464.536	137
464.755	133
464.975	138
465.195	158
465.414	132
465.634	135
465.854	127
466.073	134
466.293	135
466.512	122
466.732	124
466.951	120
467.171	122
467.391	125
467.61	132
467.829	125
468.049	130
468.268	119
468.488	128
468.707	123
468.927	120
469.146	115
469.365	131
469.585	122
469.804	135
470.023	125
470.243	127
470.462	123
470.681	131
470.901	113
471.12	131
471.339	116
471.558	133
471.777	123
471.997	114
472.216	123
472.435	133
472.654	133
472.873	125
473.092	120
473.311	122
473.53	115
473.749	121
473.968	117
474.187	138
474.406	131
474.625	127
474.844	120
475.063	123
475.282	127
475.501	116
475.72	124
475.939	133
476.158	113
476.377	112
476.596	136
476.814	131
477.033	138
477.252	123
477.471	123
477.69	124
477.908	125
478.127	137
478.346	142
478.564	137
478.783	135
479.002	138
479.22	123
479.439	136
479.658	131
479.876	119
480.095	135
480.313	142
480.532	140
480.751	144
480.969	127
481.188	152
481.406	130
481.624	135
481.843	126
482.061	125
482.28	137
482.498	104
482.717	133
482.935	121
483.153	120
483.372	131
483.59	125
483.808	122
484.027	123
484.245	124
484.463	127
484.681	139
484.9	136
485.118	126
485.336	137
485.554	144
485.772	140
485.99	123
486.209	142
486.427	144
486.645	135
486.863	126
487.081	144
487.299	142
487.517	143
487.735	138
487.953	135
488.171	145
488.389	145
488.607	127
488.825	123
489.043	141
489.261	139
489.479	146
489.696	132
489.914	135
490.132	144
490.35	146
490.568	143
490.786	128
491.003	137
491.221	153
491.439	136
491.657	148
491.874	151
492.092	151
492.31	141
492.527	151
492.745	149
492.963	141
493.18	148
493.398	151
493.615	135
493.833	134
494.05	144
494.268	146
494.485	151
494.703	143
494.92	143
495.138	143
495.355	148
495.573	144
495.79	144
496.008	148
496.225	145
496.442	153
496.66	155
496.877	137
497.094	150
497.312	155
497.529	156
497.746	159
497.963	152
498.181	160
498.398	151
498.615	162
498.832	167
499.049	160
499.267	154
499.484	172
499.701	189
499.918	189
500.135	197
500.352	222
500.569	211
500.786	201
501.003	234
501.22	191
501.437	195
501.654	166
501.871	181
502.088	183
502.305	157
502.522	168
502.739	141
502.956	160
503.172	158
503.389	143
503.606	146
503.823	155
504.04	145
504.256	139
504.473	146
504.69	144
504.907	146
505.123	136
505.34	128
505.557	128
505.773	137
505.99	157
506.207	139
506.423	145
506.64	135
506.856	131
507.073	129
507.289	137
507.506	147
507.722	133
507.939	133
508.155	123
508.372	129
508.588	141
508.805	116
509.021	145
509.238	135
509.454	127
509.67	126
509.887	121
510.103	119
510.319	129
510.536	141
510.752	165
510.968	132
511.184	124
511.401	137
511.617	149
511.833	124
512.049	120
512.265	144
512.481	131
512.698	133
512.914	128
513.13	122
513.346	127
513.562	120
513.778	126
513.994	117
514.21	131
514.426	141
514.642	136
514.858	132
515.074	124
515.29	136
515.506	160
515.721	145
515.937	123
516.153	139
516.369	143
516.585	123
516.801	120
517.016	139
517.232	152
517.448	139
517.664	141
517.879	140
518.095	125
518.311	136
518.527	129
518.742	132
518.958	159
519.173	142
519.389	137
519.605	128
519.82	123
520.036	118
520.251	131
520.467	149
520.682	141
520.898	142
521.113	123
521.329	124
521.544	124
521.76	136
521.975	172
522.19	163
522.406	123
522.621	138
522.836	140
523.052	131
523.267	128
523.482	123
523.698	119
523.913	138
524.128	118
524.343	126
524.559	128
524.774	120
524.989	140
525.204	131
525.419	130
525.634	128
525.849	140
526.064	128
526.28	128
526.495	122
526.71	117
526.925	104
527.14	116
527.355	127
527.57	135
527.785	129
527.999	128
528.214	126
528.429	123
528.644	122
528.859	129
529.074	115
529.289	129
529.503	129
529.718	141
529.933	127
530.148	125
530.363	127
530.577	116
530.792	118
531.007	119
531.221	125
531.436	122
531.651	120
531.865	118
532.08	113
532.295	107
532.509	115
532.724	105
532.938	124
533.153	127
533.367	131
533.582	117
533.796	139
534.011	125
534.225	112
534.44	124
534.654	112
534.868	123
535.083	118
535.297	123
535.511	125
535.726	124
535.94	124
536.154	124
536.369	125
536.583	121
536.797	124
537.011	119
537.225	113
537.44	121
537.654	112
537.868	122
538.082	118
538.296	123
538.51	121
538.724	128
538.938	128
539.153	129
539.367	120
539.581	113
539.795	103
540.009	133
540.222	123
540.436	108
540.65	119
540.864	127
541.078	125
541.292	139
541.506	128
541.72	121
541.934	123
542.147	141
542.361	141
542.575	139
542.789	128
543.002	124
543.216	134
543.43	141
543.644	135
543.857	144
544.071	138
544.285	146
544.498	133
544.712	135
544.925	129
545.139	144
545.352	143
545.566	138
545.779	131
545.993	121
546.206	137
546.42	150
546.633	127
546.847	131
547.06	129
547.274	132
547.487	125
547.7	137
547.914	122
548.127	120
548.34	136
548.554	122
548.767	121
548.98	120
549.193	137
549.407	117
549.62	131
549.833	133
550.046	127
550.259	131
550.473	125
550.686	124
550.899	130
551.112	131
551.325	135
551.538	140
551.751	122
551.964	133
552.177	135
552.39	144
552.603	135
552.816	130
553.029	129
553.242	122
553.455	121
553.667	131
553.88	132
554.093	121
554.306	125
554.519	129
554.732	112
554.944	131
555.157	133
555.37	123
555.583	128
555.795	126
556.008	113
556.221	124
556.433	123
556.646	122
556.859	114
557.071	122
557.284	128
557.496	121
557.709	126
557.921	127
558.134	118
558.346	114
558.559	129
558.771	132
558.984	122
559.196	111
559.409	119
559.621	137
559.833	118
560.046	108
560.258	114
560.47	115
560.683	125
560.895	104
561.107	110
561.32	123
561.532	112
561.744	137
561.956	113
562.168	117
562.381	125
562.593	124
562.805	115
563.017	114
563.229	127
563.441	107
563.653	105
563.865	113
564.077	106
564.289	110
564.501	125
564.713	123
564.925	117
565.137	127
565.349	122
565.561	133
565.773	139
565.985	139
566.197	125
566.408	120
566.62	129
566.832	142
567.044	144
567.255	132
567.467	128
