Data from 1968.PennyLincolnUp.Lamp.En5.5.200Scan.071719.P1._HRD10591_14-51-53-969.txt Node
Date: Thu Jul 18 14:51:53 EDT 2019
User: cochatt
Spectrometer: HR+D1059
Trigger mode: 1
Integration Time (sec): 1.000000E-1
Scans to average: 1
Electric dark correction enabled: true
Nonlinearity correction enabled: false
Boxcar width: 0
XAxis mode: Wavelengths
Number of Pixels in Spectrum: 2048
>>>>>Begin Spectral Data<<<<<
223.165	-27.19
223.4	-27.19
223.635	-27.19
223.869	-13.19
224.104	-16.19
224.338	-19.19
224.573	-1.19
224.808	-18.19
225.042	-10.19
225.277	-0.19
225.511	1.81
225.746	-7.19
225.98	8.81
226.215	12.81
226.449	15.81
226.683	28.81
226.918	21.81
227.152	22.81
227.387	18.81
227.621	43.81
227.856	43.81
228.09	41.81
228.324	62.81
228.559	57.81
228.793	55.81
229.027	80.81
229.262	60.81
229.496	67.81
229.73	74.81
229.964	63.81
230.199	76.81
230.433	72.81
230.667	72.81
230.901	79.81
231.136	75.81
231.37	78.81
231.604	78.81
231.838	94.81
232.072	82.81
232.306	69.81
232.541	91.81
232.775	92.81
233.009	82.81
233.243	91.81
233.477	76.81
233.711	87.81
233.945	90.81
234.179	78.81
234.413	64.81
234.647	92.81
234.881	84.81
235.115	80.81
235.349	72.81
235.583	84.81
235.817	85.81
236.051	89.81
236.285	89.81
236.519	80.81
236.753	91.81
236.987	83.81
237.221	77.81
237.455	91.81
237.689	83.81
237.922	73.81
238.156	74.81
238.39	73.81
238.624	71.81
238.858	87.81
239.091	84.81
239.325	74.81
239.559	70.81
239.793	89.81
240.027	76.81
240.26	91.81
240.494	67.81
240.728	85.81
240.961	92.81
241.195	85.81
241.429	73.81
241.662	77.81
241.896	77.81
242.13	80.81
242.363	86.81
242.597	83.81
242.83	80.81
243.064	76.81
243.298	74.81
243.531	83.81
243.765	82.81
243.998	86.81
244.232	77.81
244.465	84.81
244.699	82.81
244.932	78.81
245.166	77.81
245.399	86.81
245.633	89.81
245.866	73.81
246.099	89.81
246.333	87.81
246.566	74.81
246.8	89.81
247.033	77.81
247.266	72.81
247.5	91.81
247.733	95.81
247.966	79.81
248.2	85.81
248.433	87.81
248.666	88.81
248.899	99.81
249.133	95.81
249.366	84.81
249.599	89.81
249.832	74.81
250.066	82.81
250.299	81.81
250.532	75.81
250.765	90.81
250.998	90.81
251.231	85.81
251.465	92.81
251.698	91.81
251.931	90.81
252.164	85.81
252.397	94.81
252.63	98.81
252.863	90.81
253.096	98.81
253.329	98.81
253.562	89.81
253.795	97.81
254.028	84.81
254.261	90.81
254.494	91.81
254.727	86.81
254.96	91.81
255.193	77.81
255.426	80.81
255.659	102.81
255.892	96.81
256.124	106.81
256.357	88.81
256.59	82.81
256.823	80.81
257.056	102.81
257.289	92.81
257.521	85.81
257.754	94.81
257.987	93.81
258.22	94.81
258.452	86.81
258.685	80.81
258.918	90.81
259.151	82.81
259.383	93.81
259.616	97.81
259.849	95.81
260.081	81.81
260.314	89.81
260.547	89.81
260.779	81.81
261.012	98.81
261.244	85.81
261.477	103.81
261.71	92.81
261.942	75.81
262.175	94.81
262.407	89.81
262.64	87.81
262.872	87.81
263.105	91.81
263.337	92.81
263.57	101.81
263.802	94.81
264.035	90.81
264.267	83.81
264.499	78.81
264.732	94.81
264.964	92.81
265.197	102.81
265.429	98.81
265.661	99.81
265.894	95.81
266.126	97.81
266.358	91.81
266.591	88.81
266.823	97.81
267.055	89.81
267.287	100.81
267.52	106.81
267.752	95.81
267.984	92.81
268.216	87.81
268.448	102.81
268.681	98.81
268.913	95.81
269.145	93.81
269.377	87.81
269.609	106.81
269.841	87.81
270.073	95.81
270.306	94.81
270.538	99.81
270.77	101.81
271.002	84.81
271.234	94.81
271.466	114.81
271.698	119.81
271.93	112.81
272.162	100.81
272.394	105.81
272.626	93.81
272.858	100.81
273.09	101.81
273.322	87.81
273.553	95.81
273.785	107.81
274.017	86.81
274.249	96.81
274.481	100.81
274.713	101.81
274.945	89.81
275.176	102.81
275.408	91.81
275.64	93.81
275.872	100.81
276.104	91.81
276.335	98.81
276.567	90.81
276.799	90.81
277.031	105.81
277.262	109.81
277.494	101.81
277.726	99.81
277.957	99.81
278.189	92.81
278.421	102.81
278.652	99.81
278.884	93.81
279.115	93.81
279.347	102.81
279.579	95.81
279.81	90.81
280.042	95.81
280.273	98.81
280.505	93.81
280.736	92.81
280.968	101.81
281.199	99.81
281.431	104.81
281.662	103.81
281.894	85.81
282.125	93.81
282.356	115.81
282.588	111.81
282.819	97.81
283.051	106.81
283.282	104.81
283.513	103.81
283.745	94.81
283.976	85.81
284.207	100.81
284.439	96.81
284.67	106.81
284.901	96.81
285.132	101.81
285.364	108.81
285.595	109.81
285.826	90.81
286.057	88.81
286.288	102.81
286.52	99.81
286.751	91.81
286.982	103.81
287.213	107.81
287.444	93.81
287.675	94.81
287.906	92.81
288.138	99.81
288.369	108.81
288.6	98.81
288.831	108.81
289.062	92.81
289.293	101.81
289.524	101.81
289.755	103.81
289.986	92.81
290.217	95.81
290.448	108.81
290.679	98.81
290.91	129.81
291.141	80.81
291.371	101.81
291.602	103.81
291.833	101.81
292.064	103.81
292.295	98.81
292.526	118.81
292.757	109.81
292.987	86.81
293.218	92.81
293.449	99.81
293.68	96.81
293.91	104.81
294.141	91.81
294.372	108.81
294.603	99.81
294.833	103.81
295.064	118.81
295.295	104.81
295.525	92.81
295.756	98.81
295.987	96.81
296.217	97.81
296.448	108.81
296.679	95.81
296.909	103.81
297.14	114.81
297.37	109.81
297.601	103.81
297.831	94.81
298.062	114.81
298.292	93.81
298.523	107.81
298.753	102.81
298.984	97.81
299.214	101.81
299.445	93.81
299.675	103.81
299.905	114.81
300.136	99.81
300.366	93.81
300.597	105.81
300.827	110.81
301.057	105.81
301.288	118.81
301.518	106.81
301.748	98.81
301.979	104.81
302.209	109.81
302.439	98.81
302.669	104.81
302.9	107.81
303.13	107.81
303.36	122.81
303.59	104.81
303.82	102.81
304.051	105.81
304.281	111.81
304.511	103.81
304.741	105.81
304.971	106.81
305.201	93.81
305.431	122.81
305.661	106.81
305.891	105.81
306.121	95.81
306.352	99.81
306.582	101.81
306.812	110.81
307.042	108.81
307.272	102.81
307.502	104.81
307.731	105.81
307.961	94.81
308.191	102.81
308.421	107.81
308.651	111.81
308.881	118.81
309.111	109.81
309.341	90.81
309.571	96.81
309.8	96.81
310.03	106.81
310.26	102.81
310.49	104.81
310.72	121.81
310.949	100.81
311.179	92.81
311.409	114.81
311.639	105.81
311.868	113.81
312.098	133.81
312.328	116.81
312.557	105.81
312.787	101.81
313.017	114.81
313.246	110.81
313.476	103.81
313.706	123.81
313.935	105.81
314.165	104.81
314.394	108.81
314.624	113.81
314.853	108.81
315.083	104.81
315.312	111.81
315.542	118.81
315.771	103.81
316.001	111.81
316.23	114.81
316.46	97.81
316.689	97.81
316.919	119.81
317.148	123.81
317.377	125.81
317.607	108.81
317.836	108.81
318.065	106.81
318.295	100.81
318.524	115.81
318.753	103.81
318.983	112.81
319.212	94.81
319.441	104.81
319.67	109.81
319.9	105.81
320.129	97.81
320.358	113.81
320.587	111.81
320.816	113.81
321.046	121.81
321.275	107.81
321.504	106.81
321.733	119.81
321.962	115.81
322.191	105.81
322.42	115.81
322.649	113.81
322.878	111.81
323.108	118.81
323.337	122.81
323.566	113.81
323.795	127.81
324.024	98.81
324.253	114.81
324.482	131.81
324.71	179.81
324.939	181.81
325.168	165.81
325.397	138.81
325.626	131.81
325.855	106.81
326.084	110.81
326.313	128.81
326.542	113.81
326.77	113.81
326.999	116.81
327.228	134.81
327.457	141.81
327.686	167.81
327.914	139.81
328.143	124.81
328.372	131.81
328.6	114.81
328.829	122.81
329.058	133.81
329.287	108.81
329.515	113.81
329.744	117.81
329.972	124.81
330.201	117.81
330.43	120.81
330.658	132.81
330.887	130.81
331.115	110.81
331.344	110.81
331.572	131.81
331.801	117.81
332.03	108.81
332.258	115.81
332.486	105.81
332.715	118.81
332.943	117.81
333.172	108.81
333.4	131.81
333.629	127.81
333.857	116.81
334.085	97.81
334.314	126.81
334.542	117.81
334.771	129.81
334.999	117.81
335.227	115.81
335.455	115.81
335.684	135.81
335.912	121.81
336.14	104.81
336.369	109.81
336.597	120.81
336.825	121.81
337.053	119.81
337.281	120.81
337.51	94.81
337.738	117.81
337.966	114.81
338.194	115.81
338.422	123.81
338.65	98.81
338.878	102.81
339.106	122.81
339.334	117.81
339.562	115.81
339.79	109.81
340.018	103.81
340.246	114.81
340.474	100.81
340.702	125.81
340.93	103.81
341.158	113.81
341.386	103.81
341.614	117.81
341.842	121.81
342.07	116.81
342.298	91.81
342.526	111.81
342.754	115.81
342.981	123.81
343.209	111.81
343.437	117.81
343.665	112.81
343.893	123.81
344.12	120.81
344.348	119.81
344.576	136.81
344.804	113.81
345.031	97.81
345.259	113.81
345.487	119.81
345.714	118.81
345.942	116.81
346.17	121.81
346.397	102.81
346.625	110.81
346.853	102.81
347.08	112.81
347.308	105.81
347.535	107.81
347.763	117.81
347.99	98.81
348.218	118.81
348.445	114.81
348.673	111.81
348.9	110.81
349.128	131.81
349.355	118.81
349.583	115.81
349.81	105.81
350.037	106.81
350.265	105.81
350.492	114.81
350.72	116.81
350.947	108.81
351.174	100.81
351.402	108.81
351.629	104.81
351.856	107.81
352.083	106.81
352.311	108.81
352.538	113.81
352.765	111.81
352.992	110.81
353.22	98.81
353.447	109.81
353.674	106.81
353.901	107.81
354.128	114.81
354.355	99.81
354.583	109.81
354.81	123.81
355.037	117.81
355.264	114.81
355.491	108.81
355.718	111.81
355.945	109.81
356.172	120.81
356.399	117.81
356.626	123.81
356.853	107.81
357.08	113.81
357.307	113.81
357.534	105.81
357.761	121.81
357.988	119.81
358.215	116.81
358.441	109.81
358.668	108.81
358.895	98.81
359.122	133.81
359.349	108.81
359.576	109.81
359.802	92.81
360.029	98.81
360.256	115.81
360.483	117.81
360.709	111.81
360.936	122.81
361.163	121.81
361.39	103.81
361.616	115.81
361.843	104.81
362.07	103.81
362.296	101.81
362.523	103.81
362.749	117.81
362.976	99.81
363.203	105.81
363.429	110.81
363.656	105.81
363.882	116.81
364.109	114.81
364.335	107.81
364.562	114.81
364.788	109.81
365.015	103.81
365.241	102.81
365.468	117.81
365.694	109.81
365.92	106.81
366.147	116.81
366.373	110.81
366.599	114.81
366.826	108.81
367.052	107.81
367.278	113.81
367.505	113.81
367.731	112.81
367.957	98.81
368.184	94.81
368.41	118.81
368.636	105.81
368.862	108.81
369.089	119.81
369.315	104.81
369.541	115.81
369.767	99.81
369.993	111.81
370.219	120.81
370.445	119.81
370.672	100.81
370.898	104.81
371.124	98.81
371.35	111.81
371.576	116.81
371.802	123.81
372.028	110.81
372.254	113.81
372.48	113.81
372.706	112.81
372.932	104.81
373.158	110.81
373.384	113.81
373.61	127.81
373.835	118.81
374.061	115.81
374.287	98.81
374.513	111.81
374.739	109.81
374.965	123.81
375.191	99.81
375.416	116.81
375.642	115.81
375.868	127.81
376.094	115.81
376.319	121.81
376.545	121.81
376.771	131.81
376.997	115.81
377.222	114.81
377.448	101.81
377.674	96.81
377.899	108.81
378.125	105.81
378.35	119.81
378.576	108.81
378.802	110.81
379.027	116.81
379.253	113.81
379.478	113.81
379.704	125.81
379.929	113.81
380.155	107.81
380.38	118.81
380.606	107.81
380.831	128.81
381.057	125.81
381.282	118.81
381.507	102.81
381.733	106.81
381.958	116.81
382.184	115.81
382.409	118.81
382.634	103.81
382.86	108.81
383.085	115.81
383.31	117.81
383.535	114.81
383.761	115.81
383.986	119.81
384.211	121.81
384.436	109.81
384.662	124.81
384.887	103.81
385.112	129.81
385.337	119.81
385.562	109.81
385.787	110.81
386.013	121.81
386.238	122.81
386.463	111.81
386.688	113.81
386.913	124.81
387.138	120.81
387.363	110.81
387.588	123.81
387.813	117.81
388.038	96.81
388.263	110.81
388.488	110.81
388.713	128.81
388.938	100.81
389.163	122.81
389.387	97.81
389.612	102.81
389.837	118.81
390.062	114.81
390.287	117.81
390.512	117.81
390.736	113.81
390.961	125.81
391.186	122.81
391.411	110.81
391.636	115.81
391.86	115.81
392.085	120.81
392.31	117.81
392.534	125.81
392.759	133.81
392.984	101.81
393.208	113.81
393.433	111.81
393.658	121.81
393.882	118.81
394.107	127.81
394.331	126.81
394.556	108.81
394.78	139.81
395.005	112.81
395.229	129.81
395.454	109.81
395.678	111.81
395.903	101.81
396.127	124.81
396.352	121.81
396.576	117.81
396.801	130.81
397.025	121.81
397.249	118.81
397.474	116.81
397.698	122.81
397.922	119.81
398.147	133.81
398.371	121.81
398.595	115.81
398.82	132.81
399.044	132.81
399.268	135.81
399.492	146.81
399.717	148.81
399.941	142.81
400.165	136.81
400.389	137.81
400.613	128.81
400.837	138.81
401.062	125.81
401.286	115.81
401.51	133.81
401.734	126.81
401.958	122.81
402.182	119.81
402.406	117.81
402.63	116.81
402.854	135.81
403.078	126.81
403.302	138.81
403.526	124.81
403.75	138.81
403.974	119.81
404.198	141.81
404.422	136.81
404.645	115.81
404.869	137.81
405.093	131.81
405.317	151.81
405.541	141.81
405.765	133.81
405.988	125.81
406.212	141.81
406.436	137.81
406.66	123.81
406.883	137.81
407.107	138.81
407.331	137.81
407.555	142.81
407.778	159.81
408.002	131.81
408.226	134.81
408.449	123.81
408.673	127.81
408.896	126.81
409.12	134.81
409.344	136.81
409.567	132.81
409.791	144.81
410.014	129.81
410.238	138.81
410.461	137.81
410.685	124.81
410.908	121.81
411.132	128.81
411.355	139.81
411.578	118.81
411.802	126.81
412.025	137.81
412.249	128.81
412.472	129.81
412.695	123.81
412.919	128.81
413.142	143.81
413.365	139.81
413.589	127.81
413.812	125.81
414.035	135.81
414.258	125.81
414.482	127.81
414.705	124.81
414.928	125.81
415.151	107.81
415.374	119.81
415.597	133.81
415.821	131.81
416.044	125.81
416.267	108.81
416.49	134.81
416.713	145.81
416.936	125.81
417.159	125.81
417.382	134.81
417.605	141.81
417.828	125.81
418.051	113.81
418.274	131.81
418.497	127.81
418.72	134.81
418.943	137.81
419.166	152.81
419.389	142.81
419.611	139.81
419.834	143.81
420.057	111.81
420.28	127.81
420.503	127.81
420.726	130.81
420.948	137.81
421.171	135.81
421.394	127.81
421.617	142.81
421.839	127.81
422.062	129.81
422.285	121.81
422.507	116.81
422.73	124.81
422.953	132.81
423.175	134.81
423.398	131.81
423.621	138.81
423.843	129.81
424.066	125.81
424.288	148.81
424.511	120.81
424.733	129.81
424.956	145.81
425.178	138.81
425.401	137.81
425.623	124.81
425.846	133.81
426.068	128.81
426.291	133.81
426.513	127.81
426.735	132.81
426.958	123.81
427.18	138.81
427.402	139.81
427.625	153.81
427.847	140.81
428.069	143.81
428.292	137.81
428.514	142.81
428.736	131.81
428.958	125.81
429.181	124.81
429.403	127.81
429.625	137.81
429.847	115.81
430.069	121.81
430.292	136.81
430.514	121.81
430.736	109.81
430.958	123.81
431.18	116.81
431.402	141.81
431.624	109.81
431.846	137.81
432.068	130.81
432.29	130.81
432.512	114.81
432.734	117.81
432.956	128.81
433.178	121.81
433.4	124.81
433.622	124.81
433.844	130.81
434.066	127.81
434.287	122.81
434.509	129.81
434.731	140.81
434.953	144.81
435.175	125.81
435.397	129.81
435.618	132.81
435.84	130.81
436.062	137.81
436.284	151.81
436.505	127.81
436.727	124.81
436.949	125.81
437.17	125.81
437.392	121.81
437.614	134.81
437.835	117.81
438.057	119.81
438.278	134.81
438.5	124.81
438.721	153.81
438.943	158.81
439.165	141.81
439.386	125.81
439.608	124.81
439.829	133.81
440.05	117.81
440.272	141.81
440.493	129.81
440.715	125.81
440.936	126.81
441.158	127.81
441.379	120.81
441.6	134.81
441.822	129.81
442.043	129.81
442.264	135.81
442.486	146.81
442.707	125.81
442.928	123.81
443.149	127.81
443.371	150.81
443.592	136.81
443.813	150.81
444.034	157.81
444.255	138.81
444.476	140.81
444.698	145.81
444.919	136.81
445.14	255.81
445.361	196.81
445.582	127.81
445.803	133.81
446.024	135.81
446.245	165.81
446.466	134.81
446.687	135.81
446.908	130.81
447.129	132.81
447.35	125.81
447.571	108.81
447.792	130.81
448.013	121.81
448.234	121.81
448.455	125.81
448.675	148.81
448.896	137.81
449.117	135.81
449.338	128.81
449.559	146.81
449.779	145.81
450	141.81
450.221	128.81
450.442	131.81
450.662	124.81
450.883	131.81
451.104	127.81
451.324	121.81
451.545	124.81
451.766	125.81
451.986	105.81
452.207	113.81
452.428	131.81
452.648	114.81
452.869	132.81
453.089	110.81
453.31	133.81
453.53	121.81
453.751	123.81
453.971	129.81
454.192	116.81
454.412	117.81
454.633	117.81
454.853	112.81
455.073	117.81
455.294	119.81
455.514	122.81
455.734	116.81
455.955	114.81
456.175	125.81
456.395	119.81
456.616	119.81
456.836	114.81
457.056	124.81
457.276	111.81
457.497	108.81
457.717	117.81
457.937	125.81
458.157	106.81
458.377	121.81
458.598	116.81
458.818	119.81
459.038	108.81
459.258	129.81
459.478	129.81
459.698	131.81
459.918	131.81
460.138	147.81
460.358	133.81
460.578	133.81
460.798	135.81
461.018	129.81
461.238	137.81
461.458	133.81
461.678	134.81
461.898	137.81
462.118	123.81
462.338	129.81
462.558	147.81
462.777	135.81
462.997	155.81
463.217	131.81
463.437	149.81
463.657	133.81
463.876	122.81
464.096	130.81
464.316	131.81
464.536	126.81
464.755	127.81
464.975	127.81
465.195	123.81
465.414	140.81
465.634	125.81
465.854	130.81
466.073	129.81
466.293	121.81
466.512	138.81
466.732	119.81
466.951	133.81
467.171	127.81
467.391	123.81
467.61	116.81
467.829	119.81
468.049	113.81
468.268	103.81
468.488	108.81
468.707	117.81
468.927	125.81
469.146	124.81
469.365	121.81
469.585	131.81
469.804	115.81
470.023	130.81
470.243	120.81
470.462	113.81
470.681	125.81
470.901	119.81
471.12	129.81
471.339	126.81
471.558	127.81
471.777	131.81
471.997	139.81
472.216	122.81
472.435	124.81
472.654	126.81
472.873	122.81
473.092	117.81
473.311	117.81
473.53	129.81
473.749	131.81
473.968	126.81
474.187	128.81
474.406	131.81
474.625	138.81
474.844	121.81
475.063	106.81
475.282	121.81
475.501	125.81
475.72	127.81
475.939	115.81
476.158	120.81
476.377	109.81
476.596	121.81
476.814	113.81
477.033	115.81
477.252	127.81
477.471	122.81
477.69	136.81
477.908	129.81
478.127	122.81
478.346	120.81
478.564	144.81
478.783	104.81
479.002	119.81
479.22	136.81
479.439	138.81
479.658	131.81
479.876	139.81
480.095	138.81
480.313	131.81
480.532	132.81
480.751	131.81
480.969	131.81
481.188	152.81
481.406	137.81
481.624	123.81
481.843	141.81
482.061	114.81
482.28	129.81
482.498	126.81
482.717	139.81
482.935	131.81
483.153	139.81
483.372	135.81
483.59	128.81
483.808	123.81
484.027	143.81
484.245	131.81
484.463	116.81
484.681	135.81
484.9	118.81
485.118	129.81
485.336	129.81
485.554	129.81
485.772	118.81
485.99	132.81
486.209	121.81
486.427	121.81
486.645	128.81
486.863	133.81
487.081	123.81
487.299	161.81
487.517	157.81
487.735	133.81
487.953	125.81
488.171	135.81
488.389	136.81
488.607	131.81
488.825	133.81
489.043	129.81
489.261	136.81
489.479	126.81
489.696	139.81
489.914	142.81
490.132	132.81
490.35	140.81
490.568	135.81
490.786	154.81
491.003	144.81
491.221	137.81
491.439	148.81
491.657	129.81
491.874	139.81
492.092	129.81
492.31	131.81
492.527	149.81
492.745	142.81
492.963	118.81
493.18	136.81
493.398	143.81
493.615	157.81
493.833	159.81
494.05	141.81
494.268	138.81
494.485	153.81
494.703	157.81
494.92	150.81
495.138	158.81
495.355	151.81
495.573	154.81
495.79	135.81
496.008	142.81
496.225	149.81
496.442	151.81
496.66	160.81
496.877	175.81
497.094	151.81
497.312	158.81
497.529	151.81
497.746	151.81
497.963	147.81
498.181	143.81
498.398	167.81
498.615	146.81
498.832	147.81
499.049	170.81
499.267	174.81
499.484	181.81
499.701	186.81
499.918	191.81
500.135	202.81
500.352	204.81
500.569	215.81
500.786	222.81
501.003	198.81
501.22	182.81
501.437	180.81
501.654	188.81
501.871	177.81
502.088	164.81
502.305	157.81
502.522	164.81
502.739	153.81
502.956	147.81
503.172	142.81
503.389	149.81
503.606	145.81
503.823	155.81
504.04	145.81
504.256	146.81
504.473	147.81
504.69	152.81
504.907	165.81
505.123	131.81
505.34	139.81
505.557	147.81
505.773	138.81
