Data from 1968.PennyLincolnUp.Lamp.En5.5.200Scan.071719.P1._HRD10591_14-51-33-969.txt Node
Date: Thu Jul 18 14:51:33 EDT 2019
User: cochatt
Spectrometer: HR+D1059
Trigger mode: 1
Integration Time (sec): 1.000000E-1
Scans to average: 1
Electric dark correction enabled: true
Nonlinearity correction enabled: false
Boxcar width: 0
XAxis mode: Wavelengths
Number of Pixels in Spectrum: 2048
>>>>>Begin Spectral Data<<<<<
223.165	-10.81
223.4	-10.81
223.635	-10.81
223.869	-1.81
224.104	-24.81
224.338	-23.81
224.573	-20.81
224.808	-3.81
225.042	-8.81
225.277	1.19
225.511	3.19
225.746	3.19
225.98	-9.81
226.215	7.19
226.449	19.19
226.683	18.19
226.918	24.19
227.152	28.19
227.387	40.19
227.621	34.19
227.856	50.19
228.09	24.19
228.324	53.19
228.559	54.19
228.793	70.19
229.027	70.19
229.262	66.19
229.496	80.19
229.73	68.19
229.964	71.19
230.199	74.19
230.433	85.19
230.667	76.19
230.901	80.19
231.136	79.19
231.37	88.19
231.604	78.19
231.838	86.19
232.072	94.19
232.306	88.19
232.541	81.19
232.775	81.19
233.009	90.19
233.243	81.19
233.477	84.19
233.711	99.19
233.945	71.19
234.179	81.19
234.413	87.19
234.647	86.19
234.881	86.19
235.115	89.19
235.349	70.19
235.583	93.19
235.817	102.19
236.051	85.19
236.285	77.19
236.519	86.19
236.753	100.19
236.987	86.19
237.221	83.19
237.455	82.19
237.689	73.19
237.922	87.19
238.156	74.19
238.39	90.19
238.624	72.19
238.858	90.19
239.091	102.19
239.325	86.19
239.559	86.19
239.793	84.19
240.027	85.19
240.26	84.19
240.494	72.19
240.728	73.19
240.961	82.19
241.195	85.19
241.429	84.19
241.662	94.19
241.896	78.19
242.13	79.19
242.363	77.19
242.597	75.19
242.83	74.19
243.064	83.19
243.298	73.19
243.531	78.19
243.765	81.19
243.998	92.19
244.232	84.19
244.465	95.19
244.699	93.19
244.932	74.19
245.166	82.19
245.399	98.19
245.633	91.19
245.866	81.19
246.099	84.19
246.333	86.19
246.566	78.19
246.8	94.19
247.033	91.19
247.266	87.19
247.5	79.19
247.733	84.19
247.966	91.19
248.2	62.19
248.433	77.19
248.666	79.19
248.899	101.19
249.133	81.19
249.366	100.19
249.599	90.19
249.832	69.19
250.066	82.19
250.299	88.19
250.532	95.19
250.765	95.19
250.998	95.19
251.231	88.19
251.465	89.19
251.698	88.19
251.931	91.19
252.164	92.19
252.397	89.19
252.63	96.19
252.863	73.19
253.096	86.19
253.329	100.19
253.562	94.19
253.795	90.19
254.028	91.19
254.261	104.19
254.494	92.19
254.727	76.19
254.96	94.19
255.193	99.19
255.426	93.19
255.659	90.19
255.892	92.19
256.124	95.19
256.357	89.19
256.59	90.19
256.823	89.19
257.056	90.19
257.289	96.19
257.521	80.19
257.754	93.19
257.987	109.19
258.22	104.19
258.452	102.19
258.685	82.19
258.918	95.19
259.151	96.19
259.383	81.19
259.616	90.19
259.849	90.19
260.081	86.19
260.314	96.19
260.547	98.19
260.779	83.19
261.012	96.19
261.244	95.19
261.477	103.19
261.71	97.19
261.942	83.19
262.175	93.19
262.407	94.19
262.64	95.19
262.872	108.19
263.105	87.19
263.337	93.19
263.57	99.19
263.802	100.19
264.035	79.19
264.267	108.19
264.499	95.19
264.732	96.19
264.964	95.19
265.197	87.19
265.429	97.19
265.661	89.19
265.894	82.19
266.126	94.19
266.358	86.19
266.591	106.19
266.823	91.19
267.055	89.19
267.287	112.19
267.52	89.19
267.752	93.19
267.984	71.19
268.216	104.19
268.448	105.19
268.681	91.19
268.913	113.19
269.145	103.19
269.377	102.19
269.609	101.19
269.841	88.19
270.073	92.19
270.306	107.19
270.538	110.19
270.77	93.19
271.002	118.19
271.234	109.19
271.466	96.19
271.698	103.19
271.93	105.19
272.162	107.19
272.394	101.19
272.626	111.19
272.858	93.19
273.09	96.19
273.322	106.19
273.553	101.19
273.785	80.19
274.017	94.19
274.249	100.19
274.481	98.19
274.713	95.19
274.945	104.19
275.176	95.19
275.408	92.19
275.64	102.19
275.872	98.19
276.104	102.19
276.335	110.19
276.567	102.19
276.799	96.19
277.031	107.19
277.262	99.19
277.494	94.19
277.726	100.19
277.957	87.19
278.189	105.19
278.421	93.19
278.652	98.19
278.884	82.19
279.115	99.19
279.347	98.19
279.579	92.19
279.81	88.19
280.042	111.19
280.273	113.19
280.505	94.19
280.736	94.19
280.968	93.19
281.199	99.19
281.431	97.19
281.662	110.19
281.894	106.19
282.125	98.19
282.356	104.19
282.588	103.19
282.819	110.19
283.051	102.19
283.282	96.19
283.513	89.19
283.745	99.19
283.976	94.19
284.207	96.19
284.439	108.19
284.67	108.19
284.901	105.19
285.132	93.19
285.364	93.19
285.595	85.19
285.826	103.19
286.057	121.19
286.288	100.19
286.52	116.19
286.751	103.19
286.982	108.19
287.213	104.19
287.444	94.19
287.675	122.19
287.906	118.19
288.138	102.19
288.369	120.19
288.6	110.19
288.831	101.19
289.062	106.19
289.293	104.19
289.524	100.19
289.755	99.19
289.986	94.19
290.217	94.19
290.448	114.19
290.679	107.19
290.91	102.19
291.141	107.19
291.371	89.19
291.602	96.19
291.833	116.19
292.064	90.19
292.295	103.19
292.526	96.19
292.757	102.19
292.987	105.19
293.218	118.19
293.449	104.19
293.68	108.19
293.91	110.19
294.141	101.19
294.372	91.19
294.603	101.19
294.833	114.19
295.064	100.19
295.295	107.19
295.525	94.19
295.756	102.19
295.987	104.19
296.217	121.19
296.448	94.19
296.679	108.19
296.909	114.19
297.14	101.19
297.37	122.19
297.601	107.19
297.831	94.19
298.062	103.19
298.292	107.19
298.523	109.19
298.753	104.19
298.984	108.19
299.214	102.19
299.445	98.19
299.675	106.19
299.905	106.19
300.136	107.19
300.366	107.19
300.597	92.19
300.827	95.19
301.057	93.19
301.288	107.19
301.518	112.19
301.748	104.19
301.979	93.19
302.209	98.19
302.439	119.19
302.669	98.19
302.9	110.19
303.13	105.19
303.36	109.19
303.59	111.19
303.82	108.19
304.051	98.19
304.281	113.19
304.511	94.19
304.741	102.19
304.971	110.19
305.201	109.19
305.431	107.19
305.661	101.19
305.891	108.19
306.121	95.19
306.352	100.19
306.582	103.19
306.812	119.19
307.042	102.19
307.272	108.19
307.502	105.19
307.731	110.19
307.961	107.19
308.191	111.19
308.421	111.19
308.651	105.19
308.881	108.19
309.111	99.19
309.341	114.19
309.571	120.19
309.8	106.19
310.03	121.19
310.26	101.19
310.49	109.19
310.72	119.19
310.949	99.19
311.179	103.19
311.409	117.19
311.639	109.19
311.868	108.19
312.098	101.19
312.328	102.19
312.557	105.19
312.787	107.19
313.017	122.19
313.246	95.19
313.476	122.19
313.706	122.19
313.935	97.19
314.165	120.19
314.394	119.19
314.624	117.19
314.853	110.19
315.083	104.19
315.312	136.19
315.542	116.19
315.771	109.19
316.001	121.19
316.23	106.19
316.46	103.19
316.689	107.19
316.919	108.19
317.148	102.19
317.377	120.19
317.607	116.19
317.836	108.19
318.065	108.19
318.295	106.19
318.524	105.19
318.753	103.19
318.983	109.19
319.212	110.19
319.441	123.19
319.67	114.19
319.9	117.19
320.129	113.19
320.358	119.19
320.587	116.19
320.816	110.19
321.046	105.19
321.275	107.19
321.504	114.19
321.733	101.19
321.962	114.19
322.191	120.19
322.42	111.19
322.649	106.19
322.878	97.19
323.108	117.19
323.337	121.19
323.566	107.19
323.795	121.19
324.024	121.19
324.253	126.19
324.482	130.19
324.71	168.19
324.939	192.19
325.168	160.19
325.397	116.19
325.626	115.19
325.855	120.19
326.084	111.19
326.313	107.19
326.542	119.19
326.77	115.19
326.999	143.19
327.228	136.19
327.457	158.19
327.686	148.19
327.914	128.19
328.143	117.19
328.372	112.19
328.6	119.19
328.829	125.19
329.058	124.19
329.287	115.19
329.515	111.19
329.744	119.19
329.972	126.19
330.201	108.19
330.43	111.19
330.658	122.19
330.887	114.19
331.115	115.19
331.344	114.19
331.572	125.19
331.801	116.19
332.03	126.19
332.258	127.19
332.486	120.19
332.715	116.19
332.943	105.19
333.172	116.19
333.4	108.19
333.629	121.19
333.857	122.19
334.085	111.19
334.314	127.19
334.542	122.19
334.771	138.19
334.999	116.19
335.227	117.19
335.455	109.19
335.684	134.19
335.912	105.19
336.14	114.19
336.369	118.19
336.597	127.19
336.825	120.19
337.053	110.19
337.281	125.19
337.51	132.19
337.738	128.19
337.966	118.19
338.194	121.19
338.422	124.19
338.65	120.19
338.878	118.19
339.106	105.19
339.334	112.19
339.562	134.19
339.79	118.19
340.018	106.19
340.246	116.19
340.474	108.19
340.702	118.19
340.93	111.19
341.158	124.19
341.386	110.19
341.614	106.19
341.842	111.19
342.07	116.19
342.298	114.19
342.526	100.19
342.754	105.19
342.981	107.19
343.209	108.19
343.437	114.19
343.665	125.19
343.893	115.19
344.12	119.19
344.348	110.19
344.576	109.19
344.804	118.19
345.031	105.19
345.259	111.19
345.487	109.19
345.714	121.19
345.942	123.19
346.17	109.19
346.397	116.19
346.625	114.19
346.853	116.19
347.08	99.19
347.308	102.19
347.535	116.19
347.763	106.19
347.99	130.19
348.218	120.19
348.445	112.19
348.673	110.19
348.9	95.19
349.128	124.19
349.355	107.19
349.583	120.19
349.81	100.19
350.037	106.19
350.265	118.19
350.492	129.19
350.72	98.19
350.947	106.19
351.174	115.19
351.402	99.19
351.629	86.19
351.856	107.19
352.083	106.19
352.311	114.19
352.538	109.19
352.765	118.19
352.992	107.19
353.22	114.19
353.447	122.19
353.674	122.19
353.901	112.19
354.128	123.19
354.355	105.19
354.583	111.19
354.81	118.19
355.037	105.19
355.264	110.19
355.491	118.19
355.718	101.19
355.945	102.19
356.172	107.19
356.399	114.19
356.626	106.19
356.853	103.19
357.08	115.19
357.307	120.19
357.534	108.19
357.761	102.19
357.988	101.19
358.215	127.19
358.441	110.19
358.668	120.19
358.895	119.19
359.122	110.19
359.349	92.19
359.576	102.19
359.802	126.19
360.029	109.19
360.256	123.19
360.483	119.19
360.709	112.19
360.936	123.19
361.163	108.19
361.39	104.19
361.616	95.19
361.843	114.19
362.07	112.19
362.296	120.19
362.523	122.19
362.749	104.19
362.976	114.19
363.203	108.19
363.429	104.19
363.656	116.19
363.882	98.19
364.109	106.19
364.335	100.19
364.562	111.19
364.788	117.19
365.015	115.19
365.241	116.19
365.468	116.19
365.694	99.19
365.92	107.19
366.147	115.19
366.373	111.19
366.599	118.19
366.826	111.19
367.052	114.19
367.278	107.19
367.505	99.19
367.731	106.19
367.957	110.19
368.184	112.19
368.41	108.19
368.636	105.19
368.862	124.19
369.089	116.19
369.315	112.19
369.541	104.19
369.767	99.19
369.993	102.19
370.219	103.19
370.445	111.19
370.672	112.19
370.898	103.19
371.124	105.19
371.35	116.19
371.576	122.19
371.802	122.19
372.028	114.19
372.254	119.19
372.48	112.19
372.706	117.19
372.932	104.19
373.158	109.19
373.384	120.19
373.61	128.19
373.835	103.19
374.061	110.19
374.287	124.19
374.513	121.19
374.739	105.19
374.965	127.19
375.191	126.19
375.416	105.19
375.642	120.19
375.868	127.19
376.094	118.19
376.319	103.19
376.545	97.19
376.771	114.19
376.997	117.19
377.222	114.19
377.448	100.19
377.674	93.19
377.899	131.19
378.125	120.19
378.35	117.19
378.576	118.19
378.802	133.19
379.027	105.19
379.253	114.19
379.478	100.19
379.704	110.19
379.929	114.19
380.155	98.19
380.38	110.19
380.606	103.19
380.831	116.19
381.057	122.19
381.282	119.19
381.507	106.19
381.733	106.19
381.958	115.19
382.184	104.19
382.409	109.19
382.634	119.19
382.86	110.19
383.085	115.19
383.31	114.19
383.535	122.19
383.761	111.19
383.986	124.19
384.211	104.19
384.436	120.19
384.662	116.19
384.887	114.19
385.112	110.19
385.337	116.19
385.562	115.19
385.787	111.19
386.013	134.19
386.238	118.19
386.463	120.19
386.688	116.19
386.913	111.19
387.138	123.19
387.363	130.19
387.588	114.19
387.813	119.19
388.038	127.19
388.263	130.19
388.488	129.19
388.713	117.19
388.938	120.19
389.163	125.19
389.387	125.19
389.612	118.19
389.837	124.19
390.062	114.19
390.287	119.19
390.512	127.19
390.736	125.19
390.961	134.19
391.186	144.19
391.411	124.19
391.636	128.19
391.86	117.19
392.085	130.19
392.31	124.19
392.534	131.19
392.759	123.19
392.984	105.19
393.208	118.19
393.433	130.19
393.658	106.19
393.882	130.19
394.107	124.19
394.331	117.19
394.556	120.19
394.78	124.19
395.005	114.19
395.229	103.19
395.454	105.19
395.678	131.19
395.903	123.19
396.127	118.19
396.352	119.19
396.576	117.19
396.801	126.19
397.025	122.19
397.249	106.19
397.474	105.19
397.698	121.19
397.922	123.19
398.147	130.19
398.371	114.19
398.595	130.19
398.82	127.19
399.044	130.19
399.268	137.19
399.492	140.19
399.717	149.19
399.941	158.19
400.165	147.19
400.389	133.19
400.613	132.19
400.837	136.19
401.062	148.19
401.286	125.19
401.51	138.19
401.734	131.19
401.958	129.19
402.182	124.19
402.406	118.19
402.63	128.19
402.854	126.19
403.078	139.19
403.302	140.19
403.526	126.19
403.75	129.19
403.974	153.19
404.198	132.19
404.422	155.19
404.645	130.19
404.869	128.19
405.093	142.19
405.317	127.19
405.541	112.19
405.765	125.19
405.988	140.19
406.212	126.19
406.436	126.19
406.66	145.19
406.883	132.19
407.107	133.19
407.331	162.19
407.555	141.19
407.778	136.19
408.002	143.19
408.226	134.19
408.449	137.19
408.673	138.19
408.896	140.19
409.12	122.19
409.344	142.19
409.567	140.19
409.791	137.19
410.014	111.19
410.238	129.19
410.461	120.19
410.685	122.19
410.908	138.19
411.132	123.19
411.355	151.19
411.578	125.19
411.802	129.19
412.025	112.19
412.249	124.19
412.472	128.19
412.695	134.19
412.919	138.19
413.142	137.19
413.365	128.19
413.589	142.19
413.812	118.19
414.035	134.19
414.258	139.19
414.482	125.19
414.705	137.19
414.928	128.19
415.151	123.19
415.374	126.19
415.597	123.19
415.821	137.19
416.044	138.19
416.267	117.19
416.49	135.19
416.713	119.19
416.936	139.19
417.159	125.19
417.382	130.19
417.605	118.19
417.828	125.19
418.051	115.19
418.274	126.19
418.497	140.19
418.72	126.19
418.943	126.19
419.166	137.19
419.389	134.19
419.611	130.19
419.834	127.19
420.057	128.19
420.28	132.19
420.503	141.19
420.726	127.19
420.948	136.19
421.171	145.19
421.394	138.19
421.617	128.19
421.839	130.19
422.062	135.19
422.285	136.19
422.507	131.19
422.73	140.19
422.953	149.19
423.175	139.19
423.398	128.19
423.621	125.19
423.843	133.19
424.066	133.19
424.288	130.19
424.511	141.19
424.733	135.19
424.956	133.19
425.178	147.19
425.401	134.19
425.623	144.19
425.846	136.19
426.068	129.19
426.291	132.19
426.513	129.19
426.735	127.19
426.958	120.19
427.18	133.19
427.402	145.19
427.625	131.19
427.847	125.19
428.069	124.19
428.292	138.19
428.514	121.19
428.736	121.19
428.958	134.19
429.181	132.19
429.403	135.19
429.625	136.19
429.847	127.19
430.069	126.19
430.292	134.19
430.514	124.19
430.736	121.19
430.958	132.19
431.18	118.19
431.402	116.19
431.624	120.19
431.846	127.19
432.068	122.19
432.29	134.19
432.512	138.19
432.734	117.19
432.956	124.19
433.178	118.19
433.4	125.19
433.622	135.19
433.844	123.19
434.066	118.19
434.287	132.19
434.509	122.19
434.731	138.19
434.953	126.19
435.175	132.19
435.397	125.19
435.618	117.19
435.84	127.19
436.062	144.19
436.284	130.19
436.505	134.19
436.727	129.19
436.949	124.19
437.17	134.19
437.392	138.19
437.614	121.19
437.835	120.19
438.057	112.19
438.278	123.19
438.5	142.19
438.721	152.19
438.943	148.19
439.165	139.19
439.386	132.19
439.608	128.19
439.829	126.19
440.05	140.19
440.272	141.19
440.493	129.19
440.715	130.19
440.936	118.19
441.158	119.19
441.379	148.19
441.6	128.19
441.822	127.19
442.043	127.19
442.264	128.19
442.486	147.19
442.707	138.19
442.928	139.19
443.149	136.19
443.371	141.19
443.592	129.19
443.813	143.19
444.034	144.19
444.255	140.19
444.476	130.19
444.698	136.19
444.919	138.19
445.14	246.19
445.361	180.19
445.582	146.19
445.803	153.19
446.024	140.19
446.245	139.19
446.466	140.19
446.687	121.19
446.908	122.19
447.129	123.19
447.35	126.19
447.571	126.19
447.792	133.19
448.013	133.19
448.234	133.19
448.455	135.19
448.675	149.19
448.896	138.19
449.117	137.19
449.338	133.19
449.559	134.19
449.779	134.19
450	131.19
450.221	121.19
450.442	121.19
450.662	115.19
450.883	116.19
451.104	125.19
451.324	129.19
451.545	124.19
451.766	130.19
451.986	103.19
452.207	110.19
452.428	108.19
452.648	115.19
452.869	126.19
453.089	120.19
453.31	110.19
453.53	126.19
453.751	114.19
453.971	116.19
454.192	120.19
454.412	116.19
454.633	120.19
454.853	99.19
455.073	117.19
455.294	114.19
455.514	126.19
455.734	115.19
455.955	121.19
456.175	118.19
456.395	128.19
456.616	120.19
456.836	116.19
457.056	111.19
457.276	124.19
457.497	110.19
457.717	124.19
457.937	125.19
458.157	111.19
458.377	122.19
458.598	132.19
458.818	119.19
459.038	127.19
459.258	122.19
459.478	111.19
459.698	119.19
459.918	125.19
460.138	128.19
460.358	145.19
460.578	124.19
460.798	118.19
461.018	128.19
461.238	115.19
461.458	124.19
461.678	128.19
461.898	132.19
462.118	122.19
462.338	134.19
462.558	132.19
462.777	142.19
462.997	146.19
463.217	123.19
463.437	142.19
463.657	143.19
463.876	132.19
464.096	134.19
464.316	132.19
464.536	136.19
464.755	138.19
464.975	121.19
465.195	128.19
465.414	130.19
465.634	116.19
465.854	118.19
466.073	114.19
466.293	109.19
466.512	118.19
466.732	121.19
466.951	125.19
467.171	129.19
467.391	132.19
467.61	129.19
467.829	118.19
468.049	119.19
468.268	97.19
468.488	111.19
468.707	123.19
468.927	125.19
469.146	125.19
469.365	124.19
469.585	121.19
469.804	119.19
470.023	120.19
470.243	128.19
470.462	138.19
470.681	140.19
470.901	114.19
471.12	107.19
471.339	120.19
471.558	125.19
471.777	126.19
471.997	129.19
472.216	115.19
472.435	124.19
472.654	116.19
472.873	110.19
473.092	118.19
473.311	120.19
473.53	125.19
473.749	120.19
473.968	120.19
474.187	129.19
474.406	110.19
474.625	134.19
474.844	122.19
475.063	112.19
475.282	125.19
475.501	128.19
475.72	130.19
475.939	107.19
476.158	122.19
476.377	119.19
476.596	124.19
476.814	123.19
477.033	119.19
477.252	127.19
477.471	120.19
477.69	150.19
477.908	121.19
478.127	138.19
478.346	128.19
478.564	140.19
478.783	138.19
479.002	115.19
479.22	124.19
479.439	136.19
479.658	130.19
479.876	141.19
480.095	127.19
480.313	136.19
480.532	140.19
480.751	142.19
480.969	134.19
481.188	125.19
481.406	129.19
481.624	138.19
481.843	129.19
482.061	128.19
482.28	129.19
482.498	135.19
482.717	120.19
482.935	135.19
483.153	120.19
483.372	128.19
483.59	134.19
483.808	145.19
484.027	138.19
484.245	132.19
484.463	130.19
484.681	144.19
484.9	130.19
485.118	126.19
485.336	117.19
485.554	140.19
485.772	126.19
485.99	130.19
486.209	131.19
486.427	124.19
486.645	124.19
486.863	150.19
487.081	125.19
487.299	122.19
487.517	130.19
487.735	150.19
487.953	147.19
488.171	140.19
488.389	134.19
488.607	151.19
488.825	132.19
489.043	134.19
489.261	140.19
489.479	116.19
489.696	141.19
489.914	118.19
490.132	126.19
490.35	139.19
490.568	138.19
490.786	145.19
491.003	141.19
491.221	128.19
491.439	139.19
491.657	135.19
491.874	147.19
492.092	153.19
492.31	158.19
492.527	152.19
492.745	139.19
492.963	139.19
493.18	141.19
493.398	148.19
493.615	148.19
493.833	156.19
494.05	150.19
494.268	143.19
494.485	133.19
494.703	137.19
494.92	147.19
495.138	164.19
495.355	155.19
495.573	157.19
495.79	155.19
496.008	145.19
496.225	161.19
496.442	154.19
496.66	159.19
496.877	155.19
497.094	149.19
497.312	140.19
497.529	145.19
497.746	143.19
497.963	156.19
498.181	150.19
498.398	138.19
498.615	150.19
498.832	162.19
499.049	158.19
499.267	161.19
499.484	174.19
499.701	180.19
499.918	183.19
500.135	209.19
500.352	209.19
500.569	216.19
500.786	211.19
501.003	200.19
501.22	206.19
501.437	194.19
501.654	192.19
501.871	159.19
502.088	145.19
502.305	168.19
502.522	162.19
502.739	161.19
502.956	163.19
503.172	145.19
503.389	147.19
503.606	172.19
503.823	149.19
504.04	137.19
504.256	159.19
504.473	141.19
504.69	172.19
504.907	163.19
505.123	148.19
505.34	142.19
