Data from 1968.PennyLincolnUp.Lamp.En5.5.200Scan.071719.P1._HRD10591_14-49-50-970.txt Node
Date: Thu Jul 18 14:49:50 EDT 2019
User: cochatt
Spectrometer: HR+D1059
Trigger mode: 1
Integration Time (sec): 1.000000E-1
Scans to average: 1
Electric dark correction enabled: true
Nonlinearity correction enabled: false
Boxcar width: 0
XAxis mode: Wavelengths
Number of Pixels in Spectrum: 2048
>>>>>Begin Spectral Data<<<<<
223.165	-23.25
223.4	-23.25
223.635	-23.25
223.869	-28.25
224.104	-25.25
224.338	-30.25
224.573	-20.25
224.808	-7.25
225.042	-0.25
225.277	-8.25
225.511	1.75
225.746	1.75
225.98	12.75
226.215	18.75
226.449	19.75
226.683	28.75
226.918	30.75
227.152	28.75
227.387	33.75
227.621	40.75
227.856	50.75
228.09	41.75
228.324	43.75
228.559	38.75
228.793	45.75
229.027	46.75
229.262	54.75
229.496	66.75
229.73	72.75
229.964	73.75
230.199	93.75
230.433	72.75
230.667	85.75
230.901	75.75
231.136	97.75
231.37	79.75
231.604	80.75
231.838	76.75
232.072	82.75
232.306	93.75
232.541	76.75
232.775	93.75
233.009	81.75
233.243	87.75
233.477	79.75
233.711	84.75
233.945	93.75
234.179	72.75
234.413	73.75
234.647	83.75
234.881	72.75
235.115	85.75
235.349	91.75
235.583	84.75
235.817	73.75
236.051	91.75
236.285	69.75
236.519	80.75
236.753	68.75
236.987	89.75
237.221	83.75
237.455	82.75
237.689	73.75
237.922	80.75
238.156	72.75
238.39	73.75
238.624	82.75
238.858	91.75
239.091	72.75
239.325	93.75
239.559	70.75
239.793	81.75
240.027	80.75
240.26	73.75
240.494	78.75
240.728	83.75
240.961	80.75
241.195	66.75
241.429	58.75
241.662	81.75
241.896	72.75
242.13	74.75
242.363	81.75
242.597	86.75
242.83	88.75
243.064	90.75
243.298	75.75
243.531	77.75
243.765	78.75
243.998	73.75
244.232	85.75
244.465	104.75
244.699	78.75
244.932	85.75
245.166	78.75
245.399	81.75
245.633	90.75
245.866	97.75
246.099	84.75
246.333	92.75
246.566	92.75
246.8	88.75
247.033	81.75
247.266	89.75
247.5	77.75
247.733	87.75
247.966	82.75
248.2	65.75
248.433	88.75
248.666	77.75
248.899	86.75
249.133	84.75
249.366	84.75
249.599	89.75
249.832	101.75
250.066	91.75
250.299	80.75
250.532	76.75
250.765	92.75
250.998	81.75
251.231	85.75
251.465	71.75
251.698	98.75
251.931	83.75
252.164	91.75
252.397	86.75
252.63	82.75
252.863	86.75
253.096	82.75
253.329	79.75
253.562	71.75
253.795	81.75
254.028	89.75
254.261	94.75
254.494	88.75
254.727	106.75
254.96	100.75
255.193	102.75
255.426	94.75
255.659	74.75
255.892	85.75
256.124	73.75
256.357	104.75
256.59	97.75
256.823	94.75
257.056	84.75
257.289	94.75
257.521	94.75
257.754	94.75
257.987	82.75
258.22	90.75
258.452	89.75
258.685	80.75
258.918	88.75
259.151	89.75
259.383	91.75
259.616	95.75
259.849	90.75
260.081	102.75
260.314	88.75
260.547	87.75
260.779	94.75
261.012	92.75
261.244	98.75
261.477	78.75
261.71	105.75
261.942	95.75
262.175	86.75
262.407	85.75
262.64	91.75
262.872	86.75
263.105	94.75
263.337	88.75
263.57	109.75
263.802	99.75
264.035	86.75
264.267	83.75
264.499	84.75
264.732	88.75
264.964	87.75
265.197	97.75
265.429	108.75
265.661	97.75
265.894	82.75
266.126	89.75
266.358	82.75
266.591	95.75
266.823	93.75
267.055	108.75
267.287	88.75
267.52	93.75
267.752	90.75
267.984	96.75
268.216	85.75
268.448	92.75
268.681	92.75
268.913	93.75
269.145	104.75
269.377	91.75
269.609	91.75
269.841	96.75
270.073	87.75
270.306	102.75
270.538	93.75
270.77	87.75
271.002	98.75
271.234	90.75
271.466	93.75
271.698	98.75
271.93	77.75
272.162	90.75
272.394	101.75
272.626	93.75
272.858	93.75
273.09	87.75
273.322	94.75
273.553	78.75
273.785	93.75
274.017	98.75
274.249	95.75
274.481	99.75
274.713	78.75
274.945	109.75
275.176	82.75
275.408	102.75
275.64	103.75
275.872	107.75
276.104	91.75
276.335	91.75
276.567	104.75
276.799	96.75
277.031	93.75
277.262	95.75
277.494	92.75
277.726	98.75
277.957	86.75
278.189	93.75
278.421	95.75
278.652	100.75
278.884	87.75
279.115	89.75
279.347	112.75
279.579	94.75
279.81	114.75
280.042	85.75
280.273	86.75
280.505	90.75
280.736	102.75
280.968	102.75
281.199	109.75
281.431	88.75
281.662	93.75
281.894	86.75
282.125	98.75
282.356	104.75
282.588	97.75
282.819	93.75
283.051	109.75
283.282	80.75
283.513	100.75
283.745	95.75
283.976	90.75
284.207	116.75
284.439	93.75
284.67	96.75
284.901	90.75
285.132	89.75
285.364	95.75
285.595	106.75
285.826	94.75
286.057	102.75
286.288	98.75
286.52	105.75
286.751	101.75
286.982	98.75
287.213	90.75
287.444	106.75
287.675	104.75
287.906	100.75
288.138	95.75
288.369	104.75
288.6	97.75
288.831	106.75
289.062	112.75
289.293	113.75
289.524	103.75
289.755	105.75
289.986	98.75
290.217	91.75
290.448	105.75
290.679	113.75
290.91	105.75
291.141	95.75
291.371	98.75
291.602	92.75
291.833	100.75
292.064	101.75
292.295	102.75
292.526	100.75
292.757	102.75
292.987	94.75
293.218	109.75
293.449	105.75
293.68	99.75
293.91	100.75
294.141	99.75
294.372	97.75
294.603	106.75
294.833	95.75
295.064	105.75
295.295	97.75
295.525	97.75
295.756	108.75
295.987	101.75
296.217	111.75
296.448	115.75
296.679	100.75
296.909	98.75
297.14	102.75
297.37	88.75
297.601	88.75
297.831	101.75
298.062	109.75
298.292	106.75
298.523	119.75
298.753	107.75
298.984	104.75
299.214	98.75
299.445	114.75
299.675	109.75
299.905	93.75
300.136	99.75
300.366	108.75
300.597	101.75
300.827	98.75
301.057	103.75
301.288	103.75
301.518	114.75
301.748	87.75
301.979	100.75
302.209	101.75
302.439	105.75
302.669	94.75
302.9	89.75
303.13	106.75
303.36	100.75
303.59	105.75
303.82	100.75
304.051	97.75
304.281	101.75
304.511	121.75
304.741	112.75
304.971	97.75
305.201	102.75
305.431	95.75
305.661	98.75
305.891	99.75
306.121	110.75
306.352	112.75
306.582	105.75
306.812	107.75
307.042	101.75
307.272	86.75
307.502	103.75
307.731	112.75
307.961	107.75
308.191	95.75
308.421	105.75
308.651	110.75
308.881	121.75
309.111	98.75
309.341	100.75
309.571	108.75
309.8	109.75
310.03	107.75
310.26	106.75
310.49	101.75
310.72	104.75
310.949	91.75
311.179	119.75
311.409	98.75
311.639	103.75
311.868	100.75
312.098	109.75
312.328	115.75
312.557	118.75
312.787	108.75
313.017	100.75
313.246	105.75
313.476	119.75
313.706	102.75
313.935	105.75
314.165	95.75
314.394	95.75
314.624	106.75
314.853	94.75
315.083	110.75
315.312	115.75
315.542	115.75
315.771	100.75
316.001	100.75
316.23	112.75
316.46	104.75
316.689	121.75
316.919	116.75
317.148	112.75
317.377	100.75
317.607	107.75
317.836	105.75
318.065	107.75
318.295	102.75
318.524	104.75
318.753	108.75
318.983	110.75
319.212	106.75
319.441	121.75
319.67	117.75
319.9	104.75
320.129	96.75
320.358	118.75
320.587	104.75
320.816	92.75
321.046	94.75
321.275	106.75
321.504	109.75
321.733	116.75
321.962	100.75
322.191	105.75
322.42	94.75
322.649	109.75
322.878	109.75
323.108	107.75
323.337	114.75
323.566	110.75
323.795	118.75
324.024	119.75
324.253	108.75
324.482	122.75
324.71	153.75
324.939	145.75
325.168	155.75
325.397	125.75
325.626	115.75
325.855	122.75
326.084	97.75
326.313	110.75
326.542	116.75
326.77	107.75
326.999	106.75
327.228	131.75
327.457	137.75
327.686	138.75
327.914	140.75
328.143	125.75
328.372	116.75
328.6	105.75
328.829	118.75
329.058	125.75
329.287	105.75
329.515	108.75
329.744	129.75
329.972	107.75
330.201	98.75
330.43	114.75
330.658	132.75
330.887	120.75
331.115	103.75
331.344	120.75
331.572	103.75
331.801	126.75
332.03	104.75
332.258	114.75
332.486	122.75
332.715	123.75
332.943	133.75
333.172	126.75
333.4	100.75
333.629	112.75
333.857	122.75
334.085	116.75
334.314	108.75
334.542	116.75
334.771	127.75
334.999	112.75
335.227	114.75
335.455	99.75
335.684	105.75
335.912	126.75
336.14	105.75
336.369	111.75
336.597	122.75
336.825	101.75
337.053	114.75
337.281	105.75
337.51	116.75
337.738	114.75
337.966	99.75
338.194	96.75
338.422	116.75
338.65	116.75
338.878	130.75
339.106	116.75
339.334	112.75
339.562	103.75
339.79	112.75
340.018	121.75
340.246	109.75
340.474	106.75
340.702	110.75
340.93	108.75
341.158	117.75
341.386	120.75
341.614	116.75
341.842	110.75
342.07	107.75
342.298	108.75
342.526	125.75
342.754	113.75
342.981	119.75
343.209	108.75
343.437	127.75
343.665	119.75
343.893	110.75
344.12	119.75
344.348	129.75
344.576	121.75
344.804	121.75
345.031	117.75
345.259	113.75
345.487	100.75
345.714	114.75
345.942	102.75
346.17	103.75
346.397	120.75
346.625	107.75
346.853	128.75
347.08	88.75
347.308	110.75
347.535	84.75
347.763	106.75
347.99	109.75
348.218	118.75
348.445	114.75
348.673	105.75
348.9	110.75
349.128	101.75
349.355	112.75
349.583	102.75
349.81	94.75
350.037	106.75
350.265	125.75
350.492	114.75
350.72	122.75
350.947	113.75
351.174	122.75
351.402	104.75
351.629	127.75
351.856	105.75
352.083	108.75
352.311	100.75
352.538	105.75
352.765	99.75
352.992	105.75
353.22	116.75
353.447	104.75
353.674	107.75
353.901	119.75
354.128	118.75
354.355	108.75
354.583	101.75
354.81	106.75
355.037	98.75
355.264	101.75
355.491	120.75
355.718	113.75
355.945	100.75
356.172	117.75
356.399	118.75
356.626	115.75
356.853	99.75
357.08	100.75
357.307	92.75
357.534	109.75
357.761	106.75
357.988	112.75
358.215	125.75
358.441	99.75
358.668	99.75
358.895	109.75
359.122	106.75
359.349	110.75
359.576	116.75
359.802	108.75
360.029	104.75
360.256	97.75
360.483	115.75
360.709	102.75
360.936	120.75
361.163	100.75
361.39	107.75
361.616	108.75
361.843	121.75
362.07	106.75
362.296	130.75
362.523	112.75
362.749	111.75
362.976	104.75
363.203	115.75
363.429	101.75
363.656	108.75
363.882	110.75
364.109	110.75
364.335	99.75
364.562	115.75
364.788	120.75
365.015	103.75
365.241	105.75
365.468	104.75
365.694	95.75
365.92	126.75
366.147	102.75
366.373	99.75
366.599	100.75
366.826	101.75
367.052	103.75
367.278	112.75
367.505	102.75
367.731	130.75
367.957	112.75
368.184	123.75
368.41	109.75
368.636	107.75
368.862	114.75
369.089	104.75
369.315	106.75
369.541	116.75
369.767	116.75
369.993	103.75
370.219	106.75
370.445	107.75
370.672	98.75
370.898	117.75
371.124	108.75
371.35	121.75
371.576	116.75
371.802	99.75
372.028	106.75
372.254	121.75
372.48	119.75
372.706	114.75
372.932	115.75
373.158	128.75
373.384	121.75
373.61	110.75
373.835	114.75
374.061	120.75
374.287	122.75
374.513	95.75
374.739	109.75
374.965	100.75
375.191	102.75
375.416	109.75
375.642	122.75
375.868	115.75
376.094	116.75
376.319	112.75
376.545	118.75
376.771	107.75
376.997	112.75
377.222	98.75
377.448	109.75
377.674	131.75
377.899	106.75
378.125	106.75
378.35	97.75
378.576	107.75
378.802	115.75
379.027	136.75
379.253	123.75
379.478	105.75
379.704	96.75
379.929	104.75
380.155	106.75
380.38	121.75
380.606	124.75
380.831	114.75
381.057	112.75
381.282	115.75
381.507	111.75
381.733	125.75
381.958	110.75
382.184	103.75
382.409	109.75
382.634	118.75
382.86	105.75
383.085	105.75
383.31	109.75
383.535	113.75
383.761	106.75
383.986	126.75
384.211	124.75
384.436	120.75
384.662	107.75
384.887	118.75
385.112	106.75
385.337	118.75
385.562	118.75
385.787	114.75
386.013	116.75
386.238	129.75
386.463	131.75
386.688	122.75
386.913	100.75
387.138	128.75
387.363	115.75
387.588	119.75
387.813	118.75
388.038	134.75
388.263	126.75
388.488	134.75
388.713	122.75
388.938	115.75
389.163	103.75
389.387	118.75
389.612	136.75
389.837	114.75
390.062	112.75
390.287	120.75
390.512	120.75
390.736	121.75
390.961	123.75
391.186	118.75
391.411	115.75
391.636	119.75
391.86	117.75
392.085	120.75
392.31	125.75
392.534	121.75
392.759	119.75
392.984	126.75
393.208	122.75
393.433	126.75
393.658	126.75
393.882	117.75
394.107	121.75
394.331	112.75
394.556	104.75
394.78	127.75
395.005	121.75
395.229	115.75
395.454	127.75
395.678	124.75
395.903	121.75
396.127	129.75
396.352	127.75
396.576	114.75
396.801	133.75
397.025	113.75
397.249	125.75
397.474	124.75
397.698	99.75
397.922	106.75
398.147	113.75
398.371	114.75
398.595	112.75
398.82	118.75
399.044	109.75
399.268	134.75
399.492	128.75
399.717	156.75
399.941	137.75
400.165	131.75
400.389	139.75
400.613	122.75
400.837	131.75
401.062	129.75
401.286	139.75
401.51	140.75
401.734	122.75
401.958	132.75
402.182	121.75
402.406	119.75
402.63	145.75
402.854	107.75
403.078	120.75
403.302	130.75
403.526	128.75
403.75	133.75
403.974	151.75
404.198	120.75
404.422	128.75
404.645	122.75
404.869	130.75
405.093	129.75
405.317	125.75
405.541	124.75
405.765	141.75
405.988	133.75
406.212	138.75
406.436	133.75
406.66	124.75
406.883	122.75
407.107	140.75
407.331	135.75
407.555	137.75
407.778	133.75
408.002	119.75
408.226	147.75
408.449	122.75
408.673	118.75
408.896	134.75
409.12	139.75
409.344	137.75
409.567	133.75
409.791	140.75
410.014	126.75
410.238	122.75
410.461	108.75
410.685	115.75
410.908	126.75
411.132	131.75
411.355	119.75
411.578	112.75
411.802	132.75
412.025	145.75
412.249	112.75
412.472	132.75
412.695	130.75
412.919	131.75
413.142	125.75
413.365	136.75
413.589	132.75
413.812	122.75
414.035	125.75
414.258	126.75
414.482	129.75
414.705	136.75
414.928	134.75
415.151	137.75
415.374	134.75
415.597	130.75
415.821	114.75
416.044	124.75
416.267	119.75
416.49	111.75
416.713	114.75
416.936	121.75
417.159	125.75
417.382	126.75
417.605	127.75
417.828	124.75
418.051	150.75
418.274	138.75
418.497	138.75
418.72	126.75
418.943	136.75
419.166	132.75
419.389	129.75
419.611	122.75
419.834	130.75
420.057	126.75
420.28	132.75
420.503	132.75
420.726	136.75
420.948	136.75
421.171	130.75
421.394	119.75
421.617	134.75
421.839	121.75
422.062	109.75
422.285	128.75
422.507	128.75
422.73	134.75
422.953	124.75
423.175	135.75
423.398	116.75
423.621	129.75
423.843	127.75
424.066	131.75
424.288	128.75
424.511	127.75
424.733	125.75
424.956	143.75
425.178	134.75
425.401	128.75
425.623	142.75
425.846	124.75
426.068	120.75
426.291	127.75
426.513	152.75
426.735	142.75
426.958	130.75
427.18	125.75
427.402	133.75
427.625	149.75
427.847	136.75
428.069	121.75
428.292	112.75
428.514	125.75
428.736	129.75
428.958	133.75
429.181	133.75
429.403	121.75
429.625	109.75
429.847	142.75
430.069	120.75
430.292	128.75
430.514	116.75
430.736	132.75
430.958	130.75
431.18	107.75
431.402	123.75
431.624	120.75
431.846	115.75
432.068	124.75
432.29	124.75
432.512	107.75
432.734	100.75
432.956	128.75
433.178	126.75
433.4	124.75
433.622	127.75
433.844	131.75
434.066	125.75
434.287	128.75
434.509	115.75
434.731	122.75
434.953	123.75
435.175	125.75
435.397	123.75
435.618	133.75
435.84	122.75
436.062	140.75
436.284	137.75
436.505	122.75
436.727	122.75
436.949	122.75
437.17	127.75
437.392	101.75
437.614	109.75
437.835	119.75
438.057	120.75
438.278	149.75
438.5	126.75
438.721	127.75
438.943	142.75
439.165	128.75
439.386	117.75
439.608	131.75
439.829	145.75
440.05	127.75
440.272	134.75
440.493	133.75
440.715	145.75
440.936	143.75
441.158	120.75
441.379	118.75
441.6	133.75
441.822	136.75
442.043	140.75
442.264	142.75
442.486	138.75
442.707	135.75
442.928	126.75
443.149	127.75
443.371	140.75
443.592	137.75
443.813	130.75
444.034	145.75
444.255	131.75
444.476	123.75
444.698	147.75
444.919	137.75
445.14	261.75
445.361	189.75
445.582	142.75
445.803	145.75
446.024	137.75
446.245	123.75
446.466	114.75
446.687	122.75
446.908	132.75
447.129	124.75
447.35	123.75
447.571	118.75
447.792	106.75
448.013	121.75
448.234	114.75
448.455	128.75
448.675	119.75
448.896	121.75
449.117	117.75
449.338	124.75
449.559	136.75
449.779	137.75
450	124.75
450.221	101.75
450.442	132.75
450.662	122.75
450.883	119.75
451.104	128.75
451.324	109.75
451.545	119.75
451.766	110.75
451.986	106.75
452.207	123.75
452.428	122.75
452.648	105.75
452.869	124.75
453.089	122.75
453.31	124.75
453.53	112.75
453.751	113.75
453.971	108.75
454.192	108.75
454.412	112.75
454.633	114.75
454.853	123.75
455.073	122.75
455.294	108.75
455.514	112.75
455.734	124.75
455.955	119.75
456.175	113.75
456.395	108.75
456.616	116.75
456.836	109.75
457.056	123.75
457.276	107.75
457.497	108.75
457.717	122.75
457.937	127.75
458.157	124.75
458.377	106.75
458.598	115.75
458.818	126.75
459.038	127.75
459.258	120.75
459.478	110.75
459.698	112.75
459.918	136.75
460.138	126.75
460.358	127.75
460.578	111.75
460.798	120.75
461.018	146.75
461.238	125.75
461.458	140.75
461.678	123.75
461.898	121.75
462.118	128.75
462.338	134.75
462.558	142.75
462.777	128.75
462.997	127.75
463.217	150.75
463.437	142.75
463.657	146.75
463.876	146.75
464.096	125.75
464.316	135.75
464.536	142.75
464.755	141.75
464.975	130.75
465.195	128.75
465.414	132.75
465.634	138.75
465.854	114.75
466.073	115.75
466.293	124.75
466.512	122.75
466.732	125.75
466.951	109.75
467.171	119.75
467.391	113.75
467.61	112.75
467.829	122.75
468.049	124.75
468.268	121.75
468.488	122.75
468.707	130.75
468.927	116.75
469.146	112.75
469.365	125.75
469.585	120.75
469.804	104.75
470.023	114.75
470.243	115.75
470.462	115.75
470.681	129.75
470.901	119.75
471.12	134.75
471.339	129.75
471.558	120.75
471.777	127.75
471.997	117.75
472.216	128.75
472.435	118.75
472.654	117.75
472.873	120.75
473.092	118.75
473.311	126.75
473.53	129.75
473.749	125.75
473.968	120.75
474.187	137.75
474.406	111.75
474.625	126.75
474.844	133.75
475.063	112.75
475.282	112.75
475.501	130.75
475.72	124.75
475.939	106.75
476.158	112.75
476.377	117.75
476.596	114.75
476.814	118.75
477.033	116.75
477.252	114.75
477.471	130.75
477.69	126.75
477.908	126.75
478.127	137.75
478.346	122.75
478.564	121.75
478.783	126.75
479.002	135.75
479.22	124.75
479.439	133.75
479.658	146.75
479.876	138.75
480.095	136.75
480.313	129.75
480.532	120.75
480.751	128.75
480.969	123.75
481.188	136.75
481.406	127.75
481.624	125.75
481.843	115.75
482.061	109.75
482.28	126.75
482.498	128.75
482.717	122.75
482.935	110.75
483.153	120.75
483.372	118.75
483.59	126.75
483.808	128.75
484.027	128.75
484.245	127.75
484.463	128.75
484.681	136.75
484.9	132.75
485.118	137.75
485.336	122.75
485.554	120.75
485.772	120.75
485.99	128.75
486.209	138.75
486.427	124.75
486.645	124.75
486.863	127.75
487.081	126.75
487.299	132.75
487.517	125.75
487.735	137.75
487.953	133.75
488.171	137.75
488.389	124.75
488.607	134.75
488.825	137.75
489.043	133.75
489.261	117.75
489.479	138.75
489.696	124.75
489.914	130.75
490.132	144.75
490.35	127.75
490.568	129.75
490.786	130.75
491.003	147.75
491.221	132.75
491.439	147.75
491.657	130.75
491.874	141.75
492.092	138.75
492.31	149.75
492.527	150.75
492.745	147.75
492.963	142.75
493.18	137.75
493.398	137.75
493.615	146.75
493.833	144.75
494.05	141.75
494.268	152.75
494.485	141.75
494.703	139.75
494.92	142.75
495.138	137.75
495.355	133.75
495.573	156.75
495.79	140.75
496.008	137.75
496.225	140.75
496.442	132.75
496.66	149.75
496.877	148.75
497.094	150.75
497.312	155.75
497.529	144.75
497.746	142.75
497.963	148.75
498.181	144.75
498.398	140.75
498.615	144.75
498.832	160.75
499.049	150.75
499.267	154.75
499.484	176.75
499.701	188.75
499.918	172.75
500.135	200.75
500.352	201.75
500.569	205.75
500.786	211.75
501.003	203.75
501.22	176.75
501.437	174.75
501.654	168.75
501.871	160.75
502.088	170.75
502.305	161.75
502.522	157.75
502.739	166.75
502.956	162.75
503.172	142.75
503.389	152.75
503.606	138.75
503.823	155.75
504.04	151.75
504.256	159.75
504.473	139.75
504.69	161.75
504.907	141.75
505.123	140.75
505.34	137.75
505.557	130.75
505.773	138.75
505.99	133.75
