Data from 1968.PennyLincolnUp.Lamp.En5.5.200Scan.071719.P1._HRD10591_14-49-15-969.txt Node
Date: Thu Jul 18 14:49:15 EDT 2019
User: cochatt
Spectrometer: HR+D1059
Trigger mode: 1
Integration Time (sec): 1.000000E-1
Scans to average: 1
Electric dark correction enabled: true
Nonlinearity correction enabled: false
Boxcar width: 0
XAxis mode: Wavelengths
Number of Pixels in Spectrum: 2048
>>>>>Begin Spectral Data<<<<<
223.165	-21.75
223.4	-21.75
223.635	-21.75
223.869	-29.75
224.104	-15.75
224.338	-5.75
224.573	-17.75
224.808	-13.75
225.042	-9.75
225.277	-5.75
225.511	-2.75
225.746	-1.75
225.98	12.25
226.215	-0.75
226.449	19.25
226.683	33.25
226.918	30.25
227.152	30.25
227.387	20.25
227.621	50.25
227.856	39.25
228.09	40.25
228.324	48.25
228.559	44.25
228.793	57.25
229.027	52.25
229.262	75.25
229.496	95.25
229.73	80.25
229.964	71.25
230.199	77.25
230.433	83.25
230.667	66.25
230.901	76.25
231.136	85.25
231.37	89.25
231.604	82.25
231.838	82.25
232.072	76.25
232.306	77.25
232.541	78.25
232.775	102.25
233.009	80.25
233.243	72.25
233.477	80.25
233.711	90.25
233.945	82.25
234.179	94.25
234.413	82.25
234.647	84.25
234.881	101.25
235.115	89.25
235.349	82.25
235.583	100.25
235.817	77.25
236.051	70.25
236.285	78.25
236.519	93.25
236.753	74.25
236.987	77.25
237.221	94.25
237.455	74.25
237.689	80.25
237.922	93.25
238.156	82.25
238.39	93.25
238.624	78.25
238.858	79.25
239.091	90.25
239.325	78.25
239.559	78.25
239.793	86.25
240.027	96.25
240.26	76.25
240.494	77.25
240.728	76.25
240.961	90.25
241.195	83.25
241.429	90.25
241.662	80.25
241.896	82.25
242.13	78.25
242.363	89.25
242.597	81.25
242.83	80.25
243.064	96.25
243.298	82.25
243.531	81.25
243.765	100.25
243.998	90.25
244.232	82.25
244.465	79.25
244.699	73.25
244.932	88.25
245.166	84.25
245.399	91.25
245.633	113.25
245.866	88.25
246.099	94.25
246.333	96.25
246.566	74.25
246.8	74.25
247.033	87.25
247.266	71.25
247.5	100.25
247.733	92.25
247.966	97.25
248.2	94.25
248.433	85.25
248.666	82.25
248.899	90.25
249.133	81.25
249.366	79.25
249.599	80.25
249.832	98.25
250.066	95.25
250.299	91.25
250.532	97.25
250.765	93.25
250.998	84.25
251.231	97.25
251.465	83.25
251.698	81.25
251.931	93.25
252.164	97.25
252.397	95.25
252.63	96.25
252.863	79.25
253.096	85.25
253.329	88.25
253.562	87.25
253.795	77.25
254.028	82.25
254.261	89.25
254.494	97.25
254.727	107.25
254.96	104.25
255.193	79.25
255.426	80.25
255.659	95.25
255.892	101.25
256.124	86.25
256.357	96.25
256.59	89.25
256.823	81.25
257.056	90.25
257.289	96.25
257.521	92.25
257.754	109.25
257.987	96.25
258.22	88.25
258.452	100.25
258.685	92.25
258.918	80.25
259.151	88.25
259.383	99.25
259.616	85.25
259.849	91.25
260.081	108.25
260.314	95.25
260.547	87.25
260.779	96.25
261.012	81.25
261.244	92.25
261.477	96.25
261.71	92.25
261.942	84.25
262.175	100.25
262.407	92.25
262.64	95.25
262.872	78.25
263.105	98.25
263.337	88.25
263.57	83.25
263.802	97.25
264.035	109.25
264.267	97.25
264.499	93.25
264.732	86.25
264.964	96.25
265.197	95.25
265.429	94.25
265.661	95.25
265.894	87.25
266.126	84.25
266.358	87.25
266.591	92.25
266.823	101.25
267.055	107.25
267.287	95.25
267.52	92.25
267.752	100.25
267.984	97.25
268.216	106.25
268.448	110.25
268.681	99.25
268.913	99.25
269.145	88.25
269.377	99.25
269.609	93.25
269.841	109.25
270.073	91.25
270.306	95.25
270.538	81.25
270.77	94.25
271.002	113.25
271.234	100.25
271.466	98.25
271.698	88.25
271.93	93.25
272.162	91.25
272.394	97.25
272.626	103.25
272.858	97.25
273.09	94.25
273.322	110.25
273.553	96.25
273.785	98.25
274.017	104.25
274.249	93.25
274.481	95.25
274.713	90.25
274.945	91.25
275.176	101.25
275.408	107.25
275.64	96.25
275.872	104.25
276.104	99.25
276.335	92.25
276.567	95.25
276.799	88.25
277.031	103.25
277.262	95.25
277.494	102.25
277.726	98.25
277.957	110.25
278.189	109.25
278.421	92.25
278.652	101.25
278.884	102.25
279.115	109.25
279.347	89.25
279.579	96.25
279.81	91.25
280.042	105.25
280.273	103.25
280.505	79.25
280.736	89.25
280.968	97.25
281.199	102.25
281.431	104.25
281.662	104.25
281.894	107.25
282.125	91.25
282.356	93.25
282.588	95.25
282.819	98.25
283.051	103.25
283.282	102.25
283.513	103.25
283.745	92.25
283.976	96.25
284.207	108.25
284.439	116.25
284.67	97.25
284.901	104.25
285.132	95.25
285.364	108.25
285.595	108.25
285.826	108.25
286.057	92.25
286.288	95.25
286.52	100.25
286.751	78.25
286.982	98.25
287.213	91.25
287.444	108.25
287.675	102.25
287.906	89.25
288.138	108.25
288.369	108.25
288.6	110.25
288.831	106.25
289.062	117.25
289.293	104.25
289.524	112.25
289.755	108.25
289.986	95.25
290.217	97.25
290.448	98.25
290.679	108.25
290.91	99.25
291.141	98.25
291.371	87.25
291.602	110.25
291.833	109.25
292.064	104.25
292.295	97.25
292.526	105.25
292.757	101.25
292.987	110.25
293.218	94.25
293.449	103.25
293.68	104.25
293.91	95.25
294.141	106.25
294.372	113.25
294.603	98.25
294.833	110.25
295.064	101.25
295.295	108.25
295.525	113.25
295.756	93.25
295.987	111.25
296.217	96.25
296.448	111.25
296.679	111.25
296.909	120.25
297.14	105.25
297.37	95.25
297.601	104.25
297.831	89.25
298.062	116.25
298.292	100.25
298.523	108.25
298.753	113.25
298.984	121.25
299.214	97.25
299.445	108.25
299.675	106.25
299.905	108.25
300.136	102.25
300.366	121.25
300.597	116.25
300.827	118.25
301.057	113.25
301.288	116.25
301.518	115.25
301.748	108.25
301.979	113.25
302.209	104.25
302.439	101.25
302.669	106.25
302.9	101.25
303.13	110.25
303.36	103.25
303.59	112.25
303.82	100.25
304.051	92.25
304.281	109.25
304.511	105.25
304.741	97.25
304.971	108.25
305.201	105.25
305.431	101.25
305.661	116.25
305.891	118.25
306.121	107.25
306.352	96.25
306.582	101.25
306.812	107.25
307.042	106.25
307.272	101.25
307.502	109.25
307.731	110.25
307.961	120.25
308.191	94.25
308.421	108.25
308.651	109.25
308.881	114.25
309.111	121.25
309.341	112.25
309.571	112.25
309.8	130.25
310.03	108.25
310.26	109.25
310.49	115.25
310.72	109.25
310.949	114.25
311.179	107.25
311.409	110.25
311.639	108.25
311.868	98.25
312.098	120.25
312.328	117.25
312.557	108.25
312.787	110.25
313.017	119.25
313.246	108.25
313.476	103.25
313.706	97.25
313.935	99.25
314.165	115.25
314.394	126.25
314.624	99.25
314.853	98.25
315.083	82.25
315.312	104.25
315.542	112.25
315.771	119.25
316.001	119.25
316.23	109.25
316.46	103.25
316.689	102.25
316.919	116.25
317.148	105.25
317.377	108.25
317.607	106.25
317.836	119.25
318.065	116.25
318.295	110.25
318.524	109.25
318.753	111.25
318.983	117.25
319.212	104.25
319.441	92.25
319.67	106.25
319.9	109.25
320.129	104.25
320.358	118.25
320.587	118.25
320.816	105.25
321.046	104.25
321.275	111.25
321.504	109.25
321.733	108.25
321.962	120.25
322.191	117.25
322.42	113.25
322.649	122.25
322.878	110.25
323.108	103.25
323.337	114.25
323.566	102.25
323.795	116.25
324.024	125.25
324.253	127.25
324.482	126.25
324.71	138.25
324.939	160.25
325.168	154.25
325.397	120.25
325.626	107.25
325.855	121.25
326.084	121.25
326.313	112.25
326.542	110.25
326.77	125.25
326.999	119.25
327.228	122.25
327.457	136.25
327.686	156.25
327.914	120.25
328.143	122.25
328.372	127.25
328.6	123.25
328.829	103.25
329.058	119.25
329.287	106.25
329.515	121.25
329.744	111.25
329.972	127.25
330.201	125.25
330.43	129.25
330.658	121.25
330.887	111.25
331.115	118.25
331.344	106.25
331.572	121.25
331.801	109.25
332.03	126.25
332.258	116.25
332.486	109.25
332.715	132.25
332.943	117.25
333.172	122.25
333.4	107.25
333.629	134.25
333.857	122.25
334.085	127.25
334.314	119.25
334.542	121.25
334.771	121.25
334.999	111.25
335.227	121.25
335.455	107.25
335.684	130.25
335.912	124.25
336.14	120.25
336.369	124.25
336.597	118.25
336.825	100.25
337.053	116.25
337.281	123.25
337.51	130.25
337.738	129.25
337.966	121.25
338.194	107.25
338.422	100.25
338.65	112.25
338.878	105.25
339.106	116.25
339.334	109.25
339.562	109.25
339.79	117.25
340.018	111.25
340.246	120.25
340.474	112.25
340.702	99.25
340.93	124.25
341.158	119.25
341.386	107.25
341.614	125.25
341.842	109.25
342.07	116.25
342.298	117.25
342.526	117.25
342.754	124.25
342.981	106.25
343.209	124.25
343.437	117.25
343.665	120.25
343.893	125.25
344.12	125.25
344.348	128.25
344.576	124.25
344.804	98.25
345.031	119.25
345.259	111.25
345.487	105.25
345.714	97.25
345.942	128.25
346.17	128.25
346.397	111.25
346.625	113.25
346.853	115.25
347.08	116.25
347.308	109.25
347.535	116.25
347.763	112.25
347.99	120.25
348.218	109.25
348.445	106.25
348.673	132.25
348.9	126.25
349.128	122.25
349.355	98.25
349.583	106.25
349.81	120.25
350.037	116.25
350.265	116.25
350.492	110.25
350.72	111.25
350.947	111.25
351.174	121.25
351.402	112.25
351.629	120.25
351.856	110.25
352.083	117.25
352.311	125.25
352.538	121.25
352.765	114.25
352.992	105.25
353.22	113.25
353.447	103.25
353.674	114.25
353.901	121.25
354.128	121.25
354.355	105.25
354.583	116.25
354.81	124.25
355.037	121.25
355.264	122.25
355.491	111.25
355.718	105.25
355.945	112.25
356.172	120.25
356.399	111.25
356.626	99.25
356.853	104.25
357.08	113.25
357.307	110.25
357.534	117.25
357.761	103.25
357.988	110.25
358.215	125.25
358.441	108.25
358.668	118.25
358.895	107.25
359.122	122.25
359.349	105.25
359.576	106.25
359.802	116.25
360.029	119.25
360.256	127.25
360.483	114.25
360.709	110.25
360.936	113.25
361.163	122.25
361.39	101.25
361.616	118.25
361.843	111.25
362.07	118.25
362.296	107.25
362.523	129.25
362.749	111.25
362.976	98.25
363.203	108.25
363.429	112.25
363.656	94.25
363.882	111.25
364.109	127.25
364.335	97.25
364.562	122.25
364.788	108.25
365.015	116.25
365.241	98.25
365.468	111.25
365.694	113.25
365.92	108.25
366.147	104.25
366.373	117.25
366.599	116.25
366.826	118.25
367.052	112.25
367.278	104.25
367.505	126.25
367.731	118.25
367.957	113.25
368.184	108.25
368.41	116.25
368.636	114.25
368.862	116.25
369.089	92.25
369.315	105.25
369.541	105.25
369.767	121.25
369.993	113.25
370.219	134.25
370.445	112.25
370.672	106.25
370.898	121.25
371.124	109.25
371.35	102.25
371.576	118.25
371.802	112.25
372.028	120.25
372.254	124.25
372.48	117.25
372.706	134.25
372.932	108.25
373.158	123.25
373.384	119.25
373.61	127.25
373.835	107.25
374.061	123.25
374.287	122.25
374.513	112.25
374.739	120.25
374.965	104.25
375.191	102.25
375.416	130.25
375.642	113.25
375.868	121.25
376.094	121.25
376.319	106.25
376.545	111.25
376.771	120.25
376.997	123.25
377.222	120.25
377.448	137.25
377.674	108.25
377.899	123.25
378.125	119.25
378.35	114.25
378.576	98.25
378.802	112.25
379.027	118.25
379.253	116.25
379.478	101.25
379.704	126.25
379.929	113.25
380.155	125.25
380.38	122.25
380.606	127.25
380.831	128.25
381.057	131.25
381.282	106.25
381.507	130.25
381.733	129.25
381.958	130.25
382.184	122.25
382.409	136.25
382.634	137.25
382.86	124.25
383.085	125.25
383.31	117.25
383.535	97.25
383.761	125.25
383.986	110.25
384.211	114.25
384.436	112.25
384.662	143.25
384.887	118.25
385.112	113.25
385.337	121.25
385.562	112.25
385.787	125.25
386.013	124.25
386.238	124.25
386.463	104.25
386.688	110.25
386.913	134.25
387.138	130.25
387.363	133.25
387.588	125.25
387.813	125.25
388.038	114.25
388.263	111.25
388.488	123.25
388.713	128.25
388.938	132.25
389.163	108.25
389.387	116.25
389.612	119.25
389.837	128.25
390.062	122.25
390.287	136.25
390.512	127.25
390.736	121.25
390.961	124.25
391.186	131.25
391.411	122.25
391.636	126.25
391.86	111.25
392.085	122.25
392.31	124.25
392.534	134.25
392.759	141.25
392.984	127.25
393.208	123.25
393.433	137.25
393.658	123.25
393.882	123.25
394.107	119.25
394.331	126.25
394.556	116.25
394.78	125.25
395.005	118.25
395.229	103.25
395.454	116.25
395.678	117.25
395.903	124.25
396.127	131.25
396.352	121.25
396.576	111.25
396.801	129.25
397.025	100.25
397.249	136.25
397.474	118.25
397.698	126.25
397.922	127.25
398.147	123.25
398.371	121.25
398.595	123.25
398.82	123.25
399.044	128.25
399.268	134.25
399.492	155.25
399.717	148.25
399.941	137.25
400.165	153.25
400.389	143.25
400.613	134.25
400.837	142.25
401.062	137.25
401.286	124.25
401.51	145.25
401.734	136.25
401.958	132.25
402.182	123.25
402.406	142.25
402.63	138.25
402.854	124.25
403.078	133.25
403.302	130.25
403.526	120.25
403.75	138.25
403.974	140.25
404.198	126.25
404.422	137.25
404.645	140.25
404.869	132.25
405.093	136.25
405.317	137.25
405.541	146.25
405.765	155.25
405.988	140.25
406.212	123.25
406.436	132.25
406.66	136.25
406.883	153.25
407.107	146.25
407.331	150.25
407.555	156.25
407.778	136.25
408.002	144.25
408.226	144.25
408.449	138.25
408.673	141.25
408.896	122.25
409.12	155.25
409.344	141.25
409.567	136.25
409.791	130.25
410.014	149.25
410.238	143.25
410.461	137.25
410.685	129.25
410.908	148.25
411.132	138.25
411.355	152.25
411.578	143.25
411.802	135.25
412.025	134.25
412.249	157.25
412.472	130.25
412.695	146.25
412.919	130.25
413.142	144.25
413.365	140.25
413.589	133.25
413.812	129.25
414.035	131.25
414.258	124.25
414.482	137.25
414.705	130.25
414.928	137.25
415.151	136.25
415.374	140.25
415.597	147.25
415.821	141.25
416.044	137.25
416.267	130.25
416.49	126.25
416.713	129.25
416.936	140.25
417.159	131.25
417.382	130.25
417.605	113.25
417.828	116.25
418.051	139.25
418.274	135.25
418.497	132.25
418.72	132.25
418.943	123.25
419.166	129.25
419.389	136.25
419.611	141.25
419.834	130.25
420.057	125.25
420.28	134.25
420.503	131.25
420.726	131.25
420.948	129.25
421.171	134.25
421.394	136.25
421.617	144.25
421.839	134.25
422.062	127.25
422.285	144.25
422.507	145.25
422.73	135.25
422.953	132.25
423.175	135.25
423.398	131.25
423.621	133.25
423.843	137.25
424.066	135.25
424.288	133.25
424.511	134.25
424.733	125.25
424.956	136.25
425.178	142.25
425.401	135.25
425.623	143.25
425.846	130.25
426.068	137.25
426.291	150.25
426.513	132.25
426.735	141.25
426.958	134.25
427.18	136.25
427.402	148.25
427.625	153.25
427.847	139.25
428.069	135.25
428.292	126.25
428.514	122.25
428.736	130.25
428.958	131.25
429.181	113.25
429.403	156.25
429.625	117.25
429.847	122.25
430.069	121.25
430.292	122.25
430.514	134.25
430.736	124.25
430.958	118.25
431.18	124.25
431.402	126.25
431.624	109.25
431.846	121.25
432.068	132.25
432.29	128.25
432.512	132.25
432.734	121.25
432.956	124.25
433.178	116.25
433.4	123.25
433.622	141.25
433.844	137.25
434.066	108.25
434.287	118.25
434.509	120.25
434.731	137.25
434.953	146.25
435.175	133.25
435.397	135.25
435.618	143.25
435.84	143.25
436.062	131.25
436.284	123.25
436.505	129.25
436.727	125.25
436.949	129.25
437.17	134.25
437.392	121.25
437.614	130.25
437.835	139.25
438.057	127.25
438.278	122.25
438.5	142.25
438.721	134.25
438.943	135.25
439.165	140.25
439.386	134.25
439.608	131.25
439.829	135.25
440.05	139.25
440.272	151.25
440.493	125.25
440.715	123.25
440.936	132.25
441.158	130.25
441.379	124.25
441.6	143.25
441.822	138.25
442.043	149.25
442.264	154.25
442.486	129.25
442.707	127.25
442.928	131.25
443.149	144.25
443.371	138.25
443.592	133.25
443.813	139.25
444.034	142.25
444.255	143.25
444.476	150.25
444.698	134.25
444.919	126.25
445.14	261.25
445.361	197.25
445.582	141.25
445.803	150.25
446.024	139.25
446.245	125.25
446.466	145.25
446.687	136.25
446.908	127.25
447.129	127.25
447.35	140.25
447.571	128.25
447.792	109.25
448.013	132.25
448.234	121.25
448.455	130.25
448.675	145.25
448.896	142.25
449.117	139.25
449.338	130.25
449.559	142.25
449.779	138.25
450	124.25
450.221	141.25
450.442	128.25
450.662	114.25
450.883	108.25
451.104	114.25
451.324	127.25
451.545	124.25
451.766	132.25
451.986	111.25
452.207	139.25
452.428	129.25
452.648	132.25
452.869	120.25
453.089	128.25
453.31	111.25
453.53	128.25
453.751	119.25
453.971	121.25
454.192	96.25
454.412	112.25
454.633	117.25
454.853	130.25
455.073	122.25
455.294	134.25
455.514	134.25
455.734	121.25
455.955	130.25
456.175	124.25
456.395	119.25
456.616	113.25
456.836	137.25
457.056	113.25
457.276	110.25
457.497	118.25
457.717	114.25
457.937	134.25
458.157	132.25
458.377	127.25
458.598	114.25
458.818	120.25
459.038	124.25
459.258	135.25
459.478	128.25
459.698	135.25
459.918	123.25
460.138	126.25
460.358	125.25
460.578	143.25
460.798	112.25
461.018	144.25
461.238	140.25
461.458	135.25
461.678	136.25
461.898	127.25
462.118	136.25
462.338	141.25
462.558	144.25
462.777	144.25
462.997	142.25
463.217	145.25
463.437	158.25
463.657	143.25
463.876	148.25
464.096	140.25
464.316	148.25
464.536	120.25
464.755	136.25
464.975	138.25
465.195	125.25
465.414	134.25
465.634	132.25
465.854	131.25
466.073	126.25
466.293	129.25
466.512	132.25
466.732	122.25
466.951	126.25
467.171	129.25
467.391	121.25
467.61	118.25
467.829	138.25
468.049	128.25
468.268	132.25
468.488	132.25
468.707	122.25
468.927	128.25
469.146	114.25
469.365	139.25
469.585	125.25
469.804	138.25
470.023	134.25
470.243	126.25
470.462	144.25
470.681	118.25
470.901	125.25
471.12	126.25
471.339	150.25
471.558	126.25
471.777	128.25
471.997	123.25
472.216	126.25
472.435	122.25
472.654	132.25
472.873	140.25
473.092	117.25
473.311	116.25
473.53	119.25
473.749	136.25
473.968	140.25
474.187	132.25
474.406	123.25
474.625	126.25
474.844	125.25
475.063	129.25
475.282	125.25
475.501	117.25
475.72	125.25
475.939	106.25
476.158	144.25
476.377	127.25
476.596	137.25
476.814	140.25
477.033	114.25
477.252	137.25
477.471	127.25
477.69	137.25
477.908	130.25
478.127	136.25
478.346	130.25
478.564	134.25
478.783	120.25
479.002	145.25
479.22	130.25
479.439	139.25
479.658	136.25
479.876	127.25
480.095	126.25
480.313	137.25
480.532	145.25
480.751	141.25
480.969	133.25
481.188	137.25
481.406	152.25
481.624	138.25
481.843	126.25
482.061	130.25
482.28	135.25
482.498	124.25
482.717	129.25
482.935	133.25
483.153	130.25
483.372	133.25
483.59	126.25
483.808	150.25
484.027	142.25
484.245	158.25
484.463	132.25
484.681	138.25
484.9	124.25
485.118	138.25
485.336	136.25
485.554	137.25
485.772	136.25
485.99	145.25
486.209	132.25
486.427	128.25
486.645	140.25
486.863	144.25
487.081	142.25
487.299	143.25
487.517	145.25
487.735	139.25
487.953	143.25
488.171	138.25
488.389	146.25
488.607	139.25
488.825	142.25
489.043	133.25
489.261	129.25
489.479	127.25
489.696	151.25
489.914	142.25
490.132	145.25
490.35	149.25
490.568	153.25
490.786	135.25
491.003	137.25
491.221	143.25
491.439	141.25
491.657	146.25
491.874	152.25
492.092	158.25
492.31	145.25
492.527	147.25
492.745	158.25
492.963	135.25
493.18	150.25
493.398	142.25
493.615	142.25
493.833	148.25
494.05	148.25
494.268	141.25
494.485	143.25
494.703	152.25
494.92	152.25
495.138	134.25
495.355	142.25
495.573	162.25
495.79	130.25
496.008	138.25
496.225	159.25
496.442	153.25
496.66	160.25
496.877	139.25
497.094	150.25
497.312	150.25
497.529	142.25
497.746	150.25
497.963	151.25
498.181	141.25
498.398	141.25
498.615	157.25
498.832	159.25
499.049	170.25
499.267	161.25
499.484	199.25
499.701	186.25
499.918	195.25
500.135	201.25
500.352	237.25
500.569	223.25
500.786	226.25
501.003	219.25
501.22	202.25
501.437	200.25
501.654	176.25
501.871	183.25
502.088	169.25
502.305	164.25
502.522	165.25
502.739	156.25
502.956	153.25
503.172	149.25
503.389	141.25
503.606	139.25
503.823	154.25
504.04	139.25
504.256	160.25
504.473	160.25
504.69	157.25
504.907	155.25
505.123	151.25
505.34	155.25
