Data from 1968.PennyLincolnUp.Lamp.En5.5.200Scan.071719.P1._HRD10591_14-50-25-970.txt Node
Date: Thu Jul 18 14:50:25 EDT 2019
User: cochatt
Spectrometer: HR+D1059
Trigger mode: 1
Integration Time (sec): 1.000000E-1
Scans to average: 1
Electric dark correction enabled: true
Nonlinearity correction enabled: false
Boxcar width: 0
XAxis mode: Wavelengths
Number of Pixels in Spectrum: 2048
>>>>>Begin Spectral Data<<<<<
223.165	-32.12
223.4	-32.12
223.635	-32.12
223.869	-13.12
224.104	-12.12
224.338	-17.12
224.573	-6.12
224.808	-11.12
225.042	-9.12
225.277	-7.12
225.511	7.88
225.746	1.88
225.98	6.88
226.215	18.88
226.449	21.88
226.683	11.88
226.918	15.88
227.152	22.88
227.387	29.88
227.621	27.88
227.856	52.88
228.09	22.88
228.324	46.88
228.559	62.88
228.793	65.88
229.027	52.88
229.262	59.88
229.496	62.88
229.73	67.88
229.964	72.88
230.199	68.88
230.433	79.88
230.667	79.88
230.901	92.88
231.136	66.88
231.37	66.88
231.604	93.88
231.838	93.88
232.072	84.88
232.306	80.88
232.541	83.88
232.775	68.88
233.009	92.88
233.243	83.88
233.477	85.88
233.711	90.88
233.945	94.88
234.179	77.88
234.413	73.88
234.647	77.88
234.881	86.88
235.115	84.88
235.349	87.88
235.583	77.88
235.817	81.88
236.051	95.88
236.285	82.88
236.519	76.88
236.753	92.88
236.987	83.88
237.221	86.88
237.455	84.88
237.689	77.88
237.922	79.88
238.156	82.88
238.39	91.88
238.624	80.88
238.858	77.88
239.091	89.88
239.325	72.88
239.559	76.88
239.793	76.88
240.027	87.88
240.26	80.88
240.494	84.88
240.728	78.88
240.961	84.88
241.195	75.88
241.429	69.88
241.662	74.88
241.896	75.88
242.13	92.88
242.363	82.88
242.597	80.88
242.83	78.88
243.064	66.88
243.298	88.88
243.531	78.88
243.765	82.88
243.998	84.88
244.232	70.88
244.465	83.88
244.699	78.88
244.932	79.88
245.166	78.88
245.399	62.88
245.633	77.88
245.866	84.88
246.099	82.88
246.333	91.88
246.566	70.88
246.8	71.88
247.033	77.88
247.266	81.88
247.5	88.88
247.733	95.88
247.966	82.88
248.2	73.88
248.433	97.88
248.666	99.88
248.899	89.88
249.133	84.88
249.366	88.88
249.599	80.88
249.832	96.88
250.066	84.88
250.299	91.88
250.532	94.88
250.765	93.88
250.998	73.88
251.231	77.88
251.465	92.88
251.698	86.88
251.931	79.88
252.164	98.88
252.397	86.88
252.63	72.88
252.863	74.88
253.096	99.88
253.329	94.88
253.562	94.88
253.795	88.88
254.028	79.88
254.261	84.88
254.494	82.88
254.727	92.88
254.96	98.88
255.193	92.88
255.426	79.88
255.659	84.88
255.892	86.88
256.124	85.88
256.357	97.88
256.59	75.88
256.823	88.88
257.056	93.88
257.289	92.88
257.521	86.88
257.754	87.88
257.987	90.88
258.22	93.88
258.452	79.88
258.685	93.88
258.918	80.88
259.151	88.88
259.383	89.88
259.616	86.88
259.849	77.88
260.081	93.88
260.314	91.88
260.547	88.88
260.779	101.88
261.012	96.88
261.244	79.88
261.477	100.88
261.71	82.88
261.942	80.88
262.175	84.88
262.407	84.88
262.64	91.88
262.872	84.88
263.105	89.88
263.337	106.88
263.57	91.88
263.802	97.88
264.035	80.88
264.267	88.88
264.499	92.88
264.732	95.88
264.964	92.88
265.197	96.88
265.429	82.88
265.661	97.88
265.894	90.88
266.126	80.88
266.358	84.88
266.591	93.88
266.823	98.88
267.055	89.88
267.287	106.88
267.52	103.88
267.752	88.88
267.984	100.88
268.216	78.88
268.448	84.88
268.681	84.88
268.913	80.88
269.145	87.88
269.377	94.88
269.609	94.88
269.841	81.88
270.073	100.88
270.306	88.88
270.538	105.88
270.77	79.88
271.002	84.88
271.234	100.88
271.466	86.88
271.698	79.88
271.93	100.88
272.162	91.88
272.394	106.88
272.626	82.88
272.858	97.88
273.09	82.88
273.322	99.88
273.553	89.88
273.785	85.88
274.017	101.88
274.249	86.88
274.481	90.88
274.713	90.88
274.945	94.88
275.176	98.88
275.408	91.88
275.64	93.88
275.872	103.88
276.104	93.88
276.335	106.88
276.567	92.88
276.799	92.88
277.031	95.88
277.262	98.88
277.494	93.88
277.726	93.88
277.957	77.88
278.189	95.88
278.421	100.88
278.652	98.88
278.884	91.88
279.115	100.88
279.347	92.88
279.579	82.88
279.81	94.88
280.042	88.88
280.273	102.88
280.505	99.88
280.736	103.88
280.968	86.88
281.199	89.88
281.431	92.88
281.662	85.88
281.894	104.88
282.125	94.88
282.356	83.88
282.588	99.88
282.819	88.88
283.051	80.88
283.282	89.88
283.513	101.88
283.745	90.88
283.976	85.88
284.207	99.88
284.439	102.88
284.67	110.88
284.901	104.88
285.132	97.88
285.364	92.88
285.595	91.88
285.826	118.88
286.057	113.88
286.288	104.88
286.52	95.88
286.751	100.88
286.982	106.88
287.213	97.88
287.444	103.88
287.675	88.88
287.906	96.88
288.138	87.88
288.369	106.88
288.6	95.88
288.831	88.88
289.062	91.88
289.293	116.88
289.524	103.88
289.755	104.88
289.986	98.88
290.217	104.88
290.448	99.88
290.679	87.88
290.91	93.88
291.141	106.88
291.371	106.88
291.602	114.88
291.833	104.88
292.064	104.88
292.295	109.88
292.526	105.88
292.757	98.88
292.987	103.88
293.218	102.88
293.449	101.88
293.68	110.88
293.91	96.88
294.141	114.88
294.372	95.88
294.603	105.88
294.833	105.88
295.064	109.88
295.295	121.88
295.525	105.88
295.756	101.88
295.987	106.88
296.217	100.88
296.448	103.88
296.679	93.88
296.909	108.88
297.14	96.88
297.37	99.88
297.601	109.88
297.831	103.88
298.062	105.88
298.292	105.88
298.523	100.88
298.753	100.88
298.984	87.88
299.214	91.88
299.445	107.88
299.675	106.88
299.905	106.88
300.136	96.88
300.366	109.88
300.597	107.88
300.827	105.88
301.057	103.88
301.288	107.88
301.518	96.88
301.748	112.88
301.979	114.88
302.209	111.88
302.439	95.88
302.669	106.88
302.9	98.88
303.13	104.88
303.36	92.88
303.59	104.88
303.82	104.88
304.051	110.88
304.281	97.88
304.511	111.88
304.741	121.88
304.971	98.88
305.201	99.88
305.431	98.88
305.661	109.88
305.891	118.88
306.121	98.88
306.352	100.88
306.582	106.88
306.812	102.88
307.042	114.88
307.272	106.88
307.502	109.88
307.731	100.88
307.961	99.88
308.191	102.88
308.421	107.88
308.651	103.88
308.881	101.88
309.111	106.88
309.341	85.88
309.571	93.88
309.8	114.88
310.03	112.88
310.26	105.88
310.49	116.88
310.72	109.88
310.949	90.88
311.179	94.88
311.409	99.88
311.639	110.88
311.868	114.88
312.098	101.88
312.328	96.88
312.557	102.88
312.787	99.88
313.017	109.88
313.246	117.88
313.476	97.88
313.706	98.88
313.935	98.88
314.165	105.88
314.394	104.88
314.624	104.88
314.853	105.88
315.083	104.88
315.312	105.88
315.542	113.88
315.771	118.88
316.001	121.88
316.23	109.88
316.46	113.88
316.689	101.88
316.919	87.88
317.148	98.88
317.377	118.88
317.607	99.88
317.836	101.88
318.065	118.88
318.295	110.88
318.524	92.88
318.753	97.88
318.983	103.88
319.212	89.88
319.441	101.88
319.67	106.88
319.9	90.88
320.129	115.88
320.358	109.88
320.587	120.88
320.816	96.88
321.046	118.88
321.275	99.88
321.504	114.88
321.733	114.88
321.962	94.88
322.191	101.88
322.42	105.88
322.649	97.88
322.878	116.88
323.108	114.88
323.337	127.88
323.566	106.88
323.795	98.88
324.024	101.88
324.253	102.88
324.482	127.88
324.71	157.88
324.939	203.88
325.168	151.88
325.397	110.88
325.626	105.88
325.855	115.88
326.084	105.88
326.313	98.88
326.542	107.88
326.77	113.88
326.999	127.88
327.228	134.88
327.457	138.88
327.686	143.88
327.914	122.88
328.143	110.88
328.372	119.88
328.6	105.88
328.829	119.88
329.058	112.88
329.287	120.88
329.515	107.88
329.744	112.88
329.972	113.88
330.201	112.88
330.43	129.88
330.658	108.88
330.887	90.88
331.115	117.88
331.344	118.88
331.572	114.88
331.801	107.88
332.03	104.88
332.258	112.88
332.486	101.88
332.715	124.88
332.943	129.88
333.172	123.88
333.4	112.88
333.629	123.88
333.857	131.88
334.085	122.88
334.314	120.88
334.542	104.88
334.771	122.88
334.999	122.88
335.227	115.88
335.455	116.88
335.684	100.88
335.912	114.88
336.14	120.88
336.369	125.88
336.597	113.88
336.825	108.88
337.053	105.88
337.281	99.88
337.51	106.88
337.738	107.88
337.966	109.88
338.194	114.88
338.422	106.88
338.65	115.88
338.878	121.88
339.106	117.88
339.334	122.88
339.562	106.88
339.79	105.88
340.018	106.88
340.246	120.88
340.474	108.88
340.702	122.88
340.93	112.88
341.158	112.88
341.386	96.88
341.614	117.88
341.842	114.88
342.07	116.88
342.298	97.88
342.526	112.88
342.754	101.88
342.981	90.88
343.209	128.88
343.437	99.88
343.665	112.88
343.893	125.88
344.12	125.88
344.348	114.88
344.576	124.88
344.804	119.88
345.031	108.88
345.259	119.88
345.487	121.88
345.714	122.88
345.942	111.88
346.17	97.88
346.397	104.88
346.625	105.88
346.853	109.88
347.08	116.88
347.308	105.88
347.535	120.88
347.763	105.88
347.99	116.88
348.218	114.88
348.445	109.88
348.673	112.88
348.9	119.88
349.128	118.88
349.355	107.88
349.583	106.88
349.81	109.88
350.037	109.88
350.265	105.88
350.492	102.88
350.72	106.88
350.947	104.88
351.174	105.88
351.402	110.88
351.629	110.88
351.856	103.88
352.083	112.88
352.311	112.88
352.538	118.88
352.765	109.88
352.992	107.88
353.22	100.88
353.447	100.88
353.674	108.88
353.901	105.88
354.128	107.88
354.355	116.88
354.583	102.88
354.81	119.88
355.037	107.88
355.264	104.88
355.491	101.88
355.718	112.88
355.945	109.88
356.172	114.88
356.399	110.88
356.626	103.88
356.853	107.88
357.08	115.88
357.307	106.88
357.534	106.88
357.761	102.88
357.988	109.88
358.215	99.88
358.441	106.88
358.668	117.88
358.895	115.88
359.122	110.88
359.349	100.88
359.576	98.88
359.802	116.88
360.029	114.88
360.256	119.88
360.483	116.88
360.709	112.88
360.936	110.88
361.163	126.88
361.39	109.88
361.616	102.88
361.843	114.88
362.07	102.88
362.296	108.88
362.523	110.88
362.749	121.88
362.976	112.88
363.203	100.88
363.429	114.88
363.656	104.88
363.882	124.88
364.109	117.88
364.335	86.88
364.562	99.88
364.788	101.88
365.015	113.88
365.241	116.88
365.468	114.88
365.694	98.88
365.92	110.88
366.147	104.88
366.373	118.88
366.599	100.88
366.826	108.88
367.052	106.88
367.278	112.88
367.505	104.88
367.731	114.88
367.957	120.88
368.184	97.88
368.41	104.88
368.636	107.88
368.862	109.88
369.089	112.88
369.315	106.88
369.541	112.88
369.767	89.88
369.993	115.88
370.219	109.88
370.445	97.88
370.672	101.88
370.898	99.88
371.124	88.88
371.35	107.88
371.576	112.88
371.802	118.88
372.028	92.88
372.254	110.88
372.48	114.88
372.706	114.88
372.932	113.88
373.158	112.88
373.384	107.88
373.61	130.88
373.835	112.88
374.061	134.88
374.287	108.88
374.513	112.88
374.739	114.88
374.965	119.88
375.191	120.88
375.416	112.88
375.642	123.88
375.868	93.88
376.094	108.88
376.319	113.88
376.545	120.88
376.771	109.88
376.997	126.88
377.222	118.88
377.448	108.88
377.674	110.88
377.899	103.88
378.125	105.88
378.35	106.88
378.576	125.88
378.802	109.88
379.027	123.88
379.253	116.88
379.478	95.88
379.704	112.88
379.929	92.88
380.155	111.88
380.38	122.88
380.606	112.88
380.831	102.88
381.057	122.88
381.282	120.88
381.507	101.88
381.733	104.88
381.958	117.88
382.184	92.88
382.409	111.88
382.634	120.88
382.86	114.88
383.085	122.88
383.31	110.88
383.535	123.88
383.761	118.88
383.986	101.88
384.211	120.88
384.436	96.88
384.662	124.88
384.887	122.88
385.112	123.88
385.337	119.88
385.562	92.88
385.787	113.88
386.013	119.88
386.238	112.88
386.463	94.88
386.688	111.88
386.913	119.88
387.138	123.88
387.363	122.88
387.588	109.88
387.813	100.88
388.038	117.88
388.263	119.88
388.488	120.88
388.713	109.88
388.938	106.88
389.163	119.88
389.387	109.88
389.612	115.88
389.837	121.88
390.062	116.88
390.287	119.88
390.512	110.88
390.736	108.88
390.961	106.88
391.186	112.88
391.411	116.88
391.636	122.88
391.86	117.88
392.085	118.88
392.31	116.88
392.534	113.88
392.759	112.88
392.984	100.88
393.208	115.88
393.433	111.88
393.658	106.88
393.882	114.88
394.107	112.88
394.331	121.88
394.556	126.88
394.78	120.88
395.005	114.88
395.229	113.88
395.454	113.88
395.678	125.88
395.903	117.88
396.127	130.88
396.352	126.88
396.576	114.88
396.801	116.88
397.025	124.88
397.249	127.88
397.474	138.88
397.698	113.88
397.922	106.88
398.147	102.88
398.371	122.88
398.595	121.88
398.82	126.88
399.044	128.88
399.268	138.88
399.492	129.88
399.717	139.88
399.941	138.88
400.165	138.88
400.389	125.88
400.613	124.88
400.837	132.88
401.062	118.88
401.286	120.88
401.51	132.88
401.734	129.88
401.958	128.88
402.182	127.88
402.406	134.88
402.63	131.88
402.854	126.88
403.078	144.88
403.302	138.88
403.526	136.88
403.75	126.88
403.974	117.88
404.198	134.88
404.422	133.88
404.645	139.88
404.869	125.88
405.093	154.88
405.317	132.88
405.541	134.88
405.765	130.88
405.988	129.88
406.212	132.88
406.436	128.88
406.66	132.88
406.883	123.88
407.107	129.88
407.331	126.88
407.555	142.88
407.778	146.88
408.002	140.88
408.226	137.88
408.449	147.88
408.673	142.88
408.896	148.88
409.12	151.88
409.344	137.88
409.567	128.88
409.791	132.88
410.014	132.88
410.238	128.88
410.461	122.88
410.685	124.88
410.908	114.88
411.132	132.88
411.355	127.88
411.578	127.88
411.802	110.88
412.025	139.88
412.249	125.88
412.472	136.88
412.695	123.88
412.919	151.88
413.142	125.88
413.365	130.88
413.589	127.88
413.812	133.88
414.035	123.88
414.258	134.88
414.482	146.88
414.705	114.88
414.928	114.88
415.151	109.88
415.374	126.88
415.597	120.88
415.821	138.88
416.044	126.88
416.267	129.88
416.49	110.88
416.713	140.88
416.936	126.88
417.159	125.88
417.382	117.88
417.605	124.88
417.828	137.88
418.051	137.88
418.274	148.88
418.497	112.88
418.72	120.88
418.943	138.88
419.166	116.88
419.389	124.88
419.611	140.88
419.834	137.88
420.057	118.88
420.28	122.88
420.503	131.88
420.726	125.88
420.948	122.88
421.171	120.88
421.394	124.88
421.617	132.88
421.839	120.88
422.062	134.88
422.285	117.88
422.507	129.88
422.73	126.88
422.953	130.88
423.175	139.88
423.398	128.88
423.621	142.88
423.843	138.88
424.066	121.88
424.288	142.88
424.511	127.88
424.733	136.88
424.956	137.88
425.178	141.88
425.401	141.88
425.623	152.88
425.846	136.88
426.068	115.88
426.291	126.88
426.513	137.88
426.735	121.88
426.958	130.88
427.18	135.88
427.402	145.88
427.625	150.88
427.847	138.88
428.069	112.88
428.292	136.88
428.514	123.88
428.736	124.88
428.958	117.88
429.181	111.88
429.403	114.88
429.625	124.88
429.847	115.88
430.069	137.88
430.292	130.88
430.514	122.88
430.736	117.88
430.958	131.88
431.18	122.88
431.402	113.88
431.624	118.88
431.846	128.88
432.068	128.88
432.29	135.88
432.512	124.88
432.734	126.88
432.956	115.88
433.178	114.88
433.4	127.88
433.622	124.88
433.844	124.88
434.066	126.88
434.287	133.88
434.509	120.88
434.731	134.88
434.953	129.88
435.175	122.88
435.397	132.88
435.618	126.88
435.84	121.88
436.062	134.88
436.284	137.88
436.505	121.88
436.727	125.88
436.949	141.88
437.17	131.88
437.392	118.88
437.614	122.88
437.835	121.88
438.057	125.88
438.278	144.88
438.5	136.88
438.721	132.88
438.943	134.88
439.165	117.88
439.386	133.88
439.608	132.88
439.829	131.88
440.05	123.88
440.272	120.88
440.493	123.88
440.715	124.88
440.936	138.88
441.158	128.88
441.379	126.88
441.6	134.88
441.822	132.88
442.043	133.88
442.264	136.88
442.486	149.88
442.707	147.88
442.928	122.88
443.149	141.88
443.371	136.88
443.592	136.88
443.813	128.88
444.034	148.88
444.255	122.88
444.476	136.88
444.698	135.88
444.919	145.88
445.14	263.88
445.361	197.88
445.582	138.88
445.803	137.88
446.024	138.88
446.245	131.88
446.466	120.88
446.687	117.88
446.908	132.88
447.129	127.88
447.35	117.88
447.571	125.88
447.792	118.88
448.013	122.88
448.234	130.88
448.455	130.88
448.675	141.88
448.896	148.88
449.117	122.88
449.338	132.88
449.559	136.88
449.779	143.88
450	123.88
450.221	121.88
450.442	120.88
450.662	117.88
450.883	118.88
451.104	108.88
451.324	142.88
451.545	136.88
451.766	123.88
451.986	122.88
452.207	108.88
452.428	128.88
452.648	121.88
452.869	120.88
453.089	116.88
453.31	110.88
453.53	121.88
453.751	108.88
453.971	108.88
454.192	114.88
454.412	116.88
454.633	122.88
454.853	117.88
455.073	108.88
455.294	123.88
455.514	114.88
455.734	116.88
455.955	110.88
456.175	109.88
456.395	118.88
456.616	121.88
456.836	124.88
457.056	120.88
457.276	118.88
457.497	105.88
457.717	125.88
457.937	113.88
458.157	134.88
458.377	132.88
458.598	114.88
458.818	132.88
459.038	121.88
459.258	133.88
459.478	132.88
459.698	125.88
459.918	118.88
460.138	119.88
460.358	134.88
460.578	118.88
460.798	140.88
461.018	115.88
461.238	128.88
461.458	133.88
461.678	112.88
461.898	120.88
462.118	128.88
462.338	137.88
462.558	126.88
462.777	123.88
462.997	134.88
463.217	118.88
463.437	142.88
463.657	123.88
463.876	134.88
464.096	144.88
464.316	110.88
464.536	128.88
464.755	134.88
464.975	128.88
465.195	124.88
465.414	132.88
465.634	125.88
465.854	128.88
466.073	130.88
466.293	119.88
466.512	120.88
466.732	123.88
466.951	122.88
467.171	132.88
467.391	126.88
467.61	120.88
467.829	119.88
468.049	108.88
468.268	112.88
468.488	120.88
468.707	125.88
468.927	126.88
469.146	109.88
469.365	132.88
469.585	112.88
469.804	119.88
470.023	121.88
470.243	123.88
470.462	132.88
470.681	138.88
470.901	124.88
471.12	130.88
471.339	121.88
471.558	121.88
471.777	109.88
471.997	115.88
472.216	121.88
472.435	116.88
472.654	118.88
472.873	117.88
473.092	110.88
473.311	126.88
473.53	116.88
473.749	121.88
473.968	121.88
474.187	129.88
474.406	108.88
474.625	116.88
474.844	126.88
475.063	133.88
475.282	116.88
475.501	124.88
475.72	128.88
475.939	121.88
476.158	129.88
476.377	148.88
476.596	116.88
476.814	123.88
477.033	119.88
477.252	128.88
477.471	129.88
477.69	122.88
477.908	139.88
478.127	134.88
478.346	134.88
478.564	124.88
478.783	133.88
479.002	118.88
479.22	129.88
479.439	134.88
479.658	130.88
479.876	133.88
480.095	136.88
480.313	140.88
480.532	123.88
480.751	138.88
480.969	132.88
481.188	134.88
481.406	140.88
481.624	136.88
481.843	132.88
482.061	126.88
482.28	115.88
482.498	121.88
482.717	137.88
482.935	137.88
483.153	131.88
483.372	120.88
483.59	138.88
483.808	136.88
484.027	130.88
484.245	135.88
484.463	145.88
484.681	125.88
484.9	136.88
485.118	115.88
485.336	133.88
485.554	120.88
485.772	127.88
485.99	122.88
486.209	128.88
486.427	134.88
486.645	133.88
486.863	130.88
487.081	131.88
487.299	136.88
487.517	128.88
487.735	131.88
487.953	136.88
488.171	147.88
488.389	141.88
488.607	133.88
488.825	133.88
489.043	135.88
489.261	130.88
489.479	140.88
489.696	126.88
489.914	132.88
490.132	139.88
490.35	136.88
490.568	124.88
490.786	126.88
491.003	137.88
491.221	152.88
491.439	138.88
491.657	140.88
491.874	134.88
492.092	132.88
492.31	151.88
492.527	131.88
492.745	141.88
492.963	150.88
493.18	143.88
493.398	133.88
493.615	138.88
493.833	136.88
494.05	146.88
494.268	146.88
494.485	138.88
494.703	153.88
494.92	135.88
495.138	143.88
495.355	138.88
495.573	140.88
495.79	146.88
496.008	128.88
496.225	149.88
496.442	141.88
496.66	141.88
496.877	130.88
497.094	170.88
497.312	155.88
497.529	132.88
497.746	155.88
497.963	153.88
498.181	149.88
498.398	153.88
498.615	165.88
498.832	157.88
499.049	165.88
499.267	170.88
499.484	157.88
499.701	184.88
499.918	191.88
500.135	205.88
500.352	215.88
500.569	202.88
500.786	205.88
501.003	213.88
501.22	210.88
501.437	194.88
501.654	197.88
501.871	170.88
502.088	185.88
502.305	155.88
502.522	172.88
502.739	154.88
502.956	136.88
503.172	148.88
503.389	135.88
503.606	146.88
503.823	148.88
504.04	148.88
504.256	150.88
504.473	143.88
504.69	148.88
504.907	146.88
505.123	138.88
505.34	132.88
505.557	136.88
505.773	137.88
505.99	130.88
506.207	132.88
