Data from 1968.PennyLincolnUp.Lamp.En5.5.200Scan.071719.P1._HRD10591_14-50-03-969.txt Node
Date: Thu Jul 18 14:50:03 EDT 2019
User: cochatt
Spectrometer: HR+D1059
Trigger mode: 1
Integration Time (sec): 1.000000E-1
Scans to average: 1
Electric dark correction enabled: true
Nonlinearity correction enabled: false
Boxcar width: 0
XAxis mode: Wavelengths
Number of Pixels in Spectrum: 2048
>>>>>Begin Spectral Data<<<<<
223.165	-8.5
223.4	-8.5
223.635	-8.5
223.869	-24.5
224.104	-13.5
224.338	-17.5
224.573	-21.5
224.808	-14.5
225.042	-12.5
225.277	-14.5
225.511	-1.5
225.746	-0.5
225.98	7.5
226.215	11.5
226.449	12.5
226.683	28.5
226.918	30.5
227.152	38.5
227.387	28.5
227.621	37.5
227.856	53.5
228.09	50.5
228.324	53.5
228.559	49.5
228.793	60.5
229.027	60.5
229.262	62.5
229.496	70.5
229.73	77.5
229.964	84.5
230.199	91.5
230.433	77.5
230.667	79.5
230.901	85.5
231.136	95.5
231.37	90.5
231.604	88.5
231.838	77.5
232.072	99.5
232.306	82.5
232.541	80.5
232.775	99.5
233.009	81.5
233.243	74.5
233.477	84.5
233.711	88.5
233.945	78.5
234.179	92.5
234.413	86.5
234.647	87.5
234.881	101.5
235.115	93.5
235.349	85.5
235.583	79.5
235.817	79.5
236.051	90.5
236.285	88.5
236.519	73.5
236.753	90.5
236.987	85.5
237.221	89.5
237.455	83.5
237.689	71.5
237.922	87.5
238.156	97.5
238.39	65.5
238.624	88.5
238.858	79.5
239.091	79.5
239.325	79.5
239.559	85.5
239.793	80.5
240.027	82.5
240.26	53.5
240.494	85.5
240.728	81.5
240.961	75.5
241.195	89.5
241.429	93.5
241.662	78.5
241.896	69.5
242.13	78.5
242.363	81.5
242.597	78.5
242.83	71.5
243.064	83.5
243.298	85.5
243.531	91.5
243.765	75.5
243.998	95.5
244.232	72.5
244.465	80.5
244.699	90.5
244.932	69.5
245.166	92.5
245.399	91.5
245.633	79.5
245.866	86.5
246.099	80.5
246.333	89.5
246.566	82.5
246.8	69.5
247.033	83.5
247.266	87.5
247.5	99.5
247.733	91.5
247.966	90.5
248.2	80.5
248.433	84.5
248.666	74.5
248.899	82.5
249.133	93.5
249.366	89.5
249.599	78.5
249.832	93.5
250.066	84.5
250.299	83.5
250.532	80.5
250.765	89.5
250.998	86.5
251.231	94.5
251.465	76.5
251.698	79.5
251.931	87.5
252.164	87.5
252.397	83.5
252.63	91.5
252.863	86.5
253.096	89.5
253.329	83.5
253.562	95.5
253.795	83.5
254.028	84.5
254.261	88.5
254.494	89.5
254.727	100.5
254.96	77.5
255.193	93.5
255.426	99.5
255.659	82.5
255.892	99.5
256.124	85.5
256.357	75.5
256.59	89.5
256.823	73.5
257.056	101.5
257.289	109.5
257.521	97.5
257.754	76.5
257.987	98.5
258.22	92.5
258.452	96.5
258.685	90.5
258.918	78.5
259.151	86.5
259.383	90.5
259.616	90.5
259.849	100.5
260.081	92.5
260.314	107.5
260.547	90.5
260.779	93.5
261.012	86.5
261.244	68.5
261.477	104.5
261.71	84.5
261.942	104.5
262.175	76.5
262.407	85.5
262.64	101.5
262.872	92.5
263.105	94.5
263.337	91.5
263.57	101.5
263.802	91.5
264.035	84.5
264.267	93.5
264.499	103.5
264.732	89.5
264.964	86.5
265.197	99.5
265.429	98.5
265.661	93.5
265.894	91.5
266.126	98.5
266.358	91.5
266.591	103.5
266.823	87.5
267.055	82.5
267.287	92.5
267.52	85.5
267.752	83.5
267.984	104.5
268.216	97.5
268.448	84.5
268.681	95.5
268.913	96.5
269.145	94.5
269.377	90.5
269.609	90.5
269.841	86.5
270.073	99.5
270.306	105.5
270.538	106.5
270.77	106.5
271.002	85.5
271.234	104.5
271.466	91.5
271.698	106.5
271.93	105.5
272.162	96.5
272.394	107.5
272.626	101.5
272.858	106.5
273.09	95.5
273.322	95.5
273.553	83.5
273.785	93.5
274.017	92.5
274.249	100.5
274.481	88.5
274.713	87.5
274.945	75.5
275.176	104.5
275.408	104.5
275.64	94.5
275.872	89.5
276.104	97.5
276.335	92.5
276.567	104.5
276.799	98.5
277.031	91.5
277.262	102.5
277.494	99.5
277.726	107.5
277.957	108.5
278.189	122.5
278.421	96.5
278.652	93.5
278.884	95.5
279.115	96.5
279.347	108.5
279.579	107.5
279.81	102.5
280.042	101.5
280.273	105.5
280.505	87.5
280.736	91.5
280.968	100.5
281.199	80.5
281.431	103.5
281.662	87.5
281.894	100.5
282.125	113.5
282.356	90.5
282.588	106.5
282.819	103.5
283.051	105.5
283.282	105.5
283.513	102.5
283.745	99.5
283.976	112.5
284.207	97.5
284.439	111.5
284.67	99.5
284.901	101.5
285.132	105.5
285.364	99.5
285.595	94.5
285.826	97.5
286.057	95.5
286.288	101.5
286.52	100.5
286.751	106.5
286.982	104.5
287.213	105.5
287.444	98.5
287.675	103.5
287.906	99.5
288.138	91.5
288.369	89.5
288.6	108.5
288.831	87.5
289.062	110.5
289.293	99.5
289.524	112.5
289.755	96.5
289.986	103.5
290.217	113.5
290.448	96.5
290.679	112.5
290.91	113.5
291.141	92.5
291.371	106.5
291.602	108.5
291.833	110.5
292.064	104.5
292.295	107.5
292.526	103.5
292.757	90.5
292.987	93.5
293.218	90.5
293.449	111.5
293.68	99.5
293.91	118.5
294.141	106.5
294.372	116.5
294.603	115.5
294.833	102.5
295.064	108.5
295.295	102.5
295.525	102.5
295.756	107.5
295.987	106.5
296.217	107.5
296.448	103.5
296.679	101.5
296.909	100.5
297.14	92.5
297.37	101.5
297.601	91.5
297.831	101.5
298.062	101.5
298.292	94.5
298.523	91.5
298.753	104.5
298.984	110.5
299.214	107.5
299.445	111.5
299.675	100.5
299.905	110.5
300.136	102.5
300.366	105.5
300.597	119.5
300.827	101.5
301.057	101.5
301.288	105.5
301.518	106.5
301.748	99.5
301.979	105.5
302.209	106.5
302.439	101.5
302.669	120.5
302.9	100.5
303.13	101.5
303.36	102.5
303.59	116.5
303.82	117.5
304.051	100.5
304.281	113.5
304.511	91.5
304.741	96.5
304.971	113.5
305.201	107.5
305.431	110.5
305.661	79.5
305.891	111.5
306.121	103.5
306.352	116.5
306.582	108.5
306.812	105.5
307.042	103.5
307.272	98.5
307.502	110.5
307.731	104.5
307.961	116.5
308.191	99.5
308.421	95.5
308.651	96.5
308.881	120.5
309.111	96.5
309.341	101.5
309.571	95.5
309.8	99.5
310.03	106.5
310.26	91.5
310.49	106.5
310.72	98.5
310.949	110.5
311.179	128.5
311.409	95.5
311.639	119.5
311.868	106.5
312.098	102.5
312.328	115.5
312.557	101.5
312.787	105.5
313.017	107.5
313.246	114.5
313.476	99.5
313.706	118.5
313.935	111.5
314.165	112.5
314.394	93.5
314.624	98.5
314.853	109.5
315.083	117.5
315.312	113.5
315.542	101.5
315.771	92.5
316.001	107.5
316.23	107.5
316.46	125.5
316.689	119.5
316.919	106.5
317.148	113.5
317.377	118.5
317.607	110.5
317.836	98.5
318.065	95.5
318.295	102.5
318.524	107.5
318.753	110.5
318.983	127.5
319.212	104.5
319.441	104.5
319.67	108.5
319.9	120.5
320.129	105.5
320.358	113.5
320.587	99.5
320.816	112.5
321.046	107.5
321.275	113.5
321.504	107.5
321.733	100.5
321.962	103.5
322.191	103.5
322.42	120.5
322.649	105.5
322.878	124.5
323.108	104.5
323.337	119.5
323.566	114.5
323.795	121.5
324.024	120.5
324.253	111.5
324.482	129.5
324.71	144.5
324.939	174.5
325.168	159.5
325.397	123.5
325.626	104.5
325.855	106.5
326.084	121.5
326.313	119.5
326.542	117.5
326.77	132.5
326.999	123.5
327.228	111.5
327.457	138.5
327.686	145.5
327.914	110.5
328.143	111.5
328.372	119.5
328.6	122.5
328.829	107.5
329.058	105.5
329.287	122.5
329.515	123.5
329.744	107.5
329.972	118.5
330.201	117.5
330.43	120.5
330.658	98.5
330.887	125.5
331.115	113.5
331.344	122.5
331.572	118.5
331.801	109.5
332.03	107.5
332.258	106.5
332.486	132.5
332.715	115.5
332.943	130.5
333.172	128.5
333.4	119.5
333.629	111.5
333.857	118.5
334.085	115.5
334.314	122.5
334.542	116.5
334.771	122.5
334.999	113.5
335.227	114.5
335.455	114.5
335.684	127.5
335.912	108.5
336.14	110.5
336.369	121.5
336.597	110.5
336.825	105.5
337.053	116.5
337.281	119.5
337.51	109.5
337.738	111.5
337.966	131.5
338.194	116.5
338.422	107.5
338.65	118.5
338.878	107.5
339.106	121.5
339.334	128.5
339.562	105.5
339.79	101.5
340.018	114.5
340.246	121.5
340.474	116.5
340.702	110.5
340.93	125.5
341.158	110.5
341.386	115.5
341.614	103.5
341.842	104.5
342.07	115.5
342.298	109.5
342.526	110.5
342.754	108.5
342.981	116.5
343.209	117.5
343.437	122.5
343.665	115.5
343.893	122.5
344.12	125.5
344.348	121.5
344.576	124.5
344.804	125.5
345.031	120.5
345.259	114.5
345.487	108.5
345.714	106.5
345.942	112.5
346.17	105.5
346.397	102.5
346.625	120.5
346.853	94.5
347.08	117.5
347.308	106.5
347.535	115.5
347.763	110.5
347.99	108.5
348.218	130.5
348.445	115.5
348.673	108.5
348.9	94.5
349.128	129.5
349.355	109.5
349.583	123.5
349.81	115.5
350.037	104.5
350.265	119.5
350.492	120.5
350.72	88.5
350.947	116.5
351.174	105.5
351.402	103.5
351.629	92.5
351.856	117.5
352.083	103.5
352.311	112.5
352.538	103.5
352.765	122.5
352.992	104.5
353.22	117.5
353.447	111.5
353.674	124.5
353.901	113.5
354.128	94.5
354.355	94.5
354.583	110.5
354.81	117.5
355.037	115.5
355.264	119.5
355.491	111.5
355.718	103.5
355.945	115.5
356.172	113.5
356.399	112.5
356.626	102.5
356.853	116.5
357.08	107.5
357.307	102.5
357.534	123.5
357.761	106.5
357.988	125.5
358.215	123.5
358.441	123.5
358.668	118.5
358.895	108.5
359.122	125.5
359.349	102.5
359.576	91.5
359.802	129.5
360.029	121.5
360.256	110.5
360.483	105.5
360.709	105.5
360.936	114.5
361.163	113.5
361.39	119.5
361.616	103.5
361.843	106.5
362.07	107.5
362.296	115.5
362.523	117.5
362.749	103.5
362.976	104.5
363.203	106.5
363.429	123.5
363.656	115.5
363.882	117.5
364.109	111.5
364.335	109.5
364.562	105.5
364.788	105.5
365.015	101.5
365.241	115.5
365.468	109.5
365.694	120.5
365.92	97.5
366.147	113.5
366.373	106.5
366.599	107.5
366.826	102.5
367.052	107.5
367.278	109.5
367.505	103.5
367.731	111.5
367.957	118.5
368.184	108.5
368.41	106.5
368.636	113.5
368.862	115.5
369.089	108.5
369.315	106.5
369.541	110.5
369.767	122.5
369.993	110.5
370.219	87.5
370.445	122.5
370.672	111.5
370.898	113.5
371.124	126.5
371.35	103.5
371.576	100.5
371.802	120.5
372.028	116.5
372.254	94.5
372.48	113.5
372.706	117.5
372.932	102.5
373.158	115.5
373.384	120.5
373.61	115.5
373.835	123.5
374.061	121.5
374.287	114.5
374.513	103.5
374.739	116.5
374.965	105.5
375.191	109.5
375.416	134.5
375.642	115.5
375.868	107.5
376.094	89.5
376.319	112.5
376.545	103.5
376.771	107.5
376.997	121.5
377.222	112.5
377.448	106.5
377.674	107.5
377.899	116.5
378.125	113.5
378.35	103.5
378.576	94.5
378.802	118.5
379.027	105.5
379.253	110.5
379.478	108.5
379.704	114.5
379.929	98.5
380.155	115.5
380.38	124.5
380.606	103.5
380.831	99.5
381.057	122.5
381.282	108.5
381.507	101.5
381.733	109.5
381.958	119.5
382.184	119.5
382.409	107.5
382.634	119.5
382.86	113.5
383.085	122.5
383.31	94.5
383.535	114.5
383.761	117.5
383.986	113.5
384.211	125.5
384.436	122.5
384.662	122.5
384.887	126.5
385.112	106.5
385.337	113.5
385.562	119.5
385.787	135.5
386.013	147.5
386.238	118.5
386.463	114.5
386.688	109.5
386.913	121.5
387.138	97.5
387.363	97.5
387.588	121.5
387.813	108.5
388.038	122.5
388.263	120.5
388.488	127.5
388.713	125.5
388.938	125.5
389.163	114.5
389.387	120.5
389.612	125.5
389.837	106.5
390.062	113.5
390.287	110.5
390.512	110.5
390.736	115.5
390.961	116.5
391.186	108.5
391.411	121.5
391.636	117.5
391.86	117.5
392.085	110.5
392.31	122.5
392.534	102.5
392.759	98.5
392.984	128.5
393.208	129.5
393.433	127.5
393.658	119.5
393.882	120.5
394.107	117.5
394.331	110.5
394.556	127.5
394.78	123.5
395.005	117.5
395.229	128.5
395.454	114.5
395.678	126.5
395.903	110.5
396.127	129.5
396.352	125.5
396.576	135.5
396.801	118.5
397.025	107.5
397.249	125.5
397.474	122.5
397.698	127.5
397.922	142.5
398.147	125.5
398.371	135.5
398.595	121.5
398.82	133.5
399.044	118.5
399.268	136.5
399.492	139.5
399.717	148.5
399.941	155.5
400.165	149.5
400.389	130.5
400.613	133.5
400.837	131.5
401.062	123.5
401.286	138.5
401.51	119.5
401.734	125.5
401.958	125.5
402.182	127.5
402.406	141.5
402.63	129.5
402.854	133.5
403.078	117.5
403.302	129.5
403.526	118.5
403.75	142.5
403.974	132.5
404.198	145.5
404.422	137.5
404.645	131.5
404.869	135.5
405.093	122.5
405.317	126.5
405.541	135.5
405.765	122.5
405.988	133.5
406.212	135.5
406.436	129.5
406.66	140.5
406.883	145.5
407.107	143.5
407.331	134.5
407.555	158.5
407.778	138.5
408.002	137.5
408.226	124.5
408.449	119.5
408.673	129.5
408.896	129.5
409.12	136.5
409.344	147.5
409.567	133.5
409.791	129.5
410.014	130.5
410.238	134.5
410.461	134.5
410.685	137.5
410.908	129.5
411.132	125.5
411.355	142.5
411.578	140.5
411.802	120.5
412.025	116.5
412.249	120.5
412.472	116.5
412.695	138.5
412.919	124.5
413.142	121.5
413.365	122.5
413.589	126.5
413.812	122.5
414.035	123.5
414.258	129.5
414.482	136.5
414.705	132.5
414.928	135.5
415.151	139.5
415.374	129.5
415.597	135.5
415.821	130.5
416.044	125.5
416.267	128.5
416.49	115.5
416.713	118.5
416.936	122.5
417.159	121.5
417.382	117.5
417.605	123.5
417.828	121.5
418.051	117.5
418.274	127.5
418.497	114.5
418.72	122.5
418.943	139.5
419.166	134.5
419.389	133.5
419.611	141.5
419.834	139.5
420.057	137.5
420.28	132.5
420.503	138.5
420.726	117.5
420.948	138.5
421.171	119.5
421.394	129.5
421.617	125.5
421.839	127.5
422.062	143.5
422.285	137.5
422.507	120.5
422.73	135.5
422.953	135.5
423.175	117.5
423.398	131.5
423.621	135.5
423.843	122.5
424.066	134.5
424.288	136.5
424.511	140.5
424.733	138.5
424.956	146.5
425.178	127.5
425.401	149.5
425.623	142.5
425.846	131.5
426.068	110.5
426.291	121.5
426.513	123.5
426.735	127.5
426.958	119.5
427.18	141.5
427.402	139.5
427.625	133.5
427.847	118.5
428.069	121.5
428.292	122.5
428.514	106.5
428.736	107.5
428.958	129.5
429.181	117.5
429.403	126.5
429.625	127.5
429.847	119.5
430.069	123.5
430.292	121.5
430.514	108.5
430.736	114.5
430.958	139.5
431.18	126.5
431.402	116.5
431.624	101.5
431.846	131.5
432.068	114.5
432.29	124.5
432.512	121.5
432.734	124.5
432.956	125.5
433.178	131.5
433.4	121.5
433.622	115.5
433.844	128.5
434.066	129.5
434.287	118.5
434.509	111.5
434.731	136.5
434.953	127.5
435.175	121.5
435.397	127.5
435.618	136.5
435.84	125.5
436.062	150.5
436.284	138.5
436.505	136.5
436.727	124.5
436.949	130.5
437.17	123.5
437.392	124.5
437.614	116.5
437.835	121.5
438.057	138.5
438.278	131.5
438.5	128.5
438.721	137.5
438.943	126.5
439.165	121.5
439.386	105.5
439.608	122.5
439.829	131.5
440.05	113.5
440.272	121.5
440.493	132.5
440.715	137.5
440.936	121.5
441.158	131.5
441.379	130.5
441.6	139.5
441.822	113.5
442.043	117.5
442.264	134.5
442.486	131.5
442.707	126.5
442.928	131.5
443.149	138.5
443.371	131.5
443.592	139.5
443.813	127.5
444.034	124.5
444.255	139.5
444.476	146.5
444.698	137.5
444.919	153.5
445.14	255.5
445.361	190.5
445.582	140.5
445.803	128.5
446.024	141.5
446.245	148.5
446.466	143.5
446.687	132.5
446.908	129.5
447.129	127.5
447.35	125.5
447.571	134.5
447.792	141.5
448.013	131.5
448.234	127.5
448.455	117.5
448.675	133.5
448.896	128.5
449.117	121.5
449.338	127.5
449.559	135.5
449.779	134.5
450	137.5
450.221	127.5
450.442	115.5
450.662	109.5
450.883	117.5
451.104	115.5
451.324	112.5
451.545	126.5
451.766	101.5
451.986	109.5
452.207	124.5
452.428	110.5
452.648	122.5
452.869	131.5
453.089	107.5
453.31	116.5
453.53	110.5
453.751	123.5
453.971	127.5
454.192	111.5
454.412	107.5
454.633	115.5
454.853	116.5
455.073	127.5
455.294	127.5
455.514	119.5
455.734	114.5
455.955	117.5
456.175	108.5
456.395	115.5
456.616	133.5
456.836	117.5
457.056	104.5
457.276	119.5
457.497	115.5
457.717	111.5
457.937	116.5
458.157	113.5
458.377	120.5
458.598	122.5
458.818	132.5
459.038	134.5
459.258	130.5
459.478	125.5
459.698	116.5
459.918	117.5
460.138	124.5
460.358	130.5
460.578	123.5
460.798	128.5
461.018	137.5
461.238	116.5
461.458	124.5
461.678	142.5
461.898	135.5
462.118	133.5
462.338	116.5
462.558	126.5
462.777	118.5
462.997	131.5
463.217	148.5
463.437	147.5
463.657	118.5
463.876	122.5
464.096	131.5
464.316	137.5
464.536	133.5
464.755	132.5
464.975	133.5
465.195	147.5
465.414	141.5
465.634	138.5
465.854	124.5
466.073	127.5
466.293	125.5
466.512	127.5
466.732	110.5
466.951	109.5
467.171	130.5
467.391	131.5
467.61	128.5
467.829	111.5
468.049	107.5
468.268	110.5
468.488	119.5
468.707	120.5
468.927	122.5
469.146	129.5
469.365	112.5
469.585	113.5
469.804	118.5
470.023	117.5
470.243	122.5
470.462	131.5
470.681	114.5
470.901	119.5
471.12	117.5
471.339	130.5
471.558	109.5
471.777	116.5
471.997	101.5
472.216	120.5
472.435	114.5
472.654	103.5
472.873	116.5
473.092	115.5
473.311	115.5
473.53	135.5
473.749	120.5
473.968	132.5
474.187	140.5
474.406	132.5
474.625	107.5
474.844	106.5
475.063	118.5
475.282	113.5
475.501	123.5
475.72	128.5
475.939	127.5
476.158	136.5
476.377	135.5
476.596	122.5
476.814	125.5
477.033	110.5
477.252	123.5
477.471	128.5
477.69	119.5
477.908	124.5
478.127	129.5
478.346	125.5
478.564	126.5
478.783	137.5
479.002	134.5
479.22	139.5
479.439	118.5
479.658	123.5
479.876	127.5
480.095	135.5
480.313	143.5
480.532	130.5
480.751	149.5
480.969	127.5
481.188	137.5
481.406	126.5
481.624	135.5
481.843	134.5
482.061	120.5
482.28	135.5
482.498	140.5
482.717	120.5
482.935	151.5
483.153	128.5
483.372	125.5
483.59	149.5
483.808	120.5
484.027	133.5
484.245	135.5
484.463	134.5
484.681	146.5
484.9	126.5
485.118	127.5
485.336	123.5
485.554	142.5
485.772	118.5
485.99	143.5
486.209	125.5
486.427	130.5
486.645	126.5
486.863	137.5
487.081	125.5
487.299	119.5
487.517	128.5
487.735	118.5
487.953	134.5
488.171	155.5
488.389	119.5
488.607	131.5
488.825	134.5
489.043	123.5
489.261	141.5
489.479	123.5
489.696	140.5
489.914	129.5
490.132	135.5
490.35	140.5
490.568	142.5
490.786	139.5
491.003	139.5
491.221	149.5
491.439	139.5
491.657	141.5
491.874	164.5
492.092	138.5
492.31	153.5
492.527	146.5
492.745	142.5
492.963	135.5
493.18	147.5
493.398	142.5
493.615	143.5
493.833	127.5
494.05	141.5
494.268	133.5
494.485	118.5
494.703	150.5
494.92	152.5
495.138	135.5
495.355	154.5
495.573	162.5
495.79	139.5
496.008	137.5
496.225	142.5
496.442	143.5
496.66	152.5
496.877	149.5
497.094	161.5
497.312	133.5
497.529	139.5
497.746	133.5
497.963	146.5
498.181	161.5
498.398	156.5
498.615	158.5
498.832	155.5
499.049	149.5
499.267	169.5
499.484	172.5
499.701	185.5
499.918	193.5
500.135	190.5
500.352	211.5
500.569	192.5
500.786	213.5
501.003	202.5
501.22	196.5
501.437	197.5
501.654	179.5
501.871	175.5
502.088	150.5
502.305	149.5
502.522	149.5
502.739	157.5
502.956	147.5
503.172	149.5
503.389	157.5
503.606	142.5
503.823	141.5
504.04	158.5
504.256	140.5
504.473	159.5
504.69	149.5
504.907	133.5
505.123	144.5
505.34	124.5
505.557	145.5
505.773	153.5
505.99	141.5
506.207	151.5
506.423	125.5
506.64	137.5
506.856	125.5
507.073	126.5
507.289	132.5
507.506	121.5
507.722	133.5
507.939	131.5
508.155	143.5
508.372	135.5
508.588	138.5
508.805	126.5
509.021	137.5
509.238	138.5
509.454	125.5
509.67	126.5
509.887	100.5
510.103	131.5
510.319	120.5
510.536	125.5
510.752	172.5
510.968	148.5
511.184	124.5
511.401	136.5
511.617	139.5
511.833	118.5
512.049	129.5
512.265	130.5
512.481	130.5
512.698	128.5
512.914	116.5
513.13	122.5
513.346	117.5
513.562	133.5
513.778	134.5
513.994	126.5
514.21	119.5
514.426	133.5
514.642	138.5
514.858	133.5
515.074	126.5
515.29	139.5
515.506	163.5
515.721	163.5
515.937	137.5
516.153	129.5
516.369	139.5
516.585	132.5
516.801	130.5
517.016	138.5
517.232	131.5
517.448	131.5
517.664	141.5
517.879	144.5
518.095	136.5
518.311	148.5
518.527	134.5
518.742	123.5
518.958	135.5
519.173	138.5
519.389	132.5
519.605	134.5
519.82	125.5
520.036	147.5
520.251	134.5
520.467	111.5
520.682	121.5
520.898	119.5
521.113	115.5
521.329	123.5
521.544	141.5
521.76	142.5
521.975	185.5
522.19	174.5
522.406	137.5
522.621	137.5
522.836	112.5
523.052	123.5
523.267	132.5
523.482	120.5
523.698	133.5
