Data from 1968.PennyLincolnUp.Lamp.En5.5.200Scan.071719.P1._HRD10591_14-49-40-969.txt Node
Date: Thu Jul 18 14:49:40 EDT 2019
User: cochatt
Spectrometer: HR+D1059
Trigger mode: 1
Integration Time (sec): 1.000000E-1
Scans to average: 1
Electric dark correction enabled: true
Nonlinearity correction enabled: false
Boxcar width: 0
XAxis mode: Wavelengths
Number of Pixels in Spectrum: 2048
>>>>>Begin Spectral Data<<<<<
223.165	-4.06
223.4	-4.06
223.635	-4.06
223.869	-13.06
224.104	-27.06
224.338	-14.06
224.573	-5.06
224.808	-22.06
225.042	-25.06
225.277	-4.06
225.511	-17.06
225.746	27.94
225.98	8.94
226.215	3.94
226.449	21.94
226.683	9.94
226.918	28.94
227.152	29.94
227.387	27.94
227.621	43.94
227.856	46.94
228.09	55.94
228.324	59.94
228.559	60.94
228.793	69.94
229.027	69.94
229.262	62.94
229.496	54.94
229.73	82.94
229.964	84.94
230.199	70.94
230.433	89.94
230.667	84.94
230.901	76.94
231.136	85.94
231.37	82.94
231.604	76.94
231.838	91.94
232.072	93.94
232.306	84.94
232.541	88.94
232.775	94.94
233.009	91.94
233.243	100.94
233.477	86.94
233.711	87.94
233.945	94.94
234.179	101.94
234.413	98.94
234.647	96.94
234.881	102.94
235.115	82.94
235.349	86.94
235.583	101.94
235.817	96.94
236.051	83.94
236.285	86.94
236.519	79.94
236.753	83.94
236.987	84.94
237.221	80.94
237.455	89.94
237.689	81.94
237.922	91.94
238.156	80.94
238.39	81.94
238.624	86.94
238.858	103.94
239.091	83.94
239.325	97.94
239.559	88.94
239.793	84.94
240.027	93.94
240.26	88.94
240.494	83.94
240.728	87.94
240.961	89.94
241.195	98.94
241.429	91.94
241.662	77.94
241.896	72.94
242.13	84.94
242.363	85.94
242.597	81.94
242.83	74.94
243.064	102.94
243.298	83.94
243.531	82.94
243.765	75.94
243.998	91.94
244.232	82.94
244.465	87.94
244.699	81.94
244.932	89.94
245.166	93.94
245.399	91.94
245.633	93.94
245.866	78.94
246.099	95.94
246.333	88.94
246.566	83.94
246.8	87.94
247.033	76.94
247.266	85.94
247.5	73.94
247.733	88.94
247.966	99.94
248.2	90.94
248.433	86.94
248.666	80.94
248.899	90.94
249.133	93.94
249.366	91.94
249.599	96.94
249.832	78.94
250.066	83.94
250.299	94.94
250.532	91.94
250.765	97.94
250.998	101.94
251.231	109.94
251.465	84.94
251.698	111.94
251.931	106.94
252.164	90.94
252.397	91.94
252.63	95.94
252.863	75.94
253.096	83.94
253.329	105.94
253.562	96.94
253.795	95.94
254.028	77.94
254.261	87.94
254.494	80.94
254.727	92.94
254.96	97.94
255.193	93.94
255.426	87.94
255.659	94.94
255.892	87.94
256.124	79.94
256.357	101.94
256.59	102.94
256.823	99.94
257.056	96.94
257.289	102.94
257.521	78.94
257.754	91.94
257.987	88.94
258.22	87.94
258.452	88.94
258.685	97.94
258.918	101.94
259.151	102.94
259.383	95.94
259.616	101.94
259.849	95.94
260.081	85.94
260.314	88.94
260.547	97.94
260.779	87.94
261.012	82.94
261.244	99.94
261.477	96.94
261.71	101.94
261.942	89.94
262.175	97.94
262.407	96.94
262.64	101.94
262.872	91.94
263.105	85.94
263.337	96.94
263.57	93.94
263.802	82.94
264.035	106.94
264.267	89.94
264.499	85.94
264.732	104.94
264.964	91.94
265.197	116.94
265.429	95.94
265.661	94.94
265.894	101.94
266.126	102.94
266.358	93.94
266.591	96.94
266.823	104.94
267.055	86.94
267.287	79.94
267.52	96.94
267.752	93.94
267.984	90.94
268.216	90.94
268.448	106.94
268.681	98.94
268.913	107.94
269.145	101.94
269.377	100.94
269.609	95.94
269.841	101.94
270.073	103.94
270.306	89.94
270.538	103.94
270.77	98.94
271.002	97.94
271.234	96.94
271.466	98.94
271.698	105.94
271.93	98.94
272.162	100.94
272.394	118.94
272.626	91.94
272.858	88.94
273.09	91.94
273.322	109.94
273.553	107.94
273.785	110.94
274.017	90.94
274.249	106.94
274.481	101.94
274.713	110.94
274.945	93.94
275.176	95.94
275.408	102.94
275.64	94.94
275.872	91.94
276.104	98.94
276.335	87.94
276.567	107.94
276.799	102.94
277.031	113.94
277.262	98.94
277.494	80.94
277.726	112.94
277.957	94.94
278.189	84.94
278.421	93.94
278.652	103.94
278.884	96.94
279.115	95.94
279.347	88.94
279.579	95.94
279.81	91.94
280.042	111.94
280.273	90.94
280.505	93.94
280.736	106.94
280.968	102.94
281.199	103.94
281.431	103.94
281.662	103.94
281.894	112.94
282.125	107.94
282.356	103.94
282.588	103.94
282.819	103.94
283.051	94.94
283.282	92.94
283.513	105.94
283.745	101.94
283.976	108.94
284.207	96.94
284.439	99.94
284.67	104.94
284.901	93.94
285.132	93.94
285.364	93.94
285.595	77.94
285.826	118.94
286.057	114.94
286.288	113.94
286.52	103.94
286.751	103.94
286.982	101.94
287.213	103.94
287.444	106.94
287.675	106.94
287.906	106.94
288.138	103.94
288.369	111.94
288.6	111.94
288.831	101.94
289.062	102.94
289.293	103.94
289.524	104.94
289.755	105.94
289.986	93.94
290.217	102.94
290.448	111.94
290.679	102.94
290.91	106.94
291.141	93.94
291.371	113.94
291.602	93.94
291.833	109.94
292.064	103.94
292.295	98.94
292.526	101.94
292.757	95.94
292.987	96.94
293.218	106.94
293.449	124.94
293.68	104.94
293.91	104.94
294.141	88.94
294.372	92.94
294.603	92.94
294.833	106.94
295.064	99.94
295.295	122.94
295.525	101.94
295.756	101.94
295.987	95.94
296.217	103.94
296.448	108.94
296.679	105.94
296.909	107.94
297.14	106.94
297.37	107.94
297.601	96.94
297.831	108.94
298.062	107.94
298.292	107.94
298.523	106.94
298.753	101.94
298.984	96.94
299.214	114.94
299.445	104.94
299.675	104.94
299.905	97.94
300.136	109.94
300.366	106.94
300.597	105.94
300.827	116.94
301.057	115.94
301.288	107.94
301.518	102.94
301.748	120.94
301.979	118.94
302.209	112.94
302.439	112.94
302.669	96.94
302.9	109.94
303.13	88.94
303.36	111.94
303.59	97.94
303.82	98.94
304.051	113.94
304.281	113.94
304.511	129.94
304.741	103.94
304.971	107.94
305.201	114.94
305.431	115.94
305.661	94.94
305.891	98.94
306.121	111.94
306.352	118.94
306.582	105.94
306.812	107.94
307.042	124.94
307.272	98.94
307.502	109.94
307.731	109.94
307.961	99.94
308.191	109.94
308.421	110.94
308.651	108.94
308.881	111.94
309.111	111.94
309.341	98.94
309.571	115.94
309.8	102.94
310.03	114.94
310.26	130.94
310.49	97.94
310.72	93.94
310.949	102.94
311.179	115.94
311.409	103.94
311.639	107.94
311.868	114.94
312.098	89.94
312.328	82.94
312.557	99.94
312.787	107.94
313.017	127.94
313.246	108.94
313.476	106.94
313.706	114.94
313.935	112.94
314.165	106.94
314.394	121.94
314.624	108.94
314.853	113.94
315.083	128.94
315.312	106.94
315.542	103.94
315.771	111.94
316.001	94.94
316.23	107.94
316.46	106.94
316.689	119.94
316.919	119.94
317.148	114.94
317.377	123.94
317.607	120.94
317.836	97.94
318.065	119.94
318.295	117.94
318.524	113.94
318.753	116.94
318.983	107.94
319.212	91.94
319.441	113.94
319.67	110.94
319.9	120.94
320.129	112.94
320.358	112.94
320.587	110.94
320.816	128.94
321.046	120.94
321.275	111.94
321.504	115.94
321.733	98.94
321.962	113.94
322.191	110.94
322.42	115.94
322.649	117.94
322.878	116.94
323.108	126.94
323.337	117.94
323.566	108.94
323.795	125.94
324.024	107.94
324.253	125.94
324.482	143.94
324.71	155.94
324.939	171.94
325.168	152.94
325.397	122.94
325.626	111.94
325.855	109.94
326.084	128.94
326.313	121.94
326.542	107.94
326.77	114.94
326.999	134.94
327.228	127.94
327.457	157.94
327.686	160.94
327.914	130.94
328.143	110.94
328.372	112.94
328.6	96.94
328.829	116.94
329.058	112.94
329.287	121.94
329.515	111.94
329.744	117.94
329.972	119.94
330.201	116.94
330.43	121.94
330.658	119.94
330.887	123.94
331.115	121.94
331.344	123.94
331.572	112.94
331.801	127.94
332.03	113.94
332.258	130.94
332.486	100.94
332.715	125.94
332.943	115.94
333.172	117.94
333.4	123.94
333.629	121.94
333.857	132.94
334.085	107.94
334.314	114.94
334.542	133.94
334.771	135.94
334.999	127.94
335.227	116.94
335.455	129.94
335.684	119.94
335.912	122.94
336.14	123.94
336.369	118.94
336.597	115.94
336.825	127.94
337.053	106.94
337.281	116.94
337.51	111.94
337.738	127.94
337.966	122.94
338.194	115.94
338.422	103.94
338.65	129.94
338.878	117.94
339.106	128.94
339.334	125.94
339.562	120.94
339.79	127.94
340.018	105.94
340.246	125.94
340.474	119.94
340.702	127.94
340.93	122.94
341.158	115.94
341.386	118.94
341.614	122.94
341.842	112.94
342.07	107.94
342.298	116.94
342.526	128.94
342.754	104.94
342.981	117.94
343.209	120.94
343.437	125.94
343.665	125.94
343.893	106.94
344.12	118.94
344.348	121.94
344.576	105.94
344.804	107.94
345.031	103.94
345.259	122.94
345.487	125.94
345.714	113.94
345.942	114.94
346.17	112.94
346.397	127.94
346.625	106.94
346.853	115.94
347.08	124.94
347.308	123.94
347.535	106.94
347.763	130.94
347.99	110.94
348.218	108.94
348.445	109.94
348.673	102.94
348.9	113.94
349.128	121.94
349.355	103.94
349.583	111.94
349.81	98.94
350.037	108.94
350.265	125.94
350.492	123.94
350.72	109.94
350.947	119.94
351.174	109.94
351.402	111.94
351.629	109.94
351.856	112.94
352.083	121.94
352.311	111.94
352.538	114.94
352.765	114.94
352.992	122.94
353.22	114.94
353.447	121.94
353.674	114.94
353.901	108.94
354.128	107.94
354.355	120.94
354.583	109.94
354.81	123.94
355.037	114.94
355.264	117.94
355.491	109.94
355.718	107.94
355.945	111.94
356.172	114.94
356.399	115.94
356.626	107.94
356.853	137.94
357.08	129.94
357.307	107.94
357.534	117.94
357.761	126.94
357.988	128.94
358.215	113.94
358.441	108.94
358.668	109.94
358.895	126.94
359.122	100.94
359.349	109.94
359.576	118.94
359.802	123.94
360.029	121.94
360.256	105.94
360.483	109.94
360.709	120.94
360.936	124.94
361.163	115.94
361.39	129.94
361.616	114.94
361.843	111.94
362.07	115.94
362.296	111.94
362.523	107.94
362.749	112.94
362.976	105.94
363.203	111.94
363.429	122.94
363.656	107.94
363.882	105.94
364.109	104.94
364.335	105.94
364.562	113.94
364.788	113.94
365.015	121.94
365.241	122.94
365.468	109.94
365.694	115.94
365.92	109.94
366.147	114.94
366.373	127.94
366.599	127.94
366.826	127.94
367.052	117.94
367.278	119.94
367.505	107.94
367.731	104.94
367.957	114.94
368.184	106.94
368.41	114.94
368.636	123.94
368.862	110.94
369.089	108.94
369.315	106.94
369.541	122.94
369.767	115.94
369.993	125.94
370.219	110.94
370.445	108.94
370.672	114.94
370.898	136.94
371.124	118.94
371.35	113.94
371.576	117.94
371.802	114.94
372.028	124.94
372.254	110.94
372.48	110.94
372.706	121.94
372.932	111.94
373.158	130.94
373.384	129.94
373.61	113.94
373.835	114.94
374.061	120.94
374.287	129.94
374.513	117.94
374.739	107.94
374.965	116.94
375.191	126.94
375.416	117.94
375.642	106.94
375.868	129.94
376.094	117.94
376.319	110.94
376.545	116.94
376.771	119.94
376.997	115.94
377.222	112.94
377.448	113.94
377.674	130.94
377.899	117.94
378.125	111.94
378.35	99.94
378.576	125.94
378.802	119.94
379.027	112.94
379.253	125.94
379.478	124.94
379.704	109.94
379.929	103.94
380.155	131.94
380.38	99.94
380.606	121.94
380.831	122.94
381.057	120.94
381.282	109.94
381.507	109.94
381.733	122.94
381.958	123.94
382.184	116.94
382.409	117.94
382.634	118.94
382.86	115.94
383.085	119.94
383.31	137.94
383.535	109.94
383.761	113.94
383.986	120.94
384.211	107.94
384.436	117.94
384.662	108.94
384.887	119.94
385.112	134.94
385.337	117.94
385.562	107.94
385.787	121.94
386.013	123.94
386.238	118.94
386.463	126.94
386.688	125.94
386.913	117.94
387.138	109.94
387.363	135.94
387.588	124.94
387.813	112.94
388.038	111.94
388.263	137.94
388.488	110.94
388.713	108.94
388.938	107.94
389.163	113.94
389.387	117.94
389.612	127.94
389.837	112.94
390.062	124.94
390.287	109.94
390.512	123.94
390.736	113.94
390.961	117.94
391.186	135.94
391.411	111.94
391.636	140.94
391.86	148.94
392.085	117.94
392.31	128.94
392.534	121.94
392.759	120.94
392.984	119.94
393.208	115.94
393.433	117.94
393.658	133.94
393.882	127.94
394.107	119.94
394.331	129.94
394.556	121.94
394.78	125.94
395.005	110.94
395.229	127.94
395.454	119.94
395.678	127.94
395.903	110.94
396.127	126.94
396.352	112.94
396.576	112.94
396.801	120.94
397.025	119.94
397.249	131.94
397.474	139.94
397.698	129.94
397.922	116.94
398.147	142.94
398.371	141.94
398.595	127.94
398.82	131.94
399.044	132.94
399.268	131.94
399.492	144.94
399.717	149.94
399.941	149.94
400.165	133.94
400.389	144.94
400.613	112.94
400.837	138.94
401.062	135.94
401.286	120.94
401.51	144.94
401.734	133.94
401.958	119.94
402.182	128.94
402.406	137.94
402.63	123.94
402.854	130.94
403.078	130.94
403.302	126.94
403.526	145.94
403.75	137.94
403.974	130.94
404.198	127.94
404.422	130.94
404.645	125.94
404.869	121.94
405.093	141.94
405.317	149.94
405.541	144.94
405.765	128.94
405.988	145.94
406.212	136.94
406.436	136.94
406.66	137.94
406.883	141.94
407.107	154.94
407.331	153.94
407.555	150.94
407.778	138.94
408.002	146.94
408.226	141.94
408.449	135.94
408.673	142.94
408.896	128.94
409.12	140.94
409.344	144.94
409.567	141.94
409.791	134.94
410.014	143.94
410.238	123.94
410.461	127.94
410.685	134.94
410.908	146.94
411.132	133.94
411.355	131.94
411.578	143.94
411.802	138.94
412.025	130.94
412.249	118.94
412.472	139.94
412.695	129.94
412.919	141.94
413.142	129.94
413.365	117.94
413.589	119.94
413.812	135.94
414.035	128.94
414.258	138.94
414.482	124.94
414.705	122.94
414.928	133.94
415.151	130.94
415.374	135.94
415.597	139.94
415.821	125.94
416.044	114.94
416.267	114.94
416.49	124.94
416.713	135.94
416.936	126.94
417.159	126.94
417.382	126.94
417.605	111.94
417.828	130.94
418.051	128.94
418.274	120.94
418.497	125.94
418.72	135.94
418.943	127.94
419.166	138.94
419.389	133.94
419.611	143.94
419.834	133.94
420.057	127.94
420.28	143.94
420.503	140.94
420.726	139.94
420.948	125.94
421.171	128.94
421.394	134.94
421.617	130.94
421.839	139.94
422.062	121.94
422.285	134.94
422.507	129.94
422.73	127.94
422.953	136.94
423.175	141.94
423.398	143.94
423.621	139.94
423.843	143.94
424.066	121.94
424.288	133.94
424.511	155.94
424.733	150.94
424.956	136.94
425.178	139.94
425.401	150.94
425.623	141.94
425.846	127.94
426.068	132.94
426.291	149.94
426.513	124.94
426.735	120.94
426.958	109.94
427.18	145.94
427.402	152.94
427.625	147.94
427.847	113.94
428.069	141.94
428.292	132.94
428.514	131.94
428.736	135.94
428.958	147.94
429.181	134.94
429.403	129.94
429.625	139.94
429.847	137.94
430.069	150.94
430.292	136.94
430.514	131.94
430.736	124.94
430.958	133.94
431.18	119.94
431.402	128.94
431.624	135.94
431.846	125.94
432.068	113.94
432.29	121.94
432.512	126.94
432.734	122.94
432.956	133.94
433.178	136.94
433.4	130.94
433.622	145.94
433.844	122.94
434.066	128.94
434.287	130.94
434.509	133.94
434.731	121.94
434.953	119.94
435.175	143.94
435.397	137.94
435.618	136.94
435.84	140.94
436.062	147.94
436.284	144.94
436.505	114.94
436.727	127.94
436.949	141.94
437.17	123.94
437.392	119.94
437.614	102.94
437.835	128.94
438.057	123.94
438.278	139.94
438.5	131.94
438.721	154.94
438.943	130.94
439.165	129.94
439.386	131.94
439.608	145.94
439.829	137.94
440.05	133.94
440.272	145.94
440.493	125.94
440.715	131.94
440.936	130.94
441.158	148.94
441.379	106.94
441.6	141.94
441.822	131.94
442.043	139.94
442.264	149.94
442.486	137.94
442.707	121.94
442.928	135.94
443.149	141.94
443.371	161.94
443.592	132.94
443.813	143.94
444.034	147.94
444.255	148.94
444.476	143.94
444.698	137.94
444.919	132.94
445.14	254.94
445.361	176.94
445.582	137.94
445.803	141.94
446.024	137.94
446.245	140.94
446.466	134.94
446.687	138.94
446.908	145.94
447.129	139.94
447.35	137.94
447.571	141.94
447.792	119.94
448.013	137.94
448.234	126.94
448.455	118.94
448.675	117.94
448.896	139.94
449.117	131.94
449.338	133.94
449.559	143.94
449.779	140.94
450	129.94
450.221	127.94
450.442	133.94
450.662	122.94
450.883	132.94
451.104	128.94
451.324	125.94
451.545	111.94
451.766	126.94
451.986	131.94
452.207	115.94
452.428	112.94
452.648	111.94
452.869	115.94
453.089	106.94
453.31	113.94
453.53	125.94
453.751	130.94
453.971	114.94
454.192	125.94
454.412	123.94
454.633	122.94
454.853	121.94
455.073	97.94
455.294	121.94
455.514	120.94
455.734	123.94
455.955	136.94
456.175	126.94
456.395	114.94
456.616	111.94
456.836	105.94
457.056	124.94
457.276	125.94
457.497	110.94
457.717	117.94
457.937	122.94
458.157	136.94
458.377	126.94
458.598	103.94
458.818	115.94
459.038	126.94
459.258	131.94
459.478	131.94
459.698	130.94
459.918	130.94
460.138	123.94
460.358	127.94
460.578	130.94
460.798	118.94
461.018	136.94
461.238	143.94
461.458	122.94
461.678	120.94
461.898	137.94
462.118	139.94
462.338	150.94
462.558	141.94
462.777	133.94
462.997	153.94
463.217	146.94
463.437	150.94
463.657	133.94
463.876	141.94
464.096	144.94
464.316	129.94
464.536	133.94
464.755	137.94
464.975	141.94
465.195	141.94
465.414	134.94
465.634	130.94
465.854	127.94
466.073	135.94
466.293	129.94
466.512	125.94
466.732	114.94
466.951	119.94
467.171	121.94
467.391	112.94
467.61	114.94
467.829	120.94
468.049	119.94
468.268	109.94
468.488	124.94
468.707	130.94
468.927	141.94
469.146	130.94
469.365	137.94
469.585	137.94
469.804	130.94
470.023	135.94
470.243	129.94
470.462	110.94
470.681	127.94
470.901	125.94
471.12	125.94
471.339	131.94
471.558	119.94
471.777	119.94
471.997	130.94
472.216	121.94
472.435	131.94
472.654	126.94
472.873	132.94
473.092	119.94
473.311	134.94
473.53	107.94
473.749	131.94
473.968	123.94
474.187	138.94
474.406	134.94
474.625	131.94
474.844	121.94
475.063	130.94
475.282	125.94
475.501	125.94
475.72	130.94
475.939	114.94
476.158	121.94
476.377	131.94
476.596	119.94
476.814	126.94
477.033	121.94
477.252	119.94
477.471	122.94
477.69	129.94
477.908	131.94
478.127	134.94
478.346	161.94
478.564	127.94
478.783	138.94
479.002	139.94
479.22	131.94
479.439	137.94
479.658	135.94
479.876	133.94
480.095	131.94
480.313	128.94
480.532	147.94
480.751	124.94
480.969	160.94
481.188	132.94
481.406	131.94
481.624	135.94
481.843	129.94
482.061	136.94
482.28	127.94
482.498	127.94
482.717	136.94
482.935	129.94
483.153	137.94
483.372	132.94
483.59	125.94
483.808	128.94
484.027	137.94
484.245	133.94
484.463	138.94
484.681	125.94
484.9	141.94
485.118	137.94
485.336	118.94
485.554	133.94
485.772	133.94
485.99	131.94
486.209	137.94
486.427	139.94
486.645	130.94
486.863	133.94
487.081	142.94
487.299	129.94
487.517	137.94
487.735	129.94
487.953	132.94
488.171	140.94
488.389	138.94
488.607	143.94
488.825	138.94
489.043	132.94
489.261	131.94
489.479	130.94
489.696	143.94
489.914	138.94
490.132	129.94
490.35	137.94
490.568	134.94
490.786	137.94
491.003	133.94
491.221	135.94
491.439	128.94
491.657	151.94
491.874	141.94
492.092	146.94
492.31	141.94
492.527	143.94
492.745	139.94
492.963	144.94
493.18	146.94
493.398	158.94
493.615	142.94
493.833	131.94
494.05	153.94
494.268	134.94
494.485	155.94
494.703	142.94
494.92	141.94
495.138	143.94
495.355	137.94
495.573	138.94
495.79	137.94
496.008	151.94
496.225	143.94
496.442	139.94
496.66	157.94
496.877	147.94
497.094	143.94
497.312	136.94
497.529	155.94
497.746	162.94
497.963	147.94
498.181	151.94
498.398	162.94
498.615	154.94
498.832	157.94
499.049	170.94
499.267	171.94
499.484	172.94
499.701	181.94
499.918	197.94
500.135	208.94
500.352	209.94
500.569	226.94
500.786	214.94
501.003	203.94
501.22	203.94
501.437	191.94
501.654	172.94
501.871	176.94
502.088	170.94
502.305	167.94
502.522	178.94
502.739	177.94
502.956	165.94
503.172	146.94
503.389	152.94
503.606	130.94
503.823	154.94
504.04	143.94
504.256	146.94
504.473	135.94
504.69	144.94
504.907	150.94
505.123	155.94
