Data from 1968.PennyLincolnUp.Lamp.En5.5.200Scan.071719.P1._HRD10591_14-49-22-970.txt Node
Date: Thu Jul 18 14:49:22 EDT 2019
User: cochatt
Spectrometer: HR+D1059
Trigger mode: 1
Integration Time (sec): 1.000000E-1
Scans to average: 1
Electric dark correction enabled: true
Nonlinearity correction enabled: false
Boxcar width: 0
XAxis mode: Wavelengths
Number of Pixels in Spectrum: 2048
>>>>>Begin Spectral Data<<<<<
223.165	-13.94
223.4	-13.94
223.635	-13.94
223.869	-19.94
224.104	-12.94
224.338	-5.94
224.573	-13.94
224.808	-11.94
225.042	-5.94
225.277	-7.94
225.511	-3.94
225.746	8.06
225.98	13.06
226.215	12.06
226.449	15.06
226.683	12.06
226.918	19.06
227.152	17.06
227.387	27.06
227.621	32.06
227.856	47.06
228.09	54.06
228.324	43.06
228.559	49.06
228.793	63.06
229.027	64.06
229.262	55.06
229.496	71.06
229.73	65.06
229.964	78.06
230.199	77.06
230.433	82.06
230.667	71.06
230.901	72.06
231.136	78.06
231.37	79.06
231.604	93.06
231.838	75.06
232.072	73.06
232.306	85.06
232.541	98.06
232.775	81.06
233.009	81.06
233.243	78.06
233.477	82.06
233.711	77.06
233.945	100.06
234.179	82.06
234.413	80.06
234.647	67.06
234.881	71.06
235.115	81.06
235.349	85.06
235.583	75.06
235.817	90.06
236.051	95.06
236.285	87.06
236.519	85.06
236.753	79.06
236.987	85.06
237.221	78.06
237.455	70.06
237.689	78.06
237.922	87.06
238.156	77.06
238.39	80.06
238.624	79.06
238.858	77.06
239.091	79.06
239.325	81.06
239.559	78.06
239.793	86.06
240.027	89.06
240.26	84.06
240.494	77.06
240.728	74.06
240.961	83.06
241.195	91.06
241.429	81.06
241.662	96.06
241.896	83.06
242.13	71.06
242.363	66.06
242.597	80.06
242.83	77.06
243.064	97.06
243.298	73.06
243.531	73.06
243.765	88.06
243.998	89.06
244.232	87.06
244.465	84.06
244.699	76.06
244.932	84.06
245.166	83.06
245.399	71.06
245.633	87.06
245.866	78.06
246.099	93.06
246.333	82.06
246.566	84.06
246.8	87.06
247.033	89.06
247.266	79.06
247.5	83.06
247.733	89.06
247.966	94.06
248.2	92.06
248.433	77.06
248.666	88.06
248.899	85.06
249.133	93.06
249.366	92.06
249.599	90.06
249.832	77.06
250.066	87.06
250.299	99.06
250.532	87.06
250.765	84.06
250.998	88.06
251.231	88.06
251.465	90.06
251.698	85.06
251.931	83.06
252.164	87.06
252.397	96.06
252.63	94.06
252.863	85.06
253.096	108.06
253.329	84.06
253.562	98.06
253.795	81.06
254.028	98.06
254.261	84.06
254.494	100.06
254.727	97.06
254.96	87.06
255.193	82.06
255.426	88.06
255.659	76.06
255.892	101.06
256.124	95.06
256.357	67.06
256.59	88.06
256.823	77.06
257.056	92.06
257.289	92.06
257.521	88.06
257.754	83.06
257.987	91.06
258.22	89.06
258.452	95.06
258.685	93.06
258.918	89.06
259.151	108.06
259.383	117.06
259.616	71.06
259.849	103.06
260.081	94.06
260.314	94.06
260.547	90.06
260.779	83.06
261.012	87.06
261.244	93.06
261.477	84.06
261.71	94.06
261.942	91.06
262.175	96.06
262.407	84.06
262.64	94.06
262.872	76.06
263.105	93.06
263.337	104.06
263.57	101.06
263.802	101.06
264.035	87.06
264.267	98.06
264.499	92.06
264.732	84.06
264.964	93.06
265.197	103.06
265.429	108.06
265.661	88.06
265.894	99.06
266.126	89.06
266.358	89.06
266.591	85.06
266.823	84.06
267.055	100.06
267.287	97.06
267.52	81.06
267.752	107.06
267.984	107.06
268.216	90.06
268.448	101.06
268.681	91.06
268.913	104.06
269.145	95.06
269.377	96.06
269.609	96.06
269.841	98.06
270.073	96.06
270.306	105.06
270.538	104.06
270.77	81.06
271.002	92.06
271.234	103.06
271.466	109.06
271.698	105.06
271.93	112.06
272.162	103.06
272.394	103.06
272.626	98.06
272.858	81.06
273.09	90.06
273.322	99.06
273.553	92.06
273.785	92.06
274.017	92.06
274.249	81.06
274.481	101.06
274.713	89.06
274.945	107.06
275.176	99.06
275.408	92.06
275.64	90.06
275.872	102.06
276.104	96.06
276.335	100.06
276.567	105.06
276.799	103.06
277.031	96.06
277.262	105.06
277.494	105.06
277.726	107.06
277.957	98.06
278.189	96.06
278.421	96.06
278.652	101.06
278.884	108.06
279.115	109.06
279.347	108.06
279.579	100.06
279.81	77.06
280.042	80.06
280.273	103.06
280.505	104.06
280.736	83.06
280.968	83.06
281.199	88.06
281.431	92.06
281.662	94.06
281.894	102.06
282.125	77.06
282.356	100.06
282.588	94.06
282.819	91.06
283.051	99.06
283.282	94.06
283.513	111.06
283.745	97.06
283.976	100.06
284.207	97.06
284.439	94.06
284.67	105.06
284.901	109.06
285.132	93.06
285.364	100.06
285.595	114.06
285.826	111.06
286.057	114.06
286.288	95.06
286.52	97.06
286.751	97.06
286.982	105.06
287.213	94.06
287.444	106.06
287.675	105.06
287.906	114.06
288.138	108.06
288.369	103.06
288.6	107.06
288.831	99.06
289.062	102.06
289.293	98.06
289.524	96.06
289.755	108.06
289.986	110.06
290.217	93.06
290.448	101.06
290.679	96.06
290.91	112.06
291.141	111.06
291.371	102.06
291.602	89.06
291.833	106.06
292.064	113.06
292.295	116.06
292.526	100.06
292.757	108.06
292.987	108.06
293.218	105.06
293.449	97.06
293.68	103.06
293.91	108.06
294.141	98.06
294.372	104.06
294.603	92.06
294.833	114.06
295.064	111.06
295.295	117.06
295.525	105.06
295.756	100.06
295.987	100.06
296.217	111.06
296.448	96.06
296.679	98.06
296.909	99.06
297.14	123.06
297.37	118.06
297.601	98.06
297.831	123.06
298.062	107.06
298.292	106.06
298.523	105.06
298.753	93.06
298.984	91.06
299.214	111.06
299.445	105.06
299.675	95.06
299.905	108.06
300.136	106.06
300.366	88.06
300.597	94.06
300.827	107.06
301.057	107.06
301.288	106.06
301.518	95.06
301.748	99.06
301.979	96.06
302.209	96.06
302.439	114.06
302.669	113.06
302.9	112.06
303.13	108.06
303.36	104.06
303.59	112.06
303.82	96.06
304.051	116.06
304.281	119.06
304.511	102.06
304.741	103.06
304.971	107.06
305.201	102.06
305.431	102.06
305.661	105.06
305.891	111.06
306.121	108.06
306.352	101.06
306.582	104.06
306.812	98.06
307.042	104.06
307.272	91.06
307.502	109.06
307.731	120.06
307.961	102.06
308.191	108.06
308.421	104.06
308.651	103.06
308.881	99.06
309.111	98.06
309.341	103.06
309.571	98.06
309.8	94.06
310.03	104.06
310.26	86.06
310.49	90.06
310.72	109.06
310.949	101.06
311.179	113.06
311.409	99.06
311.639	98.06
311.868	99.06
312.098	96.06
312.328	117.06
312.557	104.06
312.787	94.06
313.017	105.06
313.246	105.06
313.476	105.06
313.706	87.06
313.935	103.06
314.165	112.06
314.394	138.06
314.624	113.06
314.853	108.06
315.083	108.06
315.312	106.06
315.542	112.06
315.771	115.06
316.001	101.06
316.23	105.06
316.46	98.06
316.689	103.06
316.919	112.06
317.148	112.06
317.377	101.06
317.607	102.06
317.836	111.06
318.065	116.06
318.295	107.06
318.524	107.06
318.753	116.06
318.983	112.06
319.212	104.06
319.441	103.06
319.67	109.06
319.9	113.06
320.129	115.06
320.358	98.06
320.587	104.06
320.816	115.06
321.046	101.06
321.275	122.06
321.504	95.06
321.733	109.06
321.962	94.06
322.191	105.06
322.42	99.06
322.649	118.06
322.878	105.06
323.108	91.06
323.337	116.06
323.566	110.06
323.795	120.06
324.024	113.06
324.253	114.06
324.482	126.06
324.71	148.06
324.939	159.06
325.168	136.06
325.397	119.06
325.626	109.06
325.855	108.06
326.084	112.06
326.313	117.06
326.542	118.06
326.77	131.06
326.999	114.06
327.228	134.06
327.457	151.06
327.686	134.06
327.914	138.06
328.143	117.06
328.372	109.06
328.6	115.06
328.829	93.06
329.058	109.06
329.287	117.06
329.515	119.06
329.744	123.06
329.972	109.06
330.201	103.06
330.43	125.06
330.658	104.06
330.887	103.06
331.115	107.06
331.344	108.06
331.572	117.06
331.801	123.06
332.03	120.06
332.258	105.06
332.486	104.06
332.715	109.06
332.943	112.06
333.172	105.06
333.4	95.06
333.629	123.06
333.857	119.06
334.085	128.06
334.314	106.06
334.542	115.06
334.771	108.06
334.999	103.06
335.227	117.06
335.455	111.06
335.684	118.06
335.912	127.06
336.14	101.06
336.369	99.06
336.597	118.06
336.825	121.06
337.053	102.06
337.281	107.06
337.51	93.06
337.738	119.06
337.966	113.06
338.194	122.06
338.422	111.06
338.65	123.06
338.878	105.06
339.106	104.06
339.334	113.06
339.562	109.06
339.79	120.06
340.018	107.06
340.246	117.06
340.474	114.06
340.702	115.06
340.93	116.06
341.158	113.06
341.386	100.06
341.614	117.06
341.842	111.06
342.07	102.06
342.298	106.06
342.526	132.06
342.754	114.06
342.981	109.06
343.209	123.06
343.437	118.06
343.665	113.06
343.893	115.06
344.12	121.06
344.348	119.06
344.576	112.06
344.804	119.06
345.031	105.06
345.259	119.06
345.487	109.06
345.714	113.06
345.942	114.06
346.17	108.06
346.397	99.06
346.625	105.06
346.853	101.06
347.08	103.06
347.308	120.06
347.535	100.06
347.763	110.06
347.99	101.06
348.218	98.06
348.445	97.06
348.673	118.06
348.9	107.06
349.128	111.06
349.355	84.06
349.583	100.06
349.81	115.06
350.037	105.06
350.265	105.06
350.492	117.06
350.72	107.06
350.947	110.06
351.174	107.06
351.402	107.06
351.629	114.06
351.856	95.06
352.083	113.06
352.311	87.06
352.538	105.06
352.765	95.06
352.992	106.06
353.22	113.06
353.447	111.06
353.674	105.06
353.901	105.06
354.128	108.06
354.355	98.06
354.583	102.06
354.81	109.06
355.037	100.06
355.264	127.06
355.491	100.06
355.718	101.06
355.945	97.06
356.172	105.06
356.399	114.06
356.626	97.06
356.853	115.06
357.08	127.06
357.307	103.06
357.534	92.06
357.761	111.06
357.988	122.06
358.215	117.06
358.441	94.06
358.668	127.06
358.895	91.06
359.122	112.06
359.349	127.06
359.576	107.06
359.802	106.06
360.029	113.06
360.256	113.06
360.483	99.06
360.709	114.06
360.936	108.06
361.163	108.06
361.39	110.06
361.616	113.06
361.843	108.06
362.07	100.06
362.296	114.06
362.523	109.06
362.749	113.06
362.976	101.06
363.203	125.06
363.429	119.06
363.656	113.06
363.882	117.06
364.109	111.06
364.335	112.06
364.562	109.06
364.788	116.06
365.015	105.06
365.241	111.06
365.468	97.06
365.694	103.06
365.92	112.06
366.147	91.06
366.373	116.06
366.599	108.06
366.826	99.06
367.052	121.06
367.278	100.06
367.505	109.06
367.731	107.06
367.957	102.06
368.184	102.06
368.41	116.06
368.636	115.06
368.862	89.06
369.089	115.06
369.315	114.06
369.541	107.06
369.767	117.06
369.993	119.06
370.219	110.06
370.445	117.06
370.672	111.06
370.898	106.06
371.124	112.06
371.35	121.06
371.576	108.06
371.802	125.06
372.028	108.06
372.254	109.06
372.48	95.06
372.706	95.06
372.932	113.06
373.158	125.06
373.384	116.06
373.61	100.06
373.835	113.06
374.061	106.06
374.287	120.06
374.513	95.06
374.739	110.06
374.965	111.06
375.191	114.06
375.416	122.06
375.642	122.06
375.868	121.06
376.094	116.06
376.319	107.06
376.545	119.06
376.771	115.06
376.997	118.06
377.222	111.06
377.448	115.06
377.674	113.06
377.899	110.06
378.125	119.06
378.35	102.06
378.576	106.06
378.802	101.06
379.027	107.06
379.253	112.06
379.478	103.06
379.704	102.06
379.929	107.06
380.155	117.06
380.38	112.06
380.606	110.06
380.831	123.06
381.057	104.06
381.282	111.06
381.507	118.06
381.733	101.06
381.958	116.06
382.184	94.06
382.409	109.06
382.634	106.06
382.86	117.06
383.085	114.06
383.31	107.06
383.535	113.06
383.761	100.06
383.986	108.06
384.211	112.06
384.436	125.06
384.662	131.06
384.887	118.06
385.112	125.06
385.337	120.06
385.562	99.06
385.787	122.06
386.013	111.06
386.238	111.06
386.463	119.06
386.688	118.06
386.913	117.06
387.138	111.06
387.363	118.06
387.588	119.06
387.813	131.06
388.038	127.06
388.263	112.06
388.488	125.06
388.713	108.06
388.938	123.06
389.163	120.06
389.387	98.06
389.612	120.06
389.837	107.06
390.062	114.06
390.287	106.06
390.512	140.06
390.736	113.06
390.961	109.06
391.186	101.06
391.411	123.06
391.636	111.06
391.86	134.06
392.085	120.06
392.31	114.06
392.534	116.06
392.759	106.06
392.984	133.06
393.208	120.06
393.433	124.06
393.658	119.06
393.882	127.06
394.107	123.06
394.331	111.06
394.556	123.06
394.78	125.06
395.005	116.06
395.229	106.06
395.454	124.06
395.678	105.06
395.903	127.06
396.127	123.06
396.352	114.06
396.576	111.06
396.801	120.06
397.025	117.06
397.249	116.06
397.474	120.06
397.698	117.06
397.922	101.06
398.147	133.06
398.371	117.06
398.595	118.06
398.82	120.06
399.044	133.06
399.268	142.06
399.492	132.06
399.717	140.06
399.941	132.06
400.165	146.06
400.389	140.06
400.613	147.06
400.837	132.06
401.062	114.06
401.286	121.06
401.51	123.06
401.734	115.06
401.958	120.06
402.182	118.06
402.406	112.06
402.63	114.06
402.854	111.06
403.078	131.06
403.302	137.06
403.526	141.06
403.75	123.06
403.974	118.06
404.198	119.06
404.422	133.06
404.645	127.06
404.869	121.06
405.093	126.06
405.317	127.06
405.541	141.06
405.765	135.06
405.988	124.06
406.212	121.06
406.436	139.06
406.66	148.06
406.883	142.06
407.107	127.06
407.331	135.06
407.555	125.06
407.778	134.06
408.002	137.06
408.226	136.06
408.449	114.06
408.673	123.06
408.896	144.06
409.12	135.06
409.344	133.06
409.567	144.06
409.791	126.06
410.014	127.06
410.238	127.06
410.461	133.06
410.685	135.06
410.908	123.06
411.132	142.06
411.355	136.06
411.578	119.06
411.802	139.06
412.025	128.06
412.249	131.06
412.472	129.06
412.695	121.06
412.919	124.06
413.142	122.06
413.365	122.06
413.589	124.06
413.812	124.06
414.035	129.06
414.258	138.06
414.482	139.06
414.705	125.06
414.928	127.06
415.151	115.06
415.374	124.06
415.597	129.06
415.821	129.06
416.044	145.06
416.267	135.06
416.49	134.06
416.713	117.06
416.936	128.06
417.159	124.06
417.382	138.06
417.605	114.06
417.828	130.06
418.051	127.06
418.274	124.06
418.497	131.06
418.72	129.06
418.943	132.06
419.166	132.06
419.389	131.06
419.611	130.06
419.834	125.06
420.057	119.06
420.28	136.06
420.503	124.06
420.726	137.06
420.948	127.06
421.171	128.06
421.394	117.06
421.617	123.06
421.839	124.06
422.062	129.06
422.285	125.06
422.507	130.06
422.73	123.06
422.953	122.06
423.175	131.06
423.398	151.06
423.621	129.06
423.843	142.06
424.066	145.06
424.288	127.06
424.511	134.06
424.733	135.06
424.956	123.06
425.178	127.06
425.401	130.06
425.623	136.06
425.846	121.06
426.068	132.06
426.291	127.06
426.513	134.06
426.735	133.06
426.958	129.06
427.18	148.06
427.402	139.06
427.625	130.06
427.847	132.06
428.069	113.06
428.292	119.06
428.514	116.06
428.736	114.06
428.958	134.06
429.181	123.06
429.403	117.06
429.625	131.06
429.847	129.06
430.069	121.06
430.292	127.06
430.514	117.06
430.736	121.06
430.958	120.06
431.18	119.06
431.402	113.06
431.624	123.06
431.846	117.06
432.068	124.06
432.29	135.06
432.512	116.06
432.734	127.06
432.956	127.06
433.178	131.06
433.4	125.06
433.622	122.06
433.844	125.06
434.066	128.06
434.287	113.06
434.509	120.06
434.731	128.06
434.953	137.06
435.175	124.06
435.397	123.06
435.618	129.06
435.84	127.06
436.062	139.06
436.284	135.06
436.505	124.06
436.727	134.06
436.949	117.06
437.17	128.06
437.392	109.06
437.614	121.06
437.835	119.06
438.057	120.06
438.278	120.06
438.5	130.06
438.721	146.06
438.943	127.06
439.165	117.06
439.386	112.06
439.608	125.06
439.829	119.06
440.05	139.06
440.272	126.06
440.493	113.06
440.715	116.06
440.936	122.06
441.158	123.06
441.379	117.06
441.6	130.06
441.822	120.06
442.043	147.06
442.264	139.06
442.486	141.06
442.707	136.06
442.928	135.06
443.149	120.06
443.371	126.06
443.592	145.06
443.813	128.06
444.034	132.06
444.255	138.06
444.476	158.06
444.698	133.06
444.919	138.06
445.14	260.06
445.361	183.06
445.582	137.06
445.803	133.06
446.024	148.06
446.245	142.06
446.466	146.06
446.687	121.06
446.908	135.06
447.129	122.06
447.35	117.06
447.571	123.06
447.792	129.06
448.013	128.06
448.234	124.06
448.455	117.06
448.675	129.06
448.896	139.06
449.117	134.06
449.338	129.06
449.559	135.06
449.779	144.06
450	129.06
450.221	123.06
450.442	125.06
450.662	120.06
450.883	108.06
451.104	113.06
451.324	119.06
451.545	117.06
451.766	120.06
451.986	121.06
452.207	120.06
452.428	113.06
452.648	111.06
452.869	112.06
453.089	121.06
453.31	120.06
453.53	110.06
453.751	122.06
453.971	125.06
454.192	125.06
454.412	113.06
454.633	114.06
454.853	123.06
455.073	111.06
455.294	100.06
455.514	119.06
455.734	127.06
455.955	123.06
456.175	120.06
456.395	107.06
456.616	107.06
456.836	116.06
457.056	114.06
457.276	94.06
457.497	122.06
457.717	109.06
457.937	117.06
458.157	108.06
458.377	123.06
458.598	121.06
458.818	125.06
459.038	124.06
459.258	133.06
459.478	132.06
459.698	119.06
459.918	129.06
460.138	124.06
460.358	133.06
460.578	131.06
460.798	124.06
461.018	123.06
461.238	138.06
461.458	128.06
461.678	128.06
461.898	123.06
462.118	129.06
462.338	145.06
462.558	122.06
462.777	135.06
462.997	145.06
463.217	130.06
463.437	133.06
463.657	129.06
463.876	133.06
464.096	143.06
464.316	147.06
464.536	138.06
464.755	133.06
464.975	123.06
465.195	119.06
465.414	128.06
465.634	120.06
465.854	108.06
466.073	133.06
466.293	117.06
466.512	136.06
466.732	113.06
466.951	123.06
467.171	136.06
467.391	122.06
467.61	123.06
467.829	129.06
468.049	108.06
468.268	119.06
468.488	123.06
468.707	123.06
468.927	123.06
469.146	140.06
469.365	145.06
469.585	129.06
469.804	122.06
470.023	119.06
470.243	115.06
470.462	115.06
470.681	130.06
470.901	133.06
471.12	121.06
471.339	129.06
471.558	123.06
471.777	127.06
471.997	123.06
472.216	124.06
472.435	119.06
472.654	106.06
472.873	130.06
473.092	121.06
473.311	125.06
473.53	122.06
473.749	118.06
473.968	121.06
474.187	124.06
474.406	111.06
474.625	118.06
474.844	123.06
475.063	113.06
475.282	130.06
475.501	140.06
475.72	133.06
475.939	118.06
476.158	127.06
476.377	117.06
476.596	120.06
476.814	127.06
477.033	111.06
477.252	111.06
477.471	115.06
477.69	138.06
477.908	131.06
478.127	146.06
478.346	131.06
478.564	125.06
478.783	121.06
479.002	124.06
479.22	136.06
479.439	131.06
479.658	147.06
479.876	148.06
480.095	132.06
480.313	133.06
480.532	149.06
480.751	138.06
480.969	136.06
481.188	131.06
481.406	123.06
481.624	130.06
481.843	123.06
482.061	132.06
482.28	125.06
482.498	120.06
482.717	130.06
482.935	138.06
483.153	127.06
483.372	133.06
483.59	132.06
483.808	132.06
484.027	121.06
484.245	133.06
484.463	138.06
484.681	149.06
484.9	129.06
485.118	136.06
485.336	127.06
485.554	139.06
485.772	127.06
485.99	135.06
486.209	136.06
486.427	118.06
486.645	125.06
486.863	150.06
487.081	148.06
487.299	141.06
487.517	138.06
487.735	138.06
487.953	139.06
488.171	126.06
488.389	145.06
488.607	127.06
488.825	129.06
489.043	143.06
489.261	129.06
489.479	135.06
489.696	136.06
489.914	124.06
490.132	148.06
490.35	140.06
490.568	145.06
490.786	144.06
491.003	147.06
491.221	130.06
491.439	142.06
491.657	133.06
491.874	141.06
492.092	136.06
492.31	157.06
492.527	143.06
492.745	141.06
492.963	150.06
493.18	142.06
493.398	138.06
493.615	128.06
493.833	125.06
494.05	137.06
494.268	153.06
494.485	137.06
494.703	145.06
494.92	132.06
495.138	138.06
495.355	171.06
495.573	137.06
495.79	123.06
496.008	144.06
496.225	133.06
496.442	137.06
496.66	152.06
496.877	149.06
497.094	144.06
497.312	139.06
497.529	133.06
497.746	145.06
497.963	140.06
498.181	157.06
498.398	165.06
498.615	167.06
498.832	151.06
499.049	177.06
499.267	164.06
499.484	172.06
499.701	181.06
499.918	183.06
500.135	180.06
500.352	200.06
500.569	223.06
500.786	217.06
501.003	194.06
501.22	196.06
501.437	186.06
501.654	181.06
501.871	171.06
502.088	167.06
502.305	171.06
502.522	160.06
502.739	169.06
502.956	153.06
503.172	168.06
503.389	162.06
503.606	161.06
503.823	141.06
504.04	148.06
504.256	139.06
504.473	143.06
504.69	152.06
504.907	148.06
505.123	146.06
505.34	138.06
505.557	150.06
505.773	140.06
