Data from 1968.PennyLincolnUp.Lamp.En5.5.200Scan.071719.P1._HRD10591_14-50-09-969.txt Node
Date: Thu Jul 18 14:50:09 EDT 2019
User: cochatt
Spectrometer: HR+D1059
Trigger mode: 1
Integration Time (sec): 1.000000E-1
Scans to average: 1
Electric dark correction enabled: true
Nonlinearity correction enabled: false
Boxcar width: 0
XAxis mode: Wavelengths
Number of Pixels in Spectrum: 2048
>>>>>Begin Spectral Data<<<<<
223.165	-26.94
223.4	-26.94
223.635	-26.94
223.869	-7.94
224.104	-16.94
224.338	-9.94
224.573	-28.94
224.808	-14.94
225.042	2.06
225.277	-8.94
225.511	-1.94
225.746	3.06
225.98	-5.94
226.215	22.06
226.449	14.06
226.683	16.06
226.918	31.06
227.152	34.06
227.387	48.06
227.621	49.06
227.856	54.06
228.09	49.06
228.324	47.06
228.559	55.06
228.793	64.06
229.027	75.06
229.262	88.06
229.496	75.06
229.73	80.06
229.964	78.06
230.199	84.06
230.433	90.06
230.667	88.06
230.901	88.06
231.136	79.06
231.37	85.06
231.604	99.06
231.838	91.06
232.072	86.06
232.306	89.06
232.541	92.06
232.775	91.06
233.009	84.06
233.243	102.06
233.477	85.06
233.711	108.06
233.945	93.06
234.179	78.06
234.413	96.06
234.647	101.06
234.881	86.06
235.115	99.06
235.349	95.06
235.583	91.06
235.817	96.06
236.051	94.06
236.285	98.06
236.519	83.06
236.753	90.06
236.987	98.06
237.221	98.06
237.455	103.06
237.689	90.06
237.922	86.06
238.156	94.06
238.39	94.06
238.624	78.06
238.858	88.06
239.091	96.06
239.325	91.06
239.559	83.06
239.793	99.06
240.027	72.06
240.26	81.06
240.494	91.06
240.728	100.06
240.961	94.06
241.195	88.06
241.429	85.06
241.662	98.06
241.896	89.06
242.13	81.06
242.363	76.06
242.597	96.06
242.83	98.06
243.064	96.06
243.298	92.06
243.531	97.06
243.765	87.06
243.998	97.06
244.232	90.06
244.465	106.06
244.699	102.06
244.932	79.06
245.166	87.06
245.399	86.06
245.633	103.06
245.866	95.06
246.099	85.06
246.333	97.06
246.566	93.06
246.8	97.06
247.033	84.06
247.266	82.06
247.5	85.06
247.733	94.06
247.966	106.06
248.2	89.06
248.433	94.06
248.666	91.06
248.899	90.06
249.133	87.06
249.366	106.06
249.599	106.06
249.832	108.06
250.066	97.06
250.299	85.06
250.532	94.06
250.765	85.06
250.998	80.06
251.231	87.06
251.465	89.06
251.698	98.06
251.931	83.06
252.164	90.06
252.397	99.06
252.63	96.06
252.863	90.06
253.096	92.06
253.329	104.06
253.562	106.06
253.795	95.06
254.028	97.06
254.261	100.06
254.494	98.06
254.727	107.06
254.96	113.06
255.193	109.06
255.426	93.06
255.659	98.06
255.892	102.06
256.124	99.06
256.357	108.06
256.59	105.06
256.823	93.06
257.056	96.06
257.289	102.06
257.521	91.06
257.754	93.06
257.987	89.06
258.22	96.06
258.452	98.06
258.685	87.06
258.918	101.06
259.151	92.06
259.383	93.06
259.616	84.06
259.849	93.06
260.081	104.06
260.314	106.06
260.547	90.06
260.779	94.06
261.012	97.06
261.244	91.06
261.477	99.06
261.71	93.06
261.942	92.06
262.175	99.06
262.407	84.06
262.64	99.06
262.872	102.06
263.105	99.06
263.337	105.06
263.57	98.06
263.802	112.06
264.035	106.06
264.267	108.06
264.499	101.06
264.732	110.06
264.964	99.06
265.197	103.06
265.429	109.06
265.661	94.06
265.894	99.06
266.126	98.06
266.358	95.06
266.591	105.06
266.823	78.06
267.055	82.06
267.287	100.06
267.52	93.06
267.752	100.06
267.984	113.06
268.216	114.06
268.448	94.06
268.681	104.06
268.913	104.06
269.145	96.06
269.377	101.06
269.609	96.06
269.841	91.06
270.073	90.06
270.306	99.06
270.538	109.06
270.77	111.06
271.002	104.06
271.234	99.06
271.466	97.06
271.698	100.06
271.93	99.06
272.162	97.06
272.394	93.06
272.626	97.06
272.858	103.06
273.09	87.06
273.322	105.06
273.553	106.06
273.785	104.06
274.017	90.06
274.249	98.06
274.481	106.06
274.713	87.06
274.945	115.06
275.176	111.06
275.408	108.06
275.64	109.06
275.872	96.06
276.104	93.06
276.335	97.06
276.567	99.06
276.799	90.06
277.031	110.06
277.262	108.06
277.494	90.06
277.726	117.06
277.957	110.06
278.189	98.06
278.421	110.06
278.652	106.06
278.884	112.06
279.115	87.06
279.347	93.06
279.579	107.06
279.81	105.06
280.042	109.06
280.273	101.06
280.505	104.06
280.736	102.06
280.968	105.06
281.199	97.06
281.431	113.06
281.662	110.06
281.894	103.06
282.125	127.06
282.356	97.06
282.588	115.06
282.819	111.06
283.051	98.06
283.282	99.06
283.513	95.06
283.745	115.06
283.976	85.06
284.207	100.06
284.439	101.06
284.67	105.06
284.901	99.06
285.132	90.06
285.364	93.06
285.595	110.06
285.826	116.06
286.057	91.06
286.288	107.06
286.52	102.06
286.751	125.06
286.982	100.06
287.213	104.06
287.444	108.06
287.675	116.06
287.906	98.06
288.138	109.06
288.369	113.06
288.6	106.06
288.831	84.06
289.062	115.06
289.293	119.06
289.524	108.06
289.755	107.06
289.986	100.06
290.217	109.06
290.448	109.06
290.679	110.06
290.91	99.06
291.141	105.06
291.371	99.06
291.602	103.06
291.833	108.06
292.064	114.06
292.295	116.06
292.526	103.06
292.757	95.06
292.987	117.06
293.218	105.06
293.449	105.06
293.68	97.06
293.91	124.06
294.141	101.06
294.372	117.06
294.603	110.06
294.833	124.06
295.064	110.06
295.295	94.06
295.525	119.06
295.756	114.06
295.987	112.06
296.217	109.06
296.448	110.06
296.679	107.06
296.909	114.06
297.14	119.06
297.37	117.06
297.601	104.06
297.831	113.06
298.062	102.06
298.292	110.06
298.523	121.06
298.753	112.06
298.984	107.06
299.214	117.06
299.445	110.06
299.675	100.06
299.905	97.06
300.136	106.06
300.366	98.06
300.597	109.06
300.827	103.06
301.057	109.06
301.288	100.06
301.518	115.06
301.748	100.06
301.979	92.06
302.209	102.06
302.439	95.06
302.669	117.06
302.9	114.06
303.13	119.06
303.36	109.06
303.59	111.06
303.82	116.06
304.051	114.06
304.281	106.06
304.511	121.06
304.741	110.06
304.971	100.06
305.201	116.06
305.431	106.06
305.661	121.06
305.891	117.06
306.121	104.06
306.352	110.06
306.582	113.06
306.812	102.06
307.042	115.06
307.272	109.06
307.502	118.06
307.731	116.06
307.961	114.06
308.191	125.06
308.421	118.06
308.651	110.06
308.881	111.06
309.111	114.06
309.341	111.06
309.571	112.06
309.8	109.06
310.03	106.06
310.26	113.06
310.49	118.06
310.72	124.06
310.949	103.06
311.179	107.06
311.409	113.06
311.639	113.06
311.868	116.06
312.098	127.06
312.328	125.06
312.557	111.06
312.787	121.06
313.017	127.06
313.246	124.06
313.476	114.06
313.706	118.06
313.935	108.06
314.165	119.06
314.394	117.06
314.624	106.06
314.853	122.06
315.083	109.06
315.312	109.06
315.542	107.06
315.771	106.06
316.001	113.06
316.23	124.06
316.46	117.06
316.689	114.06
316.919	117.06
317.148	128.06
317.377	107.06
317.607	123.06
317.836	125.06
318.065	113.06
318.295	111.06
318.524	108.06
318.753	131.06
318.983	111.06
319.212	119.06
319.441	115.06
319.67	117.06
319.9	119.06
320.129	131.06
320.358	102.06
320.587	94.06
320.816	106.06
321.046	111.06
321.275	124.06
321.504	119.06
321.733	119.06
321.962	110.06
322.191	129.06
322.42	104.06
322.649	109.06
322.878	118.06
323.108	118.06
323.337	127.06
323.566	122.06
323.795	116.06
324.024	122.06
324.253	116.06
324.482	148.06
324.71	155.06
324.939	179.06
325.168	157.06
325.397	114.06
325.626	99.06
325.855	114.06
326.084	134.06
326.313	115.06
326.542	132.06
326.77	109.06
326.999	129.06
327.228	133.06
327.457	165.06
327.686	153.06
327.914	144.06
328.143	128.06
328.372	107.06
328.6	121.06
328.829	118.06
329.058	114.06
329.287	133.06
329.515	121.06
329.744	126.06
329.972	133.06
330.201	121.06
330.43	125.06
330.658	133.06
330.887	120.06
331.115	121.06
331.344	120.06
331.572	139.06
331.801	125.06
332.03	114.06
332.258	114.06
332.486	133.06
332.715	112.06
332.943	126.06
333.172	120.06
333.4	138.06
333.629	126.06
333.857	114.06
334.085	133.06
334.314	129.06
334.542	123.06
334.771	119.06
334.999	119.06
335.227	130.06
335.455	125.06
335.684	131.06
335.912	133.06
336.14	133.06
336.369	121.06
336.597	124.06
336.825	118.06
337.053	102.06
337.281	126.06
337.51	113.06
337.738	128.06
337.966	132.06
338.194	125.06
338.422	133.06
338.65	131.06
338.878	114.06
339.106	123.06
339.334	111.06
339.562	115.06
339.79	137.06
340.018	127.06
340.246	123.06
340.474	131.06
340.702	117.06
340.93	120.06
341.158	115.06
341.386	111.06
341.614	105.06
341.842	110.06
342.07	105.06
342.298	105.06
342.526	126.06
342.754	109.06
342.981	126.06
343.209	112.06
343.437	113.06
343.665	131.06
343.893	114.06
344.12	133.06
344.348	131.06
344.576	127.06
344.804	125.06
345.031	124.06
345.259	120.06
345.487	113.06
345.714	128.06
345.942	120.06
346.17	123.06
346.397	114.06
346.625	127.06
346.853	112.06
347.08	110.06
347.308	119.06
347.535	118.06
347.763	105.06
347.99	104.06
348.218	113.06
348.445	127.06
348.673	121.06
348.9	107.06
349.128	126.06
349.355	107.06
349.583	121.06
349.81	113.06
350.037	129.06
350.265	121.06
350.492	123.06
350.72	107.06
350.947	121.06
351.174	121.06
351.402	124.06
351.629	116.06
351.856	108.06
352.083	113.06
352.311	114.06
352.538	110.06
352.765	119.06
352.992	111.06
353.22	101.06
353.447	111.06
353.674	117.06
353.901	120.06
354.128	130.06
354.355	107.06
354.583	125.06
354.81	121.06
355.037	120.06
355.264	113.06
355.491	107.06
355.718	124.06
355.945	109.06
356.172	123.06
356.399	124.06
356.626	106.06
356.853	121.06
357.08	114.06
357.307	106.06
357.534	123.06
357.761	115.06
357.988	122.06
358.215	130.06
358.441	123.06
358.668	117.06
358.895	113.06
359.122	114.06
359.349	117.06
359.576	113.06
359.802	121.06
360.029	117.06
360.256	132.06
360.483	117.06
360.709	105.06
360.936	122.06
361.163	114.06
361.39	119.06
361.616	130.06
361.843	132.06
362.07	120.06
362.296	119.06
362.523	127.06
362.749	126.06
362.976	116.06
363.203	131.06
363.429	137.06
363.656	131.06
363.882	133.06
364.109	126.06
364.335	137.06
364.562	117.06
364.788	105.06
365.015	112.06
365.241	129.06
365.468	133.06
365.694	121.06
365.92	120.06
366.147	106.06
366.373	115.06
366.599	120.06
366.826	121.06
367.052	106.06
367.278	112.06
367.505	115.06
367.731	113.06
367.957	106.06
368.184	121.06
368.41	128.06
368.636	117.06
368.862	121.06
369.089	135.06
369.315	114.06
369.541	110.06
369.767	109.06
369.993	123.06
370.219	114.06
370.445	102.06
370.672	120.06
370.898	126.06
371.124	129.06
371.35	111.06
371.576	117.06
371.802	129.06
372.028	115.06
372.254	123.06
372.48	130.06
372.706	111.06
372.932	114.06
373.158	120.06
373.384	118.06
373.61	123.06
373.835	125.06
374.061	114.06
374.287	115.06
374.513	132.06
374.739	119.06
374.965	117.06
375.191	128.06
375.416	120.06
375.642	121.06
375.868	130.06
376.094	108.06
376.319	119.06
376.545	122.06
376.771	128.06
376.997	122.06
377.222	114.06
377.448	115.06
377.674	98.06
377.899	113.06
378.125	113.06
378.35	125.06
378.576	117.06
378.802	109.06
379.027	125.06
379.253	121.06
379.478	110.06
379.704	109.06
379.929	123.06
380.155	124.06
380.38	119.06
380.606	121.06
380.831	124.06
381.057	119.06
381.282	132.06
381.507	123.06
381.733	119.06
381.958	131.06
382.184	133.06
382.409	126.06
382.634	139.06
382.86	131.06
383.085	118.06
383.31	113.06
383.535	144.06
383.761	127.06
383.986	134.06
384.211	130.06
384.436	129.06
384.662	138.06
384.887	130.06
385.112	109.06
385.337	130.06
385.562	127.06
385.787	131.06
386.013	124.06
386.238	120.06
386.463	121.06
386.688	121.06
386.913	129.06
387.138	129.06
387.363	145.06
387.588	130.06
387.813	133.06
388.038	113.06
388.263	130.06
388.488	129.06
388.713	115.06
388.938	130.06
389.163	132.06
389.387	128.06
389.612	114.06
389.837	128.06
390.062	122.06
390.287	122.06
390.512	119.06
390.736	129.06
390.961	133.06
391.186	123.06
391.411	129.06
391.636	134.06
391.86	119.06
392.085	114.06
392.31	141.06
392.534	127.06
392.759	138.06
392.984	133.06
393.208	139.06
393.433	131.06
393.658	146.06
393.882	122.06
394.107	122.06
394.331	132.06
394.556	105.06
394.78	116.06
395.005	129.06
395.229	121.06
395.454	139.06
395.678	138.06
395.903	129.06
396.127	151.06
396.352	143.06
396.576	134.06
396.801	131.06
397.025	123.06
397.249	129.06
397.474	128.06
397.698	148.06
397.922	138.06
398.147	135.06
398.371	147.06
398.595	138.06
398.82	138.06
399.044	141.06
399.268	134.06
399.492	135.06
399.717	157.06
399.941	160.06
400.165	138.06
400.389	141.06
400.613	132.06
400.837	130.06
401.062	124.06
401.286	146.06
401.51	141.06
401.734	136.06
401.958	130.06
402.182	133.06
402.406	125.06
402.63	137.06
402.854	129.06
403.078	145.06
403.302	122.06
403.526	140.06
403.75	148.06
403.974	151.06
404.198	140.06
404.422	152.06
404.645	132.06
404.869	137.06
405.093	139.06
405.317	140.06
405.541	156.06
405.765	147.06
405.988	144.06
406.212	144.06
406.436	133.06
406.66	150.06
406.883	147.06
407.107	140.06
407.331	147.06
407.555	157.06
407.778	173.06
408.002	147.06
408.226	151.06
408.449	138.06
408.673	134.06
408.896	138.06
409.12	153.06
409.344	164.06
409.567	141.06
409.791	133.06
410.014	136.06
410.238	145.06
410.461	136.06
410.685	139.06
410.908	143.06
411.132	149.06
411.355	143.06
411.578	157.06
411.802	124.06
412.025	126.06
412.249	150.06
412.472	145.06
412.695	139.06
412.919	152.06
413.142	139.06
413.365	133.06
413.589	134.06
413.812	158.06
414.035	138.06
414.258	118.06
414.482	139.06
414.705	141.06
414.928	136.06
415.151	130.06
415.374	137.06
415.597	139.06
415.821	149.06
416.044	127.06
416.267	131.06
416.49	137.06
416.713	125.06
416.936	122.06
417.159	125.06
417.382	124.06
417.605	132.06
417.828	136.06
418.051	137.06
418.274	133.06
418.497	146.06
418.72	146.06
418.943	143.06
419.166	141.06
419.389	147.06
419.611	157.06
419.834	147.06
420.057	142.06
420.28	124.06
420.503	130.06
420.726	140.06
420.948	138.06
421.171	138.06
421.394	140.06
421.617	150.06
421.839	153.06
422.062	129.06
422.285	131.06
422.507	132.06
422.73	133.06
422.953	149.06
423.175	146.06
423.398	151.06
423.621	139.06
423.843	151.06
424.066	141.06
424.288	143.06
424.511	154.06
424.733	152.06
424.956	159.06
425.178	139.06
425.401	138.06
425.623	147.06
425.846	135.06
426.068	130.06
426.291	142.06
426.513	142.06
426.735	134.06
426.958	146.06
427.18	141.06
427.402	144.06
427.625	149.06
427.847	153.06
428.069	148.06
428.292	130.06
428.514	147.06
428.736	124.06
428.958	133.06
429.181	130.06
429.403	147.06
429.625	141.06
429.847	121.06
430.069	145.06
430.292	138.06
430.514	140.06
430.736	130.06
430.958	147.06
431.18	145.06
431.402	131.06
431.624	119.06
431.846	114.06
432.068	129.06
432.29	118.06
432.512	135.06
432.734	129.06
432.956	133.06
433.178	126.06
433.4	145.06
433.622	137.06
433.844	151.06
434.066	124.06
434.287	145.06
434.509	139.06
434.731	127.06
434.953	137.06
435.175	137.06
435.397	141.06
435.618	137.06
435.84	143.06
436.062	166.06
436.284	152.06
436.505	137.06
436.727	136.06
436.949	132.06
437.17	135.06
437.392	130.06
437.614	146.06
437.835	141.06
438.057	135.06
438.278	139.06
438.5	133.06
438.721	145.06
438.943	143.06
439.165	125.06
439.386	141.06
439.608	128.06
439.829	146.06
440.05	141.06
440.272	138.06
440.493	139.06
440.715	133.06
440.936	125.06
441.158	135.06
441.379	138.06
441.6	125.06
441.822	144.06
442.043	139.06
442.264	144.06
442.486	157.06
442.707	130.06
442.928	139.06
443.149	142.06
443.371	139.06
443.592	141.06
443.813	142.06
444.034	149.06
444.255	149.06
444.476	148.06
444.698	145.06
444.919	142.06
445.14	269.06
445.361	215.06
445.582	147.06
445.803	133.06
446.024	151.06
446.245	137.06
446.466	131.06
446.687	156.06
446.908	125.06
447.129	132.06
447.35	141.06
447.571	139.06
447.792	139.06
448.013	134.06
448.234	133.06
448.455	128.06
448.675	147.06
448.896	134.06
449.117	132.06
449.338	140.06
449.559	144.06
449.779	142.06
450	137.06
450.221	141.06
450.442	136.06
450.662	135.06
450.883	129.06
451.104	121.06
451.324	133.06
451.545	113.06
451.766	119.06
451.986	136.06
452.207	131.06
452.428	106.06
452.648	141.06
452.869	140.06
453.089	121.06
453.31	135.06
453.53	125.06
453.751	125.06
453.971	117.06
454.192	123.06
454.412	118.06
454.633	125.06
454.853	123.06
455.073	129.06
455.294	133.06
455.514	134.06
455.734	131.06
455.955	118.06
456.175	109.06
456.395	115.06
456.616	133.06
456.836	125.06
457.056	116.06
457.276	116.06
457.497	122.06
457.717	109.06
457.937	139.06
458.157	129.06
458.377	116.06
458.598	134.06
458.818	130.06
459.038	147.06
459.258	133.06
459.478	127.06
459.698	121.06
459.918	119.06
460.138	133.06
460.358	141.06
460.578	138.06
460.798	145.06
461.018	137.06
461.238	143.06
461.458	130.06
461.678	141.06
461.898	141.06
462.118	137.06
462.338	144.06
462.558	145.06
462.777	133.06
462.997	148.06
463.217	153.06
463.437	139.06
463.657	148.06
463.876	131.06
464.096	150.06
464.316	146.06
464.536	149.06
464.755	149.06
464.975	155.06
465.195	150.06
465.414	129.06
465.634	125.06
465.854	133.06
466.073	136.06
466.293	138.06
466.512	115.06
466.732	119.06
466.951	140.06
467.171	129.06
467.391	134.06
467.61	128.06
467.829	131.06
468.049	129.06
468.268	144.06
468.488	141.06
468.707	129.06
468.927	127.06
469.146	135.06
469.365	139.06
469.585	136.06
469.804	139.06
470.023	129.06
470.243	134.06
470.462	132.06
470.681	121.06
470.901	134.06
471.12	136.06
471.339	128.06
471.558	115.06
471.777	138.06
471.997	137.06
472.216	127.06
472.435	125.06
472.654	133.06
472.873	135.06
473.092	140.06
473.311	130.06
473.53	123.06
473.749	145.06
473.968	117.06
474.187	129.06
474.406	124.06
474.625	134.06
474.844	109.06
475.063	127.06
475.282	125.06
475.501	134.06
475.72	119.06
475.939	127.06
476.158	126.06
476.377	122.06
476.596	133.06
476.814	130.06
477.033	141.06
477.252	138.06
477.471	134.06
477.69	125.06
477.908	143.06
478.127	131.06
478.346	146.06
478.564	150.06
478.783	107.06
479.002	139.06
479.22	141.06
479.439	147.06
479.658	134.06
479.876	141.06
480.095	133.06
480.313	147.06
480.532	139.06
480.751	140.06
480.969	126.06
481.188	129.06
481.406	136.06
481.624	140.06
481.843	129.06
482.061	146.06
482.28	136.06
482.498	133.06
482.717	125.06
482.935	143.06
483.153	141.06
483.372	143.06
483.59	152.06
483.808	137.06
484.027	134.06
484.245	129.06
484.463	159.06
484.681	152.06
484.9	145.06
485.118	156.06
485.336	157.06
485.554	129.06
485.772	136.06
485.99	129.06
486.209	129.06
486.427	158.06
486.645	142.06
486.863	152.06
487.081	163.06
487.299	146.06
487.517	144.06
487.735	149.06
487.953	135.06
488.171	147.06
488.389	138.06
488.607	129.06
488.825	150.06
489.043	128.06
489.261	137.06
489.479	128.06
489.696	145.06
489.914	132.06
490.132	142.06
490.35	147.06
490.568	138.06
490.786	140.06
491.003	149.06
491.221	164.06
491.439	139.06
491.657	155.06
491.874	165.06
492.092	139.06
492.31	161.06
492.527	164.06
492.745	160.06
492.963	162.06
493.18	162.06
493.398	144.06
493.615	143.06
493.833	149.06
494.05	169.06
494.268	145.06
494.485	146.06
494.703	151.06
494.92	149.06
495.138	147.06
495.355	145.06
495.573	165.06
495.79	151.06
496.008	141.06
496.225	142.06
496.442	169.06
496.66	149.06
496.877	157.06
497.094	140.06
497.312	144.06
497.529	148.06
497.746	162.06
497.963	173.06
498.181	161.06
498.398	159.06
498.615	159.06
498.832	173.06
499.049	185.06
499.267	173.06
499.484	195.06
499.701	199.06
499.918	196.06
500.135	188.06
500.352	227.06
500.569	204.06
500.786	221.06
501.003	212.06
501.22	205.06
501.437	193.06
501.654	183.06
501.871	199.06
502.088	181.06
502.305	185.06
502.522	169.06
502.739	164.06
502.956	155.06
503.172	161.06
503.389	171.06
503.606	149.06
503.823	143.06
504.04	142.06
504.256	158.06
504.473	159.06
