Data from 1968.PennyLincolnUp.Lamp.En5.5.200Scan.071719.P1._HRD10591_14-50-33-969.txt Node
Date: Thu Jul 18 14:50:33 EDT 2019
User: cochatt
Spectrometer: HR+D1059
Trigger mode: 1
Integration Time (sec): 1.000000E-1
Scans to average: 1
Electric dark correction enabled: true
Nonlinearity correction enabled: false
Boxcar width: 0
XAxis mode: Wavelengths
Number of Pixels in Spectrum: 2048
>>>>>Begin Spectral Data<<<<<
223.165	-7.44
223.4	-7.44
223.635	-7.44
223.869	-18.44
224.104	-21.44
224.338	-7.44
224.573	-8.44
224.808	-8.44
225.042	-5.44
225.277	-8.44
225.511	-9.44
225.746	-12.44
225.98	6.56
226.215	16.56
226.449	8.56
226.683	11.56
226.918	36.56
227.152	27.56
227.387	28.56
227.621	40.56
227.856	29.56
228.09	41.56
228.324	43.56
228.559	51.56
228.793	57.56
229.027	61.56
229.262	70.56
229.496	64.56
229.73	69.56
229.964	74.56
230.199	71.56
230.433	85.56
230.667	75.56
230.901	75.56
231.136	77.56
231.37	87.56
231.604	92.56
231.838	79.56
232.072	77.56
232.306	88.56
232.541	87.56
232.775	86.56
233.009	88.56
233.243	73.56
233.477	77.56
233.711	84.56
233.945	88.56
234.179	74.56
234.413	102.56
234.647	81.56
234.881	76.56
235.115	94.56
235.349	65.56
235.583	85.56
235.817	82.56
236.051	81.56
236.285	91.56
236.519	86.56
236.753	81.56
236.987	80.56
237.221	84.56
237.455	88.56
237.689	95.56
237.922	82.56
238.156	87.56
238.39	80.56
238.624	81.56
238.858	85.56
239.091	81.56
239.325	74.56
239.559	86.56
239.793	68.56
240.027	90.56
240.26	81.56
240.494	84.56
240.728	85.56
240.961	70.56
241.195	85.56
241.429	77.56
241.662	93.56
241.896	82.56
242.13	64.56
242.363	68.56
242.597	75.56
242.83	100.56
243.064	86.56
243.298	81.56
243.531	79.56
243.765	90.56
243.998	72.56
244.232	73.56
244.465	93.56
244.699	82.56
244.932	76.56
245.166	83.56
245.399	103.56
245.633	92.56
245.866	102.56
246.099	84.56
246.333	102.56
246.566	70.56
246.8	86.56
247.033	88.56
247.266	88.56
247.5	84.56
247.733	86.56
247.966	71.56
248.2	84.56
248.433	86.56
248.666	82.56
248.899	67.56
249.133	95.56
249.366	95.56
249.599	92.56
249.832	87.56
250.066	101.56
250.299	78.56
250.532	81.56
250.765	88.56
250.998	86.56
251.231	91.56
251.465	78.56
251.698	85.56
251.931	93.56
252.164	85.56
252.397	77.56
252.63	71.56
252.863	83.56
253.096	79.56
253.329	84.56
253.562	96.56
253.795	93.56
254.028	88.56
254.261	87.56
254.494	90.56
254.727	102.56
254.96	100.56
255.193	90.56
255.426	89.56
255.659	88.56
255.892	91.56
256.124	94.56
256.357	97.56
256.59	97.56
256.823	105.56
257.056	101.56
257.289	83.56
257.521	91.56
257.754	87.56
257.987	91.56
258.22	80.56
258.452	83.56
258.685	88.56
258.918	95.56
259.151	100.56
259.383	84.56
259.616	93.56
259.849	87.56
260.081	101.56
260.314	94.56
260.547	95.56
260.779	82.56
261.012	90.56
261.244	87.56
261.477	109.56
261.71	103.56
261.942	91.56
262.175	102.56
262.407	100.56
262.64	95.56
262.872	89.56
263.105	95.56
263.337	96.56
263.57	94.56
263.802	102.56
264.035	93.56
264.267	94.56
264.499	84.56
264.732	97.56
264.964	93.56
265.197	85.56
265.429	103.56
265.661	86.56
265.894	98.56
266.126	87.56
266.358	101.56
266.591	98.56
266.823	83.56
267.055	90.56
267.287	92.56
267.52	93.56
267.752	100.56
267.984	81.56
268.216	91.56
268.448	85.56
268.681	97.56
268.913	103.56
269.145	103.56
269.377	95.56
269.609	107.56
269.841	84.56
270.073	80.56
270.306	100.56
270.538	108.56
270.77	113.56
271.002	105.56
271.234	97.56
271.466	92.56
271.698	93.56
271.93	100.56
272.162	113.56
272.394	97.56
272.626	103.56
272.858	92.56
273.09	107.56
273.322	93.56
273.553	100.56
273.785	103.56
274.017	89.56
274.249	98.56
274.481	91.56
274.713	84.56
274.945	101.56
275.176	104.56
275.408	99.56
275.64	106.56
275.872	107.56
276.104	115.56
276.335	112.56
276.567	115.56
276.799	90.56
277.031	105.56
277.262	90.56
277.494	92.56
277.726	86.56
277.957	87.56
278.189	91.56
278.421	98.56
278.652	113.56
278.884	90.56
279.115	104.56
279.347	101.56
279.579	98.56
279.81	109.56
280.042	104.56
280.273	101.56
280.505	103.56
280.736	90.56
280.968	88.56
281.199	94.56
281.431	96.56
281.662	105.56
281.894	96.56
282.125	103.56
282.356	109.56
282.588	96.56
282.819	100.56
283.051	103.56
283.282	115.56
283.513	97.56
283.745	102.56
283.976	99.56
284.207	94.56
284.439	104.56
284.67	111.56
284.901	86.56
285.132	89.56
285.364	108.56
285.595	105.56
285.826	109.56
286.057	95.56
286.288	95.56
286.52	115.56
286.751	109.56
286.982	102.56
287.213	109.56
287.444	102.56
287.675	108.56
287.906	100.56
288.138	105.56
288.369	108.56
288.6	95.56
288.831	99.56
289.062	93.56
289.293	98.56
289.524	126.56
289.755	101.56
289.986	101.56
290.217	88.56
290.448	111.56
290.679	97.56
290.91	103.56
291.141	98.56
291.371	112.56
291.602	99.56
291.833	106.56
292.064	116.56
292.295	117.56
292.526	104.56
292.757	95.56
292.987	96.56
293.218	128.56
293.449	109.56
293.68	111.56
293.91	115.56
294.141	106.56
294.372	106.56
294.603	92.56
294.833	109.56
295.064	92.56
295.295	112.56
295.525	100.56
295.756	119.56
295.987	109.56
296.217	107.56
296.448	116.56
296.679	115.56
296.909	108.56
297.14	119.56
297.37	103.56
297.601	101.56
297.831	101.56
298.062	104.56
298.292	108.56
298.523	105.56
298.753	104.56
298.984	97.56
299.214	102.56
299.445	118.56
299.675	103.56
299.905	100.56
300.136	105.56
300.366	106.56
300.597	116.56
300.827	109.56
301.057	95.56
301.288	105.56
301.518	105.56
301.748	126.56
301.979	115.56
302.209	111.56
302.439	108.56
302.669	111.56
302.9	113.56
303.13	105.56
303.36	105.56
303.59	105.56
303.82	106.56
304.051	105.56
304.281	102.56
304.511	112.56
304.741	108.56
304.971	95.56
305.201	107.56
305.431	111.56
305.661	91.56
305.891	111.56
306.121	110.56
306.352	123.56
306.582	93.56
306.812	102.56
307.042	98.56
307.272	103.56
307.502	104.56
307.731	102.56
307.961	109.56
308.191	108.56
308.421	117.56
308.651	115.56
308.881	97.56
309.111	99.56
309.341	108.56
309.571	113.56
309.8	95.56
310.03	107.56
310.26	97.56
310.49	111.56
310.72	107.56
310.949	103.56
311.179	103.56
311.409	85.56
311.639	108.56
311.868	104.56
312.098	117.56
312.328	114.56
312.557	105.56
312.787	100.56
313.017	107.56
313.246	97.56
313.476	109.56
313.706	99.56
313.935	100.56
314.165	120.56
314.394	119.56
314.624	106.56
314.853	108.56
315.083	102.56
315.312	113.56
315.542	114.56
315.771	108.56
316.001	106.56
316.23	103.56
316.46	95.56
316.689	100.56
316.919	107.56
317.148	106.56
317.377	115.56
317.607	107.56
317.836	112.56
318.065	110.56
318.295	110.56
318.524	119.56
318.753	120.56
318.983	100.56
319.212	112.56
319.441	102.56
319.67	108.56
319.9	115.56
320.129	107.56
320.358	105.56
320.587	112.56
320.816	106.56
321.046	107.56
321.275	107.56
321.504	112.56
321.733	115.56
321.962	119.56
322.191	105.56
322.42	111.56
322.649	131.56
322.878	119.56
323.108	107.56
323.337	121.56
323.566	115.56
323.795	115.56
324.024	120.56
324.253	113.56
324.482	148.56
324.71	165.56
324.939	173.56
325.168	148.56
325.397	136.56
325.626	120.56
325.855	102.56
326.084	123.56
326.313	122.56
326.542	136.56
326.77	118.56
326.999	115.56
327.228	127.56
327.457	134.56
327.686	151.56
327.914	139.56
328.143	127.56
328.372	123.56
328.6	123.56
328.829	119.56
329.058	104.56
329.287	117.56
329.515	109.56
329.744	108.56
329.972	105.56
330.201	124.56
330.43	96.56
330.658	119.56
330.887	107.56
331.115	124.56
331.344	125.56
331.572	114.56
331.801	120.56
332.03	113.56
332.258	119.56
332.486	119.56
332.715	115.56
332.943	118.56
333.172	117.56
333.4	119.56
333.629	126.56
333.857	123.56
334.085	116.56
334.314	114.56
334.542	127.56
334.771	118.56
334.999	124.56
335.227	110.56
335.455	135.56
335.684	128.56
335.912	101.56
336.14	104.56
336.369	119.56
336.597	117.56
336.825	117.56
337.053	112.56
337.281	99.56
337.51	115.56
337.738	120.56
337.966	107.56
338.194	119.56
338.422	125.56
338.65	125.56
338.878	108.56
339.106	107.56
339.334	110.56
339.562	104.56
339.79	117.56
340.018	93.56
340.246	107.56
340.474	117.56
340.702	122.56
340.93	126.56
341.158	117.56
341.386	122.56
341.614	118.56
341.842	119.56
342.07	133.56
342.298	108.56
342.526	115.56
342.754	109.56
342.981	118.56
343.209	124.56
343.437	122.56
343.665	121.56
343.893	124.56
344.12	128.56
344.348	109.56
344.576	111.56
344.804	124.56
345.031	107.56
345.259	117.56
345.487	131.56
345.714	107.56
345.942	102.56
346.17	117.56
346.397	109.56
346.625	108.56
346.853	108.56
347.08	95.56
347.308	123.56
347.535	126.56
347.763	113.56
347.99	114.56
348.218	115.56
348.445	118.56
348.673	123.56
348.9	112.56
349.128	97.56
349.355	122.56
349.583	104.56
349.81	103.56
350.037	103.56
350.265	104.56
350.492	108.56
350.72	118.56
350.947	117.56
351.174	119.56
351.402	112.56
351.629	120.56
351.856	98.56
352.083	113.56
352.311	102.56
352.538	106.56
352.765	119.56
352.992	128.56
353.22	109.56
353.447	119.56
353.674	111.56
353.901	110.56
354.128	109.56
354.355	103.56
354.583	100.56
354.81	105.56
355.037	107.56
355.264	106.56
355.491	115.56
355.718	119.56
355.945	104.56
356.172	106.56
356.399	109.56
356.626	111.56
356.853	107.56
357.08	109.56
357.307	123.56
357.534	137.56
357.761	113.56
357.988	110.56
358.215	121.56
358.441	99.56
358.668	94.56
358.895	89.56
359.122	111.56
359.349	93.56
359.576	122.56
359.802	111.56
360.029	121.56
360.256	104.56
360.483	118.56
360.709	112.56
360.936	99.56
361.163	120.56
361.39	119.56
361.616	114.56
361.843	117.56
362.07	124.56
362.296	106.56
362.523	117.56
362.749	115.56
362.976	101.56
363.203	130.56
363.429	99.56
363.656	94.56
363.882	105.56
364.109	103.56
364.335	110.56
364.562	120.56
364.788	101.56
365.015	107.56
365.241	115.56
365.468	122.56
365.694	104.56
365.92	125.56
366.147	104.56
366.373	124.56
366.599	97.56
366.826	119.56
367.052	119.56
367.278	101.56
367.505	121.56
367.731	125.56
367.957	107.56
368.184	110.56
368.41	122.56
368.636	110.56
368.862	121.56
369.089	120.56
369.315	105.56
369.541	124.56
369.767	100.56
369.993	122.56
370.219	112.56
370.445	101.56
370.672	110.56
370.898	105.56
371.124	109.56
371.35	108.56
371.576	115.56
371.802	104.56
372.028	119.56
372.254	114.56
372.48	119.56
372.706	112.56
372.932	119.56
373.158	119.56
373.384	117.56
373.61	124.56
373.835	113.56
374.061	122.56
374.287	121.56
374.513	107.56
374.739	121.56
374.965	115.56
375.191	112.56
375.416	111.56
375.642	110.56
375.868	108.56
376.094	114.56
376.319	102.56
376.545	112.56
376.771	117.56
376.997	106.56
377.222	107.56
377.448	110.56
377.674	123.56
377.899	110.56
378.125	111.56
378.35	109.56
378.576	117.56
378.802	112.56
379.027	110.56
379.253	117.56
379.478	123.56
379.704	115.56
379.929	115.56
380.155	124.56
380.38	112.56
380.606	120.56
380.831	131.56
381.057	119.56
381.282	109.56
381.507	120.56
381.733	131.56
381.958	121.56
382.184	111.56
382.409	118.56
382.634	128.56
382.86	126.56
383.085	117.56
383.31	120.56
383.535	110.56
383.761	111.56
383.986	123.56
384.211	129.56
384.436	104.56
384.662	116.56
384.887	110.56
385.112	113.56
385.337	125.56
385.562	119.56
385.787	129.56
386.013	120.56
386.238	126.56
386.463	120.56
386.688	132.56
386.913	128.56
387.138	129.56
387.363	119.56
387.588	131.56
387.813	115.56
388.038	117.56
388.263	109.56
388.488	112.56
388.713	119.56
388.938	123.56
389.163	129.56
389.387	125.56
389.612	127.56
389.837	103.56
390.062	113.56
390.287	119.56
390.512	117.56
390.736	117.56
390.961	131.56
391.186	131.56
391.411	111.56
391.636	121.56
391.86	127.56
392.085	127.56
392.31	136.56
392.534	111.56
392.759	121.56
392.984	114.56
393.208	119.56
393.433	121.56
393.658	121.56
393.882	117.56
394.107	123.56
394.331	102.56
394.556	113.56
394.78	111.56
395.005	127.56
395.229	122.56
395.454	108.56
395.678	119.56
395.903	127.56
396.127	117.56
396.352	128.56
396.576	122.56
396.801	127.56
397.025	127.56
397.249	117.56
397.474	122.56
397.698	110.56
397.922	123.56
398.147	131.56
398.371	130.56
398.595	112.56
398.82	125.56
399.044	127.56
399.268	145.56
399.492	155.56
399.717	149.56
399.941	140.56
400.165	145.56
400.389	128.56
400.613	137.56
400.837	138.56
401.062	139.56
401.286	130.56
401.51	124.56
401.734	117.56
401.958	134.56
402.182	131.56
402.406	135.56
402.63	136.56
402.854	128.56
403.078	121.56
403.302	134.56
403.526	135.56
403.75	136.56
403.974	150.56
404.198	132.56
404.422	138.56
404.645	135.56
404.869	141.56
405.093	128.56
405.317	133.56
405.541	130.56
405.765	145.56
405.988	128.56
406.212	134.56
406.436	154.56
406.66	145.56
406.883	151.56
407.107	151.56
407.331	133.56
407.555	147.56
407.778	163.56
408.002	145.56
408.226	127.56
408.449	139.56
408.673	141.56
408.896	124.56
409.12	133.56
409.344	139.56
409.567	138.56
409.791	144.56
410.014	140.56
410.238	132.56
410.461	139.56
410.685	136.56
410.908	158.56
411.132	141.56
411.355	138.56
411.578	149.56
411.802	133.56
412.025	133.56
412.249	124.56
412.472	141.56
412.695	143.56
412.919	145.56
413.142	151.56
413.365	136.56
413.589	137.56
413.812	135.56
414.035	130.56
414.258	128.56
414.482	123.56
414.705	131.56
414.928	137.56
415.151	141.56
415.374	132.56
415.597	134.56
415.821	132.56
416.044	135.56
416.267	127.56
416.49	130.56
416.713	125.56
416.936	127.56
417.159	129.56
417.382	141.56
417.605	129.56
417.828	122.56
418.051	124.56
418.274	123.56
418.497	129.56
418.72	131.56
418.943	125.56
419.166	131.56
419.389	129.56
419.611	137.56
419.834	134.56
420.057	140.56
420.28	138.56
420.503	138.56
420.726	143.56
420.948	139.56
421.171	126.56
421.394	135.56
421.617	131.56
421.839	122.56
422.062	144.56
422.285	128.56
422.507	135.56
422.73	135.56
422.953	152.56
423.175	143.56
423.398	127.56
423.621	138.56
423.843	140.56
424.066	133.56
424.288	127.56
424.511	140.56
424.733	149.56
424.956	143.56
425.178	144.56
425.401	145.56
425.623	136.56
425.846	124.56
426.068	121.56
426.291	127.56
426.513	133.56
426.735	132.56
426.958	142.56
427.18	127.56
427.402	155.56
427.625	164.56
427.847	140.56
428.069	141.56
428.292	145.56
428.514	127.56
428.736	123.56
428.958	135.56
429.181	131.56
429.403	137.56
429.625	135.56
429.847	132.56
430.069	138.56
430.292	151.56
430.514	136.56
430.736	145.56
430.958	144.56
431.18	117.56
431.402	141.56
431.624	137.56
431.846	111.56
432.068	125.56
432.29	130.56
432.512	133.56
432.734	137.56
432.956	127.56
433.178	122.56
433.4	141.56
433.622	129.56
433.844	129.56
434.066	128.56
434.287	113.56
434.509	129.56
434.731	132.56
434.953	136.56
435.175	138.56
435.397	125.56
435.618	111.56
435.84	131.56
436.062	131.56
436.284	146.56
436.505	135.56
436.727	119.56
436.949	135.56
437.17	128.56
437.392	121.56
437.614	136.56
437.835	139.56
438.057	141.56
438.278	137.56
438.5	131.56
438.721	149.56
438.943	136.56
439.165	130.56
439.386	139.56
439.608	127.56
439.829	127.56
440.05	131.56
440.272	144.56
440.493	122.56
440.715	119.56
440.936	124.56
441.158	124.56
441.379	129.56
441.6	137.56
441.822	123.56
442.043	143.56
442.264	151.56
442.486	125.56
442.707	127.56
442.928	138.56
443.149	128.56
443.371	126.56
443.592	142.56
443.813	132.56
444.034	145.56
444.255	150.56
444.476	139.56
444.698	132.56
444.919	140.56
445.14	231.56
445.361	163.56
445.582	143.56
445.803	129.56
446.024	158.56
446.245	143.56
446.466	136.56
446.687	137.56
446.908	124.56
447.129	125.56
447.35	127.56
447.571	140.56
447.792	134.56
448.013	109.56
448.234	139.56
448.455	136.56
448.675	135.56
448.896	149.56
449.117	121.56
449.338	139.56
449.559	130.56
449.779	129.56
450	139.56
450.221	123.56
450.442	127.56
450.662	141.56
450.883	114.56
451.104	118.56
451.324	139.56
451.545	135.56
451.766	125.56
451.986	128.56
452.207	126.56
452.428	127.56
452.648	127.56
452.869	127.56
453.089	123.56
453.31	120.56
453.53	110.56
453.751	124.56
453.971	118.56
454.192	124.56
454.412	125.56
454.633	135.56
454.853	121.56
455.073	122.56
455.294	106.56
455.514	121.56
455.734	115.56
455.955	119.56
456.175	116.56
456.395	121.56
456.616	119.56
456.836	115.56
457.056	123.56
457.276	128.56
457.497	117.56
457.717	129.56
457.937	106.56
458.157	102.56
458.377	114.56
458.598	112.56
458.818	125.56
459.038	116.56
459.258	136.56
459.478	137.56
459.698	120.56
459.918	127.56
460.138	135.56
460.358	126.56
460.578	130.56
460.798	133.56
461.018	133.56
461.238	137.56
461.458	127.56
461.678	138.56
461.898	135.56
462.118	145.56
462.338	140.56
462.558	143.56
462.777	145.56
462.997	143.56
463.217	150.56
463.437	143.56
463.657	126.56
463.876	124.56
464.096	146.56
464.316	137.56
464.536	123.56
464.755	141.56
464.975	138.56
465.195	127.56
465.414	128.56
465.634	120.56
465.854	117.56
466.073	119.56
466.293	125.56
466.512	119.56
466.732	131.56
466.951	134.56
467.171	127.56
467.391	125.56
467.61	131.56
467.829	135.56
468.049	126.56
468.268	122.56
468.488	120.56
468.707	119.56
468.927	127.56
469.146	137.56
469.365	128.56
469.585	129.56
469.804	125.56
470.023	126.56
470.243	122.56
470.462	129.56
470.681	130.56
470.901	135.56
471.12	128.56
471.339	120.56
471.558	137.56
471.777	132.56
471.997	102.56
472.216	110.56
472.435	125.56
472.654	135.56
472.873	128.56
473.092	127.56
473.311	123.56
473.53	113.56
473.749	128.56
473.968	122.56
474.187	125.56
474.406	118.56
474.625	131.56
474.844	112.56
475.063	110.56
475.282	110.56
475.501	126.56
475.72	129.56
475.939	118.56
476.158	129.56
476.377	115.56
476.596	133.56
476.814	115.56
477.033	129.56
477.252	123.56
477.471	119.56
477.69	126.56
477.908	124.56
478.127	132.56
478.346	148.56
478.564	135.56
478.783	126.56
479.002	122.56
479.22	140.56
479.439	132.56
479.658	134.56
479.876	126.56
480.095	133.56
480.313	129.56
480.532	131.56
480.751	132.56
480.969	129.56
481.188	136.56
481.406	131.56
481.624	117.56
481.843	100.56
482.061	131.56
482.28	126.56
482.498	131.56
482.717	127.56
482.935	141.56
483.153	137.56
483.372	127.56
483.59	137.56
483.808	144.56
484.027	140.56
484.245	133.56
484.463	126.56
484.681	151.56
484.9	130.56
485.118	131.56
485.336	133.56
485.554	138.56
485.772	136.56
485.99	130.56
486.209	131.56
486.427	135.56
486.645	129.56
486.863	132.56
487.081	142.56
487.299	131.56
487.517	142.56
487.735	137.56
487.953	145.56
488.171	155.56
488.389	135.56
488.607	133.56
488.825	122.56
489.043	123.56
489.261	122.56
489.479	158.56
489.696	136.56
489.914	124.56
490.132	151.56
490.35	154.56
490.568	138.56
490.786	126.56
491.003	143.56
491.221	136.56
491.439	129.56
491.657	146.56
491.874	138.56
492.092	144.56
492.31	138.56
492.527	141.56
492.745	131.56
492.963	133.56
493.18	149.56
493.398	137.56
493.615	143.56
493.833	151.56
494.05	138.56
494.268	128.56
494.485	145.56
494.703	154.56
494.92	142.56
495.138	136.56
495.355	142.56
495.573	135.56
495.79	134.56
496.008	143.56
496.225	116.56
496.442	149.56
496.66	145.56
496.877	139.56
497.094	145.56
497.312	148.56
497.529	143.56
497.746	153.56
497.963	137.56
498.181	152.56
498.398	151.56
498.615	148.56
498.832	154.56
499.049	177.56
499.267	173.56
499.484	181.56
499.701	189.56
499.918	158.56
500.135	183.56
500.352	201.56
500.569	199.56
500.786	196.56
501.003	202.56
501.22	192.56
501.437	163.56
501.654	159.56
501.871	169.56
502.088	138.56
502.305	166.56
502.522	149.56
502.739	163.56
502.956	159.56
503.172	155.56
503.389	150.56
503.606	139.56
503.823	148.56
504.04	131.56
504.256	149.56
504.473	142.56
504.69	155.56
504.907	159.56
505.123	139.56
