Data from 1968.PennyLincolnUp.Lamp.En5.5.200Scan.071719.P1._HRD10591_14-51-13-969.txt Node
Date: Thu Jul 18 14:51:13 EDT 2019
User: cochatt
Spectrometer: HR+D1059
Trigger mode: 1
Integration Time (sec): 1.000000E-1
Scans to average: 1
Electric dark correction enabled: true
Nonlinearity correction enabled: false
Boxcar width: 0
XAxis mode: Wavelengths
Number of Pixels in Spectrum: 2048
>>>>>Begin Spectral Data<<<<<
223.165	-13.44
223.4	-13.44
223.635	-13.44
223.869	-24.44
224.104	-13.44
224.338	-15.44
224.573	-7.44
224.808	-16.44
225.042	-3.44
225.277	5.56
225.511	0.56
225.746	7.56
225.98	-5.44
226.215	2.56
226.449	14.56
226.683	16.56
226.918	30.56
227.152	21.56
227.387	47.56
227.621	29.56
227.856	55.56
228.09	48.56
228.324	50.56
228.559	67.56
228.793	61.56
229.027	58.56
229.262	69.56
229.496	63.56
229.73	70.56
229.964	76.56
230.199	74.56
230.433	71.56
230.667	75.56
230.901	83.56
231.136	79.56
231.37	92.56
231.604	97.56
231.838	96.56
232.072	89.56
232.306	90.56
232.541	90.56
232.775	75.56
233.009	86.56
233.243	84.56
233.477	71.56
233.711	90.56
233.945	80.56
234.179	90.56
234.413	86.56
234.647	91.56
234.881	87.56
235.115	86.56
235.349	90.56
235.583	87.56
235.817	98.56
236.051	79.56
236.285	79.56
236.519	95.56
236.753	93.56
236.987	77.56
237.221	82.56
237.455	84.56
237.689	82.56
237.922	79.56
238.156	89.56
238.39	89.56
238.624	88.56
238.858	79.56
239.091	106.56
239.325	85.56
239.559	78.56
239.793	87.56
240.027	87.56
240.26	86.56
240.494	79.56
240.728	77.56
240.961	73.56
241.195	95.56
241.429	89.56
241.662	78.56
241.896	81.56
242.13	85.56
242.363	78.56
242.597	83.56
242.83	80.56
243.064	73.56
243.298	91.56
243.531	87.56
243.765	84.56
243.998	77.56
244.232	79.56
244.465	76.56
244.699	90.56
244.932	103.56
245.166	69.56
245.399	83.56
245.633	91.56
245.866	79.56
246.099	90.56
246.333	82.56
246.566	87.56
246.8	88.56
247.033	91.56
247.266	76.56
247.5	90.56
247.733	94.56
247.966	91.56
248.2	95.56
248.433	90.56
248.666	94.56
248.899	91.56
249.133	97.56
249.366	85.56
249.599	91.56
249.832	75.56
250.066	94.56
250.299	92.56
250.532	86.56
250.765	94.56
250.998	109.56
251.231	95.56
251.465	87.56
251.698	81.56
251.931	102.56
252.164	92.56
252.397	89.56
252.63	97.56
252.863	97.56
253.096	91.56
253.329	103.56
253.562	101.56
253.795	88.56
254.028	92.56
254.261	95.56
254.494	99.56
254.727	94.56
254.96	95.56
255.193	105.56
255.426	95.56
255.659	89.56
255.892	87.56
256.124	95.56
256.357	92.56
256.59	90.56
256.823	90.56
257.056	88.56
257.289	105.56
257.521	95.56
257.754	91.56
257.987	91.56
258.22	92.56
258.452	91.56
258.685	103.56
258.918	99.56
259.151	106.56
259.383	119.56
259.616	86.56
259.849	95.56
260.081	94.56
260.314	87.56
260.547	88.56
260.779	117.56
261.012	95.56
261.244	92.56
261.477	103.56
261.71	100.56
261.942	107.56
262.175	90.56
262.407	83.56
262.64	95.56
262.872	83.56
263.105	83.56
263.337	91.56
263.57	91.56
263.802	99.56
264.035	97.56
264.267	94.56
264.499	96.56
264.732	106.56
264.964	98.56
265.197	103.56
265.429	92.56
265.661	89.56
265.894	92.56
266.126	96.56
266.358	89.56
266.591	103.56
266.823	95.56
267.055	94.56
267.287	95.56
267.52	103.56
267.752	96.56
267.984	95.56
268.216	86.56
268.448	99.56
268.681	80.56
268.913	81.56
269.145	99.56
269.377	102.56
269.609	89.56
269.841	103.56
270.073	103.56
270.306	91.56
270.538	99.56
270.77	99.56
271.002	106.56
271.234	84.56
271.466	88.56
271.698	85.56
271.93	109.56
272.162	113.56
272.394	104.56
272.626	101.56
272.858	89.56
273.09	82.56
273.322	97.56
273.553	91.56
273.785	104.56
274.017	95.56
274.249	101.56
274.481	102.56
274.713	106.56
274.945	96.56
275.176	90.56
275.408	93.56
275.64	91.56
275.872	97.56
276.104	107.56
276.335	95.56
276.567	82.56
276.799	111.56
277.031	89.56
277.262	110.56
277.494	102.56
277.726	105.56
277.957	115.56
278.189	103.56
278.421	105.56
278.652	95.56
278.884	105.56
279.115	102.56
279.347	106.56
279.579	95.56
279.81	91.56
280.042	100.56
280.273	87.56
280.505	105.56
280.736	108.56
280.968	90.56
281.199	109.56
281.431	111.56
281.662	91.56
281.894	101.56
282.125	96.56
282.356	101.56
282.588	107.56
282.819	102.56
283.051	106.56
283.282	114.56
283.513	117.56
283.745	97.56
283.976	92.56
284.207	112.56
284.439	108.56
284.67	101.56
284.901	113.56
285.132	117.56
285.364	104.56
285.595	93.56
285.826	111.56
286.057	113.56
286.288	92.56
286.52	109.56
286.751	89.56
286.982	107.56
287.213	108.56
287.444	113.56
287.675	111.56
287.906	126.56
288.138	126.56
288.369	100.56
288.6	103.56
288.831	109.56
289.062	121.56
289.293	97.56
289.524	95.56
289.755	106.56
289.986	95.56
290.217	97.56
290.448	106.56
290.679	119.56
290.91	110.56
291.141	121.56
291.371	99.56
291.602	103.56
291.833	98.56
292.064	104.56
292.295	100.56
292.526	114.56
292.757	104.56
292.987	102.56
293.218	121.56
293.449	104.56
293.68	123.56
293.91	108.56
294.141	99.56
294.372	102.56
294.603	105.56
294.833	121.56
295.064	115.56
295.295	105.56
295.525	102.56
295.756	104.56
295.987	118.56
296.217	112.56
296.448	109.56
296.679	110.56
296.909	104.56
297.14	112.56
297.37	108.56
297.601	122.56
297.831	117.56
298.062	114.56
298.292	117.56
298.523	111.56
298.753	98.56
298.984	99.56
299.214	109.56
299.445	106.56
299.675	121.56
299.905	119.56
300.136	114.56
300.366	114.56
300.597	106.56
300.827	106.56
301.057	108.56
301.288	124.56
301.518	119.56
301.748	114.56
301.979	96.56
302.209	118.56
302.439	108.56
302.669	102.56
302.9	106.56
303.13	117.56
303.36	119.56
303.59	95.56
303.82	123.56
304.051	110.56
304.281	98.56
304.511	116.56
304.741	99.56
304.971	108.56
305.201	122.56
305.431	120.56
305.661	116.56
305.891	119.56
306.121	116.56
306.352	105.56
306.582	102.56
306.812	121.56
307.042	105.56
307.272	115.56
307.502	101.56
307.731	100.56
307.961	107.56
308.191	109.56
308.421	124.56
308.651	114.56
308.881	111.56
309.111	109.56
309.341	113.56
309.571	104.56
309.8	111.56
310.03	114.56
310.26	125.56
310.49	112.56
310.72	122.56
310.949	110.56
311.179	105.56
311.409	100.56
311.639	114.56
311.868	111.56
312.098	123.56
312.328	121.56
312.557	112.56
312.787	113.56
313.017	109.56
313.246	113.56
313.476	90.56
313.706	109.56
313.935	112.56
314.165	121.56
314.394	111.56
314.624	106.56
314.853	105.56
315.083	121.56
315.312	110.56
315.542	133.56
315.771	112.56
316.001	122.56
316.23	114.56
316.46	103.56
316.689	119.56
316.919	105.56
317.148	126.56
317.377	115.56
317.607	114.56
317.836	123.56
318.065	107.56
318.295	108.56
318.524	113.56
318.753	114.56
318.983	114.56
319.212	123.56
319.441	115.56
319.67	117.56
319.9	118.56
320.129	106.56
320.358	123.56
320.587	119.56
320.816	120.56
321.046	104.56
321.275	129.56
321.504	117.56
321.733	126.56
321.962	122.56
322.191	97.56
322.42	139.56
322.649	117.56
322.878	114.56
323.108	129.56
323.337	117.56
323.566	131.56
323.795	125.56
324.024	126.56
324.253	136.56
324.482	131.56
324.71	161.56
324.939	221.56
325.168	171.56
325.397	133.56
325.626	123.56
325.855	129.56
326.084	108.56
326.313	107.56
326.542	119.56
326.77	124.56
326.999	125.56
327.228	132.56
327.457	155.56
327.686	171.56
327.914	136.56
328.143	129.56
328.372	131.56
328.6	126.56
328.829	130.56
329.058	114.56
329.287	128.56
329.515	130.56
329.744	115.56
329.972	121.56
330.201	123.56
330.43	126.56
330.658	127.56
330.887	131.56
331.115	121.56
331.344	120.56
331.572	119.56
331.801	102.56
332.03	123.56
332.258	123.56
332.486	117.56
332.715	109.56
332.943	100.56
333.172	127.56
333.4	121.56
333.629	127.56
333.857	133.56
334.085	129.56
334.314	126.56
334.542	131.56
334.771	123.56
334.999	128.56
335.227	130.56
335.455	119.56
335.684	126.56
335.912	111.56
336.14	112.56
336.369	124.56
336.597	119.56
336.825	118.56
337.053	119.56
337.281	115.56
337.51	125.56
337.738	117.56
337.966	108.56
338.194	115.56
338.422	117.56
338.65	119.56
338.878	123.56
339.106	120.56
339.334	109.56
339.562	124.56
339.79	128.56
340.018	115.56
340.246	121.56
340.474	114.56
340.702	119.56
340.93	119.56
341.158	116.56
341.386	120.56
341.614	126.56
341.842	118.56
342.07	120.56
342.298	120.56
342.526	117.56
342.754	111.56
342.981	123.56
343.209	121.56
343.437	118.56
343.665	103.56
343.893	115.56
344.12	132.56
344.348	123.56
344.576	118.56
344.804	126.56
345.031	110.56
345.259	120.56
345.487	99.56
345.714	120.56
345.942	123.56
346.17	131.56
346.397	125.56
346.625	108.56
346.853	103.56
347.08	129.56
347.308	121.56
347.535	110.56
347.763	113.56
347.99	113.56
348.218	107.56
348.445	105.56
348.673	129.56
348.9	125.56
349.128	130.56
349.355	119.56
349.583	114.56
349.81	109.56
350.037	112.56
350.265	115.56
350.492	109.56
350.72	107.56
350.947	114.56
351.174	125.56
351.402	127.56
351.629	113.56
351.856	113.56
352.083	112.56
352.311	127.56
352.538	99.56
352.765	109.56
352.992	130.56
353.22	120.56
353.447	110.56
353.674	109.56
353.901	111.56
354.128	119.56
354.355	123.56
354.583	115.56
354.81	121.56
355.037	113.56
355.264	116.56
355.491	103.56
355.718	122.56
355.945	119.56
356.172	105.56
356.399	122.56
356.626	112.56
356.853	107.56
357.08	118.56
357.307	107.56
357.534	123.56
357.761	111.56
357.988	123.56
358.215	128.56
358.441	114.56
358.668	122.56
358.895	110.56
359.122	116.56
359.349	115.56
359.576	121.56
359.802	127.56
360.029	124.56
360.256	124.56
360.483	110.56
360.709	129.56
360.936	111.56
361.163	85.56
361.39	115.56
361.616	117.56
361.843	103.56
362.07	125.56
362.296	118.56
362.523	117.56
362.749	121.56
362.976	125.56
363.203	128.56
363.429	127.56
363.656	130.56
363.882	125.56
364.109	117.56
364.335	116.56
364.562	104.56
364.788	109.56
365.015	119.56
365.241	108.56
365.468	119.56
365.694	110.56
365.92	119.56
366.147	127.56
366.373	122.56
366.599	110.56
366.826	123.56
367.052	115.56
367.278	110.56
367.505	107.56
367.731	103.56
367.957	111.56
368.184	108.56
368.41	111.56
368.636	118.56
368.862	101.56
369.089	121.56
369.315	110.56
369.541	123.56
369.767	121.56
369.993	121.56
370.219	126.56
370.445	106.56
370.672	112.56
370.898	121.56
371.124	131.56
371.35	126.56
371.576	107.56
371.802	106.56
372.028	118.56
372.254	111.56
372.48	107.56
372.706	131.56
372.932	122.56
373.158	120.56
373.384	130.56
373.61	122.56
373.835	119.56
374.061	105.56
374.287	112.56
374.513	124.56
374.739	117.56
374.965	110.56
375.191	127.56
375.416	141.56
375.642	124.56
375.868	129.56
376.094	124.56
376.319	111.56
376.545	126.56
376.771	117.56
376.997	112.56
377.222	115.56
377.448	130.56
377.674	122.56
377.899	128.56
378.125	116.56
378.35	121.56
378.576	139.56
378.802	115.56
379.027	115.56
379.253	113.56
379.478	118.56
379.704	110.56
379.929	121.56
380.155	104.56
380.38	126.56
380.606	125.56
380.831	131.56
381.057	112.56
381.282	119.56
381.507	113.56
381.733	126.56
381.958	123.56
382.184	121.56
382.409	109.56
382.634	128.56
382.86	129.56
383.085	118.56
383.31	125.56
383.535	124.56
383.761	109.56
383.986	125.56
384.211	121.56
384.436	134.56
384.662	104.56
384.887	125.56
385.112	127.56
385.337	120.56
385.562	121.56
385.787	104.56
386.013	121.56
386.238	122.56
386.463	131.56
386.688	123.56
386.913	126.56
387.138	122.56
387.363	131.56
387.588	131.56
387.813	125.56
388.038	122.56
388.263	143.56
388.488	117.56
388.713	127.56
388.938	123.56
389.163	115.56
389.387	137.56
389.612	131.56
389.837	120.56
390.062	137.56
390.287	126.56
390.512	127.56
390.736	124.56
390.961	115.56
391.186	129.56
391.411	109.56
391.636	119.56
391.86	129.56
392.085	123.56
392.31	127.56
392.534	132.56
392.759	124.56
392.984	123.56
393.208	127.56
393.433	123.56
393.658	124.56
393.882	121.56
394.107	119.56
394.331	111.56
394.556	113.56
394.78	128.56
395.005	118.56
395.229	119.56
395.454	133.56
395.678	120.56
395.903	118.56
396.127	142.56
396.352	112.56
396.576	117.56
396.801	127.56
397.025	112.56
397.249	130.56
397.474	142.56
397.698	134.56
397.922	131.56
398.147	123.56
398.371	129.56
398.595	130.56
398.82	146.56
399.044	150.56
399.268	143.56
399.492	142.56
399.717	160.56
399.941	152.56
400.165	142.56
400.389	148.56
400.613	133.56
400.837	131.56
401.062	142.56
401.286	129.56
401.51	123.56
401.734	114.56
401.958	137.56
402.182	139.56
402.406	132.56
402.63	127.56
402.854	138.56
403.078	132.56
403.302	139.56
403.526	144.56
403.75	139.56
403.974	131.56
404.198	137.56
404.422	140.56
404.645	131.56
404.869	145.56
405.093	125.56
405.317	148.56
405.541	138.56
405.765	148.56
405.988	147.56
406.212	141.56
406.436	138.56
406.66	150.56
406.883	144.56
407.107	133.56
407.331	151.56
407.555	143.56
407.778	134.56
408.002	130.56
408.226	145.56
408.449	155.56
408.673	135.56
408.896	144.56
409.12	137.56
409.344	141.56
409.567	119.56
409.791	129.56
410.014	139.56
410.238	146.56
410.461	145.56
410.685	136.56
410.908	137.56
411.132	151.56
411.355	151.56
411.578	132.56
411.802	140.56
412.025	137.56
412.249	138.56
412.472	132.56
412.695	137.56
412.919	140.56
413.142	143.56
413.365	132.56
413.589	133.56
413.812	137.56
414.035	132.56
414.258	146.56
414.482	127.56
414.705	139.56
414.928	130.56
415.151	133.56
415.374	136.56
415.597	133.56
415.821	154.56
416.044	133.56
416.267	139.56
416.49	144.56
416.713	136.56
416.936	129.56
417.159	114.56
417.382	120.56
417.605	122.56
417.828	134.56
418.051	129.56
418.274	131.56
418.497	140.56
418.72	141.56
418.943	128.56
419.166	141.56
419.389	141.56
419.611	132.56
419.834	134.56
420.057	142.56
420.28	144.56
420.503	129.56
420.726	122.56
420.948	133.56
421.171	131.56
421.394	151.56
421.617	139.56
421.839	133.56
422.062	143.56
422.285	134.56
422.507	148.56
422.73	144.56
422.953	145.56
423.175	120.56
423.398	147.56
423.621	140.56
423.843	127.56
424.066	134.56
424.288	153.56
424.511	143.56
424.733	162.56
424.956	152.56
425.178	158.56
425.401	153.56
425.623	148.56
425.846	144.56
426.068	145.56
426.291	130.56
426.513	135.56
426.735	135.56
426.958	136.56
427.18	131.56
427.402	146.56
427.625	144.56
427.847	145.56
428.069	135.56
428.292	133.56
428.514	122.56
428.736	148.56
428.958	127.56
429.181	138.56
429.403	121.56
429.625	132.56
429.847	135.56
430.069	133.56
430.292	124.56
430.514	125.56
430.736	133.56
430.958	133.56
431.18	127.56
431.402	129.56
431.624	132.56
431.846	139.56
432.068	133.56
432.29	122.56
432.512	135.56
432.734	132.56
432.956	128.56
433.178	133.56
433.4	136.56
433.622	140.56
433.844	130.56
434.066	141.56
434.287	133.56
434.509	119.56
434.731	140.56
434.953	135.56
435.175	146.56
435.397	147.56
435.618	130.56
435.84	144.56
436.062	141.56
436.284	146.56
436.505	127.56
436.727	134.56
436.949	145.56
437.17	132.56
437.392	124.56
437.614	121.56
437.835	130.56
438.057	141.56
438.278	145.56
438.5	142.56
438.721	139.56
438.943	152.56
439.165	129.56
439.386	136.56
439.608	128.56
439.829	135.56
440.05	142.56
440.272	136.56
440.493	143.56
440.715	133.56
440.936	126.56
441.158	139.56
441.379	139.56
441.6	138.56
441.822	142.56
442.043	157.56
442.264	154.56
442.486	130.56
442.707	145.56
442.928	141.56
443.149	144.56
443.371	135.56
443.592	143.56
443.813	162.56
444.034	166.56
444.255	143.56
444.476	144.56
444.698	130.56
444.919	145.56
445.14	231.56
445.361	176.56
445.582	155.56
445.803	143.56
446.024	155.56
446.245	161.56
446.466	146.56
446.687	143.56
446.908	143.56
447.129	147.56
447.35	143.56
447.571	131.56
447.792	119.56
448.013	134.56
448.234	140.56
448.455	130.56
448.675	127.56
448.896	137.56
449.117	138.56
449.338	135.56
449.559	144.56
449.779	146.56
450	140.56
450.221	126.56
450.442	137.56
450.662	127.56
450.883	137.56
451.104	147.56
451.324	135.56
451.545	135.56
451.766	128.56
451.986	119.56
452.207	125.56
452.428	143.56
452.648	125.56
452.869	130.56
453.089	128.56
453.31	125.56
453.53	127.56
453.751	134.56
453.971	121.56
454.192	118.56
454.412	127.56
454.633	120.56
454.853	128.56
455.073	122.56
455.294	138.56
455.514	127.56
455.734	124.56
455.955	115.56
456.175	117.56
456.395	123.56
456.616	117.56
456.836	123.56
457.056	125.56
457.276	113.56
457.497	104.56
457.717	121.56
457.937	110.56
458.157	121.56
458.377	133.56
458.598	125.56
458.818	127.56
459.038	135.56
459.258	120.56
459.478	128.56
459.698	125.56
459.918	138.56
460.138	142.56
460.358	141.56
460.578	149.56
460.798	123.56
461.018	134.56
461.238	129.56
461.458	141.56
461.678	144.56
461.898	139.56
462.118	144.56
462.338	143.56
462.558	143.56
462.777	132.56
462.997	145.56
463.217	159.56
463.437	153.56
463.657	135.56
463.876	150.56
464.096	131.56
464.316	148.56
464.536	151.56
464.755	143.56
464.975	143.56
465.195	146.56
465.414	135.56
465.634	131.56
465.854	135.56
466.073	129.56
466.293	125.56
466.512	138.56
466.732	141.56
466.951	122.56
467.171	129.56
467.391	131.56
467.61	132.56
467.829	131.56
468.049	141.56
468.268	136.56
468.488	130.56
468.707	131.56
468.927	123.56
469.146	131.56
469.365	109.56
469.585	123.56
469.804	136.56
470.023	139.56
470.243	131.56
470.462	140.56
470.681	133.56
470.901	125.56
471.12	138.56
471.339	119.56
471.558	130.56
471.777	124.56
471.997	130.56
472.216	126.56
472.435	125.56
472.654	121.56
472.873	119.56
473.092	121.56
473.311	124.56
473.53	125.56
473.749	135.56
473.968	130.56
474.187	129.56
474.406	119.56
474.625	131.56
474.844	130.56
475.063	117.56
475.282	125.56
475.501	117.56
475.72	117.56
475.939	123.56
476.158	125.56
476.377	114.56
476.596	125.56
476.814	121.56
477.033	120.56
477.252	144.56
477.471	125.56
477.69	128.56
477.908	134.56
478.127	138.56
478.346	148.56
478.564	132.56
478.783	138.56
479.002	148.56
479.22	144.56
479.439	149.56
479.658	137.56
479.876	136.56
480.095	115.56
480.313	140.56
480.532	141.56
480.751	129.56
480.969	138.56
481.188	138.56
481.406	134.56
481.624	145.56
481.843	132.56
482.061	131.56
482.28	147.56
482.498	128.56
482.717	126.56
482.935	130.56
483.153	139.56
483.372	127.56
483.59	142.56
483.808	129.56
484.027	135.56
484.245	129.56
484.463	136.56
484.681	157.56
484.9	154.56
485.118	147.56
485.336	135.56
485.554	129.56
485.772	130.56
485.99	137.56
486.209	146.56
486.427	131.56
486.645	139.56
486.863	158.56
487.081	144.56
487.299	146.56
487.517	144.56
487.735	141.56
487.953	136.56
488.171	140.56
488.389	154.56
488.607	133.56
488.825	145.56
489.043	129.56
489.261	136.56
489.479	140.56
489.696	145.56
489.914	118.56
490.132	145.56
490.35	133.56
490.568	139.56
490.786	149.56
491.003	143.56
491.221	145.56
491.439	141.56
491.657	127.56
491.874	142.56
492.092	153.56
492.31	168.56
492.527	156.56
492.745	152.56
492.963	148.56
493.18	137.56
493.398	141.56
493.615	153.56
493.833	148.56
494.05	168.56
494.268	149.56
494.485	146.56
494.703	153.56
494.92	133.56
495.138	166.56
495.355	167.56
495.573	150.56
495.79	151.56
496.008	143.56
496.225	145.56
496.442	145.56
496.66	154.56
496.877	152.56
497.094	173.56
497.312	148.56
497.529	150.56
497.746	169.56
497.963	155.56
498.181	151.56
498.398	142.56
498.615	161.56
498.832	160.56
499.049	175.56
499.267	167.56
499.484	185.56
499.701	194.56
499.918	185.56
500.135	202.56
500.352	206.56
500.569	216.56
500.786	209.56
501.003	204.56
501.22	217.56
501.437	188.56
501.654	199.56
501.871	170.56
502.088	187.56
502.305	172.56
502.522	160.56
502.739	157.56
502.956	171.56
503.172	149.56
503.389	153.56
503.606	140.56
503.823	133.56
504.04	151.56
504.256	154.56
504.473	140.56
504.69	156.56
504.907	156.56
