Data from 1968.PennyLincolnUp.Lamp.En5.5.200Scan.071719.P1._HRD10591_14-50-23-969.txt Node
Date: Thu Jul 18 14:50:23 EDT 2019
User: cochatt
Spectrometer: HR+D1059
Trigger mode: 1
Integration Time (sec): 1.000000E-1
Scans to average: 1
Electric dark correction enabled: true
Nonlinearity correction enabled: false
Boxcar width: 0
XAxis mode: Wavelengths
Number of Pixels in Spectrum: 2048
>>>>>Begin Spectral Data<<<<<
223.165	-22.5
223.4	-22.5
223.635	-22.5
223.869	-10.5
224.104	-7.5
224.338	-17.5
224.573	-26.5
224.808	-12.5
225.042	-14.5
225.277	-9.5
225.511	-3.5
225.746	6.5
225.98	9.5
226.215	9.5
226.449	24.5
226.683	18.5
226.918	20.5
227.152	35.5
227.387	20.5
227.621	50.5
227.856	46.5
228.09	37.5
228.324	34.5
228.559	52.5
228.793	54.5
229.027	66.5
229.262	75.5
229.496	58.5
229.73	70.5
229.964	79.5
230.199	74.5
230.433	78.5
230.667	68.5
230.901	97.5
231.136	78.5
231.37	81.5
231.604	82.5
231.838	82.5
232.072	67.5
232.306	77.5
232.541	85.5
232.775	78.5
233.009	99.5
233.243	77.5
233.477	76.5
233.711	80.5
233.945	85.5
234.179	82.5
234.413	86.5
234.647	100.5
234.881	91.5
235.115	88.5
235.349	101.5
235.583	85.5
235.817	78.5
236.051	82.5
236.285	91.5
236.519	74.5
236.753	79.5
236.987	83.5
237.221	98.5
237.455	92.5
237.689	69.5
237.922	74.5
238.156	77.5
238.39	81.5
238.624	76.5
238.858	77.5
239.091	83.5
239.325	81.5
239.559	87.5
239.793	73.5
240.027	89.5
240.26	67.5
240.494	73.5
240.728	74.5
240.961	82.5
241.195	87.5
241.429	90.5
241.662	79.5
241.896	85.5
242.13	86.5
242.363	76.5
242.597	82.5
242.83	97.5
243.064	84.5
243.298	82.5
243.531	66.5
243.765	71.5
243.998	86.5
244.232	73.5
244.465	64.5
244.699	88.5
244.932	84.5
245.166	85.5
245.399	84.5
245.633	92.5
245.866	76.5
246.099	74.5
246.333	62.5
246.566	81.5
246.8	88.5
247.033	78.5
247.266	85.5
247.5	87.5
247.733	95.5
247.966	74.5
248.2	91.5
248.433	68.5
248.666	76.5
248.899	96.5
249.133	87.5
249.366	75.5
249.599	90.5
249.832	82.5
250.066	84.5
250.299	87.5
250.532	78.5
250.765	92.5
250.998	91.5
251.231	87.5
251.465	86.5
251.698	94.5
251.931	99.5
252.164	93.5
252.397	76.5
252.63	85.5
252.863	86.5
253.096	84.5
253.329	93.5
253.562	72.5
253.795	86.5
254.028	90.5
254.261	91.5
254.494	70.5
254.727	85.5
254.96	100.5
255.193	67.5
255.426	82.5
255.659	94.5
255.892	69.5
256.124	74.5
256.357	94.5
256.59	89.5
256.823	75.5
257.056	89.5
257.289	82.5
257.521	93.5
257.754	98.5
257.987	101.5
258.22	88.5
258.452	90.5
258.685	87.5
258.918	76.5
259.151	94.5
259.383	93.5
259.616	96.5
259.849	96.5
260.081	90.5
260.314	99.5
260.547	97.5
260.779	98.5
261.012	91.5
261.244	70.5
261.477	94.5
261.71	94.5
261.942	92.5
262.175	78.5
262.407	86.5
262.64	94.5
262.872	92.5
263.105	88.5
263.337	100.5
263.57	91.5
263.802	83.5
264.035	86.5
264.267	89.5
264.499	87.5
264.732	85.5
264.964	86.5
265.197	91.5
265.429	91.5
265.661	81.5
265.894	82.5
266.126	86.5
266.358	92.5
266.591	96.5
266.823	93.5
267.055	101.5
267.287	95.5
267.52	100.5
267.752	74.5
267.984	91.5
268.216	89.5
268.448	83.5
268.681	97.5
268.913	105.5
269.145	87.5
269.377	100.5
269.609	97.5
269.841	100.5
270.073	106.5
270.306	80.5
270.538	100.5
270.77	104.5
271.002	94.5
271.234	103.5
271.466	102.5
271.698	89.5
271.93	75.5
272.162	96.5
272.394	101.5
272.626	91.5
272.858	102.5
273.09	83.5
273.322	87.5
273.553	100.5
273.785	110.5
274.017	96.5
274.249	103.5
274.481	104.5
274.713	96.5
274.945	92.5
275.176	106.5
275.408	96.5
275.64	109.5
275.872	84.5
276.104	105.5
276.335	100.5
276.567	91.5
276.799	99.5
277.031	90.5
277.262	95.5
277.494	106.5
277.726	97.5
277.957	93.5
278.189	110.5
278.421	110.5
278.652	92.5
278.884	93.5
279.115	98.5
279.347	104.5
279.579	93.5
279.81	88.5
280.042	92.5
280.273	98.5
280.505	96.5
280.736	94.5
280.968	96.5
281.199	97.5
281.431	108.5
281.662	107.5
281.894	93.5
282.125	88.5
282.356	104.5
282.588	92.5
282.819	98.5
283.051	92.5
283.282	102.5
283.513	115.5
283.745	93.5
283.976	111.5
284.207	105.5
284.439	102.5
284.67	101.5
284.901	95.5
285.132	102.5
285.364	113.5
285.595	96.5
285.826	101.5
286.057	91.5
286.288	90.5
286.52	105.5
286.751	104.5
286.982	97.5
287.213	101.5
287.444	102.5
287.675	97.5
287.906	89.5
288.138	106.5
288.369	84.5
288.6	98.5
288.831	98.5
289.062	106.5
289.293	119.5
289.524	98.5
289.755	101.5
289.986	100.5
290.217	101.5
290.448	86.5
290.679	95.5
290.91	110.5
291.141	96.5
291.371	109.5
291.602	102.5
291.833	88.5
292.064	97.5
292.295	102.5
292.526	100.5
292.757	119.5
292.987	95.5
293.218	89.5
293.449	94.5
293.68	104.5
293.91	101.5
294.141	96.5
294.372	102.5
294.603	100.5
294.833	101.5
295.064	102.5
295.295	99.5
295.525	117.5
295.756	103.5
295.987	97.5
296.217	97.5
296.448	94.5
296.679	103.5
296.909	106.5
297.14	99.5
297.37	122.5
297.601	108.5
297.831	103.5
298.062	115.5
298.292	100.5
298.523	100.5
298.753	108.5
298.984	99.5
299.214	94.5
299.445	96.5
299.675	91.5
299.905	116.5
300.136	98.5
300.366	92.5
300.597	89.5
300.827	107.5
301.057	102.5
301.288	97.5
301.518	98.5
301.748	101.5
301.979	101.5
302.209	96.5
302.439	110.5
302.669	96.5
302.9	93.5
303.13	102.5
303.36	109.5
303.59	110.5
303.82	91.5
304.051	102.5
304.281	104.5
304.511	112.5
304.741	112.5
304.971	100.5
305.201	109.5
305.431	105.5
305.661	117.5
305.891	104.5
306.121	100.5
306.352	113.5
306.582	112.5
306.812	112.5
307.042	101.5
307.272	106.5
307.502	102.5
307.731	101.5
307.961	119.5
308.191	105.5
308.421	114.5
308.651	109.5
308.881	109.5
309.111	99.5
309.341	97.5
309.571	101.5
309.8	120.5
310.03	100.5
310.26	102.5
310.49	118.5
310.72	111.5
310.949	93.5
311.179	104.5
311.409	99.5
311.639	83.5
311.868	109.5
312.098	105.5
312.328	106.5
312.557	109.5
312.787	112.5
313.017	100.5
313.246	104.5
313.476	119.5
313.706	107.5
313.935	103.5
314.165	106.5
314.394	121.5
314.624	104.5
314.853	107.5
315.083	109.5
315.312	112.5
315.542	106.5
315.771	103.5
316.001	117.5
316.23	114.5
316.46	116.5
316.689	107.5
316.919	114.5
317.148	97.5
317.377	106.5
317.607	118.5
317.836	110.5
318.065	91.5
318.295	114.5
318.524	101.5
318.753	100.5
318.983	104.5
319.212	106.5
319.441	91.5
319.67	108.5
319.9	115.5
320.129	97.5
320.358	95.5
320.587	115.5
320.816	102.5
321.046	98.5
321.275	105.5
321.504	109.5
321.733	93.5
321.962	104.5
322.191	103.5
322.42	104.5
322.649	94.5
322.878	116.5
323.108	112.5
323.337	119.5
323.566	106.5
323.795	112.5
324.024	96.5
324.253	118.5
324.482	134.5
324.71	164.5
324.939	180.5
325.168	149.5
325.397	108.5
325.626	116.5
325.855	108.5
326.084	116.5
326.313	91.5
326.542	106.5
326.77	104.5
326.999	124.5
327.228	135.5
327.457	148.5
327.686	164.5
327.914	129.5
328.143	117.5
328.372	122.5
328.6	103.5
328.829	106.5
329.058	119.5
329.287	120.5
329.515	126.5
329.744	109.5
329.972	122.5
330.201	122.5
330.43	123.5
330.658	109.5
330.887	122.5
331.115	120.5
331.344	113.5
331.572	103.5
331.801	117.5
332.03	115.5
332.258	103.5
332.486	108.5
332.715	116.5
332.943	117.5
333.172	106.5
333.4	124.5
333.629	110.5
333.857	106.5
334.085	112.5
334.314	124.5
334.542	114.5
334.771	117.5
334.999	117.5
335.227	117.5
335.455	106.5
335.684	120.5
335.912	114.5
336.14	104.5
336.369	116.5
336.597	104.5
336.825	117.5
337.053	115.5
337.281	112.5
337.51	109.5
337.738	109.5
337.966	98.5
338.194	98.5
338.422	106.5
338.65	126.5
338.878	116.5
339.106	96.5
339.334	102.5
339.562	103.5
339.79	100.5
340.018	98.5
340.246	110.5
340.474	113.5
340.702	110.5
340.93	101.5
341.158	111.5
341.386	114.5
341.614	102.5
341.842	109.5
342.07	100.5
342.298	103.5
342.526	107.5
342.754	108.5
342.981	101.5
343.209	103.5
343.437	112.5
343.665	114.5
343.893	109.5
344.12	126.5
344.348	109.5
344.576	113.5
344.804	112.5
345.031	96.5
345.259	116.5
345.487	122.5
345.714	94.5
345.942	109.5
346.17	110.5
346.397	116.5
346.625	99.5
346.853	107.5
347.08	113.5
347.308	112.5
347.535	105.5
347.763	105.5
347.99	116.5
348.218	120.5
348.445	112.5
348.673	102.5
348.9	112.5
349.128	116.5
349.355	121.5
349.583	101.5
349.81	106.5
350.037	106.5
350.265	104.5
350.492	90.5
350.72	113.5
350.947	93.5
351.174	114.5
351.402	104.5
351.629	102.5
351.856	105.5
352.083	96.5
352.311	107.5
352.538	108.5
352.765	113.5
352.992	102.5
353.22	114.5
353.447	120.5
353.674	109.5
353.901	94.5
354.128	115.5
354.355	109.5
354.583	109.5
354.81	109.5
355.037	98.5
355.264	109.5
355.491	113.5
355.718	98.5
355.945	95.5
356.172	101.5
356.399	124.5
356.626	97.5
356.853	108.5
357.08	109.5
357.307	105.5
357.534	91.5
357.761	101.5
357.988	110.5
358.215	119.5
358.441	114.5
358.668	103.5
358.895	113.5
359.122	100.5
359.349	110.5
359.576	100.5
359.802	117.5
360.029	114.5
360.256	123.5
360.483	110.5
360.709	98.5
360.936	106.5
361.163	115.5
361.39	96.5
361.616	96.5
361.843	126.5
362.07	114.5
362.296	102.5
362.523	125.5
362.749	109.5
362.976	106.5
363.203	109.5
363.429	96.5
363.656	97.5
363.882	108.5
364.109	92.5
364.335	108.5
364.562	101.5
364.788	107.5
365.015	109.5
365.241	107.5
365.468	102.5
365.694	114.5
365.92	107.5
366.147	116.5
366.373	112.5
366.599	113.5
366.826	96.5
367.052	114.5
367.278	114.5
367.505	107.5
367.731	100.5
367.957	110.5
368.184	115.5
368.41	106.5
368.636	103.5
368.862	106.5
369.089	110.5
369.315	118.5
369.541	103.5
369.767	114.5
369.993	102.5
370.219	114.5
370.445	108.5
370.672	108.5
370.898	112.5
371.124	113.5
371.35	107.5
371.576	108.5
371.802	110.5
372.028	113.5
372.254	106.5
372.48	120.5
372.706	115.5
372.932	112.5
373.158	116.5
373.384	113.5
373.61	133.5
373.835	102.5
374.061	104.5
374.287	110.5
374.513	101.5
374.739	116.5
374.965	113.5
375.191	114.5
375.416	113.5
375.642	104.5
375.868	106.5
376.094	116.5
376.319	102.5
376.545	123.5
376.771	112.5
376.997	125.5
377.222	117.5
377.448	107.5
377.674	112.5
377.899	108.5
378.125	108.5
378.35	110.5
378.576	100.5
378.802	94.5
379.027	114.5
379.253	108.5
379.478	116.5
379.704	111.5
379.929	104.5
380.155	104.5
380.38	105.5
380.606	105.5
380.831	110.5
381.057	102.5
381.282	118.5
381.507	108.5
381.733	128.5
381.958	122.5
382.184	123.5
382.409	114.5
382.634	108.5
382.86	118.5
383.085	119.5
383.31	115.5
383.535	112.5
383.761	105.5
383.986	102.5
384.211	115.5
384.436	117.5
384.662	118.5
384.887	108.5
385.112	118.5
385.337	106.5
385.562	105.5
385.787	112.5
386.013	108.5
386.238	117.5
386.463	116.5
386.688	124.5
386.913	121.5
387.138	120.5
387.363	112.5
387.588	112.5
387.813	125.5
388.038	124.5
388.263	119.5
388.488	118.5
388.713	100.5
388.938	114.5
389.163	124.5
389.387	119.5
389.612	106.5
389.837	108.5
390.062	121.5
390.287	98.5
390.512	128.5
390.736	124.5
390.961	106.5
391.186	116.5
391.411	107.5
391.636	114.5
391.86	116.5
392.085	132.5
392.31	119.5
392.534	113.5
392.759	130.5
392.984	133.5
393.208	114.5
393.433	116.5
393.658	121.5
393.882	109.5
394.107	117.5
394.331	117.5
394.556	103.5
394.78	116.5
395.005	128.5
395.229	107.5
395.454	111.5
395.678	128.5
395.903	109.5
396.127	128.5
396.352	118.5
396.576	131.5
396.801	119.5
397.025	130.5
397.249	116.5
397.474	125.5
397.698	118.5
397.922	114.5
398.147	117.5
398.371	124.5
398.595	119.5
398.82	132.5
399.044	121.5
399.268	139.5
399.492	145.5
399.717	142.5
399.941	149.5
400.165	138.5
400.389	135.5
400.613	131.5
400.837	131.5
401.062	136.5
401.286	124.5
401.51	124.5
401.734	117.5
401.958	121.5
402.182	126.5
402.406	122.5
402.63	124.5
402.854	125.5
403.078	133.5
403.302	141.5
403.526	118.5
403.75	131.5
403.974	139.5
404.198	151.5
404.422	144.5
404.645	123.5
404.869	122.5
405.093	133.5
405.317	142.5
405.541	139.5
405.765	136.5
405.988	131.5
406.212	141.5
406.436	136.5
406.66	128.5
406.883	138.5
407.107	138.5
407.331	148.5
407.555	140.5
407.778	143.5
408.002	142.5
408.226	141.5
408.449	120.5
408.673	138.5
408.896	132.5
409.12	143.5
409.344	139.5
409.567	137.5
409.791	130.5
410.014	125.5
410.238	109.5
410.461	116.5
410.685	124.5
410.908	139.5
411.132	132.5
411.355	128.5
411.578	144.5
411.802	139.5
412.025	133.5
412.249	140.5
412.472	131.5
412.695	123.5
412.919	139.5
413.142	134.5
413.365	129.5
413.589	125.5
413.812	134.5
414.035	134.5
414.258	136.5
414.482	128.5
414.705	132.5
414.928	126.5
415.151	136.5
415.374	130.5
415.597	121.5
415.821	126.5
416.044	128.5
416.267	122.5
416.49	118.5
416.713	134.5
416.936	137.5
417.159	134.5
417.382	100.5
417.605	123.5
417.828	126.5
418.051	126.5
418.274	129.5
418.497	136.5
418.72	124.5
418.943	124.5
419.166	145.5
419.389	137.5
419.611	118.5
419.834	129.5
420.057	122.5
420.28	125.5
420.503	135.5
420.726	126.5
420.948	128.5
421.171	149.5
421.394	134.5
421.617	135.5
421.839	117.5
422.062	127.5
422.285	124.5
422.507	130.5
422.73	140.5
422.953	140.5
423.175	128.5
423.398	139.5
423.621	128.5
423.843	123.5
424.066	127.5
424.288	128.5
424.511	134.5
424.733	140.5
424.956	153.5
425.178	143.5
425.401	148.5
425.623	129.5
425.846	125.5
426.068	129.5
426.291	142.5
426.513	135.5
426.735	116.5
426.958	139.5
427.18	131.5
427.402	148.5
427.625	146.5
427.847	146.5
428.069	129.5
428.292	130.5
428.514	129.5
428.736	129.5
428.958	126.5
429.181	130.5
429.403	126.5
429.625	125.5
429.847	121.5
430.069	135.5
430.292	136.5
430.514	137.5
430.736	132.5
430.958	132.5
431.18	117.5
431.402	108.5
431.624	134.5
431.846	136.5
432.068	121.5
432.29	118.5
432.512	106.5
432.734	110.5
432.956	124.5
433.178	127.5
433.4	129.5
433.622	132.5
433.844	133.5
434.066	150.5
434.287	125.5
434.509	127.5
434.731	112.5
434.953	130.5
435.175	125.5
435.397	132.5
435.618	136.5
435.84	134.5
436.062	132.5
436.284	145.5
436.505	138.5
436.727	120.5
436.949	124.5
437.17	119.5
437.392	116.5
437.614	130.5
437.835	130.5
438.057	127.5
438.278	133.5
438.5	126.5
438.721	139.5
438.943	140.5
439.165	112.5
439.386	124.5
439.608	134.5
439.829	130.5
440.05	133.5
440.272	136.5
440.493	134.5
440.715	145.5
440.936	115.5
441.158	136.5
441.379	126.5
441.6	134.5
441.822	134.5
442.043	140.5
442.264	143.5
442.486	144.5
442.707	133.5
442.928	118.5
443.149	131.5
443.371	136.5
443.592	124.5
443.813	141.5
444.034	151.5
444.255	146.5
444.476	164.5
444.698	132.5
444.919	117.5
445.14	276.5
445.361	191.5
445.582	140.5
445.803	141.5
446.024	151.5
446.245	142.5
446.466	138.5
446.687	125.5
446.908	144.5
447.129	126.5
447.35	117.5
447.571	129.5
447.792	132.5
448.013	126.5
448.234	123.5
448.455	137.5
448.675	128.5
448.896	116.5
449.117	125.5
449.338	124.5
449.559	139.5
449.779	146.5
450	138.5
450.221	121.5
450.442	118.5
450.662	132.5
450.883	125.5
451.104	123.5
451.324	116.5
451.545	135.5
451.766	132.5
451.986	122.5
452.207	123.5
452.428	120.5
452.648	110.5
452.869	119.5
453.089	127.5
453.31	127.5
453.53	113.5
453.751	110.5
453.971	134.5
454.192	104.5
454.412	114.5
454.633	119.5
454.853	106.5
455.073	128.5
455.294	115.5
455.514	124.5
455.734	116.5
455.955	121.5
456.175	122.5
456.395	113.5
456.616	101.5
456.836	107.5
457.056	115.5
457.276	118.5
457.497	112.5
457.717	125.5
457.937	127.5
458.157	127.5
458.377	107.5
458.598	100.5
458.818	120.5
459.038	117.5
459.258	130.5
459.478	133.5
459.698	119.5
459.918	128.5
460.138	131.5
460.358	126.5
460.578	131.5
460.798	128.5
461.018	136.5
461.238	121.5
461.458	124.5
461.678	144.5
461.898	124.5
462.118	130.5
462.338	123.5
462.558	132.5
462.777	139.5
462.997	143.5
463.217	138.5
463.437	137.5
463.657	131.5
463.876	130.5
464.096	126.5
464.316	158.5
464.536	128.5
464.755	128.5
464.975	139.5
465.195	129.5
465.414	131.5
465.634	130.5
465.854	126.5
466.073	124.5
466.293	116.5
466.512	131.5
466.732	128.5
466.951	118.5
467.171	139.5
467.391	126.5
467.61	126.5
467.829	121.5
468.049	117.5
468.268	114.5
468.488	133.5
468.707	130.5
468.927	123.5
469.146	120.5
469.365	111.5
469.585	122.5
469.804	128.5
470.023	132.5
470.243	129.5
470.462	140.5
470.681	132.5
470.901	139.5
471.12	126.5
471.339	121.5
471.558	124.5
471.777	119.5
471.997	113.5
472.216	120.5
472.435	130.5
472.654	112.5
472.873	118.5
473.092	118.5
473.311	125.5
473.53	116.5
473.749	121.5
473.968	124.5
474.187	114.5
474.406	120.5
474.625	124.5
474.844	128.5
475.063	119.5
475.282	117.5
475.501	109.5
475.72	124.5
475.939	111.5
476.158	123.5
476.377	124.5
476.596	124.5
476.814	131.5
477.033	108.5
477.252	121.5
477.471	122.5
477.69	125.5
477.908	120.5
478.127	136.5
478.346	121.5
478.564	134.5
478.783	128.5
479.002	124.5
479.22	124.5
479.439	142.5
479.658	137.5
479.876	128.5
480.095	134.5
480.313	123.5
480.532	125.5
480.751	132.5
480.969	126.5
481.188	137.5
481.406	128.5
481.624	136.5
481.843	125.5
482.061	141.5
482.28	113.5
482.498	137.5
482.717	119.5
482.935	136.5
483.153	129.5
483.372	135.5
483.59	142.5
483.808	140.5
484.027	124.5
484.245	119.5
484.463	121.5
484.681	122.5
484.9	137.5
485.118	133.5
485.336	132.5
485.554	133.5
485.772	130.5
485.99	129.5
486.209	140.5
486.427	138.5
486.645	146.5
486.863	123.5
487.081	140.5
487.299	130.5
487.517	132.5
487.735	134.5
487.953	151.5
488.171	127.5
488.389	136.5
488.607	128.5
488.825	141.5
489.043	140.5
489.261	129.5
489.479	130.5
489.696	138.5
489.914	125.5
490.132	146.5
490.35	148.5
490.568	128.5
490.786	155.5
491.003	136.5
491.221	140.5
491.439	159.5
491.657	133.5
491.874	139.5
492.092	145.5
492.31	148.5
492.527	134.5
492.745	138.5
492.963	153.5
493.18	153.5
493.398	143.5
493.615	129.5
493.833	136.5
494.05	123.5
494.268	134.5
494.485	155.5
494.703	151.5
494.92	142.5
495.138	137.5
495.355	129.5
495.573	141.5
495.79	158.5
496.008	148.5
496.225	158.5
496.442	148.5
496.66	147.5
496.877	145.5
497.094	139.5
497.312	155.5
497.529	149.5
497.746	146.5
497.963	141.5
498.181	142.5
498.398	158.5
498.615	173.5
498.832	163.5
499.049	166.5
499.267	158.5
499.484	164.5
499.701	170.5
499.918	185.5
500.135	188.5
500.352	194.5
500.569	212.5
500.786	227.5
501.003	213.5
501.22	197.5
501.437	188.5
501.654	198.5
501.871	165.5
502.088	160.5
502.305	168.5
502.522	168.5
502.739	172.5
502.956	149.5
503.172	156.5
503.389	142.5
503.606	139.5
503.823	137.5
504.04	132.5
504.256	133.5
504.473	135.5
504.69	137.5
504.907	137.5
505.123	140.5
505.34	134.5
505.557	142.5
505.773	149.5
505.99	130.5
506.207	134.5
506.423	143.5
506.64	139.5
506.856	135.5
507.073	125.5
507.289	136.5
507.506	130.5
507.722	124.5
507.939	130.5
508.155	137.5
508.372	126.5
508.588	145.5
508.805	122.5
509.021	132.5
509.238	146.5
509.454	127.5
509.67	148.5
509.887	135.5
510.103	143.5
510.319	127.5
510.536	139.5
510.752	162.5
510.968	146.5
511.184	136.5
511.401	141.5
511.617	118.5
511.833	123.5
512.049	122.5
512.265	113.5
512.481	123.5
512.698	117.5
512.914	132.5
513.13	120.5
513.346	132.5
513.562	130.5
513.778	139.5
513.994	119.5
514.21	121.5
514.426	138.5
514.642	136.5
514.858	128.5
515.074	141.5
515.29	150.5
515.506	160.5
515.721	147.5
515.937	141.5
516.153	133.5
516.369	121.5
516.585	130.5
516.801	137.5
517.016	144.5
517.232	161.5
517.448	121.5
517.664	149.5
517.879	129.5
518.095	129.5
518.311	143.5
518.527	144.5
518.742	147.5
518.958	119.5
519.173	137.5
519.389	138.5
519.605	129.5
519.82	125.5
520.036	126.5
520.251	132.5
520.467	140.5
520.682	127.5
520.898	121.5
521.113	133.5
521.329	132.5
521.544	136.5
521.76	133.5
521.975	178.5
522.19	168.5
522.406	148.5
522.621	123.5
522.836	130.5
523.052	120.5
523.267	109.5
523.482	130.5
523.698	138.5
523.913	113.5
