Data from 1968.PennyLincolnUp.Lamp.En5.5.200Scan.071719.P1._HRD10591_14-51-50-970.txt Node
Date: Thu Jul 18 14:51:50 EDT 2019
User: cochatt
Spectrometer: HR+D1059
Trigger mode: 1
Integration Time (sec): 1.000000E-1
Scans to average: 1
Electric dark correction enabled: true
Nonlinearity correction enabled: false
Boxcar width: 0
XAxis mode: Wavelengths
Number of Pixels in Spectrum: 2048
>>>>>Begin Spectral Data<<<<<
223.165	1
223.4	1
223.635	1
223.869	-23
224.104	-10
224.338	-19
224.573	-16
224.808	-9
225.042	2
225.277	-19
225.511	3
225.746	-8
225.98	4
226.215	8
226.449	14
226.683	21
226.918	22
227.152	29
227.387	40
227.621	26
227.856	51
228.09	42
228.324	56
228.559	57
228.793	65
229.027	64
229.262	81
229.496	84
229.73	63
229.964	72
230.199	96
230.433	79
230.667	82
230.901	86
231.136	85
231.37	85
231.604	86
231.838	93
232.072	93
232.306	72
232.541	86
232.775	74
233.009	76
233.243	88
233.477	94
233.711	97
233.945	82
234.179	91
234.413	83
234.647	80
234.881	84
235.115	96
235.349	73
235.583	91
235.817	87
236.051	75
236.285	91
236.519	66
236.753	82
236.987	80
237.221	81
237.455	93
237.689	85
237.922	76
238.156	89
238.39	72
238.624	80
238.858	80
239.091	79
239.325	82
239.559	89
239.793	80
240.027	87
240.26	88
240.494	86
240.728	96
240.961	103
241.195	77
241.429	86
241.662	79
241.896	67
242.13	70
242.363	95
242.597	89
242.83	85
243.064	90
243.298	87
243.531	82
243.765	86
243.998	70
244.232	81
244.465	79
244.699	84
244.932	91
245.166	88
245.399	91
245.633	84
245.866	77
246.099	72
246.333	81
246.566	78
246.8	84
247.033	89
247.266	80
247.5	97
247.733	80
247.966	97
248.2	85
248.433	82
248.666	72
248.899	88
249.133	99
249.366	99
249.599	88
249.832	80
250.066	93
250.299	89
250.532	98
250.765	89
250.998	88
251.231	94
251.465	93
251.698	102
251.931	90
252.164	90
252.397	81
252.63	85
252.863	81
253.096	87
253.329	92
253.562	87
253.795	89
254.028	94
254.261	109
254.494	86
254.727	91
254.96	78
255.193	89
255.426	90
255.659	88
255.892	105
256.124	91
256.357	95
256.59	97
256.823	92
257.056	93
257.289	82
257.521	98
257.754	76
257.987	101
258.22	102
258.452	84
258.685	86
258.918	93
259.151	80
259.383	92
259.616	89
259.849	97
260.081	85
260.314	94
260.547	89
260.779	96
261.012	93
261.244	96
261.477	93
261.71	86
261.942	89
262.175	87
262.407	106
262.64	93
262.872	93
263.105	87
263.337	91
263.57	86
263.802	92
264.035	92
264.267	93
264.499	95
264.732	81
264.964	96
265.197	96
265.429	91
265.661	81
265.894	93
266.126	97
266.358	90
266.591	90
266.823	90
267.055	96
267.287	90
267.52	81
267.752	97
267.984	98
268.216	97
268.448	102
268.681	103
268.913	111
269.145	94
269.377	85
269.609	105
269.841	99
270.073	91
270.306	98
270.538	104
270.77	87
271.002	118
271.234	104
271.466	98
271.698	103
271.93	90
272.162	91
272.394	98
272.626	102
272.858	95
273.09	103
273.322	101
273.553	107
273.785	96
274.017	118
274.249	108
274.481	116
274.713	108
274.945	94
275.176	96
275.408	101
275.64	117
275.872	104
276.104	88
276.335	92
276.567	88
276.799	95
277.031	105
277.262	101
277.494	109
277.726	113
277.957	96
278.189	92
278.421	86
278.652	100
278.884	101
279.115	97
279.347	88
279.579	103
279.81	107
280.042	88
280.273	91
280.505	97
280.736	107
280.968	105
281.199	100
281.431	104
281.662	116
281.894	113
282.125	106
282.356	113
282.588	89
282.819	92
283.051	94
283.282	116
283.513	99
283.745	101
283.976	93
284.207	106
284.439	106
284.67	111
284.901	95
285.132	110
285.364	117
285.595	96
285.826	94
286.057	97
286.288	95
286.52	82
286.751	92
286.982	102
287.213	110
287.444	102
287.675	109
287.906	93
288.138	104
288.369	97
288.6	102
288.831	109
289.062	113
289.293	94
289.524	110
289.755	99
289.986	122
290.217	106
290.448	102
290.679	110
290.91	98
291.141	111
291.371	108
291.602	120
291.833	90
292.064	102
292.295	106
292.526	102
292.757	103
292.987	105
293.218	97
293.449	101
293.68	100
293.91	95
294.141	114
294.372	104
294.603	96
294.833	96
295.064	93
295.295	99
295.525	120
295.756	130
295.987	102
296.217	111
296.448	95
296.679	100
296.909	109
297.14	102
297.37	105
297.601	117
297.831	104
298.062	121
298.292	120
298.523	94
298.753	108
298.984	109
299.214	99
299.445	110
299.675	122
299.905	109
300.136	108
300.366	106
300.597	120
300.827	112
301.057	102
301.288	93
301.518	103
301.748	110
301.979	120
302.209	104
302.439	123
302.669	97
302.9	112
303.13	109
303.36	109
303.59	103
303.82	120
304.051	119
304.281	109
304.511	110
304.741	94
304.971	120
305.201	104
305.431	106
305.661	111
305.891	112
306.121	125
306.352	109
306.582	97
306.812	113
307.042	118
307.272	116
307.502	109
307.731	107
307.961	116
308.191	108
308.421	119
308.651	106
308.881	123
309.111	104
309.341	95
309.571	116
309.8	123
310.03	103
310.26	94
310.49	101
310.72	98
310.949	97
311.179	112
311.409	105
311.639	108
311.868	124
312.098	112
312.328	102
312.557	130
312.787	107
313.017	115
313.246	122
313.476	122
313.706	117
313.935	102
314.165	98
314.394	103
314.624	113
314.853	102
315.083	102
315.312	121
315.542	104
315.771	111
316.001	117
316.23	104
316.46	122
316.689	113
316.919	106
317.148	114
317.377	113
317.607	121
317.836	105
318.065	120
318.295	112
318.524	108
318.753	107
318.983	103
319.212	106
319.441	106
319.67	103
319.9	98
320.129	104
320.358	109
320.587	106
320.816	106
321.046	120
321.275	129
321.504	107
321.733	111
321.962	101
322.191	106
322.42	95
322.649	128
322.878	116
323.108	122
323.337	117
323.566	119
323.795	120
324.024	117
324.253	135
324.482	158
324.71	170
324.939	204
325.168	168
325.397	130
325.626	129
325.855	131
326.084	125
326.313	117
326.542	116
326.77	124
326.999	125
327.228	145
327.457	178
327.686	164
327.914	148
328.143	123
328.372	120
328.6	122
328.829	116
329.058	118
329.287	117
329.515	117
329.744	113
329.972	116
330.201	127
330.43	123
330.658	117
330.887	108
331.115	110
331.344	127
331.572	114
331.801	118
332.03	121
332.258	119
332.486	106
332.715	106
332.943	130
333.172	110
333.4	92
333.629	120
333.857	136
334.085	122
334.314	125
334.542	124
334.771	132
334.999	121
335.227	125
335.455	120
335.684	112
335.912	124
336.14	118
336.369	119
336.597	124
336.825	104
337.053	108
337.281	122
337.51	108
337.738	113
337.966	126
338.194	99
338.422	112
338.65	108
338.878	124
339.106	120
339.334	125
339.562	104
339.79	112
340.018	119
340.246	120
340.474	117
340.702	117
340.93	122
341.158	111
341.386	116
341.614	108
341.842	128
342.07	110
342.298	110
342.526	106
342.754	108
342.981	120
343.209	108
343.437	123
343.665	122
343.893	122
344.12	116
344.348	118
344.576	119
344.804	124
345.031	113
345.259	117
345.487	114
345.714	118
345.942	103
346.17	108
346.397	106
346.625	117
346.853	116
347.08	104
347.308	112
347.535	111
347.763	124
347.99	113
348.218	120
348.445	105
348.673	112
348.9	96
349.128	109
349.355	121
349.583	126
349.81	116
350.037	118
350.265	126
350.492	112
350.72	109
350.947	113
351.174	112
351.402	115
351.629	110
351.856	118
352.083	133
352.311	118
352.538	98
352.765	126
352.992	118
353.22	121
353.447	122
353.674	118
353.901	116
354.128	120
354.355	102
354.583	127
354.81	120
355.037	112
355.264	110
355.491	102
355.718	109
355.945	126
356.172	127
356.399	98
356.626	112
356.853	111
357.08	92
357.307	128
357.534	111
357.761	98
357.988	127
358.215	111
358.441	108
358.668	114
358.895	116
359.122	105
359.349	111
359.576	124
359.802	119
360.029	113
360.256	121
360.483	112
360.709	111
360.936	131
361.163	113
361.39	124
361.616	99
361.843	116
362.07	111
362.296	106
362.523	118
362.749	117
362.976	110
363.203	119
363.429	108
363.656	107
363.882	104
364.109	116
364.335	110
364.562	105
364.788	111
365.015	121
365.241	113
365.468	124
365.694	110
365.92	96
366.147	114
366.373	107
366.599	113
366.826	112
367.052	107
367.278	101
367.505	118
367.731	125
367.957	114
368.184	103
368.41	116
368.636	121
368.862	114
369.089	124
369.315	106
369.541	110
369.767	117
369.993	123
370.219	119
370.445	114
370.672	126
370.898	102
371.124	116
371.35	119
371.576	118
371.802	114
372.028	103
372.254	123
372.48	112
372.706	121
372.932	115
373.158	111
373.384	115
373.61	111
373.835	117
374.061	119
374.287	120
374.513	119
374.739	116
374.965	128
375.191	132
375.416	118
375.642	102
375.868	116
376.094	111
376.319	98
376.545	121
376.771	118
376.997	106
377.222	122
377.448	118
377.674	122
377.899	99
378.125	126
378.35	117
378.576	114
378.802	116
379.027	105
379.253	124
379.478	129
379.704	109
379.929	103
380.155	121
380.38	116
380.606	118
380.831	101
381.057	106
381.282	120
381.507	91
381.733	124
381.958	108
382.184	110
382.409	121
382.634	124
382.86	119
383.085	128
383.31	119
383.535	130
383.761	126
383.986	123
384.211	136
384.436	128
384.662	109
384.887	111
385.112	124
385.337	124
385.562	113
385.787	107
386.013	110
386.238	126
386.463	126
386.688	119
386.913	124
387.138	134
387.363	131
387.588	129
387.813	119
388.038	104
388.263	118
388.488	124
388.713	118
388.938	108
389.163	120
389.387	120
389.612	110
389.837	108
390.062	119
390.287	126
390.512	137
390.736	100
390.961	101
391.186	126
391.411	128
391.636	129
391.86	113
392.085	111
392.31	113
392.534	117
392.759	133
392.984	112
393.208	126
393.433	123
393.658	131
393.882	114
394.107	120
394.331	125
394.556	118
394.78	120
395.005	136
395.229	124
395.454	120
395.678	126
395.903	122
396.127	136
396.352	121
396.576	117
396.801	122
397.025	120
397.249	133
397.474	134
397.698	122
397.922	112
398.147	122
398.371	132
398.595	136
398.82	133
399.044	131
399.268	138
399.492	141
399.717	146
399.941	156
400.165	127
400.389	135
400.613	140
400.837	132
401.062	125
401.286	126
401.51	130
401.734	119
401.958	130
402.182	124
402.406	133
402.63	131
402.854	142
403.078	129
403.302	134
403.526	140
403.75	120
403.974	144
404.198	138
404.422	132
404.645	143
404.869	122
405.093	141
405.317	145
405.541	154
405.765	130
405.988	138
406.212	144
406.436	142
406.66	128
406.883	126
407.107	145
407.331	143
407.555	150
407.778	164
408.002	152
408.226	139
408.449	145
408.673	133
408.896	125
409.12	141
409.344	129
409.567	128
409.791	132
410.014	134
410.238	128
410.461	126
410.685	134
410.908	135
411.132	141
411.355	140
411.578	154
411.802	145
412.025	132
412.249	139
412.472	135
412.695	143
412.919	134
413.142	130
413.365	130
413.589	128
413.812	129
414.035	123
414.258	126
414.482	133
414.705	140
414.928	130
415.151	125
415.374	127
415.597	133
415.821	116
416.044	122
416.267	134
416.49	136
416.713	150
416.936	136
417.159	139
417.382	118
417.605	130
417.828	128
418.051	130
418.274	144
418.497	128
418.72	116
418.943	138
419.166	130
419.389	135
419.611	143
419.834	142
420.057	138
420.28	130
420.503	148
420.726	140
420.948	125
421.171	144
421.394	119
421.617	136
421.839	155
422.062	137
422.285	131
422.507	138
422.73	132
422.953	134
423.175	144
423.398	134
423.621	127
423.843	140
424.066	138
424.288	132
424.511	137
424.733	142
424.956	141
425.178	131
425.401	147
425.623	142
425.846	149
426.068	126
426.291	136
426.513	119
426.735	140
426.958	142
427.18	155
427.402	171
427.625	156
427.847	145
428.069	143
428.292	126
428.514	147
428.736	137
428.958	129
429.181	111
429.403	128
429.625	127
429.847	137
430.069	115
430.292	133
430.514	130
430.736	131
430.958	144
431.18	117
431.402	112
431.624	128
431.846	132
432.068	130
432.29	122
432.512	128
432.734	139
432.956	130
433.178	144
433.4	125
433.622	126
433.844	136
434.066	121
434.287	132
434.509	123
434.731	128
434.953	120
435.175	132
435.397	130
435.618	129
435.84	131
436.062	140
436.284	138
436.505	146
436.727	142
436.949	136
437.17	128
437.392	130
437.614	126
437.835	130
438.057	128
438.278	152
438.5	144
438.721	146
438.943	148
439.165	140
439.386	124
439.608	117
439.829	135
440.05	126
440.272	128
440.493	137
440.715	133
440.936	126
441.158	116
441.379	122
441.6	140
441.822	142
442.043	136
442.264	136
442.486	153
442.707	136
442.928	127
443.149	153
443.371	143
443.592	144
443.813	147
444.034	153
444.255	146
444.476	134
444.698	163
444.919	138
445.14	253
445.361	191
445.582	138
445.803	156
446.024	146
446.245	149
446.466	143
446.687	142
446.908	126
447.129	142
447.35	127
447.571	112
447.792	118
448.013	122
448.234	123
448.455	116
448.675	131
448.896	136
449.117	133
449.338	127
449.559	146
449.779	162
450	135
450.221	136
450.442	138
450.662	110
450.883	128
451.104	123
451.324	116
451.545	112
451.766	126
451.986	143
452.207	129
452.428	143
452.648	129
452.869	124
453.089	125
453.31	136
453.53	122
453.751	135
453.971	112
454.192	118
454.412	126
454.633	124
454.853	127
455.073	115
455.294	119
455.514	132
455.734	126
455.955	122
456.175	124
456.395	130
456.616	134
456.836	117
457.056	112
457.276	113
457.497	107
457.717	128
457.937	125
458.157	138
458.377	132
458.598	139
458.818	127
459.038	134
459.258	130
459.478	132
459.698	138
459.918	126
460.138	129
460.358	124
460.578	142
460.798	147
461.018	141
461.238	118
461.458	137
461.678	132
461.898	130
462.118	132
462.338	126
462.558	140
462.777	145
462.997	152
463.217	154
463.437	151
463.657	133
463.876	144
464.096	127
464.316	154
464.536	141
464.755	146
464.975	145
465.195	140
465.414	140
465.634	120
465.854	120
466.073	128
466.293	138
466.512	126
466.732	129
466.951	118
467.171	113
467.391	142
467.61	130
467.829	125
468.049	122
468.268	136
468.488	127
468.707	120
468.927	117
469.146	124
469.365	126
469.585	122
469.804	136
470.023	139
470.243	131
470.462	110
470.681	116
470.901	118
471.12	125
471.339	131
471.558	148
471.777	118
471.997	124
472.216	124
472.435	132
472.654	117
472.873	128
473.092	115
473.311	117
473.53	134
473.749	129
473.968	144
474.187	127
474.406	127
474.625	145
474.844	136
475.063	128
475.282	129
475.501	126
475.72	123
475.939	140
476.158	137
476.377	114
476.596	140
476.814	133
477.033	132
477.252	123
477.471	125
477.69	119
477.908	136
478.127	135
478.346	146
478.564	138
478.783	141
479.002	146
479.22	144
479.439	132
479.658	140
479.876	140
480.095	137
480.313	140
480.532	148
480.751	124
480.969	143
481.188	135
481.406	140
481.624	133
481.843	132
482.061	135
482.28	127
482.498	145
482.717	142
482.935	128
483.153	125
483.372	129
483.59	140
483.808	138
484.027	142
484.245	132
484.463	137
484.681	136
484.9	136
485.118	138
485.336	139
485.554	128
485.772	132
485.99	120
486.209	150
486.427	134
486.645	131
486.863	134
487.081	139
487.299	128
487.517	128
487.735	144
487.953	133
488.171	133
488.389	129
488.607	124
488.825	155
489.043	139
489.261	141
489.479	136
489.696	141
489.914	137
490.132	138
490.35	133
490.568	151
490.786	142
491.003	122
491.221	142
491.439	146
491.657	160
491.874	151
492.092	146
492.31	159
492.527	143
492.745	146
492.963	154
493.18	146
493.398	160
493.615	150
493.833	145
494.05	156
494.268	142
494.485	147
494.703	147
494.92	160
495.138	146
495.355	146
495.573	155
495.79	145
496.008	141
496.225	157
496.442	153
496.66	152
496.877	140
497.094	143
497.312	162
497.529	156
497.746	161
497.963	159
498.181	152
498.398	158
498.615	155
498.832	168
499.049	156
499.267	162
499.484	182
499.701	169
499.918	174
500.135	212
500.352	193
500.569	221
500.786	205
501.003	221
501.22	214
501.437	208
501.654	194
501.871	169
502.088	175
502.305	164
502.522	180
502.739	152
502.956	152
503.172	153
503.389	147
503.606	154
503.823	154
504.04	152
504.256	166
504.473	154
504.69	156
504.907	142
505.123	144
505.34	139
505.557	139
505.773	136
505.99	143
506.207	145
506.423	151
506.64	134
506.856	128
507.073	137
507.289	149
507.506	140
507.722	133
507.939	140
508.155	147
508.372	136
508.588	128
508.805	124
509.021	131
509.238	133
509.454	122
509.67	137
509.887	142
510.103	145
510.319	131
510.536	138
510.752	176
510.968	160
511.184	132
511.401	131
511.617	118
511.833	128
512.049	122
512.265	117
512.481	130
512.698	140
512.914	126
513.13	132
513.346	135
513.562	130
513.778	150
513.994	122
514.21	130
514.426	130
514.642	145
514.858	132
515.074	137
515.29	134
515.506	169
515.721	165
515.937	141
516.153	140
516.369	140
516.585	146
516.801	141
517.016	144
517.232	138
517.448	154
517.664	156
517.879	161
518.095	150
518.311	156
518.527	139
518.742	135
518.958	135
519.173	145
519.389	140
519.605	132
519.82	130
520.036	138
520.251	132
520.467	127
520.682	145
520.898	117
521.113	126
521.329	155
521.544	127
521.76	156
521.975	197
522.19	182
522.406	148
522.621	128
522.836	144
523.052	131
523.267	129
523.482	124
523.698	136
523.913	129
524.128	119
524.343	120
524.559	124
524.774	130
524.989	132
525.204	123
525.419	129
525.634	127
525.849	133
526.064	124
526.28	128
526.495	117
526.71	115
526.925	128
527.14	120
527.355	127
527.57	111
527.785	120
527.999	128
528.214	126
528.429	125
528.644	143
528.859	120
529.074	133
529.289	111
529.503	130
529.718	131
529.933	128
530.148	125
530.363	134
530.577	129
530.792	120
531.007	125
531.221	127
531.436	131
531.651	125
531.865	129
532.08	112
532.295	130
532.509	122
532.724	114
532.938	121
533.153	122
533.367	125
533.582	126
533.796	125
534.011	124
534.225	124
534.44	138
534.654	138
534.868	121
535.083	110
535.297	129
535.511	136
535.726	135
535.94	130
536.154	123
536.369	122
536.583	131
536.797	128
537.011	129
537.225	120
537.44	122
537.654	111
537.868	127
538.082	118
538.296	116
538.51	136
538.724	124
538.938	134
539.153	123
539.367	124
539.581	127
539.795	112
540.009	111
540.222	126
540.436	118
540.65	128
540.864	122
541.078	113
541.292	134
541.506	127
541.72	128
541.934	138
542.147	130
542.361	130
542.575	130
542.789	146
543.002	151
543.216	128
543.43	132
543.644	121
543.857	130
544.071	137
544.285	139
544.498	152
544.712	136
544.925	130
545.139	126
545.352	119
545.566	146
545.779	136
545.993	158
546.206	138
546.42	173
546.633	133
546.847	109
547.06	136
547.274	131
547.487	129
547.7	134
547.914	135
548.127	136
548.34	135
548.554	115
548.767	106
548.98	137
549.193	125
549.407	130
549.62	153
549.833	104
550.046	126
550.259	133
550.473	139
550.686	124
550.899	135
551.112	139
551.325	130
551.538	120
551.751	120
551.964	129
552.177	132
552.39	134
552.603	121
552.816	126
553.029	126
553.242	130
553.455	135
553.667	144
553.88	129
554.093	132
554.306	130
554.519	124
554.732	134
554.944	118
555.157	121
555.37	120
555.583	117
555.795	134
556.008	129
556.221	114
556.433	114
556.646	127
556.859	112
557.071	122
557.284	124
557.496	116
557.709	122
557.921	116
558.134	123
558.346	113
558.559	118
558.771	118
558.984	107
559.196	121
559.409	121
559.621	113
559.833	105
560.046	124
560.258	124
560.47	109
560.683	112
560.895	121
561.107	128
561.32	110
561.532	111
561.744	126
561.956	132
562.168	116
562.381	118
562.593	122
562.805	139
563.017	128
563.229	114
563.441	124
563.653	139
563.865	131
564.077	125
564.289	122
564.501	117
564.713	130
564.925	116
565.137	138
565.349	116
565.561	120
565.773	139
565.985	126
566.197	133
566.408	132
566.62	126
566.832	141
567.044	142
567.255	142
567.467	145
567.679	149
