Data from 1968.PennyLincolnUp.Lamp.En5.5.200Scan.071719.P1._HRD10591_14-52-24-970.txt Node
Date: Thu Jul 18 14:52:24 EDT 2019
User: cochatt
Spectrometer: HR+D1059
Trigger mode: 1
Integration Time (sec): 1.000000E-1
Scans to average: 1
Electric dark correction enabled: true
Nonlinearity correction enabled: false
Boxcar width: 0
XAxis mode: Wavelengths
Number of Pixels in Spectrum: 2048
>>>>>Begin Spectral Data<<<<<
223.165	-32.06
223.4	-32.06
223.635	-32.06
223.869	-9.06
224.104	-23.06
224.338	-4.06
224.573	-13.06
224.808	-14.06
225.042	-8.06
225.277	7.94
225.511	0.94
225.746	-0.06
225.98	-6.06
226.215	15.94
226.449	19.94
226.683	15.94
226.918	17.94
227.152	30.94
227.387	46.94
227.621	36.94
227.856	57.94
228.09	38.94
228.324	34.94
228.559	40.94
228.793	44.94
229.027	44.94
229.262	66.94
229.496	63.94
229.73	62.94
229.964	67.94
230.199	79.94
230.433	68.94
230.667	74.94
230.901	71.94
231.136	76.94
231.37	81.94
231.604	84.94
231.838	79.94
232.072	75.94
232.306	83.94
232.541	95.94
232.775	73.94
233.009	83.94
233.243	80.94
233.477	85.94
233.711	82.94
233.945	81.94
234.179	82.94
234.413	88.94
234.647	99.94
234.881	97.94
235.115	73.94
235.349	82.94
235.583	80.94
235.817	83.94
236.051	62.94
236.285	79.94
236.519	80.94
236.753	82.94
236.987	86.94
237.221	92.94
237.455	81.94
237.689	83.94
237.922	79.94
238.156	75.94
238.39	79.94
238.624	91.94
238.858	80.94
239.091	91.94
239.325	81.94
239.559	86.94
239.793	80.94
240.027	87.94
240.26	71.94
240.494	67.94
240.728	76.94
240.961	80.94
241.195	68.94
241.429	90.94
241.662	91.94
241.896	78.94
242.13	68.94
242.363	90.94
242.597	78.94
242.83	73.94
243.064	83.94
243.298	82.94
243.531	80.94
243.765	79.94
243.998	99.94
244.232	85.94
244.465	79.94
244.699	83.94
244.932	72.94
245.166	77.94
245.399	72.94
245.633	71.94
245.866	63.94
246.099	80.94
246.333	94.94
246.566	101.94
246.8	79.94
247.033	83.94
247.266	76.94
247.5	86.94
247.733	75.94
247.966	86.94
248.2	78.94
248.433	94.94
248.666	83.94
248.899	90.94
249.133	86.94
249.366	95.94
249.599	90.94
249.832	86.94
250.066	85.94
250.299	82.94
250.532	82.94
250.765	86.94
250.998	82.94
251.231	77.94
251.465	90.94
251.698	83.94
251.931	78.94
252.164	82.94
252.397	82.94
252.63	82.94
252.863	83.94
253.096	92.94
253.329	90.94
253.562	92.94
253.795	86.94
254.028	85.94
254.261	76.94
254.494	74.94
254.727	85.94
254.96	87.94
255.193	74.94
255.426	87.94
255.659	94.94
255.892	89.94
256.124	84.94
256.357	84.94
256.59	94.94
256.823	75.94
257.056	89.94
257.289	94.94
257.521	84.94
257.754	86.94
257.987	80.94
258.22	99.94
258.452	75.94
258.685	100.94
258.918	90.94
259.151	72.94
259.383	76.94
259.616	95.94
259.849	85.94
260.081	90.94
260.314	85.94
260.547	93.94
260.779	97.94
261.012	90.94
261.244	96.94
261.477	95.94
261.71	95.94
261.942	80.94
262.175	87.94
262.407	94.94
262.64	90.94
262.872	78.94
263.105	83.94
263.337	80.94
263.57	80.94
263.802	94.94
264.035	84.94
264.267	88.94
264.499	91.94
264.732	79.94
264.964	76.94
265.197	86.94
265.429	99.94
265.661	88.94
265.894	79.94
266.126	76.94
266.358	94.94
266.591	110.94
266.823	95.94
267.055	93.94
267.287	106.94
267.52	87.94
267.752	80.94
267.984	74.94
268.216	90.94
268.448	90.94
268.681	88.94
268.913	92.94
269.145	102.94
269.377	106.94
269.609	83.94
269.841	92.94
270.073	99.94
270.306	83.94
270.538	96.94
270.77	86.94
271.002	87.94
271.234	93.94
271.466	93.94
271.698	90.94
271.93	87.94
272.162	108.94
272.394	90.94
272.626	92.94
272.858	89.94
273.09	100.94
273.322	106.94
273.553	95.94
273.785	101.94
274.017	82.94
274.249	91.94
274.481	85.94
274.713	86.94
274.945	103.94
275.176	87.94
275.408	90.94
275.64	96.94
275.872	97.94
276.104	101.94
276.335	96.94
276.567	88.94
276.799	84.94
277.031	89.94
277.262	87.94
277.494	101.94
277.726	105.94
277.957	99.94
278.189	96.94
278.421	90.94
278.652	93.94
278.884	96.94
279.115	98.94
279.347	91.94
279.579	83.94
279.81	100.94
280.042	92.94
280.273	83.94
280.505	95.94
280.736	79.94
280.968	102.94
281.199	96.94
281.431	93.94
281.662	104.94
281.894	104.94
282.125	100.94
282.356	100.94
282.588	88.94
282.819	95.94
283.051	95.94
283.282	105.94
283.513	98.94
283.745	95.94
283.976	91.94
284.207	107.94
284.439	97.94
284.67	105.94
284.901	99.94
285.132	92.94
285.364	96.94
285.595	99.94
285.826	88.94
286.057	92.94
286.288	88.94
286.52	112.94
286.751	94.94
286.982	110.94
287.213	99.94
287.444	100.94
287.675	96.94
287.906	95.94
288.138	78.94
288.369	103.94
288.6	106.94
288.831	102.94
289.062	115.94
289.293	103.94
289.524	94.94
289.755	88.94
289.986	93.94
290.217	95.94
290.448	99.94
290.679	97.94
290.91	96.94
291.141	103.94
291.371	99.94
291.602	97.94
291.833	98.94
292.064	105.94
292.295	105.94
292.526	100.94
292.757	96.94
292.987	99.94
293.218	111.94
293.449	86.94
293.68	100.94
293.91	87.94
294.141	106.94
294.372	101.94
294.603	100.94
294.833	103.94
295.064	97.94
295.295	94.94
295.525	105.94
295.756	108.94
295.987	100.94
296.217	105.94
296.448	92.94
296.679	106.94
296.909	113.94
297.14	89.94
297.37	96.94
297.601	100.94
297.831	102.94
298.062	110.94
298.292	109.94
298.523	93.94
298.753	113.94
298.984	92.94
299.214	103.94
299.445	94.94
299.675	104.94
299.905	110.94
300.136	94.94
300.366	88.94
300.597	102.94
300.827	110.94
301.057	108.94
301.288	105.94
301.518	105.94
301.748	92.94
301.979	99.94
302.209	102.94
302.439	90.94
302.669	98.94
302.9	93.94
303.13	100.94
303.36	110.94
303.59	92.94
303.82	113.94
304.051	114.94
304.281	119.94
304.511	104.94
304.741	102.94
304.971	106.94
305.201	129.94
305.431	102.94
305.661	91.94
305.891	102.94
306.121	108.94
306.352	98.94
306.582	110.94
306.812	96.94
307.042	115.94
307.272	107.94
307.502	98.94
307.731	98.94
307.961	113.94
308.191	101.94
308.421	87.94
308.651	105.94
308.881	103.94
309.111	101.94
309.341	107.94
309.571	99.94
309.8	94.94
310.03	96.94
310.26	110.94
310.49	101.94
310.72	100.94
310.949	103.94
311.179	109.94
311.409	106.94
311.639	104.94
311.868	102.94
312.098	98.94
312.328	116.94
312.557	127.94
312.787	110.94
313.017	113.94
313.246	105.94
313.476	102.94
313.706	100.94
313.935	109.94
314.165	103.94
314.394	116.94
314.624	111.94
314.853	104.94
315.083	102.94
315.312	88.94
315.542	100.94
315.771	94.94
316.001	97.94
316.23	102.94
316.46	94.94
316.689	79.94
316.919	101.94
317.148	101.94
317.377	109.94
317.607	95.94
317.836	108.94
318.065	98.94
318.295	111.94
318.524	105.94
318.753	104.94
318.983	106.94
319.212	103.94
319.441	113.94
319.67	107.94
319.9	120.94
320.129	120.94
320.358	108.94
320.587	94.94
320.816	98.94
321.046	95.94
321.275	106.94
321.504	107.94
321.733	110.94
321.962	108.94
322.191	110.94
322.42	121.94
322.649	105.94
322.878	98.94
323.108	99.94
323.337	115.94
323.566	114.94
323.795	110.94
324.024	104.94
324.253	128.94
324.482	145.94
324.71	155.94
324.939	172.94
325.168	143.94
325.397	118.94
325.626	122.94
325.855	116.94
326.084	111.94
326.313	111.94
326.542	95.94
326.77	113.94
326.999	118.94
327.228	123.94
327.457	162.94
327.686	156.94
327.914	122.94
328.143	133.94
328.372	122.94
328.6	99.94
328.829	101.94
329.058	116.94
329.287	114.94
329.515	111.94
329.744	117.94
329.972	117.94
330.201	108.94
330.43	115.94
330.658	97.94
330.887	126.94
331.115	126.94
331.344	112.94
331.572	105.94
331.801	94.94
332.03	123.94
332.258	110.94
332.486	114.94
332.715	115.94
332.943	118.94
333.172	104.94
333.4	130.94
333.629	119.94
333.857	106.94
334.085	113.94
334.314	111.94
334.542	120.94
334.771	116.94
334.999	122.94
335.227	122.94
335.455	117.94
335.684	116.94
335.912	117.94
336.14	126.94
336.369	99.94
336.597	109.94
336.825	118.94
337.053	117.94
337.281	122.94
337.51	114.94
337.738	107.94
337.966	107.94
338.194	109.94
338.422	107.94
338.65	99.94
338.878	114.94
339.106	114.94
339.334	121.94
339.562	100.94
339.79	106.94
340.018	99.94
340.246	107.94
340.474	102.94
340.702	99.94
340.93	98.94
341.158	106.94
341.386	114.94
341.614	114.94
341.842	119.94
342.07	97.94
342.298	117.94
342.526	109.94
342.754	88.94
342.981	106.94
343.209	93.94
343.437	108.94
343.665	117.94
343.893	124.94
344.12	118.94
344.348	116.94
344.576	134.94
344.804	100.94
345.031	110.94
345.259	98.94
345.487	97.94
345.714	97.94
345.942	123.94
346.17	101.94
346.397	107.94
346.625	111.94
346.853	106.94
347.08	98.94
347.308	114.94
347.535	98.94
347.763	106.94
347.99	102.94
348.218	98.94
348.445	113.94
348.673	102.94
348.9	118.94
349.128	98.94
349.355	116.94
349.583	102.94
349.81	101.94
350.037	92.94
350.265	100.94
350.492	101.94
350.72	99.94
350.947	113.94
351.174	90.94
351.402	114.94
351.629	102.94
351.856	108.94
352.083	103.94
352.311	102.94
352.538	109.94
352.765	102.94
352.992	107.94
353.22	107.94
353.447	101.94
353.674	105.94
353.901	101.94
354.128	103.94
354.355	96.94
354.583	91.94
354.81	85.94
355.037	115.94
355.264	103.94
355.491	96.94
355.718	101.94
355.945	93.94
356.172	104.94
356.399	91.94
356.626	109.94
356.853	99.94
357.08	106.94
357.307	104.94
357.534	107.94
357.761	96.94
357.988	91.94
358.215	110.94
358.441	98.94
358.668	98.94
358.895	93.94
359.122	116.94
359.349	116.94
359.576	109.94
359.802	98.94
360.029	102.94
360.256	101.94
360.483	99.94
360.709	111.94
360.936	113.94
361.163	110.94
361.39	106.94
361.616	110.94
361.843	106.94
362.07	107.94
362.296	110.94
362.523	108.94
362.749	110.94
362.976	110.94
363.203	107.94
363.429	112.94
363.656	105.94
363.882	99.94
364.109	107.94
364.335	112.94
364.562	90.94
364.788	107.94
365.015	104.94
365.241	111.94
365.468	115.94
365.694	83.94
365.92	110.94
366.147	98.94
366.373	111.94
366.599	107.94
366.826	94.94
367.052	102.94
367.278	108.94
367.505	115.94
367.731	110.94
367.957	101.94
368.184	99.94
368.41	102.94
368.636	96.94
368.862	107.94
369.089	111.94
369.315	110.94
369.541	106.94
369.767	105.94
369.993	101.94
370.219	102.94
370.445	102.94
370.672	105.94
370.898	114.94
371.124	109.94
371.35	105.94
371.576	107.94
371.802	111.94
372.028	106.94
372.254	109.94
372.48	104.94
372.706	115.94
372.932	100.94
373.158	121.94
373.384	106.94
373.61	104.94
373.835	116.94
374.061	116.94
374.287	112.94
374.513	111.94
374.739	116.94
374.965	102.94
375.191	95.94
375.416	107.94
375.642	112.94
375.868	117.94
376.094	107.94
376.319	112.94
376.545	118.94
376.771	106.94
376.997	108.94
377.222	112.94
377.448	115.94
377.674	99.94
377.899	108.94
378.125	110.94
378.35	120.94
378.576	114.94
378.802	107.94
379.027	118.94
379.253	106.94
379.478	113.94
379.704	118.94
379.929	116.94
380.155	118.94
380.38	121.94
380.606	98.94
380.831	106.94
381.057	108.94
381.282	108.94
381.507	94.94
381.733	94.94
381.958	101.94
382.184	112.94
382.409	110.94
382.634	95.94
382.86	97.94
383.085	110.94
383.31	115.94
383.535	106.94
383.761	99.94
383.986	97.94
384.211	98.94
384.436	114.94
384.662	120.94
384.887	104.94
385.112	124.94
385.337	113.94
385.562	120.94
385.787	116.94
386.013	113.94
386.238	117.94
386.463	109.94
386.688	130.94
386.913	113.94
387.138	115.94
387.363	109.94
387.588	98.94
387.813	108.94
388.038	115.94
388.263	108.94
388.488	111.94
388.713	104.94
388.938	112.94
389.163	123.94
389.387	110.94
389.612	123.94
389.837	115.94
390.062	119.94
390.287	126.94
390.512	106.94
390.736	107.94
390.961	108.94
391.186	106.94
391.411	108.94
391.636	100.94
391.86	131.94
392.085	106.94
392.31	116.94
392.534	114.94
392.759	109.94
392.984	119.94
393.208	117.94
393.433	118.94
393.658	96.94
393.882	130.94
394.107	119.94
394.331	106.94
394.556	118.94
394.78	107.94
395.005	122.94
395.229	117.94
395.454	104.94
395.678	128.94
395.903	118.94
396.127	115.94
396.352	121.94
396.576	112.94
396.801	108.94
397.025	120.94
397.249	116.94
397.474	111.94
397.698	110.94
397.922	120.94
398.147	108.94
398.371	119.94
398.595	102.94
398.82	118.94
399.044	114.94
399.268	104.94
399.492	130.94
399.717	153.94
399.941	140.94
400.165	139.94
400.389	129.94
400.613	124.94
400.837	124.94
401.062	123.94
401.286	115.94
401.51	117.94
401.734	138.94
401.958	132.94
402.182	130.94
402.406	126.94
402.63	134.94
402.854	121.94
403.078	124.94
403.302	124.94
403.526	137.94
403.75	118.94
403.974	134.94
404.198	130.94
404.422	126.94
404.645	124.94
404.869	134.94
405.093	131.94
405.317	124.94
405.541	137.94
405.765	129.94
405.988	123.94
406.212	118.94
406.436	124.94
406.66	130.94
406.883	114.94
407.107	131.94
407.331	145.94
407.555	138.94
407.778	136.94
408.002	146.94
408.226	134.94
408.449	111.94
408.673	131.94
408.896	131.94
409.12	143.94
409.344	119.94
409.567	126.94
409.791	129.94
410.014	118.94
410.238	119.94
410.461	123.94
410.685	125.94
410.908	128.94
411.132	129.94
411.355	131.94
411.578	129.94
411.802	129.94
412.025	123.94
412.249	128.94
412.472	125.94
412.695	121.94
412.919	137.94
413.142	133.94
413.365	113.94
413.589	127.94
413.812	126.94
414.035	111.94
414.258	122.94
414.482	124.94
414.705	112.94
414.928	112.94
415.151	119.94
415.374	129.94
415.597	126.94
415.821	132.94
416.044	122.94
416.267	129.94
416.49	121.94
416.713	124.94
416.936	128.94
417.159	127.94
417.382	126.94
417.605	118.94
417.828	126.94
418.051	119.94
418.274	120.94
418.497	137.94
418.72	128.94
418.943	112.94
419.166	119.94
419.389	123.94
419.611	124.94
419.834	126.94
420.057	121.94
420.28	135.94
420.503	125.94
420.726	128.94
420.948	128.94
421.171	128.94
421.394	120.94
421.617	122.94
421.839	121.94
422.062	124.94
422.285	116.94
422.507	123.94
422.73	134.94
422.953	128.94
423.175	124.94
423.398	116.94
423.621	108.94
423.843	122.94
424.066	118.94
424.288	124.94
424.511	124.94
424.733	136.94
424.956	120.94
425.178	148.94
425.401	134.94
425.623	129.94
425.846	135.94
426.068	128.94
426.291	123.94
426.513	122.94
426.735	128.94
426.958	130.94
427.18	119.94
427.402	140.94
427.625	135.94
427.847	135.94
428.069	132.94
428.292	144.94
428.514	126.94
428.736	116.94
428.958	122.94
429.181	129.94
429.403	121.94
429.625	125.94
429.847	126.94
430.069	124.94
430.292	113.94
430.514	109.94
430.736	117.94
430.958	123.94
431.18	123.94
431.402	127.94
431.624	128.94
431.846	129.94
432.068	108.94
432.29	114.94
432.512	129.94
432.734	126.94
432.956	124.94
433.178	122.94
433.4	117.94
433.622	102.94
433.844	120.94
434.066	112.94
434.287	114.94
434.509	133.94
434.731	112.94
434.953	127.94
435.175	117.94
435.397	130.94
435.618	131.94
435.84	131.94
436.062	140.94
436.284	136.94
436.505	107.94
436.727	119.94
436.949	120.94
437.17	128.94
437.392	114.94
437.614	131.94
437.835	116.94
438.057	123.94
438.278	138.94
438.5	130.94
438.721	127.94
438.943	122.94
439.165	117.94
439.386	119.94
439.608	119.94
439.829	112.94
440.05	124.94
440.272	138.94
440.493	129.94
440.715	116.94
440.936	130.94
441.158	139.94
441.379	135.94
441.6	121.94
441.822	123.94
442.043	120.94
442.264	135.94
442.486	134.94
442.707	134.94
442.928	129.94
443.149	129.94
443.371	124.94
443.592	129.94
443.813	134.94
444.034	142.94
444.255	141.94
444.476	119.94
444.698	132.94
444.919	126.94
445.14	213.94
445.361	162.94
445.582	130.94
445.803	136.94
446.024	142.94
446.245	139.94
446.466	120.94
446.687	122.94
446.908	124.94
447.129	129.94
447.35	112.94
447.571	112.94
447.792	94.94
448.013	122.94
448.234	112.94
448.455	130.94
448.675	123.94
448.896	133.94
449.117	124.94
449.338	132.94
449.559	137.94
449.779	137.94
450	116.94
450.221	123.94
450.442	103.94
450.662	107.94
450.883	114.94
451.104	130.94
451.324	115.94
451.545	121.94
451.766	114.94
451.986	126.94
452.207	106.94
452.428	128.94
452.648	126.94
452.869	101.94
453.089	114.94
453.31	115.94
453.53	127.94
453.751	110.94
453.971	122.94
454.192	105.94
454.412	108.94
454.633	103.94
454.853	116.94
455.073	105.94
455.294	101.94
455.514	113.94
455.734	116.94
455.955	110.94
456.175	114.94
456.395	111.94
456.616	119.94
456.836	100.94
457.056	124.94
457.276	108.94
457.497	116.94
457.717	106.94
457.937	134.94
458.157	113.94
458.377	103.94
458.598	108.94
458.818	118.94
459.038	114.94
459.258	119.94
459.478	122.94
459.698	109.94
459.918	131.94
460.138	112.94
460.358	144.94
460.578	125.94
460.798	133.94
461.018	136.94
461.238	120.94
461.458	129.94
461.678	124.94
461.898	126.94
462.118	118.94
462.338	128.94
462.558	129.94
462.777	122.94
462.997	123.94
463.217	130.94
463.437	135.94
463.657	126.94
463.876	134.94
464.096	125.94
464.316	140.94
464.536	131.94
464.755	129.94
464.975	132.94
465.195	129.94
465.414	116.94
465.634	115.94
465.854	134.94
466.073	116.94
466.293	112.94
466.512	119.94
466.732	118.94
466.951	122.94
467.171	120.94
467.391	124.94
467.61	116.94
467.829	114.94
468.049	104.94
468.268	118.94
468.488	118.94
468.707	104.94
468.927	126.94
469.146	131.94
469.365	120.94
469.585	115.94
469.804	123.94
470.023	123.94
470.243	120.94
470.462	126.94
470.681	115.94
470.901	127.94
471.12	112.94
471.339	111.94
471.558	127.94
471.777	120.94
471.997	134.94
472.216	126.94
472.435	119.94
472.654	131.94
472.873	118.94
473.092	116.94
473.311	113.94
473.53	120.94
473.749	119.94
473.968	125.94
474.187	130.94
474.406	124.94
474.625	127.94
474.844	103.94
475.063	119.94
475.282	126.94
475.501	110.94
475.72	121.94
475.939	122.94
476.158	117.94
476.377	118.94
476.596	124.94
476.814	109.94
477.033	114.94
477.252	109.94
477.471	120.94
477.69	115.94
477.908	126.94
478.127	122.94
478.346	122.94
478.564	120.94
478.783	122.94
479.002	111.94
479.22	114.94
479.439	132.94
479.658	131.94
479.876	132.94
480.095	122.94
480.313	125.94
480.532	123.94
480.751	120.94
480.969	114.94
481.188	119.94
481.406	114.94
481.624	134.94
481.843	128.94
482.061	136.94
482.28	131.94
482.498	127.94
482.717	126.94
482.935	122.94
483.153	126.94
483.372	119.94
483.59	138.94
483.808	129.94
484.027	129.94
484.245	125.94
484.463	130.94
484.681	124.94
484.9	121.94
485.118	124.94
485.336	135.94
485.554	128.94
485.772	117.94
485.99	123.94
486.209	130.94
486.427	122.94
486.645	131.94
486.863	125.94
487.081	121.94
487.299	125.94
487.517	136.94
487.735	123.94
487.953	139.94
488.171	137.94
488.389	121.94
488.607	125.94
488.825	130.94
489.043	114.94
489.261	130.94
489.479	143.94
489.696	126.94
489.914	126.94
490.132	127.94
490.35	127.94
490.568	127.94
490.786	135.94
491.003	130.94
491.221	133.94
491.439	143.94
491.657	133.94
491.874	143.94
492.092	148.94
492.31	146.94
492.527	138.94
492.745	141.94
492.963	143.94
493.18	136.94
493.398	148.94
493.615	137.94
493.833	135.94
494.05	126.94
494.268	138.94
494.485	141.94
494.703	146.94
494.92	129.94
495.138	130.94
495.355	145.94
495.573	145.94
495.79	128.94
496.008	155.94
496.225	136.94
496.442	159.94
496.66	137.94
496.877	148.94
497.094	132.94
497.312	131.94
497.529	141.94
497.746	134.94
497.963	128.94
498.181	126.94
498.398	136.94
498.615	139.94
498.832	158.94
499.049	155.94
499.267	167.94
499.484	168.94
499.701	188.94
499.918	187.94
500.135	186.94
500.352	215.94
500.569	214.94
500.786	199.94
501.003	185.94
501.22	181.94
501.437	170.94
501.654	186.94
501.871	158.94
502.088	170.94
502.305	155.94
502.522	145.94
502.739	148.94
502.956	155.94
503.172	131.94
503.389	141.94
503.606	126.94
503.823	133.94
504.04	146.94
504.256	141.94
504.473	158.94
504.69	141.94
504.907	149.94
505.123	152.94
505.34	137.94
505.557	121.94
505.773	139.94
505.99	118.94
506.207	128.94
506.423	135.94
506.64	133.94
