Data from 1968.PennyLincolnUp.Lamp.En5.5.200Scan.071719.P1._HRD10591_14-51-40-969.txt Node
Date: Thu Jul 18 14:51:40 EDT 2019
User: cochatt
Spectrometer: HR+D1059
Trigger mode: 1
Integration Time (sec): 1.000000E-1
Scans to average: 1
Electric dark correction enabled: true
Nonlinearity correction enabled: false
Boxcar width: 0
XAxis mode: Wavelengths
Number of Pixels in Spectrum: 2048
>>>>>Begin Spectral Data<<<<<
223.165	-17.5
223.4	-17.5
223.635	-17.5
223.869	-22.5
224.104	-10.5
224.338	-24.5
224.573	-7.5
224.808	-9.5
225.042	1.5
225.277	-1.5
225.511	-0.5
225.746	15.5
225.98	10.5
226.215	9.5
226.449	19.5
226.683	3.5
226.918	7.5
227.152	26.5
227.387	37.5
227.621	42.5
227.856	36.5
228.09	45.5
228.324	55.5
228.559	63.5
228.793	54.5
229.027	66.5
229.262	60.5
229.496	62.5
229.73	76.5
229.964	70.5
230.199	87.5
230.433	83.5
230.667	84.5
230.901	81.5
231.136	90.5
231.37	72.5
231.604	83.5
231.838	91.5
232.072	88.5
232.306	81.5
232.541	85.5
232.775	92.5
233.009	90.5
233.243	85.5
233.477	95.5
233.711	93.5
233.945	72.5
234.179	93.5
234.413	89.5
234.647	79.5
234.881	80.5
235.115	85.5
235.349	99.5
235.583	85.5
235.817	92.5
236.051	87.5
236.285	89.5
236.519	106.5
236.753	91.5
236.987	75.5
237.221	72.5
237.455	79.5
237.689	76.5
237.922	91.5
238.156	80.5
238.39	92.5
238.624	74.5
238.858	82.5
239.091	94.5
239.325	80.5
239.559	86.5
239.793	81.5
240.027	80.5
240.26	78.5
240.494	76.5
240.728	91.5
240.961	92.5
241.195	89.5
241.429	77.5
241.662	91.5
241.896	83.5
242.13	96.5
242.363	85.5
242.597	87.5
242.83	93.5
243.064	97.5
243.298	92.5
243.531	87.5
243.765	84.5
243.998	89.5
244.232	90.5
244.465	75.5
244.699	89.5
244.932	79.5
245.166	70.5
245.399	91.5
245.633	82.5
245.866	86.5
246.099	95.5
246.333	84.5
246.566	92.5
246.8	87.5
247.033	88.5
247.266	96.5
247.5	95.5
247.733	93.5
247.966	86.5
248.2	101.5
248.433	93.5
248.666	101.5
248.899	99.5
249.133	87.5
249.366	99.5
249.599	83.5
249.832	84.5
250.066	103.5
250.299	92.5
250.532	85.5
250.765	108.5
250.998	85.5
251.231	111.5
251.465	98.5
251.698	99.5
251.931	89.5
252.164	93.5
252.397	78.5
252.63	90.5
252.863	87.5
253.096	112.5
253.329	93.5
253.562	89.5
253.795	98.5
254.028	92.5
254.261	85.5
254.494	100.5
254.727	91.5
254.96	93.5
255.193	102.5
255.426	92.5
255.659	99.5
255.892	89.5
256.124	83.5
256.357	93.5
256.59	90.5
256.823	78.5
257.056	98.5
257.289	95.5
257.521	95.5
257.754	100.5
257.987	95.5
258.22	102.5
258.452	88.5
258.685	84.5
258.918	84.5
259.151	98.5
259.383	97.5
259.616	104.5
259.849	96.5
260.081	100.5
260.314	86.5
260.547	104.5
260.779	85.5
261.012	94.5
261.244	84.5
261.477	90.5
261.71	100.5
261.942	81.5
262.175	91.5
262.407	93.5
262.64	97.5
262.872	95.5
263.105	99.5
263.337	100.5
263.57	89.5
263.802	91.5
264.035	87.5
264.267	89.5
264.499	89.5
264.732	95.5
264.964	100.5
265.197	106.5
265.429	87.5
265.661	96.5
265.894	121.5
266.126	104.5
266.358	105.5
266.591	89.5
266.823	91.5
267.055	105.5
267.287	93.5
267.52	87.5
267.752	101.5
267.984	97.5
268.216	94.5
268.448	103.5
268.681	97.5
268.913	93.5
269.145	93.5
269.377	96.5
269.609	87.5
269.841	108.5
270.073	107.5
270.306	91.5
270.538	92.5
270.77	91.5
271.002	101.5
271.234	103.5
271.466	95.5
271.698	108.5
271.93	116.5
272.162	93.5
272.394	93.5
272.626	110.5
272.858	96.5
273.09	111.5
273.322	103.5
273.553	102.5
273.785	100.5
274.017	115.5
274.249	113.5
274.481	96.5
274.713	90.5
274.945	90.5
275.176	99.5
275.408	119.5
275.64	100.5
275.872	98.5
276.104	96.5
276.335	104.5
276.567	115.5
276.799	107.5
277.031	110.5
277.262	99.5
277.494	95.5
277.726	97.5
277.957	95.5
278.189	84.5
278.421	110.5
278.652	103.5
278.884	99.5
279.115	112.5
279.347	96.5
279.579	108.5
279.81	98.5
280.042	97.5
280.273	89.5
280.505	95.5
280.736	100.5
280.968	97.5
281.199	111.5
281.431	89.5
281.662	105.5
281.894	100.5
282.125	92.5
282.356	109.5
282.588	101.5
282.819	99.5
283.051	112.5
283.282	117.5
283.513	106.5
283.745	112.5
283.976	100.5
284.207	97.5
284.439	99.5
284.67	93.5
284.901	85.5
285.132	120.5
285.364	103.5
285.595	101.5
285.826	104.5
286.057	102.5
286.288	109.5
286.52	93.5
286.751	92.5
286.982	88.5
287.213	103.5
287.444	107.5
287.675	115.5
287.906	117.5
288.138	96.5
288.369	99.5
288.6	115.5
288.831	112.5
289.062	105.5
289.293	102.5
289.524	101.5
289.755	106.5
289.986	103.5
290.217	102.5
290.448	108.5
290.679	104.5
290.91	110.5
291.141	109.5
291.371	107.5
291.602	101.5
291.833	114.5
292.064	103.5
292.295	100.5
292.526	96.5
292.757	101.5
292.987	111.5
293.218	107.5
293.449	89.5
293.68	104.5
293.91	97.5
294.141	102.5
294.372	120.5
294.603	100.5
294.833	96.5
295.064	116.5
295.295	104.5
295.525	105.5
295.756	106.5
295.987	106.5
296.217	101.5
296.448	117.5
296.679	102.5
296.909	111.5
297.14	105.5
297.37	114.5
297.601	109.5
297.831	102.5
298.062	106.5
298.292	117.5
298.523	125.5
298.753	108.5
298.984	111.5
299.214	118.5
299.445	115.5
299.675	109.5
299.905	101.5
300.136	121.5
300.366	96.5
300.597	108.5
300.827	112.5
301.057	100.5
301.288	109.5
301.518	110.5
301.748	104.5
301.979	111.5
302.209	116.5
302.439	108.5
302.669	106.5
302.9	118.5
303.13	111.5
303.36	99.5
303.59	94.5
303.82	117.5
304.051	115.5
304.281	111.5
304.511	110.5
304.741	84.5
304.971	119.5
305.201	95.5
305.431	107.5
305.661	107.5
305.891	110.5
306.121	97.5
306.352	119.5
306.582	115.5
306.812	96.5
307.042	118.5
307.272	124.5
307.502	106.5
307.731	120.5
307.961	104.5
308.191	127.5
308.421	102.5
308.651	108.5
308.881	116.5
309.111	104.5
309.341	109.5
309.571	110.5
309.8	100.5
310.03	97.5
310.26	115.5
310.49	123.5
310.72	99.5
310.949	111.5
311.179	113.5
311.409	102.5
311.639	99.5
311.868	119.5
312.098	115.5
312.328	105.5
312.557	127.5
312.787	132.5
313.017	124.5
313.246	125.5
313.476	108.5
313.706	111.5
313.935	96.5
314.165	104.5
314.394	113.5
314.624	111.5
314.853	128.5
315.083	126.5
315.312	121.5
315.542	101.5
315.771	109.5
316.001	113.5
316.23	119.5
316.46	95.5
316.689	110.5
316.919	115.5
317.148	114.5
317.377	105.5
317.607	118.5
317.836	113.5
318.065	112.5
318.295	119.5
318.524	108.5
318.753	102.5
318.983	110.5
319.212	110.5
319.441	110.5
319.67	109.5
319.9	107.5
320.129	119.5
320.358	111.5
320.587	95.5
320.816	116.5
321.046	119.5
321.275	109.5
321.504	117.5
321.733	127.5
321.962	120.5
322.191	108.5
322.42	115.5
322.649	113.5
322.878	110.5
323.108	116.5
323.337	109.5
323.566	117.5
323.795	115.5
324.024	127.5
324.253	125.5
324.482	145.5
324.71	176.5
324.939	203.5
325.168	187.5
325.397	131.5
325.626	127.5
325.855	110.5
326.084	124.5
326.313	112.5
326.542	117.5
326.77	127.5
326.999	120.5
327.228	140.5
327.457	166.5
327.686	160.5
327.914	128.5
328.143	130.5
328.372	129.5
328.6	118.5
328.829	118.5
329.058	110.5
329.287	125.5
329.515	119.5
329.744	131.5
329.972	122.5
330.201	134.5
330.43	106.5
330.658	127.5
330.887	131.5
331.115	122.5
331.344	121.5
331.572	118.5
331.801	118.5
332.03	125.5
332.258	108.5
332.486	124.5
332.715	132.5
332.943	112.5
333.172	117.5
333.4	125.5
333.629	120.5
333.857	100.5
334.085	107.5
334.314	129.5
334.542	125.5
334.771	123.5
334.999	118.5
335.227	125.5
335.455	128.5
335.684	104.5
335.912	109.5
336.14	131.5
336.369	110.5
336.597	119.5
336.825	117.5
337.053	100.5
337.281	108.5
337.51	111.5
337.738	115.5
337.966	116.5
338.194	111.5
338.422	113.5
338.65	99.5
338.878	112.5
339.106	114.5
339.334	118.5
339.562	110.5
339.79	115.5
340.018	118.5
340.246	126.5
340.474	112.5
340.702	111.5
340.93	121.5
341.158	109.5
341.386	111.5
341.614	101.5
341.842	98.5
342.07	106.5
342.298	117.5
342.526	101.5
342.754	110.5
342.981	127.5
343.209	123.5
343.437	112.5
343.665	125.5
343.893	118.5
344.12	118.5
344.348	122.5
344.576	112.5
344.804	115.5
345.031	112.5
345.259	117.5
345.487	113.5
345.714	113.5
345.942	113.5
346.17	128.5
346.397	116.5
346.625	110.5
346.853	102.5
347.08	132.5
347.308	102.5
347.535	108.5
347.763	120.5
347.99	115.5
348.218	116.5
348.445	123.5
348.673	120.5
348.9	111.5
349.128	127.5
349.355	126.5
349.583	124.5
349.81	111.5
350.037	110.5
350.265	111.5
350.492	117.5
350.72	114.5
350.947	116.5
351.174	112.5
351.402	116.5
351.629	103.5
351.856	105.5
352.083	106.5
352.311	129.5
352.538	101.5
352.765	122.5
352.992	113.5
353.22	105.5
353.447	106.5
353.674	106.5
353.901	107.5
354.128	116.5
354.355	103.5
354.583	99.5
354.81	137.5
355.037	114.5
355.264	107.5
355.491	111.5
355.718	118.5
355.945	112.5
356.172	121.5
356.399	107.5
356.626	120.5
356.853	119.5
357.08	118.5
357.307	112.5
357.534	107.5
357.761	86.5
357.988	108.5
358.215	122.5
358.441	115.5
358.668	109.5
358.895	118.5
359.122	116.5
359.349	120.5
359.576	107.5
359.802	115.5
360.029	121.5
360.256	113.5
360.483	115.5
360.709	113.5
360.936	120.5
361.163	115.5
361.39	111.5
361.616	102.5
361.843	115.5
362.07	108.5
362.296	106.5
362.523	127.5
362.749	118.5
362.976	128.5
363.203	104.5
363.429	115.5
363.656	117.5
363.882	112.5
364.109	106.5
364.335	105.5
364.562	112.5
364.788	109.5
365.015	104.5
365.241	130.5
365.468	124.5
365.694	108.5
365.92	129.5
366.147	106.5
366.373	97.5
366.599	109.5
366.826	105.5
367.052	102.5
367.278	106.5
367.505	117.5
367.731	111.5
367.957	110.5
368.184	123.5
368.41	105.5
368.636	108.5
368.862	109.5
369.089	112.5
369.315	121.5
369.541	111.5
369.767	121.5
369.993	110.5
370.219	105.5
370.445	109.5
370.672	116.5
370.898	102.5
371.124	108.5
371.35	121.5
371.576	132.5
371.802	127.5
372.028	112.5
372.254	120.5
372.48	111.5
372.706	117.5
372.932	117.5
373.158	111.5
373.384	133.5
373.61	109.5
373.835	109.5
374.061	113.5
374.287	116.5
374.513	129.5
374.739	127.5
374.965	116.5
375.191	115.5
375.416	98.5
375.642	116.5
375.868	121.5
376.094	111.5
376.319	123.5
376.545	119.5
376.771	112.5
376.997	115.5
377.222	107.5
377.448	128.5
377.674	115.5
377.899	101.5
378.125	104.5
378.35	115.5
378.576	124.5
378.802	121.5
379.027	124.5
379.253	109.5
379.478	117.5
379.704	114.5
379.929	111.5
380.155	115.5
380.38	123.5
380.606	102.5
380.831	126.5
381.057	107.5
381.282	104.5
381.507	105.5
381.733	103.5
381.958	121.5
382.184	127.5
382.409	102.5
382.634	116.5
382.86	117.5
383.085	112.5
383.31	119.5
383.535	123.5
383.761	117.5
383.986	126.5
384.211	115.5
384.436	116.5
384.662	109.5
384.887	135.5
385.112	139.5
385.337	121.5
385.562	126.5
385.787	119.5
386.013	124.5
386.238	125.5
386.463	120.5
386.688	118.5
386.913	115.5
387.138	121.5
387.363	122.5
387.588	131.5
387.813	123.5
388.038	121.5
388.263	110.5
388.488	118.5
388.713	112.5
388.938	136.5
389.163	134.5
389.387	117.5
389.612	123.5
389.837	119.5
390.062	127.5
390.287	122.5
390.512	130.5
390.736	122.5
390.961	124.5
391.186	128.5
391.411	119.5
391.636	122.5
391.86	126.5
392.085	121.5
392.31	129.5
392.534	139.5
392.759	124.5
392.984	131.5
393.208	123.5
393.433	120.5
393.658	131.5
393.882	132.5
394.107	127.5
394.331	112.5
394.556	131.5
394.78	119.5
395.005	132.5
395.229	116.5
395.454	135.5
395.678	123.5
395.903	129.5
396.127	123.5
396.352	125.5
396.576	123.5
396.801	120.5
397.025	119.5
397.249	120.5
397.474	120.5
397.698	116.5
397.922	129.5
398.147	128.5
398.371	125.5
398.595	138.5
398.82	132.5
399.044	124.5
399.268	123.5
399.492	153.5
399.717	151.5
399.941	141.5
400.165	157.5
400.389	129.5
400.613	134.5
400.837	129.5
401.062	127.5
401.286	144.5
401.51	134.5
401.734	132.5
401.958	131.5
402.182	126.5
402.406	137.5
402.63	135.5
402.854	129.5
403.078	127.5
403.302	122.5
403.526	133.5
403.75	134.5
403.974	132.5
404.198	121.5
404.422	136.5
404.645	143.5
404.869	144.5
405.093	129.5
405.317	150.5
405.541	143.5
405.765	145.5
405.988	125.5
406.212	137.5
406.436	147.5
406.66	146.5
406.883	127.5
407.107	133.5
407.331	152.5
407.555	153.5
407.778	129.5
408.002	144.5
408.226	153.5
408.449	139.5
408.673	138.5
408.896	145.5
409.12	139.5
409.344	143.5
409.567	132.5
409.791	138.5
410.014	133.5
410.238	139.5
410.461	143.5
410.685	123.5
410.908	131.5
411.132	137.5
411.355	144.5
411.578	135.5
411.802	149.5
412.025	125.5
412.249	141.5
412.472	121.5
412.695	144.5
412.919	123.5
413.142	145.5
413.365	139.5
413.589	133.5
413.812	135.5
414.035	128.5
414.258	130.5
414.482	118.5
414.705	128.5
414.928	138.5
415.151	127.5
415.374	120.5
415.597	124.5
415.821	128.5
416.044	137.5
416.267	133.5
416.49	133.5
416.713	120.5
416.936	137.5
417.159	120.5
417.382	124.5
417.605	141.5
417.828	128.5
418.051	125.5
418.274	138.5
418.497	123.5
418.72	126.5
418.943	149.5
419.166	129.5
419.389	131.5
419.611	145.5
419.834	127.5
420.057	133.5
420.28	149.5
420.503	130.5
420.726	139.5
420.948	133.5
421.171	129.5
421.394	137.5
421.617	119.5
421.839	142.5
422.062	133.5
422.285	135.5
422.507	128.5
422.73	145.5
422.953	127.5
423.175	129.5
423.398	126.5
423.621	141.5
423.843	140.5
424.066	135.5
424.288	142.5
424.511	141.5
424.733	127.5
424.956	151.5
425.178	140.5
425.401	141.5
425.623	143.5
425.846	123.5
426.068	122.5
426.291	130.5
426.513	134.5
426.735	132.5
426.958	139.5
427.18	137.5
427.402	148.5
427.625	145.5
427.847	141.5
428.069	125.5
428.292	114.5
428.514	129.5
428.736	127.5
428.958	136.5
429.181	122.5
429.403	132.5
429.625	126.5
429.847	146.5
430.069	133.5
430.292	134.5
430.514	121.5
430.736	129.5
430.958	120.5
431.18	137.5
431.402	121.5
431.624	129.5
431.846	121.5
432.068	129.5
432.29	127.5
432.512	118.5
432.734	121.5
432.956	136.5
433.178	128.5
433.4	128.5
433.622	136.5
433.844	133.5
434.066	144.5
434.287	112.5
434.509	120.5
434.731	122.5
434.953	128.5
435.175	126.5
435.397	134.5
435.618	131.5
435.84	140.5
436.062	143.5
436.284	138.5
436.505	133.5
436.727	119.5
436.949	142.5
437.17	128.5
437.392	130.5
437.614	129.5
437.835	127.5
438.057	128.5
438.278	117.5
438.5	135.5
438.721	143.5
438.943	135.5
439.165	126.5
439.386	141.5
439.608	121.5
439.829	159.5
440.05	141.5
440.272	137.5
440.493	140.5
440.715	133.5
440.936	123.5
441.158	125.5
441.379	125.5
441.6	132.5
441.822	127.5
442.043	121.5
442.264	147.5
442.486	142.5
442.707	143.5
442.928	140.5
443.149	137.5
443.371	142.5
443.592	136.5
443.813	139.5
444.034	136.5
444.255	143.5
444.476	149.5
444.698	153.5
444.919	138.5
445.14	275.5
445.361	193.5
445.582	142.5
445.803	147.5
446.024	141.5
446.245	159.5
446.466	137.5
446.687	135.5
446.908	119.5
447.129	141.5
447.35	131.5
447.571	139.5
447.792	119.5
448.013	123.5
448.234	109.5
448.455	112.5
448.675	131.5
448.896	147.5
449.117	133.5
449.338	137.5
449.559	151.5
449.779	144.5
450	135.5
450.221	133.5
450.442	132.5
450.662	125.5
450.883	130.5
451.104	127.5
451.324	115.5
451.545	108.5
451.766	116.5
451.986	131.5
452.207	123.5
452.428	130.5
452.648	131.5
452.869	123.5
453.089	125.5
453.31	133.5
453.53	121.5
453.751	131.5
453.971	114.5
454.192	113.5
454.412	127.5
454.633	107.5
454.853	131.5
455.073	122.5
455.294	128.5
455.514	124.5
455.734	122.5
455.955	134.5
456.175	116.5
456.395	117.5
456.616	105.5
456.836	105.5
457.056	105.5
457.276	129.5
457.497	119.5
457.717	109.5
457.937	131.5
458.157	126.5
458.377	119.5
458.598	124.5
458.818	131.5
459.038	136.5
459.258	127.5
459.478	125.5
459.698	127.5
459.918	129.5
460.138	127.5
460.358	138.5
460.578	112.5
460.798	112.5
461.018	125.5
461.238	123.5
461.458	133.5
461.678	133.5
461.898	152.5
462.118	139.5
462.338	130.5
462.558	129.5
462.777	128.5
462.997	139.5
463.217	143.5
463.437	130.5
463.657	151.5
463.876	141.5
464.096	125.5
464.316	142.5
464.536	134.5
464.755	140.5
464.975	138.5
465.195	127.5
465.414	145.5
465.634	112.5
465.854	125.5
466.073	123.5
466.293	116.5
466.512	128.5
466.732	128.5
466.951	127.5
467.171	122.5
467.391	138.5
467.61	130.5
467.829	128.5
468.049	125.5
468.268	123.5
468.488	126.5
468.707	118.5
468.927	125.5
469.146	131.5
469.365	110.5
469.585	121.5
469.804	120.5
470.023	124.5
470.243	123.5
470.462	121.5
470.681	124.5
470.901	119.5
471.12	141.5
471.339	127.5
471.558	134.5
471.777	134.5
471.997	121.5
472.216	127.5
472.435	137.5
472.654	114.5
472.873	132.5
473.092	106.5
473.311	119.5
473.53	119.5
473.749	129.5
473.968	121.5
474.187	128.5
474.406	135.5
474.625	129.5
474.844	114.5
475.063	123.5
475.282	127.5
475.501	127.5
475.72	128.5
475.939	106.5
476.158	135.5
476.377	125.5
476.596	140.5
476.814	139.5
477.033	126.5
477.252	143.5
477.471	135.5
477.69	119.5
477.908	139.5
478.127	117.5
478.346	138.5
478.564	138.5
478.783	128.5
479.002	132.5
479.22	135.5
479.439	138.5
479.658	130.5
479.876	125.5
480.095	143.5
480.313	140.5
480.532	129.5
480.751	140.5
480.969	133.5
481.188	154.5
481.406	151.5
481.624	142.5
481.843	130.5
482.061	142.5
482.28	141.5
482.498	149.5
482.717	135.5
482.935	133.5
483.153	126.5
483.372	123.5
483.59	124.5
483.808	149.5
484.027	139.5
484.245	128.5
484.463	131.5
484.681	145.5
484.9	129.5
485.118	129.5
485.336	144.5
485.554	141.5
485.772	133.5
485.99	144.5
486.209	125.5
486.427	143.5
486.645	135.5
486.863	140.5
487.081	143.5
487.299	133.5
487.517	153.5
487.735	145.5
487.953	132.5
488.171	145.5
488.389	145.5
488.607	139.5
488.825	135.5
489.043	131.5
489.261	135.5
489.479	138.5
489.696	136.5
489.914	140.5
490.132	144.5
490.35	158.5
490.568	144.5
490.786	145.5
491.003	141.5
491.221	143.5
491.439	156.5
491.657	147.5
491.874	137.5
492.092	144.5
492.31	160.5
492.527	146.5
492.745	155.5
492.963	144.5
493.18	138.5
493.398	142.5
493.615	146.5
493.833	133.5
494.05	149.5
494.268	145.5
494.485	145.5
494.703	148.5
494.92	146.5
495.138	153.5
495.355	144.5
495.573	142.5
495.79	152.5
496.008	145.5
496.225	144.5
496.442	146.5
496.66	144.5
496.877	139.5
497.094	154.5
497.312	149.5
497.529	144.5
497.746	162.5
497.963	141.5
498.181	165.5
498.398	155.5
498.615	153.5
498.832	165.5
499.049	161.5
499.267	178.5
499.484	179.5
499.701	188.5
499.918	194.5
500.135	206.5
500.352	200.5
500.569	220.5
500.786	240.5
501.003	211.5
501.22	192.5
501.437	192.5
501.654	190.5
501.871	183.5
502.088	169.5
502.305	173.5
502.522	149.5
502.739	173.5
502.956	164.5
503.172	148.5
503.389	145.5
503.606	159.5
503.823	149.5
504.04	146.5
504.256	128.5
504.473	142.5
504.69	150.5
504.907	157.5
505.123	153.5
505.34	149.5
505.557	148.5
505.773	153.5
505.99	137.5
506.207	120.5
506.423	136.5
506.64	148.5
506.856	149.5
507.073	143.5
507.289	135.5
507.506	134.5
507.722	142.5
507.939	128.5
508.155	148.5
508.372	119.5
508.588	144.5
508.805	140.5
509.021	147.5
509.238	143.5
509.454	151.5
509.67	127.5
509.887	126.5
510.103	127.5
510.319	136.5
510.536	147.5
510.752	176.5
510.968	145.5
511.184	142.5
511.401	126.5
511.617	135.5
511.833	126.5
512.049	134.5
512.265	142.5
512.481	124.5
512.698	127.5
512.914	123.5
513.13	131.5
513.346	123.5
513.562	128.5
513.778	125.5
513.994	136.5
514.21	129.5
514.426	134.5
514.642	153.5
514.858	135.5
515.074	135.5
515.29	142.5
515.506	176.5
515.721	158.5
515.937	143.5
516.153	124.5
516.369	138.5
516.585	137.5
516.801	135.5
517.016	134.5
517.232	128.5
517.448	145.5
517.664	131.5
517.879	162.5
518.095	143.5
518.311	153.5
518.527	138.5
518.742	138.5
518.958	127.5
519.173	139.5
519.389	118.5
519.605	134.5
519.82	138.5
520.036	150.5
520.251	137.5
520.467	127.5
520.682	130.5
520.898	127.5
521.113	125.5
521.329	149.5
521.544	158.5
521.76	147.5
521.975	196.5
522.19	192.5
522.406	146.5
522.621	123.5
522.836	141.5
523.052	134.5
