Data from 1968.PennyLincolnUp.Lamp.En5.5.200Scan.071719.P1._HRD10591_14-50-22-969.txt Node
Date: Thu Jul 18 14:50:22 EDT 2019
User: cochatt
Spectrometer: HR+D1059
Trigger mode: 1
Integration Time (sec): 1.000000E-1
Scans to average: 1
Electric dark correction enabled: true
Nonlinearity correction enabled: false
Boxcar width: 0
XAxis mode: Wavelengths
Number of Pixels in Spectrum: 2048
>>>>>Begin Spectral Data<<<<<
223.165	-27.12
223.4	-27.12
223.635	-27.12
223.869	-25.12
224.104	-28.12
224.338	-21.12
224.573	-16.12
224.808	-15.12
225.042	6.88
225.277	-11.12
225.511	-1.12
225.746	21.88
225.98	7.88
226.215	16.88
226.449	7.88
226.683	28.88
226.918	31.88
227.152	22.88
227.387	40.88
227.621	29.88
227.856	36.88
228.09	30.88
228.324	54.88
228.559	55.88
228.793	59.88
229.027	57.88
229.262	80.88
229.496	79.88
229.73	77.88
229.964	74.88
230.199	87.88
230.433	71.88
230.667	77.88
230.901	77.88
231.136	76.88
231.37	79.88
231.604	70.88
231.838	71.88
232.072	85.88
232.306	76.88
232.541	78.88
232.775	77.88
233.009	79.88
233.243	74.88
233.477	75.88
233.711	83.88
233.945	78.88
234.179	96.88
234.413	89.88
234.647	71.88
234.881	86.88
235.115	81.88
235.349	79.88
235.583	79.88
235.817	76.88
236.051	84.88
236.285	92.88
236.519	79.88
236.753	91.88
236.987	88.88
237.221	73.88
237.455	85.88
237.689	71.88
237.922	79.88
238.156	89.88
238.39	93.88
238.624	83.88
238.858	80.88
239.091	88.88
239.325	77.88
239.559	73.88
239.793	65.88
240.027	75.88
240.26	74.88
240.494	79.88
240.728	78.88
240.961	80.88
241.195	67.88
241.429	74.88
241.662	87.88
241.896	86.88
242.13	92.88
242.363	82.88
242.597	71.88
242.83	80.88
243.064	74.88
243.298	70.88
243.531	87.88
243.765	76.88
243.998	84.88
244.232	78.88
244.465	84.88
244.699	86.88
244.932	80.88
245.166	77.88
245.399	81.88
245.633	82.88
245.866	74.88
246.099	79.88
246.333	84.88
246.566	81.88
246.8	66.88
247.033	86.88
247.266	71.88
247.5	86.88
247.733	77.88
247.966	97.88
248.2	92.88
248.433	101.88
248.666	83.88
248.899	76.88
249.133	82.88
249.366	80.88
249.599	84.88
249.832	91.88
250.066	88.88
250.299	104.88
250.532	101.88
250.765	80.88
250.998	83.88
251.231	83.88
251.465	70.88
251.698	96.88
251.931	76.88
252.164	83.88
252.397	84.88
252.63	97.88
252.863	109.88
253.096	88.88
253.329	82.88
253.562	102.88
253.795	102.88
254.028	94.88
254.261	81.88
254.494	76.88
254.727	76.88
254.96	94.88
255.193	99.88
255.426	82.88
255.659	94.88
255.892	96.88
256.124	91.88
256.357	87.88
256.59	98.88
256.823	92.88
257.056	102.88
257.289	81.88
257.521	80.88
257.754	75.88
257.987	92.88
258.22	89.88
258.452	98.88
258.685	75.88
258.918	82.88
259.151	78.88
259.383	88.88
259.616	86.88
259.849	90.88
260.081	91.88
260.314	90.88
260.547	71.88
260.779	98.88
261.012	100.88
261.244	91.88
261.477	94.88
261.71	82.88
261.942	91.88
262.175	73.88
262.407	92.88
262.64	86.88
262.872	85.88
263.105	83.88
263.337	106.88
263.57	76.88
263.802	98.88
264.035	86.88
264.267	101.88
264.499	108.88
264.732	100.88
264.964	82.88
265.197	93.88
265.429	83.88
265.661	81.88
265.894	95.88
266.126	92.88
266.358	96.88
266.591	103.88
266.823	85.88
267.055	77.88
267.287	76.88
267.52	78.88
267.752	80.88
267.984	68.88
268.216	95.88
268.448	96.88
268.681	101.88
268.913	99.88
269.145	101.88
269.377	97.88
269.609	97.88
269.841	114.88
270.073	90.88
270.306	99.88
270.538	82.88
270.77	90.88
271.002	80.88
271.234	109.88
271.466	92.88
271.698	82.88
271.93	84.88
272.162	85.88
272.394	91.88
272.626	111.88
272.858	98.88
273.09	104.88
273.322	78.88
273.553	99.88
273.785	102.88
274.017	81.88
274.249	86.88
274.481	97.88
274.713	103.88
274.945	104.88
275.176	96.88
275.408	100.88
275.64	106.88
275.872	96.88
276.104	91.88
276.335	105.88
276.567	83.88
276.799	83.88
277.031	101.88
277.262	94.88
277.494	93.88
277.726	100.88
277.957	93.88
278.189	92.88
278.421	100.88
278.652	97.88
278.884	101.88
279.115	90.88
279.347	86.88
279.579	90.88
279.81	87.88
280.042	87.88
280.273	104.88
280.505	107.88
280.736	98.88
280.968	112.88
281.199	91.88
281.431	92.88
281.662	87.88
281.894	100.88
282.125	105.88
282.356	84.88
282.588	92.88
282.819	112.88
283.051	98.88
283.282	99.88
283.513	118.88
283.745	90.88
283.976	93.88
284.207	92.88
284.439	90.88
284.67	113.88
284.901	115.88
285.132	102.88
285.364	100.88
285.595	96.88
285.826	100.88
286.057	106.88
286.288	119.88
286.52	90.88
286.751	106.88
286.982	104.88
287.213	92.88
287.444	104.88
287.675	92.88
287.906	104.88
288.138	100.88
288.369	114.88
288.6	99.88
288.831	103.88
289.062	98.88
289.293	105.88
289.524	124.88
289.755	106.88
289.986	99.88
290.217	96.88
290.448	106.88
290.679	101.88
290.91	96.88
291.141	93.88
291.371	98.88
291.602	105.88
291.833	100.88
292.064	90.88
292.295	91.88
292.526	98.88
292.757	98.88
292.987	94.88
293.218	94.88
293.449	91.88
293.68	106.88
293.91	101.88
294.141	105.88
294.372	101.88
294.603	103.88
294.833	114.88
295.064	93.88
295.295	120.88
295.525	118.88
295.756	116.88
295.987	95.88
296.217	99.88
296.448	97.88
296.679	114.88
296.909	96.88
297.14	87.88
297.37	118.88
297.601	95.88
297.831	96.88
298.062	102.88
298.292	94.88
298.523	103.88
298.753	106.88
298.984	100.88
299.214	83.88
299.445	97.88
299.675	107.88
299.905	90.88
300.136	93.88
300.366	102.88
300.597	94.88
300.827	107.88
301.057	104.88
301.288	107.88
301.518	94.88
301.748	98.88
301.979	97.88
302.209	108.88
302.439	102.88
302.669	114.88
302.9	112.88
303.13	102.88
303.36	95.88
303.59	92.88
303.82	87.88
304.051	114.88
304.281	102.88
304.511	107.88
304.741	99.88
304.971	95.88
305.201	121.88
305.431	96.88
305.661	107.88
305.891	109.88
306.121	108.88
306.352	97.88
306.582	100.88
306.812	102.88
307.042	102.88
307.272	109.88
307.502	113.88
307.731	105.88
307.961	118.88
308.191	96.88
308.421	93.88
308.651	108.88
308.881	100.88
309.111	102.88
309.341	100.88
309.571	100.88
309.8	107.88
310.03	114.88
310.26	96.88
310.49	98.88
310.72	92.88
310.949	97.88
311.179	118.88
311.409	107.88
311.639	112.88
311.868	109.88
312.098	114.88
312.328	116.88
312.557	98.88
312.787	118.88
313.017	109.88
313.246	96.88
313.476	99.88
313.706	101.88
313.935	108.88
314.165	105.88
314.394	103.88
314.624	109.88
314.853	101.88
315.083	113.88
315.312	112.88
315.542	106.88
315.771	96.88
316.001	99.88
316.23	97.88
316.46	108.88
316.689	108.88
316.919	97.88
317.148	123.88
317.377	107.88
317.607	91.88
317.836	108.88
318.065	115.88
318.295	95.88
318.524	102.88
318.753	106.88
318.983	105.88
319.212	108.88
319.441	118.88
319.67	102.88
319.9	114.88
320.129	101.88
320.358	109.88
320.587	108.88
320.816	97.88
321.046	120.88
321.275	119.88
321.504	100.88
321.733	114.88
321.962	108.88
322.191	124.88
322.42	108.88
322.649	112.88
322.878	101.88
323.108	116.88
323.337	99.88
323.566	123.88
323.795	99.88
324.024	114.88
324.253	121.88
324.482	133.88
324.71	141.88
324.939	155.88
325.168	155.88
325.397	121.88
325.626	124.88
325.855	116.88
326.084	105.88
326.313	107.88
326.542	99.88
326.77	113.88
326.999	124.88
327.228	129.88
327.457	125.88
327.686	151.88
327.914	133.88
328.143	117.88
328.372	119.88
328.6	113.88
328.829	124.88
329.058	112.88
329.287	111.88
329.515	109.88
329.744	114.88
329.972	116.88
330.201	98.88
330.43	114.88
330.658	123.88
330.887	104.88
331.115	109.88
331.344	105.88
331.572	101.88
331.801	95.88
332.03	99.88
332.258	114.88
332.486	100.88
332.715	120.88
332.943	117.88
333.172	110.88
333.4	114.88
333.629	118.88
333.857	121.88
334.085	98.88
334.314	125.88
334.542	103.88
334.771	114.88
334.999	118.88
335.227	121.88
335.455	103.88
335.684	121.88
335.912	124.88
336.14	121.88
336.369	92.88
336.597	105.88
336.825	106.88
337.053	108.88
337.281	116.88
337.51	103.88
337.738	126.88
337.966	109.88
338.194	123.88
338.422	102.88
338.65	125.88
338.878	103.88
339.106	102.88
339.334	114.88
339.562	119.88
339.79	101.88
340.018	125.88
340.246	108.88
340.474	114.88
340.702	102.88
340.93	107.88
341.158	105.88
341.386	120.88
341.614	98.88
341.842	117.88
342.07	106.88
342.298	109.88
342.526	108.88
342.754	102.88
342.981	104.88
343.209	103.88
343.437	102.88
343.665	115.88
343.893	127.88
344.12	106.88
344.348	108.88
344.576	121.88
344.804	116.88
345.031	110.88
345.259	107.88
345.487	104.88
345.714	104.88
345.942	117.88
346.17	107.88
346.397	116.88
346.625	118.88
346.853	112.88
347.08	106.88
347.308	108.88
347.535	99.88
347.763	112.88
347.99	102.88
348.218	110.88
348.445	103.88
348.673	100.88
348.9	108.88
349.128	117.88
349.355	107.88
349.583	102.88
349.81	109.88
350.037	113.88
350.265	111.88
350.492	105.88
350.72	106.88
350.947	93.88
351.174	116.88
351.402	96.88
351.629	114.88
351.856	107.88
352.083	110.88
352.311	105.88
352.538	115.88
352.765	100.88
352.992	100.88
353.22	123.88
353.447	105.88
353.674	102.88
353.901	116.88
354.128	106.88
354.355	115.88
354.583	109.88
354.81	99.88
355.037	118.88
355.264	110.88
355.491	120.88
355.718	96.88
355.945	122.88
356.172	99.88
356.399	96.88
356.626	105.88
356.853	111.88
357.08	105.88
357.307	119.88
357.534	112.88
357.761	107.88
357.988	114.88
358.215	120.88
358.441	104.88
358.668	111.88
358.895	91.88
359.122	109.88
359.349	106.88
359.576	109.88
359.802	102.88
360.029	123.88
360.256	107.88
360.483	112.88
360.709	112.88
360.936	123.88
361.163	120.88
361.39	109.88
361.616	96.88
361.843	107.88
362.07	114.88
362.296	104.88
362.523	114.88
362.749	112.88
362.976	119.88
363.203	105.88
363.429	101.88
363.656	123.88
363.882	124.88
364.109	97.88
364.335	104.88
364.562	107.88
364.788	106.88
365.015	115.88
365.241	100.88
365.468	106.88
365.694	109.88
365.92	109.88
366.147	114.88
366.373	114.88
366.599	114.88
366.826	120.88
367.052	107.88
367.278	116.88
367.505	88.88
367.731	101.88
367.957	97.88
368.184	104.88
368.41	89.88
368.636	97.88
368.862	118.88
369.089	108.88
369.315	112.88
369.541	112.88
369.767	110.88
369.993	101.88
370.219	108.88
370.445	108.88
370.672	98.88
370.898	105.88
371.124	102.88
371.35	114.88
371.576	118.88
371.802	104.88
372.028	104.88
372.254	109.88
372.48	108.88
372.706	105.88
372.932	118.88
373.158	118.88
373.384	103.88
373.61	116.88
373.835	104.88
374.061	109.88
374.287	110.88
374.513	104.88
374.739	105.88
374.965	100.88
375.191	107.88
375.416	108.88
375.642	111.88
375.868	112.88
376.094	94.88
376.319	99.88
376.545	124.88
376.771	117.88
376.997	116.88
377.222	102.88
377.448	100.88
377.674	122.88
377.899	105.88
378.125	96.88
378.35	123.88
378.576	116.88
378.802	101.88
379.027	112.88
379.253	114.88
379.478	105.88
379.704	108.88
379.929	107.88
380.155	118.88
380.38	114.88
380.606	127.88
380.831	120.88
381.057	125.88
381.282	114.88
381.507	108.88
381.733	106.88
381.958	114.88
382.184	109.88
382.409	125.88
382.634	120.88
382.86	119.88
383.085	119.88
383.31	107.88
383.535	113.88
383.761	117.88
383.986	122.88
384.211	125.88
384.436	113.88
384.662	126.88
384.887	115.88
385.112	102.88
385.337	128.88
385.562	107.88
385.787	128.88
386.013	113.88
386.238	123.88
386.463	106.88
386.688	134.88
386.913	112.88
387.138	115.88
387.363	103.88
387.588	109.88
387.813	120.88
388.038	110.88
388.263	120.88
388.488	117.88
388.713	126.88
388.938	127.88
389.163	121.88
389.387	110.88
389.612	116.88
389.837	108.88
390.062	118.88
390.287	108.88
390.512	125.88
390.736	128.88
390.961	122.88
391.186	116.88
391.411	120.88
391.636	123.88
391.86	135.88
392.085	107.88
392.31	136.88
392.534	102.88
392.759	103.88
392.984	121.88
393.208	124.88
393.433	116.88
393.658	124.88
393.882	124.88
394.107	113.88
394.331	130.88
394.556	126.88
394.78	126.88
395.005	115.88
395.229	113.88
395.454	118.88
395.678	118.88
395.903	118.88
396.127	132.88
396.352	130.88
396.576	116.88
396.801	104.88
397.025	121.88
397.249	109.88
397.474	132.88
397.698	118.88
397.922	120.88
398.147	149.88
398.371	124.88
398.595	124.88
398.82	133.88
399.044	126.88
399.268	140.88
399.492	139.88
399.717	160.88
399.941	137.88
400.165	128.88
400.389	132.88
400.613	134.88
400.837	123.88
401.062	128.88
401.286	125.88
401.51	114.88
401.734	122.88
401.958	120.88
402.182	120.88
402.406	134.88
402.63	116.88
402.854	130.88
403.078	124.88
403.302	133.88
403.526	126.88
403.75	123.88
403.974	125.88
404.198	133.88
404.422	133.88
404.645	125.88
404.869	142.88
405.093	150.88
405.317	132.88
405.541	124.88
405.765	122.88
405.988	122.88
406.212	142.88
406.436	129.88
406.66	152.88
406.883	134.88
407.107	136.88
407.331	152.88
407.555	135.88
407.778	131.88
408.002	120.88
408.226	124.88
408.449	130.88
408.673	135.88
408.896	130.88
409.12	131.88
409.344	115.88
409.567	133.88
409.791	133.88
410.014	123.88
410.238	136.88
410.461	129.88
410.685	141.88
410.908	132.88
411.132	136.88
411.355	126.88
411.578	128.88
411.802	133.88
412.025	145.88
412.249	148.88
412.472	132.88
412.695	123.88
412.919	126.88
413.142	118.88
413.365	124.88
413.589	119.88
413.812	130.88
414.035	136.88
414.258	125.88
414.482	112.88
414.705	139.88
414.928	136.88
415.151	132.88
415.374	132.88
415.597	127.88
415.821	108.88
416.044	121.88
416.267	122.88
416.49	125.88
416.713	117.88
416.936	108.88
417.159	106.88
417.382	114.88
417.605	128.88
417.828	127.88
418.051	127.88
418.274	116.88
418.497	121.88
418.72	130.88
418.943	128.88
419.166	128.88
419.389	125.88
419.611	124.88
419.834	133.88
420.057	136.88
420.28	132.88
420.503	126.88
420.726	122.88
420.948	128.88
421.171	128.88
421.394	141.88
421.617	128.88
421.839	119.88
422.062	148.88
422.285	128.88
422.507	126.88
422.73	146.88
422.953	145.88
423.175	124.88
423.398	116.88
423.621	118.88
423.843	121.88
424.066	124.88
424.288	142.88
424.511	137.88
424.733	131.88
424.956	128.88
425.178	137.88
425.401	130.88
425.623	137.88
425.846	110.88
426.068	110.88
426.291	120.88
426.513	124.88
426.735	127.88
426.958	118.88
427.18	136.88
427.402	132.88
427.625	130.88
427.847	113.88
428.069	123.88
428.292	128.88
428.514	118.88
428.736	129.88
428.958	125.88
429.181	124.88
429.403	136.88
429.625	124.88
429.847	128.88
430.069	120.88
430.292	131.88
430.514	116.88
430.736	132.88
430.958	128.88
431.18	111.88
431.402	145.88
431.624	115.88
431.846	99.88
432.068	128.88
432.29	117.88
432.512	130.88
432.734	108.88
432.956	109.88
433.178	117.88
433.4	125.88
433.622	118.88
433.844	130.88
434.066	128.88
434.287	125.88
434.509	132.88
434.731	132.88
434.953	117.88
435.175	128.88
435.397	120.88
435.618	128.88
435.84	137.88
436.062	135.88
436.284	149.88
436.505	125.88
436.727	125.88
436.949	121.88
437.17	141.88
437.392	137.88
437.614	127.88
437.835	142.88
438.057	130.88
438.278	133.88
438.5	120.88
438.721	132.88
438.943	130.88
439.165	142.88
439.386	136.88
439.608	129.88
439.829	140.88
440.05	128.88
440.272	126.88
440.493	134.88
440.715	127.88
440.936	142.88
441.158	139.88
441.379	128.88
441.6	129.88
441.822	128.88
442.043	123.88
442.264	141.88
442.486	145.88
442.707	124.88
442.928	127.88
443.149	130.88
443.371	139.88
443.592	146.88
443.813	152.88
444.034	140.88
444.255	141.88
444.476	130.88
444.698	129.88
444.919	124.88
445.14	270.88
445.361	212.88
445.582	132.88
445.803	134.88
446.024	140.88
446.245	134.88
446.466	146.88
446.687	128.88
446.908	118.88
447.129	122.88
447.35	124.88
447.571	115.88
447.792	122.88
448.013	122.88
448.234	129.88
448.455	132.88
448.675	137.88
448.896	136.88
449.117	127.88
449.338	143.88
449.559	131.88
449.779	135.88
450	140.88
450.221	128.88
450.442	122.88
450.662	122.88
450.883	122.88
451.104	131.88
451.324	126.88
451.545	126.88
451.766	110.88
451.986	123.88
452.207	118.88
452.428	122.88
452.648	120.88
452.869	122.88
453.089	128.88
453.31	120.88
453.53	122.88
453.751	119.88
453.971	114.88
454.192	113.88
454.412	116.88
454.633	110.88
454.853	106.88
455.073	118.88
455.294	126.88
455.514	123.88
455.734	115.88
455.955	113.88
456.175	112.88
456.395	118.88
456.616	123.88
456.836	119.88
457.056	112.88
457.276	109.88
457.497	116.88
457.717	118.88
457.937	121.88
458.157	126.88
458.377	124.88
458.598	113.88
458.818	121.88
459.038	125.88
459.258	123.88
459.478	120.88
459.698	119.88
459.918	130.88
460.138	123.88
460.358	130.88
460.578	107.88
460.798	128.88
461.018	112.88
461.238	125.88
461.458	115.88
461.678	122.88
461.898	136.88
462.118	123.88
462.338	148.88
462.558	132.88
462.777	138.88
462.997	149.88
463.217	124.88
463.437	140.88
463.657	136.88
463.876	129.88
464.096	127.88
464.316	138.88
464.536	138.88
464.755	126.88
464.975	115.88
465.195	138.88
465.414	136.88
465.634	130.88
465.854	124.88
466.073	126.88
466.293	121.88
466.512	120.88
466.732	112.88
466.951	125.88
467.171	121.88
467.391	129.88
467.61	132.88
467.829	110.88
468.049	116.88
468.268	125.88
468.488	114.88
468.707	120.88
468.927	109.88
469.146	115.88
469.365	106.88
469.585	126.88
469.804	108.88
470.023	115.88
470.243	118.88
470.462	121.88
470.681	122.88
470.901	131.88
471.12	144.88
471.339	121.88
471.558	109.88
471.777	101.88
471.997	122.88
472.216	126.88
472.435	116.88
472.654	118.88
472.873	117.88
473.092	121.88
473.311	122.88
473.53	115.88
473.749	115.88
473.968	125.88
474.187	136.88
474.406	134.88
474.625	132.88
474.844	134.88
475.063	121.88
475.282	136.88
475.501	128.88
475.72	133.88
475.939	126.88
476.158	125.88
476.377	121.88
476.596	123.88
476.814	124.88
477.033	120.88
477.252	121.88
477.471	115.88
477.69	128.88
477.908	120.88
478.127	119.88
478.346	113.88
478.564	140.88
478.783	131.88
479.002	134.88
479.22	126.88
479.439	132.88
479.658	142.88
479.876	130.88
480.095	137.88
480.313	125.88
480.532	138.88
480.751	142.88
480.969	134.88
481.188	119.88
481.406	134.88
481.624	132.88
481.843	125.88
482.061	116.88
482.28	128.88
482.498	120.88
482.717	134.88
482.935	131.88
483.153	136.88
483.372	129.88
483.59	132.88
483.808	116.88
484.027	123.88
484.245	125.88
484.463	115.88
484.681	133.88
484.9	134.88
485.118	116.88
485.336	125.88
485.554	116.88
485.772	121.88
485.99	131.88
486.209	141.88
486.427	130.88
486.645	131.88
486.863	136.88
487.081	127.88
487.299	136.88
487.517	127.88
487.735	136.88
487.953	125.88
488.171	134.88
488.389	132.88
488.607	138.88
488.825	131.88
489.043	128.88
489.261	144.88
489.479	131.88
489.696	132.88
489.914	130.88
490.132	134.88
490.35	130.88
490.568	126.88
490.786	139.88
491.003	141.88
491.221	133.88
491.439	132.88
491.657	140.88
491.874	136.88
492.092	143.88
492.31	149.88
492.527	138.88
492.745	132.88
492.963	142.88
493.18	135.88
493.398	134.88
493.615	138.88
493.833	152.88
494.05	150.88
494.268	153.88
494.485	162.88
494.703	143.88
494.92	125.88
495.138	141.88
495.355	114.88
495.573	126.88
495.79	145.88
496.008	147.88
496.225	149.88
496.442	143.88
496.66	154.88
496.877	144.88
497.094	158.88
497.312	152.88
497.529	147.88
497.746	140.88
497.963	150.88
498.181	141.88
498.398	141.88
498.615	160.88
498.832	153.88
499.049	155.88
499.267	166.88
499.484	182.88
499.701	164.88
499.918	180.88
500.135	188.88
500.352	210.88
500.569	214.88
500.786	192.88
501.003	197.88
501.22	204.88
501.437	184.88
501.654	163.88
501.871	164.88
502.088	160.88
502.305	158.88
502.522	170.88
502.739	154.88
502.956	145.88
503.172	143.88
503.389	135.88
503.606	154.88
503.823	144.88
504.04	148.88
504.256	125.88
504.473	138.88
504.69	144.88
504.907	147.88
505.123	143.88
505.34	129.88
505.557	140.88
505.773	128.88
505.99	143.88
