Data from 1968.PennyLincolnUp.Lamp.En5.5.200Scan.071719.P1._HRD10591_14-50-15-969.txt Node
Date: Thu Jul 18 14:50:15 EDT 2019
User: cochatt
Spectrometer: HR+D1059
Trigger mode: 1
Integration Time (sec): 1.000000E-1
Scans to average: 1
Electric dark correction enabled: true
Nonlinearity correction enabled: false
Boxcar width: 0
XAxis mode: Wavelengths
Number of Pixels in Spectrum: 2048
>>>>>Begin Spectral Data<<<<<
223.165	-2.88
223.4	-2.88
223.635	-2.88
223.869	-13.88
224.104	-24.88
224.338	-16.88
224.573	-25.88
224.808	4.12
225.042	-10.88
225.277	-3.88
225.511	0.12
225.746	4.12
225.98	12.12
226.215	15.12
226.449	22.12
226.683	11.12
226.918	16.12
227.152	14.12
227.387	37.12
227.621	41.12
227.856	47.12
228.09	46.12
228.324	48.12
228.559	62.12
228.793	53.12
229.027	62.12
229.262	64.12
229.496	77.12
229.73	72.12
229.964	84.12
230.199	78.12
230.433	67.12
230.667	84.12
230.901	90.12
231.136	85.12
231.37	77.12
231.604	77.12
231.838	79.12
232.072	95.12
232.306	75.12
232.541	104.12
232.775	81.12
233.009	86.12
233.243	86.12
233.477	81.12
233.711	85.12
233.945	104.12
234.179	80.12
234.413	99.12
234.647	89.12
234.881	84.12
235.115	100.12
235.349	95.12
235.583	81.12
235.817	73.12
236.051	87.12
236.285	76.12
236.519	87.12
236.753	93.12
236.987	82.12
237.221	89.12
237.455	82.12
237.689	86.12
237.922	67.12
238.156	81.12
238.39	93.12
238.624	79.12
238.858	79.12
239.091	87.12
239.325	82.12
239.559	80.12
239.793	98.12
240.027	82.12
240.26	81.12
240.494	79.12
240.728	81.12
240.961	95.12
241.195	89.12
241.429	73.12
241.662	90.12
241.896	98.12
242.13	86.12
242.363	79.12
242.597	86.12
242.83	89.12
243.064	78.12
243.298	83.12
243.531	87.12
243.765	76.12
243.998	89.12
244.232	96.12
244.465	85.12
244.699	81.12
244.932	90.12
245.166	86.12
245.399	80.12
245.633	96.12
245.866	85.12
246.099	85.12
246.333	87.12
246.566	94.12
246.8	89.12
247.033	81.12
247.266	77.12
247.5	67.12
247.733	83.12
247.966	89.12
248.2	73.12
248.433	75.12
248.666	88.12
248.899	92.12
249.133	92.12
249.366	91.12
249.599	82.12
249.832	95.12
250.066	99.12
250.299	94.12
250.532	105.12
250.765	76.12
250.998	78.12
251.231	97.12
251.465	93.12
251.698	94.12
251.931	94.12
252.164	86.12
252.397	89.12
252.63	90.12
252.863	91.12
253.096	82.12
253.329	100.12
253.562	89.12
253.795	85.12
254.028	87.12
254.261	83.12
254.494	88.12
254.727	93.12
254.96	99.12
255.193	93.12
255.426	89.12
255.659	96.12
255.892	97.12
256.124	88.12
256.357	84.12
256.59	85.12
256.823	101.12
257.056	95.12
257.289	93.12
257.521	95.12
257.754	87.12
257.987	95.12
258.22	92.12
258.452	84.12
258.685	80.12
258.918	94.12
259.151	102.12
259.383	104.12
259.616	93.12
259.849	87.12
260.081	80.12
260.314	91.12
260.547	94.12
260.779	85.12
261.012	96.12
261.244	81.12
261.477	88.12
261.71	96.12
261.942	95.12
262.175	99.12
262.407	89.12
262.64	100.12
262.872	92.12
263.105	98.12
263.337	106.12
263.57	96.12
263.802	93.12
264.035	100.12
264.267	89.12
264.499	89.12
264.732	103.12
264.964	91.12
265.197	91.12
265.429	92.12
265.661	85.12
265.894	96.12
266.126	96.12
266.358	96.12
266.591	100.12
266.823	94.12
267.055	94.12
267.287	98.12
267.52	85.12
267.752	89.12
267.984	90.12
268.216	97.12
268.448	92.12
268.681	90.12
268.913	88.12
269.145	107.12
269.377	95.12
269.609	95.12
269.841	95.12
270.073	88.12
270.306	81.12
270.538	99.12
270.77	89.12
271.002	98.12
271.234	101.12
271.466	98.12
271.698	101.12
271.93	88.12
272.162	109.12
272.394	111.12
272.626	101.12
272.858	108.12
273.09	114.12
273.322	103.12
273.553	95.12
273.785	94.12
274.017	97.12
274.249	83.12
274.481	104.12
274.713	104.12
274.945	101.12
275.176	96.12
275.408	102.12
275.64	99.12
275.872	104.12
276.104	102.12
276.335	111.12
276.567	117.12
276.799	101.12
277.031	91.12
277.262	108.12
277.494	95.12
277.726	107.12
277.957	101.12
278.189	101.12
278.421	98.12
278.652	105.12
278.884	108.12
279.115	84.12
279.347	84.12
279.579	94.12
279.81	107.12
280.042	102.12
280.273	85.12
280.505	99.12
280.736	112.12
280.968	101.12
281.199	104.12
281.431	95.12
281.662	107.12
281.894	100.12
282.125	101.12
282.356	111.12
282.588	102.12
282.819	110.12
283.051	102.12
283.282	108.12
283.513	110.12
283.745	92.12
283.976	96.12
284.207	110.12
284.439	90.12
284.67	110.12
284.901	93.12
285.132	90.12
285.364	96.12
285.595	100.12
285.826	89.12
286.057	100.12
286.288	101.12
286.52	98.12
286.751	94.12
286.982	104.12
287.213	97.12
287.444	116.12
287.675	112.12
287.906	104.12
288.138	103.12
288.369	100.12
288.6	100.12
288.831	100.12
289.062	100.12
289.293	115.12
289.524	96.12
289.755	111.12
289.986	109.12
290.217	95.12
290.448	95.12
290.679	100.12
290.91	104.12
291.141	115.12
291.371	83.12
291.602	104.12
291.833	95.12
292.064	100.12
292.295	95.12
292.526	108.12
292.757	98.12
292.987	103.12
293.218	115.12
293.449	105.12
293.68	112.12
293.91	105.12
294.141	99.12
294.372	109.12
294.603	112.12
294.833	106.12
295.064	98.12
295.295	106.12
295.525	124.12
295.756	123.12
295.987	108.12
296.217	100.12
296.448	120.12
296.679	102.12
296.909	100.12
297.14	105.12
297.37	94.12
297.601	94.12
297.831	102.12
298.062	102.12
298.292	104.12
298.523	107.12
298.753	106.12
298.984	110.12
299.214	111.12
299.445	103.12
299.675	112.12
299.905	110.12
300.136	98.12
300.366	112.12
300.597	110.12
300.827	103.12
301.057	101.12
301.288	105.12
301.518	113.12
301.748	115.12
301.979	103.12
302.209	119.12
302.439	107.12
302.669	104.12
302.9	106.12
303.13	101.12
303.36	92.12
303.59	95.12
303.82	111.12
304.051	98.12
304.281	104.12
304.511	111.12
304.741	103.12
304.971	101.12
305.201	120.12
305.431	101.12
305.661	104.12
305.891	101.12
306.121	106.12
306.352	114.12
306.582	106.12
306.812	89.12
307.042	100.12
307.272	104.12
307.502	109.12
307.731	104.12
307.961	99.12
308.191	104.12
308.421	101.12
308.651	108.12
308.881	117.12
309.111	123.12
309.341	103.12
309.571	98.12
309.8	121.12
310.03	120.12
310.26	111.12
310.49	112.12
310.72	106.12
310.949	110.12
311.179	109.12
311.409	106.12
311.639	98.12
311.868	105.12
312.098	123.12
312.328	125.12
312.557	97.12
312.787	88.12
313.017	118.12
313.246	124.12
313.476	108.12
313.706	94.12
313.935	97.12
314.165	117.12
314.394	129.12
314.624	102.12
314.853	119.12
315.083	115.12
315.312	122.12
315.542	123.12
315.771	115.12
316.001	116.12
316.23	108.12
316.46	102.12
316.689	126.12
316.919	105.12
317.148	122.12
317.377	104.12
317.607	112.12
317.836	117.12
318.065	119.12
318.295	118.12
318.524	111.12
318.753	117.12
318.983	109.12
319.212	118.12
319.441	120.12
319.67	110.12
319.9	107.12
320.129	99.12
320.358	105.12
320.587	115.12
320.816	111.12
321.046	107.12
321.275	115.12
321.504	118.12
321.733	112.12
321.962	105.12
322.191	113.12
322.42	108.12
322.649	120.12
322.878	123.12
323.108	102.12
323.337	112.12
323.566	116.12
323.795	121.12
324.024	118.12
324.253	123.12
324.482	142.12
324.71	163.12
324.939	168.12
325.168	149.12
325.397	133.12
325.626	128.12
325.855	127.12
326.084	121.12
326.313	119.12
326.542	119.12
326.77	121.12
326.999	116.12
327.228	122.12
327.457	158.12
327.686	141.12
327.914	142.12
328.143	130.12
328.372	110.12
328.6	116.12
328.829	116.12
329.058	107.12
329.287	96.12
329.515	120.12
329.744	134.12
329.972	109.12
330.201	111.12
330.43	119.12
330.658	124.12
330.887	121.12
331.115	116.12
331.344	120.12
331.572	120.12
331.801	127.12
332.03	120.12
332.258	104.12
332.486	112.12
332.715	103.12
332.943	113.12
333.172	127.12
333.4	123.12
333.629	120.12
333.857	118.12
334.085	122.12
334.314	129.12
334.542	114.12
334.771	118.12
334.999	125.12
335.227	118.12
335.455	123.12
335.684	114.12
335.912	121.12
336.14	124.12
336.369	106.12
336.597	116.12
336.825	121.12
337.053	118.12
337.281	126.12
337.51	123.12
337.738	112.12
337.966	103.12
338.194	125.12
338.422	112.12
338.65	122.12
338.878	117.12
339.106	115.12
339.334	123.12
339.562	117.12
339.79	121.12
340.018	127.12
340.246	126.12
340.474	106.12
340.702	119.12
340.93	116.12
341.158	124.12
341.386	100.12
341.614	137.12
341.842	111.12
342.07	115.12
342.298	105.12
342.526	118.12
342.754	106.12
342.981	119.12
343.209	112.12
343.437	120.12
343.665	112.12
343.893	115.12
344.12	123.12
344.348	120.12
344.576	103.12
344.804	121.12
345.031	117.12
345.259	119.12
345.487	119.12
345.714	97.12
345.942	117.12
346.17	113.12
346.397	123.12
346.625	119.12
346.853	101.12
347.08	125.12
347.308	116.12
347.535	117.12
347.763	107.12
347.99	94.12
348.218	122.12
348.445	108.12
348.673	110.12
348.9	107.12
349.128	106.12
349.355	112.12
349.583	116.12
349.81	102.12
350.037	115.12
350.265	105.12
350.492	106.12
350.72	105.12
350.947	110.12
351.174	124.12
351.402	97.12
351.629	116.12
351.856	115.12
352.083	126.12
352.311	108.12
352.538	108.12
352.765	119.12
352.992	127.12
353.22	118.12
353.447	118.12
353.674	104.12
353.901	111.12
354.128	123.12
354.355	116.12
354.583	113.12
354.81	105.12
355.037	112.12
355.264	120.12
355.491	119.12
355.718	112.12
355.945	84.12
356.172	103.12
356.399	106.12
356.626	116.12
356.853	109.12
357.08	119.12
357.307	123.12
357.534	109.12
357.761	109.12
357.988	98.12
358.215	125.12
358.441	110.12
358.668	117.12
358.895	108.12
359.122	128.12
359.349	116.12
359.576	118.12
359.802	113.12
360.029	121.12
360.256	117.12
360.483	112.12
360.709	111.12
360.936	110.12
361.163	111.12
361.39	106.12
361.616	106.12
361.843	108.12
362.07	120.12
362.296	109.12
362.523	111.12
362.749	120.12
362.976	111.12
363.203	115.12
363.429	124.12
363.656	118.12
363.882	118.12
364.109	117.12
364.335	117.12
364.562	122.12
364.788	115.12
365.015	118.12
365.241	121.12
365.468	121.12
365.694	113.12
365.92	125.12
366.147	111.12
366.373	102.12
366.599	105.12
366.826	109.12
367.052	117.12
367.278	109.12
367.505	96.12
367.731	112.12
367.957	108.12
368.184	118.12
368.41	119.12
368.636	121.12
368.862	107.12
369.089	115.12
369.315	109.12
369.541	117.12
369.767	104.12
369.993	111.12
370.219	106.12
370.445	96.12
370.672	106.12
370.898	103.12
371.124	117.12
371.35	104.12
371.576	109.12
371.802	97.12
372.028	107.12
372.254	117.12
372.48	119.12
372.706	97.12
372.932	106.12
373.158	120.12
373.384	109.12
373.61	105.12
373.835	116.12
374.061	117.12
374.287	108.12
374.513	105.12
374.739	113.12
374.965	102.12
375.191	122.12
375.416	116.12
375.642	110.12
375.868	122.12
376.094	116.12
376.319	115.12
376.545	104.12
376.771	115.12
376.997	99.12
377.222	117.12
377.448	125.12
377.674	125.12
377.899	93.12
378.125	110.12
378.35	97.12
378.576	109.12
378.802	107.12
379.027	97.12
379.253	118.12
379.478	125.12
379.704	114.12
379.929	109.12
380.155	126.12
380.38	108.12
380.606	129.12
380.831	104.12
381.057	129.12
381.282	120.12
381.507	116.12
381.733	99.12
381.958	103.12
382.184	115.12
382.409	104.12
382.634	121.12
382.86	115.12
383.085	123.12
383.31	108.12
383.535	116.12
383.761	119.12
383.986	123.12
384.211	108.12
384.436	122.12
384.662	123.12
384.887	127.12
385.112	118.12
385.337	116.12
385.562	120.12
385.787	129.12
386.013	112.12
386.238	109.12
386.463	132.12
386.688	126.12
386.913	124.12
387.138	111.12
387.363	131.12
387.588	126.12
387.813	106.12
388.038	109.12
388.263	105.12
388.488	108.12
388.713	128.12
388.938	123.12
389.163	126.12
389.387	121.12
389.612	110.12
389.837	117.12
390.062	121.12
390.287	119.12
390.512	133.12
390.736	124.12
390.961	114.12
391.186	117.12
391.411	133.12
391.636	117.12
391.86	127.12
392.085	128.12
392.31	141.12
392.534	126.12
392.759	125.12
392.984	125.12
393.208	131.12
393.433	123.12
393.658	119.12
393.882	128.12
394.107	111.12
394.331	121.12
394.556	103.12
394.78	113.12
395.005	125.12
395.229	102.12
395.454	129.12
395.678	129.12
395.903	132.12
396.127	121.12
396.352	119.12
396.576	135.12
396.801	124.12
397.025	129.12
397.249	130.12
397.474	126.12
397.698	125.12
397.922	117.12
398.147	123.12
398.371	133.12
398.595	105.12
398.82	116.12
399.044	127.12
399.268	127.12
399.492	140.12
399.717	157.12
399.941	144.12
400.165	131.12
400.389	129.12
400.613	127.12
400.837	143.12
401.062	125.12
401.286	141.12
401.51	144.12
401.734	103.12
401.958	129.12
402.182	127.12
402.406	126.12
402.63	133.12
402.854	124.12
403.078	133.12
403.302	123.12
403.526	134.12
403.75	123.12
403.974	135.12
404.198	132.12
404.422	141.12
404.645	133.12
404.869	131.12
405.093	129.12
405.317	154.12
405.541	139.12
405.765	139.12
405.988	137.12
406.212	129.12
406.436	141.12
406.66	158.12
406.883	153.12
407.107	147.12
407.331	141.12
407.555	149.12
407.778	122.12
408.002	139.12
408.226	123.12
408.449	134.12
408.673	138.12
408.896	136.12
409.12	136.12
409.344	127.12
409.567	116.12
409.791	135.12
410.014	145.12
410.238	133.12
410.461	126.12
410.685	124.12
410.908	121.12
411.132	134.12
411.355	134.12
411.578	120.12
411.802	140.12
412.025	131.12
412.249	127.12
412.472	151.12
412.695	128.12
412.919	129.12
413.142	138.12
413.365	155.12
413.589	134.12
413.812	132.12
414.035	141.12
414.258	135.12
414.482	126.12
414.705	138.12
414.928	138.12
415.151	140.12
415.374	121.12
415.597	131.12
415.821	147.12
416.044	134.12
416.267	132.12
416.49	121.12
416.713	135.12
416.936	128.12
417.159	115.12
417.382	129.12
417.605	130.12
417.828	133.12
418.051	148.12
418.274	135.12
418.497	126.12
418.72	133.12
418.943	138.12
419.166	129.12
419.389	131.12
419.611	120.12
419.834	110.12
420.057	137.12
420.28	125.12
420.503	134.12
420.726	137.12
420.948	125.12
421.171	131.12
421.394	134.12
421.617	136.12
421.839	134.12
422.062	131.12
422.285	116.12
422.507	132.12
422.73	141.12
422.953	149.12
423.175	133.12
423.398	130.12
423.621	126.12
423.843	140.12
424.066	137.12
424.288	141.12
424.511	141.12
424.733	141.12
424.956	139.12
425.178	131.12
425.401	139.12
425.623	121.12
425.846	143.12
426.068	129.12
426.291	139.12
426.513	126.12
426.735	131.12
426.958	121.12
427.18	133.12
427.402	135.12
427.625	146.12
427.847	136.12
428.069	117.12
428.292	117.12
428.514	134.12
428.736	129.12
428.958	142.12
429.181	128.12
429.403	117.12
429.625	125.12
429.847	113.12
430.069	127.12
430.292	119.12
430.514	119.12
430.736	118.12
430.958	126.12
431.18	124.12
431.402	110.12
431.624	123.12
431.846	110.12
432.068	131.12
432.29	122.12
432.512	125.12
432.734	128.12
432.956	145.12
433.178	138.12
433.4	122.12
433.622	116.12
433.844	140.12
434.066	135.12
434.287	131.12
434.509	122.12
434.731	137.12
434.953	121.12
435.175	139.12
435.397	131.12
435.618	132.12
435.84	137.12
436.062	145.12
436.284	139.12
436.505	139.12
436.727	129.12
436.949	126.12
437.17	119.12
437.392	125.12
437.614	122.12
437.835	133.12
438.057	135.12
438.278	140.12
438.5	149.12
438.721	139.12
438.943	147.12
439.165	124.12
439.386	122.12
439.608	126.12
439.829	124.12
440.05	128.12
440.272	128.12
440.493	124.12
440.715	128.12
440.936	137.12
441.158	146.12
441.379	135.12
441.6	134.12
441.822	146.12
442.043	143.12
442.264	147.12
442.486	138.12
442.707	131.12
442.928	128.12
443.149	136.12
443.371	128.12
443.592	138.12
443.813	148.12
444.034	143.12
444.255	141.12
444.476	130.12
444.698	134.12
444.919	136.12
445.14	275.12
445.361	186.12
445.582	135.12
445.803	132.12
446.024	139.12
446.245	137.12
446.466	139.12
446.687	123.12
446.908	146.12
447.129	128.12
447.35	123.12
447.571	124.12
447.792	123.12
448.013	119.12
448.234	129.12
448.455	153.12
448.675	150.12
448.896	141.12
449.117	141.12
449.338	136.12
449.559	124.12
449.779	141.12
450	153.12
450.221	122.12
450.442	131.12
450.662	128.12
450.883	126.12
451.104	124.12
451.324	121.12
451.545	132.12
451.766	136.12
451.986	121.12
452.207	124.12
452.428	115.12
452.648	120.12
452.869	125.12
453.089	117.12
453.31	120.12
453.53	115.12
453.751	132.12
453.971	117.12
454.192	120.12
454.412	118.12
454.633	114.12
454.853	122.12
455.073	123.12
455.294	107.12
455.514	128.12
455.734	133.12
455.955	116.12
456.175	111.12
456.395	118.12
456.616	133.12
456.836	127.12
457.056	121.12
457.276	114.12
457.497	117.12
457.717	120.12
457.937	112.12
458.157	115.12
458.377	115.12
458.598	122.12
458.818	128.12
459.038	125.12
459.258	128.12
459.478	132.12
459.698	134.12
459.918	125.12
460.138	133.12
460.358	125.12
460.578	123.12
460.798	131.12
461.018	139.12
461.238	126.12
461.458	118.12
461.678	139.12
461.898	141.12
462.118	130.12
462.338	132.12
462.558	135.12
462.777	154.12
462.997	136.12
463.217	150.12
463.437	161.12
463.657	124.12
463.876	142.12
464.096	128.12
464.316	141.12
464.536	129.12
464.755	130.12
464.975	145.12
465.195	137.12
465.414	129.12
465.634	128.12
465.854	136.12
466.073	127.12
466.293	125.12
466.512	126.12
466.732	118.12
466.951	119.12
467.171	119.12
467.391	128.12
467.61	133.12
467.829	119.12
468.049	110.12
468.268	127.12
468.488	129.12
468.707	129.12
468.927	133.12
469.146	117.12
469.365	130.12
469.585	120.12
469.804	119.12
470.023	129.12
470.243	119.12
470.462	126.12
470.681	121.12
470.901	131.12
471.12	111.12
471.339	126.12
471.558	125.12
471.777	136.12
471.997	133.12
472.216	131.12
472.435	123.12
472.654	124.12
472.873	119.12
473.092	124.12
473.311	126.12
473.53	123.12
473.749	116.12
473.968	125.12
474.187	119.12
474.406	131.12
474.625	131.12
474.844	130.12
475.063	131.12
475.282	125.12
475.501	120.12
475.72	120.12
475.939	132.12
476.158	108.12
476.377	127.12
476.596	129.12
476.814	130.12
477.033	113.12
477.252	133.12
477.471	121.12
477.69	131.12
477.908	129.12
478.127	108.12
478.346	127.12
478.564	136.12
478.783	139.12
479.002	151.12
479.22	131.12
479.439	135.12
479.658	132.12
479.876	135.12
480.095	137.12
480.313	137.12
480.532	150.12
480.751	137.12
480.969	127.12
481.188	141.12
481.406	129.12
481.624	135.12
481.843	145.12
482.061	139.12
482.28	137.12
482.498	135.12
482.717	126.12
482.935	133.12
483.153	126.12
483.372	141.12
483.59	143.12
483.808	125.12
484.027	143.12
484.245	125.12
484.463	140.12
484.681	140.12
484.9	141.12
485.118	131.12
485.336	128.12
485.554	134.12
485.772	128.12
485.99	143.12
486.209	140.12
486.427	125.12
486.645	124.12
486.863	127.12
487.081	147.12
487.299	141.12
487.517	149.12
487.735	140.12
487.953	136.12
488.171	133.12
488.389	139.12
488.607	141.12
488.825	136.12
489.043	144.12
489.261	137.12
489.479	128.12
489.696	130.12
489.914	148.12
490.132	137.12
490.35	145.12
490.568	148.12
490.786	147.12
491.003	146.12
491.221	129.12
491.439	131.12
491.657	153.12
491.874	143.12
492.092	151.12
492.31	162.12
492.527	131.12
492.745	160.12
492.963	141.12
493.18	169.12
493.398	148.12
493.615	151.12
493.833	138.12
494.05	133.12
494.268	139.12
494.485	152.12
494.703	145.12
494.92	157.12
495.138	157.12
495.355	136.12
495.573	134.12
495.79	156.12
496.008	140.12
496.225	150.12
496.442	153.12
496.66	145.12
496.877	146.12
497.094	135.12
497.312	144.12
497.529	149.12
497.746	157.12
497.963	143.12
498.181	157.12
498.398	163.12
498.615	148.12
498.832	163.12
499.049	166.12
499.267	164.12
499.484	182.12
499.701	196.12
499.918	196.12
500.135	204.12
500.352	202.12
500.569	203.12
500.786	214.12
501.003	208.12
501.22	195.12
501.437	186.12
501.654	191.12
501.871	164.12
502.088	160.12
502.305	167.12
502.522	157.12
502.739	164.12
502.956	158.12
503.172	146.12
503.389	165.12
503.606	151.12
503.823	140.12
504.04	159.12
504.256	142.12
504.473	153.12
504.69	159.12
504.907	136.12
505.123	152.12
505.34	137.12
