Data from 1968.PennyLincolnUp.Lamp.En5.5.200Scan.071719.P1._HRD10591_14-50-18-970.txt Node
Date: Thu Jul 18 14:50:18 EDT 2019
User: cochatt
Spectrometer: HR+D1059
Trigger mode: 1
Integration Time (sec): 1.000000E-1
Scans to average: 1
Electric dark correction enabled: true
Nonlinearity correction enabled: false
Boxcar width: 0
XAxis mode: Wavelengths
Number of Pixels in Spectrum: 2048
>>>>>Begin Spectral Data<<<<<
223.165	-8.88
223.4	-8.88
223.635	-8.88
223.869	-8.88
224.104	-14.88
224.338	-27.88
224.573	-28.88
224.808	-13.88
225.042	-2.88
225.277	-1.88
225.511	1.12
225.746	8.12
225.98	-1.88
226.215	16.12
226.449	23.12
226.683	30.12
226.918	11.12
227.152	20.12
227.387	31.12
227.621	37.12
227.856	51.12
228.09	32.12
228.324	36.12
228.559	53.12
228.793	70.12
229.027	63.12
229.262	49.12
229.496	71.12
229.73	69.12
229.964	69.12
230.199	66.12
230.433	77.12
230.667	87.12
230.901	78.12
231.136	71.12
231.37	87.12
231.604	84.12
231.838	80.12
232.072	89.12
232.306	88.12
232.541	102.12
232.775	79.12
233.009	84.12
233.243	87.12
233.477	81.12
233.711	80.12
233.945	69.12
234.179	89.12
234.413	86.12
234.647	84.12
234.881	86.12
235.115	90.12
235.349	81.12
235.583	80.12
235.817	80.12
236.051	81.12
236.285	78.12
236.519	91.12
236.753	79.12
236.987	79.12
237.221	95.12
237.455	85.12
237.689	84.12
237.922	81.12
238.156	81.12
238.39	76.12
238.624	87.12
238.858	63.12
239.091	85.12
239.325	85.12
239.559	74.12
239.793	89.12
240.027	89.12
240.26	68.12
240.494	92.12
240.728	85.12
240.961	67.12
241.195	83.12
241.429	90.12
241.662	85.12
241.896	80.12
242.13	80.12
242.363	87.12
242.597	88.12
242.83	85.12
243.064	75.12
243.298	72.12
243.531	78.12
243.765	93.12
243.998	76.12
244.232	96.12
244.465	100.12
244.699	89.12
244.932	91.12
245.166	88.12
245.399	88.12
245.633	79.12
245.866	77.12
246.099	77.12
246.333	88.12
246.566	84.12
246.8	107.12
247.033	79.12
247.266	78.12
247.5	91.12
247.733	66.12
247.966	75.12
248.2	86.12
248.433	90.12
248.666	89.12
248.899	114.12
249.133	82.12
249.366	110.12
249.599	81.12
249.832	99.12
250.066	90.12
250.299	90.12
250.532	95.12
250.765	87.12
250.998	89.12
251.231	85.12
251.465	100.12
251.698	95.12
251.931	101.12
252.164	89.12
252.397	81.12
252.63	95.12
252.863	100.12
253.096	94.12
253.329	98.12
253.562	98.12
253.795	89.12
254.028	110.12
254.261	106.12
254.494	93.12
254.727	93.12
254.96	83.12
255.193	92.12
255.426	111.12
255.659	93.12
255.892	93.12
256.124	100.12
256.357	90.12
256.59	89.12
256.823	75.12
257.056	80.12
257.289	107.12
257.521	88.12
257.754	107.12
257.987	74.12
258.22	94.12
258.452	97.12
258.685	95.12
258.918	91.12
259.151	84.12
259.383	86.12
259.616	92.12
259.849	109.12
260.081	84.12
260.314	88.12
260.547	106.12
260.779	90.12
261.012	89.12
261.244	105.12
261.477	95.12
261.71	91.12
261.942	100.12
262.175	92.12
262.407	106.12
262.64	78.12
262.872	91.12
263.105	79.12
263.337	95.12
263.57	78.12
263.802	83.12
264.035	95.12
264.267	88.12
264.499	97.12
264.732	85.12
264.964	102.12
265.197	81.12
265.429	81.12
265.661	93.12
265.894	90.12
266.126	93.12
266.358	84.12
266.591	96.12
266.823	93.12
267.055	93.12
267.287	111.12
267.52	101.12
267.752	93.12
267.984	92.12
268.216	85.12
268.448	86.12
268.681	80.12
268.913	106.12
269.145	99.12
269.377	98.12
269.609	103.12
269.841	83.12
270.073	92.12
270.306	92.12
270.538	94.12
270.77	88.12
271.002	79.12
271.234	88.12
271.466	102.12
271.698	95.12
271.93	110.12
272.162	92.12
272.394	109.12
272.626	101.12
272.858	90.12
273.09	90.12
273.322	99.12
273.553	86.12
273.785	97.12
274.017	96.12
274.249	81.12
274.481	93.12
274.713	92.12
274.945	92.12
275.176	85.12
275.408	90.12
275.64	104.12
275.872	97.12
276.104	100.12
276.335	96.12
276.567	97.12
276.799	102.12
277.031	98.12
277.262	115.12
277.494	84.12
277.726	89.12
277.957	96.12
278.189	96.12
278.421	101.12
278.652	98.12
278.884	109.12
279.115	96.12
279.347	108.12
279.579	101.12
279.81	98.12
280.042	103.12
280.273	93.12
280.505	101.12
280.736	99.12
280.968	109.12
281.199	104.12
281.431	101.12
281.662	91.12
281.894	104.12
282.125	88.12
282.356	95.12
282.588	102.12
282.819	95.12
283.051	95.12
283.282	105.12
283.513	96.12
283.745	102.12
283.976	106.12
284.207	86.12
284.439	88.12
284.67	97.12
284.901	88.12
285.132	105.12
285.364	75.12
285.595	96.12
285.826	102.12
286.057	113.12
286.288	106.12
286.52	89.12
286.751	116.12
286.982	85.12
287.213	95.12
287.444	98.12
287.675	99.12
287.906	101.12
288.138	97.12
288.369	96.12
288.6	106.12
288.831	112.12
289.062	89.12
289.293	109.12
289.524	91.12
289.755	102.12
289.986	112.12
290.217	108.12
290.448	106.12
290.679	104.12
290.91	111.12
291.141	109.12
291.371	103.12
291.602	85.12
291.833	99.12
292.064	106.12
292.295	113.12
292.526	106.12
292.757	116.12
292.987	108.12
293.218	104.12
293.449	100.12
293.68	98.12
293.91	100.12
294.141	103.12
294.372	101.12
294.603	105.12
294.833	101.12
295.064	91.12
295.295	102.12
295.525	89.12
295.756	99.12
295.987	92.12
296.217	101.12
296.448	107.12
296.679	98.12
296.909	104.12
297.14	104.12
297.37	113.12
297.601	85.12
297.831	112.12
298.062	106.12
298.292	105.12
298.523	112.12
298.753	105.12
298.984	108.12
299.214	105.12
299.445	110.12
299.675	105.12
299.905	120.12
300.136	104.12
300.366	99.12
300.597	110.12
300.827	103.12
301.057	104.12
301.288	100.12
301.518	110.12
301.748	125.12
301.979	126.12
302.209	111.12
302.439	108.12
302.669	108.12
302.9	122.12
303.13	118.12
303.36	110.12
303.59	104.12
303.82	96.12
304.051	109.12
304.281	108.12
304.511	117.12
304.741	100.12
304.971	101.12
305.201	107.12
305.431	101.12
305.661	119.12
305.891	117.12
306.121	108.12
306.352	110.12
306.582	105.12
306.812	104.12
307.042	102.12
307.272	116.12
307.502	94.12
307.731	96.12
307.961	104.12
308.191	103.12
308.421	108.12
308.651	121.12
308.881	117.12
309.111	113.12
309.341	97.12
309.571	112.12
309.8	105.12
310.03	108.12
310.26	107.12
310.49	116.12
310.72	121.12
310.949	113.12
311.179	97.12
311.409	88.12
311.639	107.12
311.868	111.12
312.098	113.12
312.328	120.12
312.557	117.12
312.787	114.12
313.017	118.12
313.246	113.12
313.476	93.12
313.706	102.12
313.935	105.12
314.165	108.12
314.394	97.12
314.624	102.12
314.853	97.12
315.083	102.12
315.312	119.12
315.542	111.12
315.771	105.12
316.001	99.12
316.23	116.12
316.46	117.12
316.689	118.12
316.919	103.12
317.148	107.12
317.377	116.12
317.607	128.12
317.836	106.12
318.065	126.12
318.295	119.12
318.524	108.12
318.753	113.12
318.983	116.12
319.212	118.12
319.441	124.12
319.67	96.12
319.9	109.12
320.129	110.12
320.358	111.12
320.587	119.12
320.816	111.12
321.046	120.12
321.275	95.12
321.504	95.12
321.733	114.12
321.962	121.12
322.191	103.12
322.42	112.12
322.649	103.12
322.878	120.12
323.108	111.12
323.337	106.12
323.566	107.12
323.795	113.12
324.024	121.12
324.253	123.12
324.482	138.12
324.71	153.12
324.939	151.12
325.168	136.12
325.397	112.12
325.626	118.12
325.855	120.12
326.084	113.12
326.313	106.12
326.542	111.12
326.77	121.12
326.999	125.12
327.228	132.12
327.457	141.12
327.686	142.12
327.914	134.12
328.143	132.12
328.372	120.12
328.6	121.12
328.829	109.12
329.058	117.12
329.287	112.12
329.515	111.12
329.744	122.12
329.972	98.12
330.201	109.12
330.43	108.12
330.658	116.12
330.887	109.12
331.115	107.12
331.344	116.12
331.572	128.12
331.801	117.12
332.03	114.12
332.258	104.12
332.486	119.12
332.715	118.12
332.943	106.12
333.172	115.12
333.4	124.12
333.629	116.12
333.857	114.12
334.085	130.12
334.314	117.12
334.542	120.12
334.771	119.12
334.999	117.12
335.227	117.12
335.455	120.12
335.684	133.12
335.912	132.12
336.14	127.12
336.369	113.12
336.597	123.12
336.825	131.12
337.053	108.12
337.281	120.12
337.51	122.12
337.738	109.12
337.966	96.12
338.194	119.12
338.422	119.12
338.65	106.12
338.878	113.12
339.106	103.12
339.334	126.12
339.562	109.12
339.79	100.12
340.018	107.12
340.246	112.12
340.474	115.12
340.702	111.12
340.93	118.12
341.158	122.12
341.386	125.12
341.614	116.12
341.842	120.12
342.07	117.12
342.298	102.12
342.526	125.12
342.754	104.12
342.981	111.12
343.209	121.12
343.437	123.12
343.665	128.12
343.893	116.12
344.12	124.12
344.348	124.12
344.576	102.12
344.804	93.12
345.031	108.12
345.259	117.12
345.487	99.12
345.714	114.12
345.942	118.12
346.17	109.12
346.397	118.12
346.625	104.12
346.853	101.12
347.08	106.12
347.308	117.12
347.535	111.12
347.763	121.12
347.99	114.12
348.218	118.12
348.445	118.12
348.673	100.12
348.9	99.12
349.128	120.12
349.355	106.12
349.583	112.12
349.81	109.12
350.037	106.12
350.265	124.12
350.492	103.12
350.72	107.12
350.947	108.12
351.174	119.12
351.402	103.12
351.629	120.12
351.856	125.12
352.083	111.12
352.311	112.12
352.538	106.12
352.765	103.12
352.992	109.12
353.22	123.12
353.447	108.12
353.674	112.12
353.901	112.12
354.128	116.12
354.355	125.12
354.583	115.12
354.81	112.12
355.037	119.12
355.264	120.12
355.491	112.12
355.718	111.12
355.945	104.12
356.172	110.12
356.399	111.12
356.626	110.12
356.853	111.12
357.08	104.12
357.307	101.12
357.534	112.12
357.761	113.12
357.988	108.12
358.215	121.12
358.441	118.12
358.668	109.12
358.895	120.12
359.122	116.12
359.349	127.12
359.576	118.12
359.802	118.12
360.029	104.12
360.256	106.12
360.483	111.12
360.709	101.12
360.936	110.12
361.163	125.12
361.39	124.12
361.616	123.12
361.843	110.12
362.07	120.12
362.296	118.12
362.523	108.12
362.749	126.12
362.976	112.12
363.203	118.12
363.429	112.12
363.656	104.12
363.882	111.12
364.109	110.12
364.335	116.12
364.562	116.12
364.788	112.12
365.015	112.12
365.241	111.12
365.468	125.12
365.694	106.12
365.92	110.12
366.147	101.12
366.373	107.12
366.599	127.12
366.826	103.12
367.052	120.12
367.278	113.12
367.505	118.12
367.731	112.12
367.957	100.12
368.184	116.12
368.41	108.12
368.636	123.12
368.862	98.12
369.089	111.12
369.315	117.12
369.541	121.12
369.767	118.12
369.993	120.12
370.219	112.12
370.445	110.12
370.672	112.12
370.898	96.12
371.124	113.12
371.35	109.12
371.576	112.12
371.802	105.12
372.028	120.12
372.254	111.12
372.48	120.12
372.706	103.12
372.932	120.12
373.158	124.12
373.384	113.12
373.61	120.12
373.835	113.12
374.061	123.12
374.287	120.12
374.513	128.12
374.739	120.12
374.965	116.12
375.191	102.12
375.416	118.12
375.642	117.12
375.868	119.12
376.094	117.12
376.319	113.12
376.545	100.12
376.771	118.12
376.997	108.12
377.222	114.12
377.448	107.12
377.674	120.12
377.899	117.12
378.125	121.12
378.35	121.12
378.576	120.12
378.802	105.12
379.027	110.12
379.253	106.12
379.478	118.12
379.704	105.12
379.929	98.12
380.155	125.12
380.38	111.12
380.606	118.12
380.831	120.12
381.057	111.12
381.282	118.12
381.507	121.12
381.733	128.12
381.958	114.12
382.184	122.12
382.409	120.12
382.634	122.12
382.86	102.12
383.085	121.12
383.31	108.12
383.535	130.12
383.761	116.12
383.986	116.12
384.211	124.12
384.436	117.12
384.662	119.12
384.887	117.12
385.112	111.12
385.337	113.12
385.562	114.12
385.787	130.12
386.013	135.12
386.238	137.12
386.463	129.12
386.688	108.12
386.913	118.12
387.138	124.12
387.363	119.12
387.588	125.12
387.813	114.12
388.038	121.12
388.263	132.12
388.488	110.12
388.713	112.12
388.938	107.12
389.163	102.12
389.387	107.12
389.612	117.12
389.837	114.12
390.062	116.12
390.287	101.12
390.512	132.12
390.736	118.12
390.961	120.12
391.186	134.12
391.411	132.12
391.636	125.12
391.86	111.12
392.085	130.12
392.31	129.12
392.534	116.12
392.759	126.12
392.984	111.12
393.208	114.12
393.433	124.12
393.658	124.12
393.882	131.12
394.107	121.12
394.331	118.12
394.556	122.12
394.78	118.12
395.005	128.12
395.229	120.12
395.454	133.12
395.678	126.12
395.903	136.12
396.127	126.12
396.352	118.12
396.576	118.12
396.801	113.12
397.025	105.12
397.249	125.12
397.474	116.12
397.698	115.12
397.922	136.12
398.147	129.12
398.371	132.12
398.595	135.12
398.82	119.12
399.044	126.12
399.268	137.12
399.492	142.12
399.717	133.12
399.941	158.12
400.165	142.12
400.389	149.12
400.613	146.12
400.837	146.12
401.062	117.12
401.286	126.12
401.51	130.12
401.734	142.12
401.958	148.12
402.182	136.12
402.406	109.12
402.63	128.12
402.854	136.12
403.078	140.12
403.302	136.12
403.526	125.12
403.75	138.12
403.974	146.12
404.198	130.12
404.422	128.12
404.645	136.12
404.869	140.12
405.093	135.12
405.317	132.12
405.541	146.12
405.765	145.12
405.988	136.12
406.212	134.12
406.436	124.12
406.66	135.12
406.883	136.12
407.107	139.12
407.331	123.12
407.555	137.12
407.778	132.12
408.002	143.12
408.226	145.12
408.449	133.12
408.673	142.12
408.896	140.12
409.12	143.12
409.344	138.12
409.567	128.12
409.791	125.12
410.014	137.12
410.238	135.12
410.461	130.12
410.685	121.12
410.908	140.12
411.132	154.12
411.355	141.12
411.578	133.12
411.802	130.12
412.025	136.12
412.249	125.12
412.472	118.12
412.695	131.12
412.919	124.12
413.142	128.12
413.365	127.12
413.589	123.12
413.812	136.12
414.035	132.12
414.258	125.12
414.482	122.12
414.705	120.12
414.928	134.12
415.151	134.12
415.374	129.12
415.597	124.12
415.821	139.12
416.044	131.12
416.267	139.12
416.49	128.12
416.713	130.12
416.936	116.12
417.159	124.12
417.382	124.12
417.605	125.12
417.828	132.12
418.051	132.12
418.274	123.12
418.497	121.12
418.72	124.12
418.943	136.12
419.166	140.12
419.389	141.12
419.611	136.12
419.834	143.12
420.057	133.12
420.28	112.12
420.503	137.12
420.726	140.12
420.948	133.12
421.171	131.12
421.394	121.12
421.617	136.12
421.839	122.12
422.062	138.12
422.285	130.12
422.507	124.12
422.73	126.12
422.953	134.12
423.175	138.12
423.398	133.12
423.621	123.12
423.843	136.12
424.066	128.12
424.288	122.12
424.511	152.12
424.733	130.12
424.956	150.12
425.178	136.12
425.401	139.12
425.623	138.12
425.846	144.12
426.068	128.12
426.291	116.12
426.513	121.12
426.735	124.12
426.958	123.12
427.18	133.12
427.402	132.12
427.625	126.12
427.847	136.12
428.069	122.12
428.292	121.12
428.514	123.12
428.736	104.12
428.958	121.12
429.181	142.12
429.403	139.12
429.625	130.12
429.847	119.12
430.069	137.12
430.292	138.12
430.514	123.12
430.736	117.12
430.958	128.12
431.18	122.12
431.402	142.12
431.624	128.12
431.846	123.12
432.068	124.12
432.29	127.12
432.512	102.12
432.734	123.12
432.956	113.12
433.178	120.12
433.4	125.12
433.622	137.12
433.844	134.12
434.066	129.12
434.287	132.12
434.509	110.12
434.731	112.12
434.953	137.12
435.175	132.12
435.397	120.12
435.618	146.12
435.84	128.12
436.062	136.12
436.284	127.12
436.505	124.12
436.727	122.12
436.949	139.12
437.17	121.12
437.392	132.12
437.614	137.12
437.835	137.12
438.057	121.12
438.278	134.12
438.5	128.12
438.721	124.12
438.943	133.12
439.165	141.12
439.386	130.12
439.608	127.12
439.829	136.12
440.05	126.12
440.272	136.12
440.493	134.12
440.715	121.12
440.936	133.12
441.158	134.12
441.379	132.12
441.6	128.12
441.822	122.12
442.043	137.12
442.264	119.12
442.486	145.12
442.707	130.12
442.928	127.12
443.149	140.12
443.371	126.12
443.592	126.12
443.813	138.12
444.034	126.12
444.255	128.12
444.476	121.12
444.698	132.12
444.919	140.12
445.14	279.12
445.361	184.12
445.582	130.12
445.803	132.12
446.024	146.12
446.245	135.12
446.466	137.12
446.687	122.12
446.908	132.12
447.129	114.12
447.35	134.12
447.571	126.12
447.792	132.12
448.013	122.12
448.234	128.12
448.455	113.12
448.675	133.12
448.896	137.12
449.117	129.12
449.338	124.12
449.559	120.12
449.779	139.12
450	138.12
450.221	112.12
450.442	120.12
450.662	126.12
450.883	113.12
451.104	114.12
451.324	116.12
451.545	113.12
451.766	118.12
451.986	120.12
452.207	119.12
452.428	119.12
452.648	124.12
452.869	108.12
453.089	102.12
453.31	119.12
453.53	113.12
453.751	127.12
453.971	120.12
454.192	113.12
454.412	116.12
454.633	110.12
454.853	121.12
455.073	136.12
455.294	128.12
455.514	111.12
455.734	116.12
455.955	107.12
456.175	108.12
456.395	124.12
456.616	108.12
456.836	116.12
457.056	122.12
457.276	112.12
457.497	113.12
457.717	109.12
457.937	114.12
458.157	116.12
458.377	133.12
458.598	116.12
458.818	114.12
459.038	118.12
459.258	124.12
459.478	120.12
459.698	109.12
459.918	130.12
460.138	126.12
460.358	126.12
460.578	129.12
460.798	122.12
461.018	125.12
461.238	121.12
461.458	134.12
461.678	123.12
461.898	114.12
462.118	114.12
462.338	136.12
462.558	136.12
462.777	132.12
462.997	146.12
463.217	133.12
463.437	143.12
463.657	139.12
463.876	132.12
464.096	127.12
464.316	136.12
464.536	149.12
464.755	145.12
464.975	131.12
465.195	123.12
465.414	125.12
465.634	133.12
465.854	121.12
466.073	136.12
466.293	129.12
466.512	122.12
466.732	109.12
466.951	130.12
467.171	126.12
467.391	118.12
467.61	136.12
467.829	121.12
468.049	124.12
468.268	113.12
468.488	129.12
468.707	131.12
468.927	124.12
469.146	112.12
469.365	113.12
469.585	112.12
469.804	126.12
470.023	132.12
470.243	112.12
470.462	125.12
470.681	113.12
470.901	132.12
471.12	110.12
471.339	127.12
471.558	120.12
471.777	118.12
471.997	119.12
472.216	124.12
472.435	116.12
472.654	118.12
472.873	128.12
473.092	124.12
473.311	108.12
473.53	119.12
473.749	136.12
473.968	135.12
474.187	121.12
474.406	120.12
474.625	135.12
474.844	129.12
475.063	119.12
475.282	116.12
475.501	133.12
475.72	113.12
475.939	118.12
476.158	128.12
476.377	114.12
476.596	122.12
476.814	108.12
477.033	126.12
477.252	141.12
477.471	130.12
477.69	139.12
477.908	128.12
478.127	132.12
478.346	134.12
478.564	125.12
478.783	122.12
479.002	126.12
479.22	130.12
479.439	121.12
479.658	126.12
479.876	118.12
480.095	144.12
480.313	134.12
480.532	133.12
480.751	138.12
480.969	135.12
481.188	116.12
481.406	132.12
481.624	130.12
481.843	126.12
482.061	131.12
482.28	129.12
482.498	140.12
482.717	113.12
482.935	128.12
483.153	120.12
483.372	125.12
483.59	126.12
483.808	125.12
484.027	113.12
484.245	126.12
484.463	115.12
484.681	136.12
484.9	128.12
485.118	142.12
485.336	144.12
485.554	132.12
485.772	116.12
485.99	125.12
486.209	128.12
486.427	132.12
486.645	124.12
486.863	138.12
487.081	142.12
487.299	125.12
487.517	123.12
487.735	132.12
487.953	132.12
488.171	138.12
488.389	130.12
488.607	121.12
488.825	135.12
489.043	137.12
489.261	129.12
489.479	133.12
489.696	130.12
489.914	116.12
490.132	144.12
490.35	138.12
490.568	136.12
490.786	121.12
491.003	146.12
491.221	149.12
491.439	132.12
491.657	138.12
491.874	138.12
492.092	140.12
492.31	155.12
492.527	124.12
492.745	146.12
492.963	139.12
493.18	134.12
493.398	150.12
493.615	147.12
493.833	131.12
494.05	145.12
494.268	134.12
494.485	137.12
494.703	136.12
494.92	139.12
495.138	135.12
495.355	132.12
495.573	132.12
495.79	153.12
496.008	138.12
496.225	138.12
496.442	142.12
496.66	143.12
496.877	138.12
497.094	157.12
497.312	130.12
497.529	141.12
497.746	129.12
497.963	133.12
498.181	162.12
498.398	156.12
498.615	164.12
498.832	154.12
499.049	149.12
499.267	171.12
499.484	167.12
499.701	168.12
499.918	188.12
500.135	185.12
500.352	201.12
500.569	197.12
500.786	190.12
501.003	187.12
501.22	200.12
501.437	206.12
501.654	185.12
501.871	161.12
502.088	170.12
502.305	140.12
502.522	157.12
502.739	160.12
502.956	151.12
503.172	136.12
503.389	156.12
503.606	167.12
503.823	144.12
504.04	150.12
504.256	144.12
504.473	147.12
504.69	144.12
504.907	151.12
505.123	134.12
505.34	144.12
