Data from 1968.PennyLincolnUp.Lamp.En5.5.200Scan.071719.P1._HRD10591_14-51-15-969.txt Node
Date: Thu Jul 18 14:51:15 EDT 2019
User: cochatt
Spectrometer: HR+D1059
Trigger mode: 1
Integration Time (sec): 1.000000E-1
Scans to average: 1
Electric dark correction enabled: true
Nonlinearity correction enabled: false
Boxcar width: 0
XAxis mode: Wavelengths
Number of Pixels in Spectrum: 2048
>>>>>Begin Spectral Data<<<<<
223.165	-10.88
223.4	-10.88
223.635	-10.88
223.869	-21.88
224.104	-23.88
224.338	-22.88
224.573	-0.88
224.808	-18.88
225.042	-5.88
225.277	-8.88
225.511	10.12
225.746	12.12
225.98	9.12
226.215	18.12
226.449	9.12
226.683	16.12
226.918	22.12
227.152	17.12
227.387	24.12
227.621	34.12
227.856	37.12
228.09	36.12
228.324	56.12
228.559	50.12
228.793	67.12
229.027	71.12
229.262	66.12
229.496	72.12
229.73	87.12
229.964	94.12
230.199	81.12
230.433	90.12
230.667	85.12
230.901	93.12
231.136	80.12
231.37	84.12
231.604	72.12
231.838	81.12
232.072	82.12
232.306	85.12
232.541	98.12
232.775	89.12
233.009	94.12
233.243	91.12
233.477	99.12
233.711	74.12
233.945	83.12
234.179	96.12
234.413	84.12
234.647	82.12
234.881	81.12
235.115	82.12
235.349	108.12
235.583	92.12
235.817	92.12
236.051	89.12
236.285	67.12
236.519	102.12
236.753	80.12
236.987	77.12
237.221	85.12
237.455	71.12
237.689	81.12
237.922	80.12
238.156	93.12
238.39	81.12
238.624	87.12
238.858	89.12
239.091	90.12
239.325	87.12
239.559	94.12
239.793	86.12
240.027	81.12
240.26	81.12
240.494	96.12
240.728	80.12
240.961	73.12
241.195	82.12
241.429	92.12
241.662	79.12
241.896	86.12
242.13	81.12
242.363	90.12
242.597	66.12
242.83	84.12
243.064	86.12
243.298	98.12
243.531	95.12
243.765	77.12
243.998	88.12
244.232	106.12
244.465	95.12
244.699	89.12
244.932	87.12
245.166	85.12
245.399	96.12
245.633	90.12
245.866	83.12
246.099	94.12
246.333	92.12
246.566	108.12
246.8	102.12
247.033	95.12
247.266	97.12
247.5	83.12
247.733	92.12
247.966	88.12
248.2	91.12
248.433	73.12
248.666	84.12
248.899	96.12
249.133	83.12
249.366	89.12
249.599	91.12
249.832	88.12
250.066	91.12
250.299	83.12
250.532	86.12
250.765	89.12
250.998	87.12
251.231	87.12
251.465	79.12
251.698	91.12
251.931	84.12
252.164	95.12
252.397	88.12
252.63	83.12
252.863	78.12
253.096	98.12
253.329	104.12
253.562	79.12
253.795	98.12
254.028	111.12
254.261	104.12
254.494	103.12
254.727	90.12
254.96	95.12
255.193	95.12
255.426	108.12
255.659	96.12
255.892	106.12
256.124	96.12
256.357	92.12
256.59	107.12
256.823	86.12
257.056	99.12
257.289	86.12
257.521	107.12
257.754	77.12
257.987	91.12
258.22	100.12
258.452	92.12
258.685	94.12
258.918	115.12
259.151	93.12
259.383	101.12
259.616	98.12
259.849	101.12
260.081	102.12
260.314	92.12
260.547	95.12
260.779	93.12
261.012	93.12
261.244	85.12
261.477	99.12
261.71	95.12
261.942	83.12
262.175	93.12
262.407	91.12
262.64	95.12
262.872	83.12
263.105	98.12
263.337	107.12
263.57	91.12
263.802	96.12
264.035	98.12
264.267	95.12
264.499	99.12
264.732	95.12
264.964	96.12
265.197	113.12
265.429	95.12
265.661	106.12
265.894	94.12
266.126	105.12
266.358	99.12
266.591	93.12
266.823	103.12
267.055	93.12
267.287	93.12
267.52	90.12
267.752	89.12
267.984	96.12
268.216	103.12
268.448	90.12
268.681	93.12
268.913	101.12
269.145	108.12
269.377	109.12
269.609	99.12
269.841	106.12
270.073	107.12
270.306	102.12
270.538	102.12
270.77	90.12
271.002	102.12
271.234	105.12
271.466	101.12
271.698	98.12
271.93	94.12
272.162	90.12
272.394	111.12
272.626	104.12
272.858	117.12
273.09	97.12
273.322	107.12
273.553	103.12
273.785	108.12
274.017	110.12
274.249	98.12
274.481	114.12
274.713	103.12
274.945	121.12
275.176	103.12
275.408	97.12
275.64	100.12
275.872	90.12
276.104	100.12
276.335	102.12
276.567	104.12
276.799	94.12
277.031	91.12
277.262	101.12
277.494	114.12
277.726	125.12
277.957	105.12
278.189	104.12
278.421	109.12
278.652	76.12
278.884	107.12
279.115	107.12
279.347	112.12
279.579	106.12
279.81	103.12
280.042	100.12
280.273	105.12
280.505	99.12
280.736	92.12
280.968	96.12
281.199	105.12
281.431	90.12
281.662	98.12
281.894	110.12
282.125	115.12
282.356	108.12
282.588	113.12
282.819	113.12
283.051	113.12
283.282	110.12
283.513	103.12
283.745	114.12
283.976	109.12
284.207	103.12
284.439	98.12
284.67	85.12
284.901	111.12
285.132	107.12
285.364	101.12
285.595	99.12
285.826	96.12
286.057	95.12
286.288	106.12
286.52	99.12
286.751	103.12
286.982	109.12
287.213	105.12
287.444	113.12
287.675	104.12
287.906	116.12
288.138	111.12
288.369	117.12
288.6	110.12
288.831	113.12
289.062	113.12
289.293	88.12
289.524	83.12
289.755	98.12
289.986	97.12
290.217	112.12
290.448	106.12
290.679	108.12
290.91	111.12
291.141	109.12
291.371	99.12
291.602	121.12
291.833	107.12
292.064	105.12
292.295	88.12
292.526	111.12
292.757	121.12
292.987	104.12
293.218	118.12
293.449	109.12
293.68	122.12
293.91	94.12
294.141	96.12
294.372	115.12
294.603	100.12
294.833	108.12
295.064	124.12
295.295	112.12
295.525	92.12
295.756	109.12
295.987	113.12
296.217	107.12
296.448	112.12
296.679	115.12
296.909	125.12
297.14	92.12
297.37	99.12
297.601	111.12
297.831	117.12
298.062	120.12
298.292	105.12
298.523	110.12
298.753	106.12
298.984	94.12
299.214	97.12
299.445	117.12
299.675	106.12
299.905	102.12
300.136	107.12
300.366	108.12
300.597	110.12
300.827	104.12
301.057	105.12
301.288	107.12
301.518	104.12
301.748	98.12
301.979	97.12
302.209	105.12
302.439	114.12
302.669	115.12
302.9	114.12
303.13	117.12
303.36	122.12
303.59	108.12
303.82	107.12
304.051	109.12
304.281	106.12
304.511	108.12
304.741	117.12
304.971	111.12
305.201	106.12
305.431	127.12
305.661	113.12
305.891	107.12
306.121	124.12
306.352	105.12
306.582	115.12
306.812	106.12
307.042	118.12
307.272	114.12
307.502	120.12
307.731	122.12
307.961	112.12
308.191	128.12
308.421	117.12
308.651	123.12
308.881	129.12
309.111	109.12
309.341	95.12
309.571	125.12
309.8	113.12
310.03	119.12
310.26	122.12
310.49	118.12
310.72	120.12
310.949	97.12
311.179	114.12
311.409	108.12
311.639	119.12
311.868	99.12
312.098	110.12
312.328	107.12
312.557	107.12
312.787	102.12
313.017	113.12
313.246	106.12
313.476	95.12
313.706	117.12
313.935	116.12
314.165	111.12
314.394	111.12
314.624	101.12
314.853	119.12
315.083	123.12
315.312	113.12
315.542	102.12
315.771	116.12
316.001	104.12
316.23	107.12
316.46	99.12
316.689	107.12
316.919	114.12
317.148	117.12
317.377	106.12
317.607	118.12
317.836	117.12
318.065	118.12
318.295	107.12
318.524	106.12
318.753	123.12
318.983	117.12
319.212	123.12
319.441	109.12
319.67	96.12
319.9	110.12
320.129	111.12
320.358	109.12
320.587	123.12
320.816	111.12
321.046	108.12
321.275	113.12
321.504	116.12
321.733	111.12
321.962	113.12
322.191	120.12
322.42	114.12
322.649	106.12
322.878	105.12
323.108	115.12
323.337	113.12
323.566	117.12
323.795	117.12
324.024	126.12
324.253	128.12
324.482	149.12
324.71	169.12
324.939	193.12
325.168	175.12
325.397	139.12
325.626	125.12
325.855	119.12
326.084	115.12
326.313	121.12
326.542	120.12
326.77	125.12
326.999	125.12
327.228	144.12
327.457	175.12
327.686	175.12
327.914	146.12
328.143	134.12
328.372	113.12
328.6	117.12
328.829	112.12
329.058	123.12
329.287	110.12
329.515	133.12
329.744	126.12
329.972	123.12
330.201	130.12
330.43	134.12
330.658	126.12
330.887	121.12
331.115	131.12
331.344	123.12
331.572	132.12
331.801	114.12
332.03	118.12
332.258	128.12
332.486	118.12
332.715	121.12
332.943	123.12
333.172	127.12
333.4	134.12
333.629	113.12
333.857	114.12
334.085	138.12
334.314	113.12
334.542	135.12
334.771	117.12
334.999	119.12
335.227	122.12
335.455	113.12
335.684	135.12
335.912	138.12
336.14	138.12
336.369	121.12
336.597	125.12
336.825	131.12
337.053	140.12
337.281	120.12
337.51	122.12
337.738	128.12
337.966	123.12
338.194	115.12
338.422	125.12
338.65	121.12
338.878	119.12
339.106	121.12
339.334	120.12
339.562	113.12
339.79	108.12
340.018	109.12
340.246	108.12
340.474	119.12
340.702	118.12
340.93	129.12
341.158	130.12
341.386	112.12
341.614	121.12
341.842	121.12
342.07	115.12
342.298	125.12
342.526	105.12
342.754	115.12
342.981	123.12
343.209	117.12
343.437	131.12
343.665	131.12
343.893	119.12
344.12	115.12
344.348	115.12
344.576	100.12
344.804	130.12
345.031	112.12
345.259	131.12
345.487	103.12
345.714	106.12
345.942	123.12
346.17	127.12
346.397	125.12
346.625	121.12
346.853	119.12
347.08	111.12
347.308	123.12
347.535	118.12
347.763	118.12
347.99	125.12
348.218	115.12
348.445	103.12
348.673	114.12
348.9	108.12
349.128	127.12
349.355	127.12
349.583	117.12
349.81	127.12
350.037	109.12
350.265	127.12
350.492	111.12
350.72	113.12
350.947	111.12
351.174	117.12
351.402	118.12
351.629	117.12
351.856	123.12
352.083	115.12
352.311	130.12
352.538	112.12
352.765	117.12
352.992	120.12
353.22	107.12
353.447	99.12
353.674	101.12
353.901	107.12
354.128	118.12
354.355	111.12
354.583	118.12
354.81	125.12
355.037	112.12
355.264	111.12
355.491	115.12
355.718	106.12
355.945	121.12
356.172	120.12
356.399	133.12
356.626	106.12
356.853	117.12
357.08	101.12
357.307	124.12
357.534	113.12
357.761	106.12
357.988	106.12
358.215	115.12
358.441	117.12
358.668	109.12
358.895	113.12
359.122	109.12
359.349	121.12
359.576	111.12
359.802	113.12
360.029	117.12
360.256	103.12
360.483	121.12
360.709	110.12
360.936	124.12
361.163	123.12
361.39	125.12
361.616	112.12
361.843	117.12
362.07	125.12
362.296	109.12
362.523	108.12
362.749	93.12
362.976	114.12
363.203	125.12
363.429	110.12
363.656	121.12
363.882	93.12
364.109	122.12
364.335	112.12
364.562	127.12
364.788	120.12
365.015	117.12
365.241	107.12
365.468	119.12
365.694	111.12
365.92	103.12
366.147	111.12
366.373	121.12
366.599	120.12
366.826	129.12
367.052	130.12
367.278	111.12
367.505	113.12
367.731	110.12
367.957	110.12
368.184	128.12
368.41	120.12
368.636	119.12
368.862	125.12
369.089	131.12
369.315	103.12
369.541	107.12
369.767	121.12
369.993	106.12
370.219	114.12
370.445	111.12
370.672	109.12
370.898	111.12
371.124	120.12
371.35	125.12
371.576	121.12
371.802	115.12
372.028	129.12
372.254	124.12
372.48	108.12
372.706	119.12
372.932	126.12
373.158	123.12
373.384	131.12
373.61	127.12
373.835	118.12
374.061	125.12
374.287	125.12
374.513	115.12
374.739	121.12
374.965	120.12
375.191	121.12
375.416	117.12
375.642	112.12
375.868	119.12
376.094	128.12
376.319	110.12
376.545	113.12
376.771	118.12
376.997	108.12
377.222	103.12
377.448	109.12
377.674	117.12
377.899	123.12
378.125	108.12
378.35	110.12
378.576	117.12
378.802	117.12
379.027	109.12
379.253	123.12
379.478	137.12
379.704	127.12
379.929	120.12
380.155	121.12
380.38	97.12
380.606	129.12
380.831	111.12
381.057	121.12
381.282	122.12
381.507	125.12
381.733	102.12
381.958	110.12
382.184	109.12
382.409	119.12
382.634	123.12
382.86	115.12
383.085	98.12
383.31	125.12
383.535	127.12
383.761	121.12
383.986	113.12
384.211	109.12
384.436	120.12
384.662	116.12
384.887	114.12
385.112	115.12
385.337	121.12
385.562	129.12
385.787	123.12
386.013	128.12
386.238	113.12
386.463	126.12
386.688	117.12
386.913	112.12
387.138	112.12
387.363	120.12
387.588	123.12
387.813	123.12
388.038	130.12
388.263	123.12
388.488	129.12
388.713	121.12
388.938	128.12
389.163	121.12
389.387	125.12
389.612	122.12
389.837	122.12
390.062	127.12
390.287	128.12
390.512	125.12
390.736	121.12
390.961	124.12
391.186	126.12
391.411	122.12
391.636	137.12
391.86	122.12
392.085	113.12
392.31	123.12
392.534	131.12
392.759	131.12
392.984	133.12
393.208	137.12
393.433	131.12
393.658	128.12
393.882	114.12
394.107	121.12
394.331	121.12
394.556	127.12
394.78	128.12
395.005	117.12
395.229	125.12
395.454	128.12
395.678	120.12
395.903	127.12
396.127	110.12
396.352	110.12
396.576	119.12
396.801	139.12
397.025	120.12
397.249	128.12
397.474	143.12
397.698	126.12
397.922	117.12
398.147	127.12
398.371	138.12
398.595	131.12
398.82	131.12
399.044	130.12
399.268	144.12
399.492	141.12
399.717	161.12
399.941	145.12
400.165	145.12
400.389	149.12
400.613	124.12
400.837	144.12
401.062	139.12
401.286	143.12
401.51	149.12
401.734	124.12
401.958	142.12
402.182	118.12
402.406	135.12
402.63	149.12
402.854	133.12
403.078	135.12
403.302	127.12
403.526	136.12
403.75	130.12
403.974	131.12
404.198	137.12
404.422	137.12
404.645	129.12
404.869	142.12
405.093	147.12
405.317	152.12
405.541	133.12
405.765	149.12
405.988	138.12
406.212	152.12
406.436	150.12
406.66	137.12
406.883	149.12
407.107	141.12
407.331	151.12
407.555	162.12
407.778	142.12
408.002	133.12
408.226	137.12
408.449	143.12
408.673	144.12
408.896	134.12
409.12	160.12
409.344	122.12
409.567	149.12
409.791	154.12
410.014	137.12
410.238	137.12
410.461	138.12
410.685	144.12
410.908	138.12
411.132	141.12
411.355	143.12
411.578	142.12
411.802	139.12
412.025	125.12
412.249	143.12
412.472	150.12
412.695	138.12
412.919	129.12
413.142	127.12
413.365	135.12
413.589	142.12
413.812	133.12
414.035	137.12
414.258	137.12
414.482	136.12
414.705	125.12
414.928	145.12
415.151	144.12
415.374	129.12
415.597	127.12
415.821	121.12
416.044	119.12
416.267	139.12
416.49	135.12
416.713	133.12
416.936	138.12
417.159	127.12
417.382	119.12
417.605	128.12
417.828	140.12
418.051	129.12
418.274	120.12
418.497	134.12
418.72	131.12
418.943	153.12
419.166	129.12
419.389	136.12
419.611	137.12
419.834	144.12
420.057	154.12
420.28	132.12
420.503	131.12
420.726	133.12
420.948	154.12
421.171	148.12
421.394	127.12
421.617	139.12
421.839	131.12
422.062	134.12
422.285	143.12
422.507	139.12
422.73	133.12
422.953	141.12
423.175	141.12
423.398	142.12
423.621	130.12
423.843	139.12
424.066	141.12
424.288	139.12
424.511	147.12
424.733	134.12
424.956	141.12
425.178	143.12
425.401	138.12
425.623	148.12
425.846	143.12
426.068	140.12
426.291	142.12
426.513	129.12
426.735	132.12
426.958	137.12
427.18	143.12
427.402	170.12
427.625	165.12
427.847	127.12
428.069	145.12
428.292	152.12
428.514	126.12
428.736	136.12
428.958	131.12
429.181	126.12
429.403	135.12
429.625	143.12
429.847	132.12
430.069	149.12
430.292	151.12
430.514	131.12
430.736	129.12
430.958	132.12
431.18	136.12
431.402	122.12
431.624	127.12
431.846	100.12
432.068	119.12
432.29	125.12
432.512	121.12
432.734	130.12
432.956	116.12
433.178	131.12
433.4	135.12
433.622	135.12
433.844	138.12
434.066	131.12
434.287	131.12
434.509	128.12
434.731	121.12
434.953	131.12
435.175	121.12
435.397	134.12
435.618	129.12
435.84	144.12
436.062	138.12
436.284	146.12
436.505	133.12
436.727	129.12
436.949	115.12
437.17	112.12
437.392	114.12
437.614	127.12
437.835	115.12
438.057	144.12
438.278	131.12
438.5	144.12
438.721	148.12
438.943	148.12
439.165	134.12
439.386	144.12
439.608	138.12
439.829	134.12
440.05	134.12
440.272	152.12
440.493	132.12
440.715	143.12
440.936	153.12
441.158	128.12
441.379	121.12
441.6	126.12
441.822	135.12
442.043	130.12
442.264	144.12
442.486	134.12
442.707	144.12
442.928	146.12
443.149	142.12
443.371	145.12
443.592	142.12
443.813	157.12
444.034	160.12
444.255	144.12
444.476	140.12
444.698	125.12
444.919	147.12
445.14	223.12
445.361	181.12
445.582	142.12
445.803	137.12
446.024	150.12
446.245	146.12
446.466	146.12
446.687	146.12
446.908	138.12
447.129	137.12
447.35	145.12
447.571	146.12
447.792	138.12
448.013	127.12
448.234	129.12
448.455	134.12
448.675	129.12
448.896	128.12
449.117	147.12
449.338	144.12
449.559	141.12
449.779	135.12
450	133.12
450.221	141.12
450.442	129.12
450.662	128.12
450.883	136.12
451.104	131.12
451.324	118.12
451.545	131.12
451.766	129.12
451.986	128.12
452.207	126.12
452.428	122.12
452.648	130.12
452.869	107.12
453.089	124.12
453.31	139.12
453.53	137.12
453.751	126.12
453.971	126.12
454.192	120.12
454.412	119.12
454.633	138.12
454.853	125.12
455.073	111.12
455.294	127.12
455.514	133.12
455.734	121.12
455.955	131.12
456.175	122.12
456.395	109.12
456.616	118.12
456.836	124.12
457.056	121.12
457.276	116.12
457.497	108.12
457.717	122.12
457.937	134.12
458.157	123.12
458.377	130.12
458.598	115.12
458.818	123.12
459.038	121.12
459.258	125.12
459.478	142.12
459.698	106.12
459.918	127.12
460.138	119.12
460.358	117.12
460.578	144.12
460.798	133.12
461.018	137.12
461.238	136.12
461.458	137.12
461.678	124.12
461.898	151.12
462.118	141.12
462.338	138.12
462.558	142.12
462.777	137.12
462.997	147.12
463.217	140.12
463.437	139.12
463.657	141.12
463.876	133.12
464.096	129.12
464.316	133.12
464.536	131.12
464.755	139.12
464.975	138.12
465.195	136.12
465.414	148.12
465.634	126.12
465.854	139.12
466.073	119.12
466.293	111.12
466.512	129.12
466.732	126.12
466.951	117.12
467.171	134.12
467.391	124.12
467.61	147.12
467.829	138.12
468.049	129.12
468.268	129.12
468.488	132.12
468.707	122.12
468.927	124.12
469.146	110.12
469.365	121.12
469.585	138.12
469.804	127.12
470.023	134.12
470.243	123.12
470.462	121.12
470.681	122.12
470.901	126.12
471.12	129.12
471.339	133.12
471.558	134.12
471.777	140.12
471.997	122.12
472.216	125.12
472.435	131.12
472.654	118.12
472.873	117.12
473.092	114.12
473.311	122.12
473.53	143.12
473.749	142.12
473.968	134.12
474.187	122.12
474.406	129.12
474.625	125.12
474.844	124.12
475.063	114.12
475.282	117.12
475.501	126.12
475.72	137.12
475.939	134.12
476.158	114.12
476.377	127.12
476.596	138.12
476.814	130.12
477.033	122.12
477.252	122.12
477.471	131.12
477.69	138.12
477.908	134.12
478.127	137.12
478.346	135.12
478.564	132.12
478.783	147.12
479.002	141.12
479.22	130.12
479.439	140.12
479.658	148.12
479.876	137.12
480.095	138.12
480.313	128.12
480.532	147.12
480.751	138.12
480.969	133.12
481.188	141.12
481.406	136.12
481.624	130.12
481.843	120.12
482.061	135.12
482.28	135.12
482.498	128.12
482.717	130.12
482.935	123.12
483.153	133.12
483.372	121.12
483.59	131.12
483.808	143.12
484.027	130.12
484.245	143.12
484.463	141.12
484.681	137.12
484.9	125.12
485.118	139.12
485.336	129.12
485.554	131.12
485.772	137.12
485.99	118.12
486.209	131.12
486.427	149.12
486.645	129.12
486.863	135.12
487.081	154.12
487.299	142.12
487.517	158.12
487.735	133.12
487.953	151.12
488.171	141.12
488.389	139.12
488.607	137.12
488.825	150.12
489.043	139.12
489.261	136.12
489.479	127.12
489.696	157.12
489.914	133.12
490.132	150.12
490.35	137.12
490.568	139.12
490.786	154.12
491.003	151.12
491.221	157.12
491.439	139.12
491.657	142.12
491.874	147.12
492.092	155.12
492.31	160.12
492.527	160.12
492.745	154.12
492.963	154.12
493.18	147.12
493.398	158.12
493.615	141.12
493.833	141.12
494.05	150.12
494.268	151.12
494.485	135.12
494.703	138.12
494.92	154.12
495.138	146.12
495.355	139.12
495.573	159.12
495.79	151.12
496.008	142.12
496.225	142.12
496.442	142.12
496.66	158.12
496.877	149.12
497.094	147.12
497.312	153.12
497.529	153.12
497.746	134.12
497.963	149.12
498.181	161.12
498.398	154.12
498.615	137.12
498.832	160.12
499.049	149.12
499.267	167.12
499.484	163.12
499.701	187.12
499.918	185.12
500.135	206.12
500.352	219.12
500.569	217.12
500.786	217.12
501.003	202.12
501.22	191.12
501.437	186.12
501.654	173.12
501.871	173.12
502.088	171.12
502.305	170.12
502.522	174.12
502.739	152.12
502.956	160.12
503.172	159.12
503.389	141.12
503.606	145.12
503.823	162.12
504.04	162.12
504.256	154.12
504.473	142.12
504.69	150.12
