Data from 1968.PennyLincolnUp.Lamp.En5.5.200Scan.071719.P1._HRD10591_14-49-14-968.txt Node
Date: Thu Jul 18 14:49:14 EDT 2019
User: cochatt
Spectrometer: HR+D1059
Trigger mode: 1
Integration Time (sec): 1.000000E-1
Scans to average: 1
Electric dark correction enabled: true
Nonlinearity correction enabled: false
Boxcar width: 0
XAxis mode: Wavelengths
Number of Pixels in Spectrum: 2048
>>>>>Begin Spectral Data<<<<<
223.165	-8
223.4	-8
223.635	-8
223.869	-11
224.104	-9
224.338	-15
224.573	-15
224.808	-9
225.042	-6
225.277	-4
225.511	-22
225.746	13
225.98	7
226.215	1
226.449	16
226.683	11
226.918	18
227.152	33
227.387	35
227.621	40
227.856	41
228.09	53
228.324	50
228.559	58
228.793	55
229.027	57
229.262	63
229.496	65
229.73	73
229.964	83
230.199	81
230.433	76
230.667	71
230.901	72
231.136	86
231.37	79
231.604	95
231.838	78
232.072	81
232.306	90
232.541	87
232.775	87
233.009	90
233.243	91
233.477	107
233.711	75
233.945	72
234.179	78
234.413	84
234.647	77
234.881	74
235.115	89
235.349	95
235.583	94
235.817	80
236.051	89
236.285	94
236.519	76
236.753	76
236.987	77
237.221	89
237.455	84
237.689	93
237.922	71
238.156	92
238.39	90
238.624	83
238.858	81
239.091	66
239.325	78
239.559	80
239.793	89
240.027	95
240.26	82
240.494	94
240.728	87
240.961	84
241.195	89
241.429	82
241.662	86
241.896	72
242.13	98
242.363	77
242.597	75
242.83	80
243.064	79
243.298	86
243.531	86
243.765	73
243.998	72
244.232	78
244.465	89
244.699	81
244.932	81
245.166	84
245.399	76
245.633	78
245.866	86
246.099	71
246.333	82
246.566	86
246.8	81
247.033	83
247.266	82
247.5	86
247.733	88
247.966	81
248.2	94
248.433	94
248.666	97
248.899	93
249.133	95
249.366	83
249.599	92
249.832	69
250.066	82
250.299	85
250.532	91
250.765	90
250.998	79
251.231	86
251.465	79
251.698	81
251.931	77
252.164	91
252.397	83
252.63	78
252.863	92
253.096	101
253.329	79
253.562	85
253.795	97
254.028	89
254.261	72
254.494	86
254.727	98
254.96	90
255.193	85
255.426	94
255.659	93
255.892	76
256.124	98
256.357	101
256.59	83
256.823	93
257.056	82
257.289	89
257.521	82
257.754	85
257.987	93
258.22	82
258.452	83
258.685	84
258.918	94
259.151	97
259.383	111
259.616	95
259.849	88
260.081	84
260.314	95
260.547	85
260.779	85
261.012	95
261.244	91
261.477	79
261.71	74
261.942	79
262.175	84
262.407	95
262.64	86
262.872	80
263.105	107
263.337	93
263.57	92
263.802	99
264.035	110
264.267	92
264.499	86
264.732	90
264.964	103
265.197	92
265.429	100
265.661	90
265.894	95
266.126	98
266.358	79
266.591	97
266.823	91
267.055	81
267.287	86
267.52	79
267.752	89
267.984	89
268.216	93
268.448	100
268.681	92
268.913	96
269.145	102
269.377	89
269.609	85
269.841	85
270.073	73
270.306	93
270.538	85
270.77	87
271.002	83
271.234	102
271.466	91
271.698	98
271.93	76
272.162	105
272.394	97
272.626	98
272.858	103
273.09	105
273.322	98
273.553	107
273.785	94
274.017	104
274.249	99
274.481	100
274.713	83
274.945	99
275.176	96
275.408	95
275.64	106
275.872	88
276.104	100
276.335	93
276.567	99
276.799	91
277.031	87
277.262	81
277.494	98
277.726	85
277.957	105
278.189	94
278.421	98
278.652	89
278.884	89
279.115	101
279.347	102
279.579	97
279.81	90
280.042	98
280.273	96
280.505	101
280.736	92
280.968	92
281.199	98
281.431	101
281.662	90
281.894	86
282.125	88
282.356	109
282.588	100
282.819	100
283.051	88
283.282	78
283.513	113
283.745	94
283.976	96
284.207	102
284.439	104
284.67	98
284.901	106
285.132	111
285.364	106
285.595	119
285.826	106
286.057	93
286.288	94
286.52	91
286.751	85
286.982	115
287.213	116
287.444	98
287.675	95
287.906	100
288.138	100
288.369	94
288.6	105
288.831	96
289.062	107
289.293	102
289.524	110
289.755	97
289.986	101
290.217	116
290.448	101
290.679	93
290.91	98
291.141	100
291.371	117
291.602	89
291.833	100
292.064	98
292.295	92
292.526	106
292.757	99
292.987	105
293.218	78
293.449	98
293.68	99
293.91	99
294.141	89
294.372	105
294.603	99
294.833	97
295.064	97
295.295	107
295.525	97
295.756	101
295.987	117
296.217	94
296.448	105
296.679	113
296.909	110
297.14	102
297.37	108
297.601	101
297.831	106
298.062	106
298.292	106
298.523	126
298.753	111
298.984	118
299.214	105
299.445	117
299.675	102
299.905	113
300.136	117
300.366	90
300.597	97
300.827	104
301.057	110
301.288	101
301.518	113
301.748	118
301.979	109
302.209	104
302.439	100
302.669	100
302.9	98
303.13	110
303.36	102
303.59	113
303.82	97
304.051	107
304.281	99
304.511	104
304.741	102
304.971	109
305.201	105
305.431	102
305.661	104
305.891	112
306.121	119
306.352	92
306.582	107
306.812	100
307.042	95
307.272	98
307.502	107
307.731	95
307.961	101
308.191	96
308.421	109
308.651	113
308.881	113
309.111	93
309.341	97
309.571	105
309.8	103
310.03	116
310.26	108
310.49	107
310.72	113
310.949	108
311.179	105
311.409	101
311.639	109
311.868	117
312.098	110
312.328	99
312.557	108
312.787	102
313.017	106
313.246	110
313.476	101
313.706	107
313.935	115
314.165	110
314.394	109
314.624	99
314.853	101
315.083	116
315.312	96
315.542	112
315.771	102
316.001	113
316.23	105
316.46	106
316.689	89
316.919	102
317.148	98
317.377	115
317.607	119
317.836	115
318.065	103
318.295	105
318.524	108
318.753	98
318.983	117
319.212	106
319.441	105
319.67	111
319.9	93
320.129	108
320.358	105
320.587	104
320.816	115
321.046	98
321.275	115
321.504	109
321.733	108
321.962	124
322.191	113
322.42	116
322.649	107
322.878	103
323.108	116
323.337	101
323.566	102
323.795	101
324.024	117
324.253	103
324.482	119
324.71	139
324.939	138
325.168	138
325.397	104
325.626	102
325.855	108
326.084	99
326.313	108
326.542	108
326.77	116
326.999	107
327.228	107
327.457	134
327.686	133
327.914	129
328.143	120
328.372	107
328.6	113
328.829	104
329.058	115
329.287	118
329.515	115
329.744	131
329.972	120
330.201	113
330.43	123
330.658	113
330.887	113
331.115	117
331.344	113
331.572	115
331.801	114
332.03	106
332.258	99
332.486	119
332.715	127
332.943	114
333.172	126
333.4	125
333.629	104
333.857	121
334.085	94
334.314	107
334.542	118
334.771	122
334.999	133
335.227	123
335.455	107
335.684	120
335.912	119
336.14	104
336.369	119
336.597	100
336.825	119
337.053	121
337.281	118
337.51	101
337.738	118
337.966	103
338.194	107
338.422	107
338.65	121
338.878	116
339.106	108
339.334	127
339.562	104
339.79	126
340.018	101
340.246	115
340.474	110
340.702	103
340.93	105
341.158	107
341.386	104
341.614	118
341.842	105
342.07	100
342.298	105
342.526	111
342.754	101
342.981	115
343.209	98
343.437	121
343.665	105
343.893	109
344.12	122
344.348	101
344.576	110
344.804	116
345.031	113
345.259	113
345.487	113
345.714	115
345.942	102
346.17	103
346.397	113
346.625	121
346.853	115
347.08	106
347.308	114
347.535	123
347.763	102
347.99	127
348.218	100
348.445	129
348.673	99
348.9	105
349.128	105
349.355	108
349.583	113
349.81	117
350.037	109
350.265	122
350.492	105
350.72	125
350.947	112
351.174	95
351.402	106
351.629	94
351.856	102
352.083	102
352.311	93
352.538	117
352.765	97
352.992	110
353.22	110
353.447	107
353.674	105
353.901	117
354.128	118
354.355	101
354.583	116
354.81	123
355.037	106
355.264	107
355.491	112
355.718	105
355.945	100
356.172	118
356.399	103
356.626	121
356.853	102
357.08	101
357.307	113
357.534	108
357.761	102
357.988	121
358.215	104
358.441	101
358.668	102
358.895	101
359.122	116
359.349	108
359.576	99
359.802	102
360.029	101
360.256	106
360.483	125
360.709	116
360.936	107
361.163	119
361.39	126
361.616	110
361.843	115
362.07	123
362.296	114
362.523	105
362.749	115
362.976	108
363.203	117
363.429	98
363.656	100
363.882	109
364.109	100
364.335	109
364.562	117
364.788	106
365.015	115
365.241	90
365.468	98
365.694	109
365.92	116
366.147	98
366.373	113
366.599	115
366.826	114
367.052	105
367.278	101
367.505	118
367.731	118
367.957	102
368.184	90
368.41	123
368.636	105
368.862	105
369.089	93
369.315	97
369.541	109
369.767	99
369.993	115
370.219	113
370.445	101
370.672	122
370.898	112
371.124	117
371.35	112
371.576	108
371.802	98
372.028	106
372.254	104
372.48	119
372.706	109
372.932	126
373.158	107
373.384	103
373.61	115
373.835	109
374.061	123
374.287	107
374.513	102
374.739	117
374.965	110
375.191	101
375.416	129
375.642	110
375.868	115
376.094	128
376.319	117
376.545	116
376.771	106
376.997	111
377.222	92
377.448	107
377.674	119
377.899	100
378.125	102
378.35	105
378.576	89
378.802	103
379.027	116
379.253	131
379.478	109
379.704	108
379.929	127
380.155	105
380.38	108
380.606	115
380.831	113
381.057	113
381.282	114
381.507	121
381.733	99
381.958	122
382.184	111
382.409	110
382.634	111
382.86	103
383.085	103
383.31	102
383.535	104
383.761	106
383.986	105
384.211	107
384.436	102
384.662	107
384.887	129
385.112	132
385.337	115
385.562	101
385.787	117
386.013	134
386.238	105
386.463	129
386.688	108
386.913	113
387.138	117
387.363	122
387.588	117
387.813	115
388.038	106
388.263	110
388.488	125
388.713	107
388.938	106
389.163	120
389.387	120
389.612	116
389.837	124
390.062	115
390.287	138
390.512	124
390.736	115
390.961	119
391.186	115
391.411	129
391.636	118
391.86	115
392.085	123
392.31	130
392.534	124
392.759	133
392.984	123
393.208	135
393.433	130
393.658	119
393.882	124
394.107	120
394.331	126
394.556	107
394.78	117
395.005	110
395.229	93
395.454	121
395.678	121
395.903	133
396.127	125
396.352	128
396.576	101
396.801	115
397.025	109
397.249	126
397.474	117
397.698	115
397.922	113
398.147	125
398.371	128
398.595	129
398.82	119
399.044	127
399.268	133
399.492	131
399.717	161
399.941	156
400.165	141
400.389	142
400.613	132
400.837	141
401.062	129
401.286	125
401.51	123
401.734	113
401.958	106
402.182	129
402.406	127
402.63	144
402.854	129
403.078	137
403.302	129
403.526	127
403.75	130
403.974	139
404.198	125
404.422	128
404.645	145
404.869	140
405.093	130
405.317	129
405.541	127
405.765	142
405.988	129
406.212	141
406.436	137
406.66	135
406.883	135
407.107	151
407.331	127
407.555	132
407.778	144
408.002	122
408.226	134
408.449	123
408.673	129
408.896	147
409.12	144
409.344	134
409.567	125
409.791	123
410.014	145
410.238	138
410.461	131
410.685	129
410.908	129
411.132	132
411.355	130
411.578	132
411.802	141
412.025	136
412.249	127
412.472	134
412.695	125
412.919	123
413.142	116
413.365	141
413.589	131
413.812	121
414.035	121
414.258	110
414.482	116
414.705	118
414.928	125
415.151	126
415.374	124
415.597	127
415.821	143
416.044	133
416.267	122
416.49	127
416.713	132
416.936	117
417.159	126
417.382	122
417.605	131
417.828	117
418.051	131
418.274	142
418.497	115
418.72	126
418.943	136
419.166	142
419.389	139
419.611	143
419.834	142
420.057	131
420.28	130
420.503	126
420.726	134
420.948	125
421.171	130
421.394	127
421.617	133
421.839	133
422.062	123
422.285	144
422.507	138
422.73	137
422.953	141
423.175	148
423.398	119
423.621	126
423.843	128
424.066	126
424.288	149
424.511	133
424.733	138
424.956	154
425.178	141
425.401	133
425.623	135
425.846	118
426.068	115
426.291	119
426.513	130
426.735	113
426.958	131
427.18	135
427.402	130
427.625	121
427.847	129
428.069	132
428.292	125
428.514	125
428.736	126
428.958	123
429.181	118
429.403	131
429.625	132
429.847	121
430.069	144
430.292	130
430.514	129
430.736	113
430.958	128
431.18	126
431.402	124
431.624	120
431.846	129
432.068	121
432.29	103
432.512	119
432.734	120
432.956	128
433.178	127
433.4	135
433.622	118
433.844	137
434.066	131
434.287	114
434.509	118
434.731	128
434.953	129
435.175	143
435.397	126
435.618	132
435.84	138
436.062	129
436.284	131
436.505	117
436.727	110
436.949	122
437.17	111
437.392	129
437.614	122
437.835	141
438.057	143
438.278	129
438.5	134
438.721	139
438.943	140
439.165	128
439.386	128
439.608	127
439.829	137
440.05	119
440.272	130
440.493	127
440.715	138
440.936	130
441.158	138
441.379	136
441.6	123
441.822	134
442.043	136
442.264	133
442.486	138
442.707	126
442.928	123
443.149	135
443.371	138
443.592	124
443.813	136
444.034	157
444.255	135
444.476	139
444.698	136
444.919	140
445.14	274
445.361	187
445.582	141
445.803	138
446.024	136
446.245	137
446.466	142
446.687	143
446.908	115
447.129	124
447.35	108
447.571	103
447.792	123
448.013	126
448.234	127
448.455	105
448.675	132
448.896	140
449.117	140
449.338	129
449.559	138
449.779	139
450	126
450.221	124
450.442	125
450.662	124
450.883	123
451.104	124
451.324	103
451.545	119
451.766	114
451.986	118
452.207	118
452.428	118
452.648	117
452.869	123
453.089	119
453.31	121
453.53	114
453.751	115
453.971	134
454.192	124
454.412	117
454.633	126
454.853	137
455.073	114
455.294	125
455.514	135
455.734	129
455.955	115
456.175	116
456.395	104
456.616	126
456.836	124
457.056	122
457.276	110
457.497	117
457.717	120
457.937	113
458.157	135
458.377	115
458.598	113
458.818	131
459.038	118
459.258	131
459.478	125
459.698	102
459.918	129
460.138	135
460.358	126
460.578	143
460.798	147
461.018	121
461.238	137
461.458	145
461.678	132
461.898	137
462.118	135
462.338	141
462.558	129
462.777	123
462.997	145
463.217	141
463.437	128
463.657	151
463.876	149
464.096	142
464.316	143
464.536	132
464.755	140
464.975	131
465.195	122
465.414	136
465.634	126
465.854	117
466.073	126
466.293	124
466.512	123
466.732	131
466.951	118
467.171	128
467.391	123
467.61	121
467.829	115
468.049	124
468.268	126
468.488	125
468.707	131
468.927	123
469.146	107
469.365	125
469.585	123
469.804	115
470.023	129
470.243	124
470.462	113
470.681	126
470.901	137
471.12	126
471.339	117
471.558	107
471.777	113
471.997	105
472.216	118
472.435	121
472.654	112
472.873	110
473.092	125
473.311	115
473.53	124
473.749	127
473.968	129
474.187	127
474.406	135
474.625	116
474.844	122
475.063	142
475.282	116
475.501	123
475.72	120
475.939	130
476.158	126
476.377	125
476.596	115
476.814	113
477.033	130
477.252	133
477.471	129
477.69	133
477.908	123
478.127	151
478.346	125
478.564	123
478.783	135
479.002	134
479.22	133
479.439	129
479.658	126
479.876	137
480.095	125
480.313	133
480.532	150
480.751	129
480.969	139
481.188	130
481.406	136
481.624	128
481.843	129
482.061	126
482.28	131
482.498	125
482.717	135
482.935	106
483.153	125
483.372	127
483.59	145
483.808	137
484.027	134
484.245	129
484.463	134
484.681	125
484.9	143
485.118	148
485.336	132
485.554	142
485.772	143
485.99	127
486.209	148
486.427	130
486.645	124
486.863	122
487.081	130
487.299	134
487.517	138
487.735	149
487.953	147
488.171	144
488.389	134
488.607	139
488.825	137
489.043	135
489.261	139
489.479	124
489.696	141
489.914	139
490.132	141
490.35	138
490.568	149
490.786	143
491.003	131
491.221	151
491.439	168
491.657	143
491.874	152
492.092	148
492.31	154
492.527	157
492.745	140
492.963	153
493.18	151
493.398	141
493.615	142
493.833	137
494.05	137
494.268	145
494.485	146
494.703	133
494.92	149
495.138	141
495.355	138
495.573	145
495.79	142
496.008	153
496.225	141
496.442	139
496.66	136
496.877	139
497.094	133
497.312	129
497.529	143
497.746	153
497.963	141
498.181	136
498.398	170
498.615	154
498.832	165
499.049	163
499.267	171
499.484	154
499.701	188
499.918	206
500.135	198
500.352	206
500.569	214
500.786	208
501.003	218
501.22	198
501.437	196
501.654	191
501.871	187
502.088	165
502.305	162
502.522	172
502.739	154
502.956	145
503.172	166
503.389	150
503.606	144
503.823	140
504.04	133
504.256	148
504.473	153
504.69	142
504.907	167
505.123	154
505.34	123
505.557	137
505.773	130
505.99	126
506.207	129
506.423	144
506.64	144
506.856	132
507.073	135
507.289	140
507.506	128
507.722	126
507.939	133
508.155	139
508.372	126
508.588	140
508.805	143
509.021	142
509.238	132
509.454	166
509.67	131
509.887	137
510.103	137
510.319	119
510.536	127
510.752	154
510.968	137
511.184	130
511.401	121
511.617	124
511.833	131
512.049	126
512.265	120
512.481	128
512.698	114
512.914	127
513.13	131
513.346	112
513.562	115
513.778	117
513.994	122
514.21	142
514.426	121
514.642	132
514.858	130
515.074	133
515.29	143
515.506	144
515.721	147
515.937	129
516.153	135
516.369	143
516.585	137
516.801	148
517.016	135
517.232	121
517.448	129
517.664	143
517.879	135
518.095	149
518.311	145
518.527	131
518.742	140
518.958	141
519.173	137
519.389	135
519.605	139
519.82	129
520.036	129
520.251	114
520.467	131
520.682	143
520.898	135
521.113	149
521.329	135
521.544	142
521.76	142
521.975	153
522.19	143
522.406	132
522.621	119
522.836	126
523.052	127
523.267	133
523.482	140
523.698	122
523.913	119
524.128	140
524.343	131
524.559	123
524.774	134
524.989	125
525.204	137
525.419	137
525.634	106
525.849	105
526.064	121
526.28	130
526.495	130
526.71	118
526.925	118
527.14	112
527.355	110
527.57	123
527.785	137
527.999	125
528.214	119
528.429	122
528.644	127
528.859	118
529.074	123
529.289	109
529.503	118
529.718	127
529.933	133
530.148	134
530.363	126
530.577	122
530.792	124
531.007	124
531.221	125
531.436	113
531.651	110
531.865	117
532.08	123
532.295	121
532.509	110
532.724	107
532.938	125
533.153	129
533.367	130
533.582	117
533.796	103
534.011	131
534.225	133
534.44	125
534.654	106
534.868	107
535.083	104
535.297	130
535.511	130
535.726	128
535.94	136
536.154	121
536.369	125
536.583	111
536.797	106
537.011	119
537.225	123
537.44	121
537.654	119
537.868	110
538.082	115
538.296	117
538.51	111
538.724	123
538.938	122
539.153	123
539.367	125
539.581	120
539.795	127
540.009	134
540.222	117
540.436	115
540.65	114
540.864	126
541.078	127
541.292	123
541.506	114
541.72	131
541.934	141
542.147	129
542.361	134
542.575	131
542.789	128
543.002	132
543.216	146
543.43	133
543.644	124
543.857	133
544.071	147
544.285	152
544.498	138
544.712	135
544.925	140
545.139	114
545.352	133
545.566	125
545.779	130
545.993	141
546.206	143
546.42	144
546.633	127
546.847	127
547.06	121
547.274	121
547.487	138
547.7	124
547.914	122
548.127	131
548.34	135
548.554	110
548.767	121
548.98	125
549.193	127
549.407	129
549.62	117
549.833	127
550.046	132
550.259	129
550.473	129
550.686	138
550.899	122
551.112	119
551.325	125
551.538	122
551.751	122
551.964	124
552.177	133
552.39	133
552.603	123
552.816	133
553.029	139
553.242	133
553.455	127
553.667	131
553.88	142
554.093	128
554.306	130
554.519	115
554.732	117
554.944	119
555.157	122
555.37	108
555.583	115
555.795	113
556.008	117
556.221	109
556.433	113
556.646	123
556.859	122
557.071	116
557.284	117
557.496	117
557.709	118
557.921	118
558.134	119
558.346	106
558.559	124
558.771	113
558.984	123
559.196	113
559.409	109
559.621	105
559.833	111
560.046	121
560.258	99
560.47	123
560.683	109
560.895	110
561.107	126
561.32	118
561.532	106
561.744	118
561.956	104
562.168	115
562.381	113
562.593	117
562.805	126
563.017	117
563.229	123
563.441	123
563.653	103
563.865	123
564.077	113
564.289	107
564.501	117
564.713	110
564.925	127
565.137	114
565.349	127
565.561	108
565.773	135
565.985	113
566.197	126
566.408	129
566.62	133
566.832	129
567.044	130
567.255	131
567.467	157
567.679	136
567.891	139
568.102	153
568.314	141
