Data from 1968.PennyLincolnUp.Lamp.En5.5.200Scan.071719.P1._HRD10591_14-51-28-969.txt Node
Date: Thu Jul 18 14:51:28 EDT 2019
User: cochatt
Spectrometer: HR+D1059
Trigger mode: 1
Integration Time (sec): 1.000000E-1
Scans to average: 1
Electric dark correction enabled: true
Nonlinearity correction enabled: false
Boxcar width: 0
XAxis mode: Wavelengths
Number of Pixels in Spectrum: 2048
>>>>>Begin Spectral Data<<<<<
223.165	-13.12
223.4	-13.12
223.635	-13.12
223.869	-30.12
224.104	-27.12
224.338	-18.12
224.573	-13.12
224.808	-17.12
225.042	5.88
225.277	-5.12
225.511	0.88
225.746	7.88
225.98	3.88
226.215	16.88
226.449	8.88
226.683	21.88
226.918	28.88
227.152	28.88
227.387	22.88
227.621	33.88
227.856	42.88
228.09	47.88
228.324	51.88
228.559	43.88
228.793	60.88
229.027	70.88
229.262	76.88
229.496	62.88
229.73	75.88
229.964	68.88
230.199	62.88
230.433	68.88
230.667	71.88
230.901	68.88
231.136	86.88
231.37	63.88
231.604	80.88
231.838	91.88
232.072	84.88
232.306	83.88
232.541	88.88
232.775	95.88
233.009	92.88
233.243	82.88
233.477	81.88
233.711	90.88
233.945	76.88
234.179	81.88
234.413	80.88
234.647	70.88
234.881	74.88
235.115	85.88
235.349	86.88
235.583	98.88
235.817	78.88
236.051	91.88
236.285	70.88
236.519	83.88
236.753	68.88
236.987	91.88
237.221	84.88
237.455	86.88
237.689	99.88
237.922	85.88
238.156	76.88
238.39	82.88
238.624	88.88
238.858	91.88
239.091	73.88
239.325	81.88
239.559	87.88
239.793	86.88
240.027	71.88
240.26	79.88
240.494	83.88
240.728	73.88
240.961	86.88
241.195	69.88
241.429	83.88
241.662	77.88
241.896	75.88
242.13	67.88
242.363	92.88
242.597	97.88
242.83	84.88
243.064	76.88
243.298	87.88
243.531	85.88
243.765	75.88
243.998	79.88
244.232	78.88
244.465	89.88
244.699	83.88
244.932	95.88
245.166	104.88
245.399	83.88
245.633	92.88
245.866	83.88
246.099	76.88
246.333	95.88
246.566	88.88
246.8	83.88
247.033	103.88
247.266	80.88
247.5	89.88
247.733	82.88
247.966	90.88
248.2	96.88
248.433	91.88
248.666	88.88
248.899	80.88
249.133	90.88
249.366	89.88
249.599	99.88
249.832	91.88
250.066	85.88
250.299	73.88
250.532	76.88
250.765	87.88
250.998	90.88
251.231	90.88
251.465	67.88
251.698	90.88
251.931	88.88
252.164	92.88
252.397	92.88
252.63	77.88
252.863	78.88
253.096	92.88
253.329	87.88
253.562	89.88
253.795	88.88
254.028	91.88
254.261	90.88
254.494	93.88
254.727	89.88
254.96	94.88
255.193	104.88
255.426	102.88
255.659	85.88
255.892	88.88
256.124	84.88
256.357	88.88
256.59	80.88
256.823	83.88
257.056	84.88
257.289	94.88
257.521	93.88
257.754	91.88
257.987	90.88
258.22	93.88
258.452	96.88
258.685	83.88
258.918	82.88
259.151	91.88
259.383	89.88
259.616	97.88
259.849	108.88
260.081	79.88
260.314	92.88
260.547	85.88
260.779	108.88
261.012	84.88
261.244	85.88
261.477	108.88
261.71	94.88
261.942	77.88
262.175	86.88
262.407	105.88
262.64	93.88
262.872	100.88
263.105	90.88
263.337	88.88
263.57	106.88
263.802	100.88
264.035	83.88
264.267	86.88
264.499	98.88
264.732	98.88
264.964	95.88
265.197	83.88
265.429	82.88
265.661	94.88
265.894	95.88
266.126	87.88
266.358	108.88
266.591	97.88
266.823	91.88
267.055	100.88
267.287	94.88
267.52	90.88
267.752	90.88
267.984	83.88
268.216	93.88
268.448	95.88
268.681	97.88
268.913	87.88
269.145	94.88
269.377	80.88
269.609	90.88
269.841	103.88
270.073	98.88
270.306	101.88
270.538	98.88
270.77	92.88
271.002	94.88
271.234	98.88
271.466	95.88
271.698	79.88
271.93	86.88
272.162	94.88
272.394	92.88
272.626	76.88
272.858	101.88
273.09	92.88
273.322	93.88
273.553	92.88
273.785	93.88
274.017	91.88
274.249	100.88
274.481	99.88
274.713	98.88
274.945	90.88
275.176	86.88
275.408	104.88
275.64	117.88
275.872	90.88
276.104	105.88
276.335	101.88
276.567	86.88
276.799	93.88
277.031	110.88
277.262	94.88
277.494	111.88
277.726	90.88
277.957	102.88
278.189	87.88
278.421	110.88
278.652	99.88
278.884	107.88
279.115	95.88
279.347	86.88
279.579	116.88
279.81	103.88
280.042	102.88
280.273	106.88
280.505	93.88
280.736	92.88
280.968	95.88
281.199	105.88
281.431	99.88
281.662	106.88
281.894	88.88
282.125	93.88
282.356	95.88
282.588	110.88
282.819	108.88
283.051	116.88
283.282	102.88
283.513	107.88
283.745	108.88
283.976	99.88
284.207	112.88
284.439	95.88
284.67	100.88
284.901	107.88
285.132	97.88
285.364	102.88
285.595	116.88
285.826	98.88
286.057	102.88
286.288	100.88
286.52	90.88
286.751	97.88
286.982	100.88
287.213	110.88
287.444	108.88
287.675	111.88
287.906	112.88
288.138	105.88
288.369	100.88
288.6	101.88
288.831	100.88
289.062	100.88
289.293	100.88
289.524	97.88
289.755	104.88
289.986	85.88
290.217	92.88
290.448	87.88
290.679	96.88
290.91	99.88
291.141	100.88
291.371	110.88
291.602	97.88
291.833	95.88
292.064	112.88
292.295	99.88
292.526	108.88
292.757	94.88
292.987	96.88
293.218	100.88
293.449	96.88
293.68	113.88
293.91	106.88
294.141	105.88
294.372	96.88
294.603	107.88
294.833	121.88
295.064	101.88
295.295	114.88
295.525	93.88
295.756	109.88
295.987	92.88
296.217	101.88
296.448	118.88
296.679	110.88
296.909	106.88
297.14	114.88
297.37	86.88
297.601	96.88
297.831	102.88
298.062	124.88
298.292	102.88
298.523	105.88
298.753	100.88
298.984	98.88
299.214	115.88
299.445	94.88
299.675	104.88
299.905	99.88
300.136	104.88
300.366	117.88
300.597	114.88
300.827	109.88
301.057	104.88
301.288	92.88
301.518	103.88
301.748	114.88
301.979	116.88
302.209	95.88
302.439	118.88
302.669	113.88
302.9	107.88
303.13	98.88
303.36	128.88
303.59	105.88
303.82	125.88
304.051	111.88
304.281	102.88
304.511	109.88
304.741	116.88
304.971	112.88
305.201	96.88
305.431	109.88
305.661	109.88
305.891	109.88
306.121	113.88
306.352	100.88
306.582	104.88
306.812	101.88
307.042	102.88
307.272	111.88
307.502	116.88
307.731	104.88
307.961	114.88
308.191	107.88
308.421	107.88
308.651	112.88
308.881	112.88
309.111	111.88
309.341	107.88
309.571	100.88
309.8	113.88
310.03	108.88
310.26	120.88
310.49	103.88
310.72	102.88
310.949	100.88
311.179	96.88
311.409	110.88
311.639	111.88
311.868	110.88
312.098	92.88
312.328	104.88
312.557	119.88
312.787	106.88
313.017	102.88
313.246	109.88
313.476	101.88
313.706	93.88
313.935	98.88
314.165	121.88
314.394	100.88
314.624	110.88
314.853	107.88
315.083	114.88
315.312	125.88
315.542	103.88
315.771	109.88
316.001	120.88
316.23	109.88
316.46	112.88
316.689	116.88
316.919	108.88
317.148	105.88
317.377	121.88
317.607	114.88
317.836	96.88
318.065	108.88
318.295	123.88
318.524	116.88
318.753	100.88
318.983	98.88
319.212	105.88
319.441	119.88
319.67	111.88
319.9	119.88
320.129	122.88
320.358	110.88
320.587	116.88
320.816	107.88
321.046	110.88
321.275	124.88
321.504	108.88
321.733	114.88
321.962	103.88
322.191	120.88
322.42	105.88
322.649	100.88
322.878	122.88
323.108	107.88
323.337	109.88
323.566	110.88
323.795	114.88
324.024	124.88
324.253	124.88
324.482	137.88
324.71	152.88
324.939	179.88
325.168	179.88
325.397	137.88
325.626	130.88
325.855	112.88
326.084	111.88
326.313	115.88
326.542	127.88
326.77	125.88
326.999	117.88
327.228	134.88
327.457	165.88
327.686	152.88
327.914	130.88
328.143	142.88
328.372	125.88
328.6	122.88
328.829	124.88
329.058	127.88
329.287	115.88
329.515	121.88
329.744	110.88
329.972	122.88
330.201	108.88
330.43	119.88
330.658	130.88
330.887	115.88
331.115	117.88
331.344	104.88
331.572	107.88
331.801	122.88
332.03	112.88
332.258	126.88
332.486	130.88
332.715	106.88
332.943	119.88
333.172	109.88
333.4	122.88
333.629	126.88
333.857	130.88
334.085	116.88
334.314	127.88
334.542	119.88
334.771	124.88
334.999	123.88
335.227	125.88
335.455	117.88
335.684	104.88
335.912	120.88
336.14	117.88
336.369	104.88
336.597	114.88
336.825	114.88
337.053	107.88
337.281	116.88
337.51	117.88
337.738	124.88
337.966	101.88
338.194	122.88
338.422	121.88
338.65	109.88
338.878	123.88
339.106	121.88
339.334	119.88
339.562	117.88
339.79	116.88
340.018	117.88
340.246	105.88
340.474	117.88
340.702	101.88
340.93	104.88
341.158	100.88
341.386	111.88
341.614	119.88
341.842	111.88
342.07	118.88
342.298	116.88
342.526	122.88
342.754	115.88
342.981	107.88
343.209	130.88
343.437	126.88
343.665	113.88
343.893	108.88
344.12	126.88
344.348	120.88
344.576	118.88
344.804	110.88
345.031	124.88
345.259	106.88
345.487	114.88
345.714	104.88
345.942	106.88
346.17	111.88
346.397	99.88
346.625	122.88
346.853	111.88
347.08	103.88
347.308	99.88
347.535	99.88
347.763	105.88
347.99	114.88
348.218	116.88
348.445	107.88
348.673	120.88
348.9	123.88
349.128	127.88
349.355	107.88
349.583	123.88
349.81	126.88
350.037	123.88
350.265	105.88
350.492	118.88
350.72	120.88
350.947	107.88
351.174	130.88
351.402	104.88
351.629	110.88
351.856	110.88
352.083	103.88
352.311	121.88
352.538	103.88
352.765	95.88
352.992	117.88
353.22	110.88
353.447	111.88
353.674	122.88
353.901	120.88
354.128	112.88
354.355	116.88
354.583	110.88
354.81	117.88
355.037	104.88
355.264	103.88
355.491	123.88
355.718	107.88
355.945	100.88
356.172	99.88
356.399	128.88
356.626	119.88
356.853	99.88
357.08	108.88
357.307	114.88
357.534	116.88
357.761	118.88
357.988	118.88
358.215	116.88
358.441	122.88
358.668	114.88
358.895	109.88
359.122	108.88
359.349	103.88
359.576	110.88
359.802	114.88
360.029	96.88
360.256	111.88
360.483	108.88
360.709	119.88
360.936	103.88
361.163	113.88
361.39	106.88
361.616	101.88
361.843	121.88
362.07	115.88
362.296	124.88
362.523	120.88
362.749	116.88
362.976	114.88
363.203	92.88
363.429	109.88
363.656	127.88
363.882	111.88
364.109	119.88
364.335	112.88
364.562	105.88
364.788	102.88
365.015	102.88
365.241	118.88
365.468	111.88
365.694	110.88
365.92	115.88
366.147	114.88
366.373	105.88
366.599	102.88
366.826	111.88
367.052	114.88
367.278	112.88
367.505	119.88
367.731	119.88
367.957	91.88
368.184	110.88
368.41	98.88
368.636	128.88
368.862	122.88
369.089	101.88
369.315	102.88
369.541	98.88
369.767	107.88
369.993	102.88
370.219	119.88
370.445	114.88
370.672	113.88
370.898	108.88
371.124	110.88
371.35	110.88
371.576	119.88
371.802	115.88
372.028	118.88
372.254	94.88
372.48	114.88
372.706	123.88
372.932	114.88
373.158	115.88
373.384	98.88
373.61	112.88
373.835	121.88
374.061	112.88
374.287	95.88
374.513	99.88
374.739	117.88
374.965	114.88
375.191	118.88
375.416	126.88
375.642	107.88
375.868	122.88
376.094	101.88
376.319	110.88
376.545	103.88
376.771	104.88
376.997	105.88
377.222	114.88
377.448	100.88
377.674	111.88
377.899	112.88
378.125	108.88
378.35	120.88
378.576	118.88
378.802	112.88
379.027	111.88
379.253	122.88
379.478	124.88
379.704	113.88
379.929	124.88
380.155	121.88
380.38	123.88
380.606	115.88
380.831	115.88
381.057	103.88
381.282	118.88
381.507	119.88
381.733	110.88
381.958	94.88
382.184	111.88
382.409	111.88
382.634	127.88
382.86	114.88
383.085	121.88
383.31	116.88
383.535	106.88
383.761	111.88
383.986	123.88
384.211	104.88
384.436	115.88
384.662	111.88
384.887	113.88
385.112	128.88
385.337	117.88
385.562	111.88
385.787	122.88
386.013	136.88
386.238	128.88
386.463	129.88
386.688	127.88
386.913	104.88
387.138	122.88
387.363	107.88
387.588	128.88
387.813	125.88
388.038	126.88
388.263	118.88
388.488	125.88
388.713	117.88
388.938	111.88
389.163	100.88
389.387	115.88
389.612	122.88
389.837	119.88
390.062	106.88
390.287	130.88
390.512	109.88
390.736	122.88
390.961	110.88
391.186	142.88
391.411	144.88
391.636	120.88
391.86	115.88
392.085	112.88
392.31	128.88
392.534	130.88
392.759	105.88
392.984	128.88
393.208	124.88
393.433	123.88
393.658	109.88
393.882	107.88
394.107	106.88
394.331	112.88
394.556	124.88
394.78	123.88
395.005	121.88
395.229	119.88
395.454	123.88
395.678	124.88
395.903	121.88
396.127	128.88
396.352	129.88
396.576	138.88
396.801	115.88
397.025	111.88
397.249	126.88
397.474	122.88
397.698	120.88
397.922	121.88
398.147	122.88
398.371	123.88
398.595	127.88
398.82	139.88
399.044	133.88
399.268	154.88
399.492	151.88
399.717	144.88
399.941	156.88
400.165	136.88
400.389	129.88
400.613	126.88
400.837	142.88
401.062	122.88
401.286	128.88
401.51	139.88
401.734	116.88
401.958	124.88
402.182	133.88
402.406	131.88
402.63	136.88
402.854	124.88
403.078	126.88
403.302	122.88
403.526	135.88
403.75	134.88
403.974	136.88
404.198	130.88
404.422	134.88
404.645	127.88
404.869	128.88
405.093	136.88
405.317	144.88
405.541	127.88
405.765	146.88
405.988	136.88
406.212	134.88
406.436	138.88
406.66	157.88
406.883	133.88
407.107	137.88
407.331	144.88
407.555	144.88
407.778	135.88
408.002	134.88
408.226	133.88
408.449	149.88
408.673	155.88
408.896	128.88
409.12	148.88
409.344	150.88
409.567	145.88
409.791	120.88
410.014	140.88
410.238	131.88
410.461	134.88
410.685	140.88
410.908	129.88
411.132	136.88
411.355	127.88
411.578	134.88
411.802	132.88
412.025	134.88
412.249	139.88
412.472	127.88
412.695	142.88
412.919	157.88
413.142	138.88
413.365	136.88
413.589	139.88
413.812	140.88
414.035	138.88
414.258	112.88
414.482	119.88
414.705	127.88
414.928	129.88
415.151	142.88
415.374	132.88
415.597	127.88
415.821	125.88
416.044	159.88
416.267	131.88
416.49	128.88
416.713	137.88
416.936	134.88
417.159	114.88
417.382	139.88
417.605	132.88
417.828	127.88
418.051	124.88
418.274	131.88
418.497	139.88
418.72	142.88
418.943	130.88
419.166	127.88
419.389	128.88
419.611	132.88
419.834	130.88
420.057	138.88
420.28	140.88
420.503	137.88
420.726	135.88
420.948	136.88
421.171	131.88
421.394	119.88
421.617	116.88
421.839	131.88
422.062	136.88
422.285	137.88
422.507	147.88
422.73	129.88
422.953	139.88
423.175	141.88
423.398	126.88
423.621	130.88
423.843	150.88
424.066	140.88
424.288	132.88
424.511	141.88
424.733	135.88
424.956	149.88
425.178	143.88
425.401	138.88
425.623	133.88
425.846	122.88
426.068	135.88
426.291	137.88
426.513	142.88
426.735	131.88
426.958	142.88
427.18	147.88
427.402	163.88
427.625	159.88
427.847	129.88
428.069	130.88
428.292	135.88
428.514	112.88
428.736	112.88
428.958	132.88
429.181	132.88
429.403	122.88
429.625	132.88
429.847	131.88
430.069	132.88
430.292	136.88
430.514	119.88
430.736	110.88
430.958	132.88
431.18	137.88
431.402	118.88
431.624	130.88
431.846	106.88
432.068	114.88
432.29	128.88
432.512	140.88
432.734	122.88
432.956	117.88
433.178	130.88
433.4	119.88
433.622	134.88
433.844	129.88
434.066	123.88
434.287	131.88
434.509	114.88
434.731	131.88
434.953	133.88
435.175	136.88
435.397	135.88
435.618	130.88
435.84	140.88
436.062	153.88
436.284	143.88
436.505	121.88
436.727	125.88
436.949	129.88
437.17	118.88
437.392	127.88
437.614	131.88
437.835	132.88
438.057	119.88
438.278	138.88
438.5	132.88
438.721	131.88
438.943	147.88
439.165	124.88
439.386	147.88
439.608	139.88
439.829	140.88
440.05	137.88
440.272	155.88
440.493	141.88
440.715	128.88
440.936	130.88
441.158	126.88
441.379	138.88
441.6	150.88
441.822	154.88
442.043	139.88
442.264	145.88
442.486	150.88
442.707	135.88
442.928	134.88
443.149	132.88
443.371	142.88
443.592	138.88
443.813	142.88
444.034	146.88
444.255	156.88
444.476	143.88
444.698	133.88
444.919	127.88
445.14	242.88
445.361	200.88
445.582	143.88
445.803	145.88
446.024	130.88
446.245	153.88
446.466	130.88
446.687	135.88
446.908	128.88
447.129	113.88
447.35	110.88
447.571	115.88
447.792	119.88
448.013	140.88
448.234	136.88
448.455	132.88
448.675	130.88
448.896	138.88
449.117	139.88
449.338	138.88
449.559	138.88
449.779	163.88
450	130.88
450.221	130.88
450.442	132.88
450.662	112.88
450.883	125.88
451.104	128.88
451.324	135.88
451.545	124.88
451.766	123.88
451.986	124.88
452.207	131.88
452.428	131.88
452.648	129.88
452.869	127.88
453.089	119.88
453.31	115.88
453.53	121.88
453.751	121.88
453.971	109.88
454.192	117.88
454.412	110.88
454.633	127.88
454.853	130.88
455.073	124.88
455.294	124.88
455.514	123.88
455.734	125.88
455.955	119.88
456.175	139.88
456.395	131.88
456.616	123.88
456.836	124.88
457.056	119.88
457.276	105.88
457.497	113.88
457.717	120.88
457.937	121.88
458.157	113.88
458.377	121.88
458.598	119.88
458.818	124.88
459.038	130.88
459.258	138.88
459.478	128.88
459.698	131.88
459.918	149.88
460.138	128.88
460.358	128.88
460.578	142.88
460.798	148.88
461.018	145.88
461.238	123.88
461.458	123.88
461.678	141.88
461.898	132.88
462.118	122.88
462.338	139.88
462.558	125.88
462.777	109.88
462.997	126.88
463.217	132.88
463.437	140.88
463.657	133.88
463.876	125.88
464.096	139.88
464.316	151.88
464.536	134.88
464.755	136.88
464.975	146.88
465.195	118.88
465.414	134.88
465.634	142.88
465.854	145.88
466.073	117.88
466.293	133.88
466.512	112.88
466.732	118.88
466.951	124.88
467.171	135.88
467.391	110.88
467.61	117.88
467.829	116.88
468.049	132.88
468.268	136.88
468.488	124.88
468.707	122.88
468.927	134.88
469.146	117.88
469.365	118.88
469.585	123.88
469.804	119.88
470.023	117.88
470.243	123.88
470.462	118.88
470.681	140.88
470.901	136.88
471.12	134.88
471.339	126.88
471.558	123.88
471.777	128.88
471.997	130.88
472.216	117.88
472.435	118.88
472.654	122.88
472.873	131.88
473.092	126.88
473.311	129.88
473.53	122.88
473.749	127.88
473.968	118.88
474.187	132.88
474.406	126.88
474.625	134.88
474.844	134.88
475.063	132.88
475.282	127.88
475.501	134.88
475.72	128.88
475.939	115.88
476.158	120.88
476.377	109.88
476.596	127.88
476.814	119.88
477.033	126.88
477.252	138.88
477.471	130.88
477.69	135.88
477.908	118.88
478.127	121.88
478.346	134.88
478.564	128.88
478.783	133.88
479.002	123.88
479.22	137.88
479.439	133.88
479.658	137.88
479.876	125.88
480.095	132.88
480.313	145.88
480.532	141.88
480.751	150.88
480.969	125.88
481.188	141.88
481.406	147.88
481.624	112.88
481.843	132.88
482.061	140.88
482.28	130.88
482.498	136.88
482.717	138.88
482.935	134.88
483.153	146.88
483.372	118.88
483.59	124.88
483.808	123.88
484.027	123.88
484.245	134.88
484.463	131.88
484.681	141.88
484.9	137.88
485.118	138.88
485.336	140.88
485.554	137.88
485.772	138.88
485.99	132.88
486.209	142.88
486.427	134.88
486.645	153.88
486.863	128.88
487.081	144.88
487.299	150.88
487.517	156.88
487.735	139.88
487.953	142.88
488.171	129.88
488.389	140.88
488.607	122.88
488.825	128.88
489.043	125.88
489.261	127.88
489.479	144.88
489.696	132.88
489.914	142.88
490.132	134.88
490.35	149.88
490.568	135.88
490.786	144.88
491.003	153.88
491.221	156.88
491.439	166.88
491.657	130.88
491.874	156.88
492.092	136.88
492.31	153.88
492.527	148.88
492.745	155.88
492.963	150.88
493.18	143.88
493.398	155.88
493.615	143.88
493.833	162.88
494.05	143.88
494.268	148.88
494.485	162.88
494.703	135.88
494.92	146.88
495.138	157.88
495.355	138.88
495.573	141.88
495.79	157.88
496.008	145.88
496.225	138.88
496.442	142.88
496.66	142.88
496.877	138.88
497.094	137.88
497.312	152.88
497.529	136.88
497.746	139.88
497.963	159.88
498.181	151.88
498.398	155.88
498.615	149.88
498.832	163.88
499.049	163.88
499.267	166.88
499.484	168.88
499.701	207.88
499.918	200.88
500.135	200.88
500.352	227.88
500.569	224.88
500.786	205.88
501.003	192.88
501.22	202.88
501.437	196.88
501.654	168.88
501.871	165.88
502.088	155.88
502.305	175.88
502.522	172.88
502.739	170.88
502.956	150.88
503.172	157.88
503.389	139.88
503.606	156.88
503.823	158.88
504.04	159.88
504.256	151.88
504.473	154.88
504.69	156.88
504.907	141.88
505.123	143.88
505.34	151.88
505.557	142.88
