Data from 1968.PennyLincolnUp.Lamp.En5.5.200Scan.071719.P1._HRD10591_14-52-11-970.txt Node
Date: Thu Jul 18 14:52:11 EDT 2019
User: cochatt
Spectrometer: HR+D1059
Trigger mode: 1
Integration Time (sec): 1.000000E-1
Scans to average: 1
Electric dark correction enabled: true
Nonlinearity correction enabled: false
Boxcar width: 0
XAxis mode: Wavelengths
Number of Pixels in Spectrum: 2048
>>>>>Begin Spectral Data<<<<<
223.165	-27.88
223.4	-27.88
223.635	-27.88
223.869	0.12
224.104	-21.88
224.338	3.12
224.573	-12.88
224.808	-19.88
225.042	-5.88
225.277	-6.88
225.511	-10.88
225.746	3.12
225.98	5.12
226.215	18.12
226.449	15.12
226.683	28.12
226.918	19.12
227.152	14.12
227.387	33.12
227.621	17.12
227.856	35.12
228.09	45.12
228.324	49.12
228.559	37.12
228.793	64.12
229.027	70.12
229.262	72.12
229.496	75.12
229.73	88.12
229.964	76.12
230.199	80.12
230.433	87.12
230.667	79.12
230.901	83.12
231.136	91.12
231.37	65.12
231.604	82.12
231.838	94.12
232.072	83.12
232.306	84.12
232.541	83.12
232.775	87.12
233.009	78.12
233.243	88.12
233.477	92.12
233.711	88.12
233.945	82.12
234.179	91.12
234.413	90.12
234.647	88.12
234.881	90.12
235.115	86.12
235.349	74.12
235.583	80.12
235.817	95.12
236.051	83.12
236.285	88.12
236.519	86.12
236.753	89.12
236.987	90.12
237.221	101.12
237.455	96.12
237.689	91.12
237.922	79.12
238.156	75.12
238.39	100.12
238.624	76.12
238.858	85.12
239.091	85.12
239.325	78.12
239.559	72.12
239.793	80.12
240.027	95.12
240.26	75.12
240.494	83.12
240.728	71.12
240.961	86.12
241.195	91.12
241.429	90.12
241.662	87.12
241.896	81.12
242.13	82.12
242.363	82.12
242.597	88.12
242.83	94.12
243.064	83.12
243.298	102.12
243.531	83.12
243.765	74.12
243.998	95.12
244.232	81.12
244.465	77.12
244.699	79.12
244.932	81.12
245.166	80.12
245.399	88.12
245.633	75.12
245.866	76.12
246.099	86.12
246.333	91.12
246.566	94.12
246.8	82.12
247.033	78.12
247.266	77.12
247.5	95.12
247.733	88.12
247.966	86.12
248.2	89.12
248.433	86.12
248.666	76.12
248.899	88.12
249.133	97.12
249.366	90.12
249.599	104.12
249.832	85.12
250.066	85.12
250.299	85.12
250.532	79.12
250.765	80.12
250.998	90.12
251.231	90.12
251.465	89.12
251.698	95.12
251.931	100.12
252.164	84.12
252.397	80.12
252.63	101.12
252.863	84.12
253.096	105.12
253.329	86.12
253.562	65.12
253.795	100.12
254.028	93.12
254.261	90.12
254.494	85.12
254.727	79.12
254.96	88.12
255.193	97.12
255.426	88.12
255.659	89.12
255.892	93.12
256.124	86.12
256.357	91.12
256.59	92.12
256.823	76.12
257.056	77.12
257.289	94.12
257.521	93.12
257.754	89.12
257.987	97.12
258.22	89.12
258.452	97.12
258.685	86.12
258.918	79.12
259.151	101.12
259.383	91.12
259.616	82.12
259.849	84.12
260.081	85.12
260.314	104.12
260.547	110.12
260.779	88.12
261.012	83.12
261.244	89.12
261.477	100.12
261.71	87.12
261.942	94.12
262.175	88.12
262.407	97.12
262.64	103.12
262.872	94.12
263.105	88.12
263.337	99.12
263.57	89.12
263.802	97.12
264.035	92.12
264.267	85.12
264.499	95.12
264.732	101.12
264.964	89.12
265.197	109.12
265.429	93.12
265.661	103.12
265.894	95.12
266.126	78.12
266.358	90.12
266.591	91.12
266.823	97.12
267.055	93.12
267.287	83.12
267.52	103.12
267.752	104.12
267.984	91.12
268.216	106.12
268.448	90.12
268.681	91.12
268.913	106.12
269.145	98.12
269.377	106.12
269.609	98.12
269.841	105.12
270.073	95.12
270.306	92.12
270.538	91.12
270.77	93.12
271.002	106.12
271.234	94.12
271.466	106.12
271.698	95.12
271.93	98.12
272.162	86.12
272.394	118.12
272.626	98.12
272.858	89.12
273.09	93.12
273.322	96.12
273.553	98.12
273.785	115.12
274.017	112.12
274.249	101.12
274.481	79.12
274.713	97.12
274.945	99.12
275.176	99.12
275.408	90.12
275.64	94.12
275.872	101.12
276.104	103.12
276.335	110.12
276.567	102.12
276.799	84.12
277.031	106.12
277.262	91.12
277.494	105.12
277.726	101.12
277.957	93.12
278.189	93.12
278.421	106.12
278.652	104.12
278.884	116.12
279.115	105.12
279.347	94.12
279.579	92.12
279.81	95.12
280.042	105.12
280.273	96.12
280.505	92.12
280.736	98.12
280.968	96.12
281.199	97.12
281.431	109.12
281.662	109.12
281.894	90.12
282.125	87.12
282.356	89.12
282.588	94.12
282.819	98.12
283.051	91.12
283.282	103.12
283.513	106.12
283.745	91.12
283.976	103.12
284.207	114.12
284.439	115.12
284.67	99.12
284.901	97.12
285.132	100.12
285.364	101.12
285.595	101.12
285.826	116.12
286.057	112.12
286.288	102.12
286.52	107.12
286.751	98.12
286.982	120.12
287.213	121.12
287.444	101.12
287.675	122.12
287.906	115.12
288.138	93.12
288.369	104.12
288.6	116.12
288.831	108.12
289.062	107.12
289.293	114.12
289.524	100.12
289.755	99.12
289.986	91.12
290.217	98.12
290.448	120.12
290.679	102.12
290.91	113.12
291.141	103.12
291.371	96.12
291.602	102.12
291.833	100.12
292.064	93.12
292.295	97.12
292.526	113.12
292.757	111.12
292.987	97.12
293.218	101.12
293.449	104.12
293.68	98.12
293.91	101.12
294.141	108.12
294.372	88.12
294.603	93.12
294.833	114.12
295.064	97.12
295.295	97.12
295.525	102.12
295.756	116.12
295.987	104.12
296.217	101.12
296.448	108.12
296.679	114.12
296.909	98.12
297.14	88.12
297.37	98.12
297.601	108.12
297.831	102.12
298.062	99.12
298.292	113.12
298.523	85.12
298.753	118.12
298.984	105.12
299.214	94.12
299.445	107.12
299.675	106.12
299.905	109.12
300.136	108.12
300.366	97.12
300.597	106.12
300.827	93.12
301.057	100.12
301.288	106.12
301.518	109.12
301.748	104.12
301.979	86.12
302.209	119.12
302.439	111.12
302.669	101.12
302.9	84.12
303.13	108.12
303.36	111.12
303.59	114.12
303.82	106.12
304.051	124.12
304.281	110.12
304.511	92.12
304.741	103.12
304.971	111.12
305.201	106.12
305.431	106.12
305.661	95.12
305.891	106.12
306.121	98.12
306.352	113.12
306.582	99.12
306.812	104.12
307.042	110.12
307.272	94.12
307.502	116.12
307.731	107.12
307.961	111.12
308.191	104.12
308.421	102.12
308.651	101.12
308.881	119.12
309.111	104.12
309.341	107.12
309.571	110.12
309.8	109.12
310.03	89.12
310.26	116.12
310.49	112.12
310.72	100.12
310.949	100.12
311.179	104.12
311.409	104.12
311.639	106.12
311.868	113.12
312.098	117.12
312.328	108.12
312.557	110.12
312.787	124.12
313.017	111.12
313.246	120.12
313.476	97.12
313.706	106.12
313.935	99.12
314.165	102.12
314.394	114.12
314.624	91.12
314.853	106.12
315.083	114.12
315.312	110.12
315.542	104.12
315.771	124.12
316.001	111.12
316.23	105.12
316.46	81.12
316.689	102.12
316.919	122.12
317.148	107.12
317.377	118.12
317.607	106.12
317.836	115.12
318.065	104.12
318.295	99.12
318.524	91.12
318.753	96.12
318.983	111.12
319.212	103.12
319.441	95.12
319.67	122.12
319.9	116.12
320.129	117.12
320.358	112.12
320.587	104.12
320.816	104.12
321.046	121.12
321.275	102.12
321.504	109.12
321.733	114.12
321.962	107.12
322.191	118.12
322.42	110.12
322.649	113.12
322.878	106.12
323.108	102.12
323.337	113.12
323.566	108.12
323.795	112.12
324.024	120.12
324.253	118.12
324.482	125.12
324.71	178.12
324.939	210.12
325.168	180.12
325.397	122.12
325.626	123.12
325.855	113.12
326.084	115.12
326.313	122.12
326.542	116.12
326.77	133.12
326.999	119.12
327.228	137.12
327.457	169.12
327.686	169.12
327.914	118.12
328.143	118.12
328.372	115.12
328.6	107.12
328.829	110.12
329.058	107.12
329.287	123.12
329.515	119.12
329.744	129.12
329.972	119.12
330.201	117.12
330.43	113.12
330.658	114.12
330.887	125.12
331.115	127.12
331.344	140.12
331.572	115.12
331.801	119.12
332.03	121.12
332.258	121.12
332.486	110.12
332.715	117.12
332.943	111.12
333.172	116.12
333.4	114.12
333.629	121.12
333.857	123.12
334.085	105.12
334.314	117.12
334.542	126.12
334.771	117.12
334.999	124.12
335.227	125.12
335.455	119.12
335.684	124.12
335.912	120.12
336.14	104.12
336.369	101.12
336.597	117.12
336.825	121.12
337.053	126.12
337.281	126.12
337.51	124.12
337.738	124.12
337.966	114.12
338.194	119.12
338.422	115.12
338.65	103.12
338.878	102.12
339.106	127.12
339.334	120.12
339.562	124.12
339.79	114.12
340.018	106.12
340.246	118.12
340.474	110.12
340.702	129.12
340.93	115.12
341.158	112.12
341.386	109.12
341.614	110.12
341.842	108.12
342.07	106.12
342.298	109.12
342.526	108.12
342.754	118.12
342.981	106.12
343.209	117.12
343.437	121.12
343.665	121.12
343.893	107.12
344.12	118.12
344.348	114.12
344.576	113.12
344.804	123.12
345.031	110.12
345.259	109.12
345.487	120.12
345.714	88.12
345.942	111.12
346.17	114.12
346.397	111.12
346.625	111.12
346.853	120.12
347.08	125.12
347.308	131.12
347.535	124.12
347.763	115.12
347.99	115.12
348.218	112.12
348.445	107.12
348.673	117.12
348.9	112.12
349.128	110.12
349.355	113.12
349.583	117.12
349.81	120.12
350.037	122.12
350.265	115.12
350.492	103.12
350.72	103.12
350.947	94.12
351.174	96.12
351.402	94.12
351.629	129.12
351.856	108.12
352.083	113.12
352.311	123.12
352.538	118.12
352.765	109.12
352.992	121.12
353.22	115.12
353.447	124.12
353.674	125.12
353.901	107.12
354.128	111.12
354.355	100.12
354.583	95.12
354.81	124.12
355.037	119.12
355.264	111.12
355.491	117.12
355.718	111.12
355.945	116.12
356.172	103.12
356.399	113.12
356.626	104.12
356.853	102.12
357.08	106.12
357.307	118.12
357.534	107.12
357.761	109.12
357.988	119.12
358.215	123.12
358.441	111.12
358.668	115.12
358.895	115.12
359.122	111.12
359.349	117.12
359.576	115.12
359.802	117.12
360.029	118.12
360.256	113.12
360.483	113.12
360.709	115.12
360.936	109.12
361.163	101.12
361.39	95.12
361.616	105.12
361.843	114.12
362.07	125.12
362.296	103.12
362.523	113.12
362.749	118.12
362.976	130.12
363.203	125.12
363.429	123.12
363.656	123.12
363.882	105.12
364.109	99.12
364.335	121.12
364.562	117.12
364.788	126.12
365.015	115.12
365.241	109.12
365.468	104.12
365.694	117.12
365.92	129.12
366.147	120.12
366.373	99.12
366.599	124.12
366.826	95.12
367.052	108.12
367.278	114.12
367.505	115.12
367.731	112.12
367.957	104.12
368.184	107.12
368.41	105.12
368.636	104.12
368.862	104.12
369.089	116.12
369.315	117.12
369.541	117.12
369.767	110.12
369.993	107.12
370.219	115.12
370.445	118.12
370.672	127.12
370.898	125.12
371.124	112.12
371.35	112.12
371.576	124.12
371.802	105.12
372.028	100.12
372.254	108.12
372.48	99.12
372.706	98.12
372.932	103.12
373.158	117.12
373.384	115.12
373.61	118.12
373.835	117.12
374.061	111.12
374.287	110.12
374.513	107.12
374.739	104.12
374.965	114.12
375.191	87.12
375.416	115.12
375.642	113.12
375.868	119.12
376.094	119.12
376.319	133.12
376.545	104.12
376.771	129.12
376.997	111.12
377.222	117.12
377.448	117.12
377.674	114.12
377.899	119.12
378.125	118.12
378.35	120.12
378.576	122.12
378.802	111.12
379.027	101.12
379.253	106.12
379.478	117.12
379.704	110.12
379.929	105.12
380.155	115.12
380.38	95.12
380.606	85.12
380.831	114.12
381.057	109.12
381.282	120.12
381.507	109.12
381.733	109.12
381.958	117.12
382.184	115.12
382.409	110.12
382.634	111.12
382.86	103.12
383.085	120.12
383.31	110.12
383.535	119.12
383.761	120.12
383.986	105.12
384.211	120.12
384.436	113.12
384.662	126.12
384.887	113.12
385.112	119.12
385.337	107.12
385.562	113.12
385.787	112.12
386.013	124.12
386.238	121.12
386.463	113.12
386.688	112.12
386.913	116.12
387.138	117.12
387.363	122.12
387.588	114.12
387.813	131.12
388.038	122.12
388.263	117.12
388.488	112.12
388.713	108.12
388.938	121.12
389.163	115.12
389.387	113.12
389.612	113.12
389.837	115.12
390.062	114.12
390.287	109.12
390.512	131.12
390.736	124.12
390.961	121.12
391.186	113.12
391.411	116.12
391.636	123.12
391.86	125.12
392.085	108.12
392.31	115.12
392.534	133.12
392.759	129.12
392.984	115.12
393.208	129.12
393.433	109.12
393.658	121.12
393.882	121.12
394.107	131.12
394.331	126.12
394.556	118.12
394.78	113.12
395.005	122.12
395.229	126.12
395.454	121.12
395.678	129.12
395.903	124.12
396.127	133.12
396.352	118.12
396.576	132.12
396.801	127.12
397.025	131.12
397.249	118.12
397.474	130.12
397.698	123.12
397.922	124.12
398.147	139.12
398.371	125.12
398.595	126.12
398.82	123.12
399.044	116.12
399.268	132.12
399.492	143.12
399.717	138.12
399.941	146.12
400.165	142.12
400.389	139.12
400.613	115.12
400.837	118.12
401.062	139.12
401.286	118.12
401.51	131.12
401.734	122.12
401.958	136.12
402.182	134.12
402.406	142.12
402.63	130.12
402.854	121.12
403.078	141.12
403.302	132.12
403.526	144.12
403.75	152.12
403.974	140.12
404.198	133.12
404.422	129.12
404.645	136.12
404.869	134.12
405.093	150.12
405.317	141.12
405.541	126.12
405.765	137.12
405.988	133.12
406.212	138.12
406.436	133.12
406.66	139.12
406.883	133.12
407.107	126.12
407.331	142.12
407.555	152.12
407.778	141.12
408.002	137.12
408.226	138.12
408.449	126.12
408.673	125.12
408.896	134.12
409.12	129.12
409.344	130.12
409.567	137.12
409.791	135.12
410.014	146.12
410.238	135.12
410.461	137.12
410.685	129.12
410.908	144.12
411.132	141.12
411.355	143.12
411.578	127.12
411.802	116.12
412.025	140.12
412.249	130.12
412.472	129.12
412.695	146.12
412.919	141.12
413.142	129.12
413.365	143.12
413.589	124.12
413.812	113.12
414.035	135.12
414.258	128.12
414.482	134.12
414.705	125.12
414.928	129.12
415.151	118.12
415.374	139.12
415.597	121.12
415.821	129.12
416.044	124.12
416.267	122.12
416.49	130.12
416.713	133.12
416.936	124.12
417.159	139.12
417.382	123.12
417.605	129.12
417.828	135.12
418.051	129.12
418.274	130.12
418.497	130.12
418.72	132.12
418.943	120.12
419.166	134.12
419.389	129.12
419.611	150.12
419.834	139.12
420.057	127.12
420.28	119.12
420.503	129.12
420.726	131.12
420.948	134.12
421.171	125.12
421.394	146.12
421.617	125.12
421.839	134.12
422.062	126.12
422.285	126.12
422.507	140.12
422.73	138.12
422.953	130.12
423.175	138.12
423.398	123.12
423.621	124.12
423.843	147.12
424.066	116.12
424.288	144.12
424.511	113.12
424.733	122.12
424.956	119.12
425.178	136.12
425.401	126.12
425.623	128.12
425.846	122.12
426.068	128.12
426.291	122.12
426.513	124.12
426.735	131.12
426.958	124.12
427.18	130.12
427.402	148.12
427.625	138.12
427.847	142.12
428.069	140.12
428.292	142.12
428.514	136.12
428.736	125.12
428.958	138.12
429.181	133.12
429.403	131.12
429.625	144.12
429.847	125.12
430.069	131.12
430.292	131.12
430.514	125.12
430.736	122.12
430.958	125.12
431.18	122.12
431.402	121.12
431.624	124.12
431.846	107.12
432.068	127.12
432.29	113.12
432.512	118.12
432.734	123.12
432.956	117.12
433.178	125.12
433.4	130.12
433.622	129.12
433.844	127.12
434.066	129.12
434.287	113.12
434.509	124.12
434.731	136.12
434.953	126.12
435.175	127.12
435.397	150.12
435.618	124.12
435.84	145.12
436.062	145.12
436.284	136.12
436.505	139.12
436.727	121.12
436.949	132.12
437.17	128.12
437.392	129.12
437.614	129.12
437.835	142.12
438.057	130.12
438.278	136.12
438.5	131.12
438.721	145.12
438.943	139.12
439.165	131.12
439.386	129.12
439.608	129.12
439.829	129.12
440.05	138.12
440.272	129.12
440.493	145.12
440.715	132.12
440.936	127.12
441.158	139.12
441.379	127.12
441.6	129.12
441.822	122.12
442.043	150.12
442.264	126.12
442.486	147.12
442.707	142.12
442.928	131.12
443.149	131.12
443.371	121.12
443.592	131.12
443.813	143.12
444.034	136.12
444.255	140.12
444.476	144.12
444.698	122.12
444.919	140.12
445.14	245.12
445.361	193.12
445.582	135.12
445.803	137.12
446.024	145.12
446.245	143.12
446.466	135.12
446.687	144.12
446.908	126.12
447.129	140.12
447.35	128.12
447.571	126.12
447.792	123.12
448.013	117.12
448.234	123.12
448.455	123.12
448.675	115.12
448.896	136.12
449.117	139.12
449.338	120.12
449.559	139.12
449.779	139.12
450	139.12
450.221	121.12
450.442	134.12
450.662	117.12
450.883	119.12
451.104	127.12
451.324	119.12
451.545	123.12
451.766	126.12
451.986	117.12
452.207	99.12
452.428	122.12
452.648	121.12
452.869	129.12
453.089	126.12
453.31	116.12
453.53	110.12
453.751	124.12
453.971	124.12
454.192	122.12
454.412	124.12
454.633	108.12
454.853	111.12
455.073	107.12
455.294	129.12
455.514	119.12
455.734	138.12
455.955	110.12
456.175	120.12
456.395	109.12
456.616	106.12
456.836	115.12
457.056	117.12
457.276	125.12
457.497	126.12
457.717	107.12
457.937	108.12
458.157	117.12
458.377	121.12
458.598	114.12
458.818	131.12
459.038	134.12
459.258	130.12
459.478	134.12
459.698	123.12
459.918	129.12
460.138	125.12
460.358	137.12
460.578	116.12
460.798	137.12
461.018	122.12
461.238	142.12
461.458	130.12
461.678	134.12
461.898	126.12
462.118	134.12
462.338	139.12
462.558	123.12
462.777	138.12
462.997	129.12
463.217	134.12
463.437	131.12
463.657	135.12
463.876	136.12
464.096	134.12
464.316	128.12
464.536	122.12
464.755	123.12
464.975	132.12
465.195	152.12
465.414	135.12
465.634	133.12
465.854	131.12
466.073	136.12
466.293	125.12
466.512	115.12
466.732	129.12
466.951	130.12
467.171	120.12
467.391	137.12
467.61	119.12
467.829	122.12
468.049	127.12
468.268	126.12
468.488	124.12
468.707	119.12
468.927	111.12
469.146	110.12
469.365	130.12
469.585	122.12
469.804	118.12
470.023	132.12
470.243	139.12
470.462	126.12
470.681	133.12
470.901	126.12
471.12	124.12
471.339	131.12
471.558	120.12
471.777	109.12
471.997	111.12
472.216	132.12
472.435	110.12
472.654	112.12
472.873	122.12
473.092	121.12
473.311	122.12
473.53	127.12
473.749	129.12
473.968	142.12
474.187	138.12
474.406	113.12
474.625	121.12
474.844	130.12
475.063	129.12
475.282	121.12
475.501	114.12
475.72	129.12
475.939	110.12
476.158	133.12
476.377	117.12
476.596	113.12
476.814	119.12
477.033	125.12
477.252	122.12
477.471	126.12
477.69	132.12
477.908	128.12
478.127	132.12
478.346	143.12
478.564	122.12
478.783	149.12
479.002	141.12
479.22	132.12
479.439	131.12
479.658	142.12
479.876	143.12
480.095	121.12
480.313	134.12
480.532	134.12
480.751	133.12
480.969	132.12
481.188	132.12
481.406	148.12
481.624	132.12
481.843	137.12
482.061	128.12
482.28	138.12
482.498	134.12
482.717	122.12
482.935	124.12
483.153	141.12
483.372	129.12
483.59	133.12
483.808	137.12
484.027	136.12
484.245	154.12
484.463	131.12
484.681	135.12
484.9	130.12
485.118	138.12
485.336	124.12
485.554	143.12
485.772	139.12
485.99	120.12
486.209	131.12
486.427	137.12
486.645	131.12
486.863	134.12
487.081	149.12
487.299	129.12
487.517	147.12
487.735	126.12
487.953	148.12
488.171	143.12
488.389	134.12
488.607	141.12
488.825	133.12
489.043	131.12
489.261	140.12
489.479	145.12
489.696	129.12
489.914	140.12
490.132	142.12
490.35	137.12
490.568	142.12
490.786	141.12
491.003	142.12
491.221	124.12
491.439	137.12
491.657	134.12
491.874	132.12
492.092	158.12
492.31	150.12
492.527	151.12
492.745	140.12
492.963	157.12
493.18	160.12
493.398	147.12
493.615	144.12
493.833	148.12
494.05	138.12
494.268	155.12
494.485	167.12
494.703	147.12
494.92	149.12
495.138	150.12
495.355	148.12
495.573	143.12
495.79	167.12
496.008	145.12
496.225	144.12
496.442	149.12
496.66	144.12
496.877	141.12
497.094	146.12
497.312	141.12
497.529	147.12
497.746	151.12
497.963	147.12
498.181	150.12
498.398	169.12
498.615	153.12
498.832	157.12
499.049	172.12
499.267	162.12
499.484	183.12
499.701	164.12
499.918	193.12
500.135	204.12
500.352	199.12
500.569	222.12
500.786	200.12
501.003	198.12
501.22	191.12
501.437	209.12
501.654	186.12
501.871	175.12
502.088	183.12
502.305	146.12
502.522	151.12
502.739	162.12
502.956	172.12
503.172	149.12
503.389	158.12
503.606	157.12
503.823	154.12
504.04	157.12
504.256	159.12
504.473	154.12
504.69	151.12
504.907	142.12
505.123	143.12
505.34	153.12
