Data from 1968.PennyLincolnUp.Lamp.En5.5.200Scan.071719.P1._HRD10591_14-50-37-969.txt Node
Date: Thu Jul 18 14:50:37 EDT 2019
User: cochatt
Spectrometer: HR+D1059
Trigger mode: 1
Integration Time (sec): 1.000000E-1
Scans to average: 1
Electric dark correction enabled: true
Nonlinearity correction enabled: false
Boxcar width: 0
XAxis mode: Wavelengths
Number of Pixels in Spectrum: 2048
>>>>>Begin Spectral Data<<<<<
223.165	-13.94
223.4	-13.94
223.635	-13.94
223.869	-15.94
224.104	-16.94
224.338	-9.94
224.573	-4.94
224.808	-23.94
225.042	-14.94
225.277	-6.94
225.511	-7.94
225.746	4.06
225.98	12.06
226.215	9.06
226.449	29.06
226.683	9.06
226.918	29.06
227.152	23.06
227.387	36.06
227.621	29.06
227.856	43.06
228.09	48.06
228.324	66.06
228.559	54.06
228.793	55.06
229.027	73.06
229.262	81.06
229.496	79.06
229.73	82.06
229.964	80.06
230.199	93.06
230.433	78.06
230.667	81.06
230.901	85.06
231.136	84.06
231.37	81.06
231.604	79.06
231.838	83.06
232.072	81.06
232.306	99.06
232.541	94.06
232.775	81.06
233.009	94.06
233.243	98.06
233.477	90.06
233.711	90.06
233.945	76.06
234.179	94.06
234.413	80.06
234.647	98.06
234.881	82.06
235.115	88.06
235.349	84.06
235.583	95.06
235.817	84.06
236.051	91.06
236.285	83.06
236.519	81.06
236.753	82.06
236.987	71.06
237.221	80.06
237.455	85.06
237.689	87.06
237.922	81.06
238.156	89.06
238.39	78.06
238.624	81.06
238.858	86.06
239.091	80.06
239.325	89.06
239.559	78.06
239.793	76.06
240.027	94.06
240.26	84.06
240.494	94.06
240.728	90.06
240.961	79.06
241.195	81.06
241.429	97.06
241.662	84.06
241.896	97.06
242.13	77.06
242.363	69.06
242.597	87.06
242.83	97.06
243.064	87.06
243.298	81.06
243.531	92.06
243.765	88.06
243.998	93.06
244.232	85.06
244.465	83.06
244.699	89.06
244.932	78.06
245.166	80.06
245.399	92.06
245.633	91.06
245.866	88.06
246.099	90.06
246.333	94.06
246.566	95.06
246.8	105.06
247.033	82.06
247.266	102.06
247.5	90.06
247.733	74.06
247.966	85.06
248.2	82.06
248.433	88.06
248.666	98.06
248.899	93.06
249.133	91.06
249.366	95.06
249.599	91.06
249.832	102.06
250.066	88.06
250.299	88.06
250.532	91.06
250.765	87.06
250.998	96.06
251.231	92.06
251.465	99.06
251.698	106.06
251.931	82.06
252.164	82.06
252.397	74.06
252.63	92.06
252.863	89.06
253.096	93.06
253.329	91.06
253.562	97.06
253.795	93.06
254.028	91.06
254.261	91.06
254.494	94.06
254.727	97.06
254.96	84.06
255.193	95.06
255.426	105.06
255.659	98.06
255.892	95.06
256.124	102.06
256.357	97.06
256.59	100.06
256.823	91.06
257.056	93.06
257.289	93.06
257.521	97.06
257.754	96.06
257.987	107.06
258.22	98.06
258.452	102.06
258.685	94.06
258.918	98.06
259.151	83.06
259.383	113.06
259.616	89.06
259.849	95.06
260.081	90.06
260.314	104.06
260.547	105.06
260.779	97.06
261.012	101.06
261.244	95.06
261.477	94.06
261.71	103.06
261.942	86.06
262.175	86.06
262.407	93.06
262.64	102.06
262.872	107.06
263.105	97.06
263.337	103.06
263.57	91.06
263.802	84.06
264.035	101.06
264.267	99.06
264.499	98.06
264.732	96.06
264.964	95.06
265.197	99.06
265.429	90.06
265.661	89.06
265.894	104.06
266.126	92.06
266.358	84.06
266.591	99.06
266.823	100.06
267.055	102.06
267.287	93.06
267.52	90.06
267.752	113.06
267.984	114.06
268.216	101.06
268.448	89.06
268.681	86.06
268.913	105.06
269.145	96.06
269.377	96.06
269.609	89.06
269.841	98.06
270.073	98.06
270.306	100.06
270.538	92.06
270.77	97.06
271.002	114.06
271.234	112.06
271.466	110.06
271.698	115.06
271.93	98.06
272.162	102.06
272.394	114.06
272.626	100.06
272.858	86.06
273.09	91.06
273.322	107.06
273.553	96.06
273.785	109.06
274.017	99.06
274.249	97.06
274.481	98.06
274.713	88.06
274.945	106.06
275.176	107.06
275.408	113.06
275.64	99.06
275.872	97.06
276.104	93.06
276.335	96.06
276.567	112.06
276.799	106.06
277.031	96.06
277.262	104.06
277.494	104.06
277.726	89.06
277.957	101.06
278.189	91.06
278.421	95.06
278.652	106.06
278.884	105.06
279.115	119.06
279.347	120.06
279.579	110.06
279.81	104.06
280.042	100.06
280.273	104.06
280.505	106.06
280.736	112.06
280.968	107.06
281.199	110.06
281.431	101.06
281.662	112.06
281.894	105.06
282.125	104.06
282.356	92.06
282.588	109.06
282.819	97.06
283.051	111.06
283.282	101.06
283.513	99.06
283.745	98.06
283.976	110.06
284.207	99.06
284.439	96.06
284.67	98.06
284.901	105.06
285.132	103.06
285.364	102.06
285.595	96.06
285.826	116.06
286.057	108.06
286.288	105.06
286.52	112.06
286.751	108.06
286.982	109.06
287.213	108.06
287.444	119.06
287.675	102.06
287.906	105.06
288.138	112.06
288.369	114.06
288.6	107.06
288.831	94.06
289.062	115.06
289.293	102.06
289.524	119.06
289.755	118.06
289.986	118.06
290.217	108.06
290.448	110.06
290.679	105.06
290.91	106.06
291.141	96.06
291.371	110.06
291.602	93.06
291.833	105.06
292.064	113.06
292.295	103.06
292.526	89.06
292.757	104.06
292.987	96.06
293.218	110.06
293.449	105.06
293.68	107.06
293.91	108.06
294.141	108.06
294.372	95.06
294.603	93.06
294.833	117.06
295.064	100.06
295.295	99.06
295.525	109.06
295.756	111.06
295.987	94.06
296.217	99.06
296.448	100.06
296.679	103.06
296.909	104.06
297.14	95.06
297.37	101.06
297.601	104.06
297.831	118.06
298.062	101.06
298.292	101.06
298.523	120.06
298.753	106.06
298.984	111.06
299.214	100.06
299.445	98.06
299.675	117.06
299.905	105.06
300.136	115.06
300.366	108.06
300.597	109.06
300.827	105.06
301.057	124.06
301.288	109.06
301.518	99.06
301.748	119.06
301.979	98.06
302.209	95.06
302.439	108.06
302.669	106.06
302.9	90.06
303.13	117.06
303.36	104.06
303.59	94.06
303.82	125.06
304.051	109.06
304.281	129.06
304.511	109.06
304.741	117.06
304.971	112.06
305.201	109.06
305.431	108.06
305.661	113.06
305.891	114.06
306.121	114.06
306.352	101.06
306.582	110.06
306.812	104.06
307.042	121.06
307.272	96.06
307.502	102.06
307.731	127.06
307.961	109.06
308.191	115.06
308.421	106.06
308.651	103.06
308.881	106.06
309.111	120.06
309.341	119.06
309.571	118.06
309.8	107.06
310.03	113.06
310.26	111.06
310.49	105.06
310.72	117.06
310.949	109.06
311.179	109.06
311.409	110.06
311.639	114.06
311.868	105.06
312.098	100.06
312.328	122.06
312.557	116.06
312.787	108.06
313.017	102.06
313.246	118.06
313.476	104.06
313.706	119.06
313.935	111.06
314.165	110.06
314.394	113.06
314.624	109.06
314.853	127.06
315.083	121.06
315.312	120.06
315.542	126.06
315.771	120.06
316.001	127.06
316.23	124.06
316.46	119.06
316.689	108.06
316.919	107.06
317.148	100.06
317.377	122.06
317.607	122.06
317.836	112.06
318.065	117.06
318.295	119.06
318.524	114.06
318.753	109.06
318.983	102.06
319.212	108.06
319.441	111.06
319.67	136.06
319.9	114.06
320.129	120.06
320.358	111.06
320.587	117.06
320.816	124.06
321.046	115.06
321.275	115.06
321.504	109.06
321.733	117.06
321.962	101.06
322.191	124.06
322.42	126.06
322.649	108.06
322.878	114.06
323.108	103.06
323.337	125.06
323.566	122.06
323.795	111.06
324.024	135.06
324.253	121.06
324.482	145.06
324.71	157.06
324.939	167.06
325.168	155.06
325.397	121.06
325.626	129.06
325.855	110.06
326.084	107.06
326.313	129.06
326.542	141.06
326.77	123.06
326.999	129.06
327.228	124.06
327.457	150.06
327.686	160.06
327.914	123.06
328.143	110.06
328.372	117.06
328.6	93.06
328.829	128.06
329.058	114.06
329.287	127.06
329.515	129.06
329.744	122.06
329.972	109.06
330.201	123.06
330.43	125.06
330.658	101.06
330.887	128.06
331.115	117.06
331.344	118.06
331.572	136.06
331.801	123.06
332.03	121.06
332.258	122.06
332.486	109.06
332.715	110.06
332.943	117.06
333.172	117.06
333.4	124.06
333.629	121.06
333.857	134.06
334.085	125.06
334.314	114.06
334.542	133.06
334.771	135.06
334.999	142.06
335.227	125.06
335.455	117.06
335.684	105.06
335.912	112.06
336.14	135.06
336.369	119.06
336.597	124.06
336.825	130.06
337.053	120.06
337.281	112.06
337.51	110.06
337.738	117.06
337.966	135.06
338.194	121.06
338.422	131.06
338.65	126.06
338.878	118.06
339.106	98.06
339.334	124.06
339.562	124.06
339.79	115.06
340.018	115.06
340.246	120.06
340.474	110.06
340.702	111.06
340.93	101.06
341.158	120.06
341.386	119.06
341.614	104.06
341.842	107.06
342.07	120.06
342.298	107.06
342.526	123.06
342.754	112.06
342.981	105.06
343.209	123.06
343.437	115.06
343.665	108.06
343.893	122.06
344.12	129.06
344.348	128.06
344.576	122.06
344.804	118.06
345.031	118.06
345.259	126.06
345.487	123.06
345.714	107.06
345.942	102.06
346.17	113.06
346.397	121.06
346.625	119.06
346.853	125.06
347.08	118.06
347.308	113.06
347.535	126.06
347.763	130.06
347.99	120.06
348.218	117.06
348.445	119.06
348.673	112.06
348.9	108.06
349.128	103.06
349.355	115.06
349.583	104.06
349.81	100.06
350.037	123.06
350.265	125.06
350.492	114.06
350.72	109.06
350.947	111.06
351.174	125.06
351.402	124.06
351.629	118.06
351.856	118.06
352.083	113.06
352.311	109.06
352.538	124.06
352.765	120.06
352.992	109.06
353.22	117.06
353.447	118.06
353.674	106.06
353.901	115.06
354.128	122.06
354.355	119.06
354.583	117.06
354.81	107.06
355.037	122.06
355.264	110.06
355.491	109.06
355.718	106.06
355.945	117.06
356.172	106.06
356.399	101.06
356.626	108.06
356.853	113.06
357.08	106.06
357.307	108.06
357.534	122.06
357.761	123.06
357.988	117.06
358.215	122.06
358.441	107.06
358.668	108.06
358.895	106.06
359.122	106.06
359.349	110.06
359.576	111.06
359.802	114.06
360.029	109.06
360.256	116.06
360.483	114.06
360.709	117.06
360.936	117.06
361.163	127.06
361.39	127.06
361.616	107.06
361.843	114.06
362.07	129.06
362.296	118.06
362.523	117.06
362.749	110.06
362.976	115.06
363.203	120.06
363.429	125.06
363.656	117.06
363.882	129.06
364.109	126.06
364.335	118.06
364.562	114.06
364.788	113.06
365.015	106.06
365.241	105.06
365.468	111.06
365.694	117.06
365.92	115.06
366.147	112.06
366.373	103.06
366.599	111.06
366.826	126.06
367.052	122.06
367.278	114.06
367.505	117.06
367.731	113.06
367.957	113.06
368.184	121.06
368.41	119.06
368.636	110.06
368.862	113.06
369.089	116.06
369.315	120.06
369.541	126.06
369.767	114.06
369.993	117.06
370.219	103.06
370.445	106.06
370.672	114.06
370.898	112.06
371.124	98.06
371.35	109.06
371.576	102.06
371.802	111.06
372.028	104.06
372.254	125.06
372.48	104.06
372.706	117.06
372.932	103.06
373.158	116.06
373.384	126.06
373.61	110.06
373.835	117.06
374.061	111.06
374.287	130.06
374.513	111.06
374.739	107.06
374.965	106.06
375.191	117.06
375.416	114.06
375.642	118.06
375.868	121.06
376.094	118.06
376.319	126.06
376.545	110.06
376.771	101.06
376.997	129.06
377.222	125.06
377.448	107.06
377.674	119.06
377.899	127.06
378.125	125.06
378.35	124.06
378.576	111.06
378.802	122.06
379.027	123.06
379.253	109.06
379.478	111.06
379.704	99.06
379.929	106.06
380.155	114.06
380.38	124.06
380.606	102.06
380.831	117.06
381.057	118.06
381.282	106.06
381.507	117.06
381.733	115.06
381.958	108.06
382.184	106.06
382.409	103.06
382.634	134.06
382.86	125.06
383.085	128.06
383.31	116.06
383.535	114.06
383.761	124.06
383.986	125.06
384.211	123.06
384.436	116.06
384.662	114.06
384.887	117.06
385.112	113.06
385.337	128.06
385.562	128.06
385.787	122.06
386.013	147.06
386.238	135.06
386.463	126.06
386.688	130.06
386.913	124.06
387.138	126.06
387.363	127.06
387.588	120.06
387.813	113.06
388.038	135.06
388.263	127.06
388.488	121.06
388.713	109.06
388.938	123.06
389.163	121.06
389.387	137.06
389.612	106.06
389.837	98.06
390.062	117.06
390.287	138.06
390.512	117.06
390.736	133.06
390.961	118.06
391.186	124.06
391.411	118.06
391.636	125.06
391.86	129.06
392.085	136.06
392.31	137.06
392.534	103.06
392.759	127.06
392.984	119.06
393.208	124.06
393.433	129.06
393.658	121.06
393.882	112.06
394.107	124.06
394.331	115.06
394.556	115.06
394.78	112.06
395.005	126.06
395.229	127.06
395.454	123.06
395.678	125.06
395.903	140.06
396.127	127.06
396.352	133.06
396.576	129.06
396.801	131.06
397.025	127.06
397.249	127.06
397.474	137.06
397.698	131.06
397.922	129.06
398.147	131.06
398.371	119.06
398.595	135.06
398.82	129.06
399.044	130.06
399.268	139.06
399.492	138.06
399.717	150.06
399.941	149.06
400.165	139.06
400.389	149.06
400.613	120.06
400.837	144.06
401.062	144.06
401.286	126.06
401.51	130.06
401.734	119.06
401.958	119.06
402.182	143.06
402.406	123.06
402.63	141.06
402.854	139.06
403.078	146.06
403.302	130.06
403.526	147.06
403.75	139.06
403.974	130.06
404.198	134.06
404.422	145.06
404.645	141.06
404.869	140.06
405.093	129.06
405.317	137.06
405.541	136.06
405.765	130.06
405.988	131.06
406.212	142.06
406.436	146.06
406.66	137.06
406.883	144.06
407.107	142.06
407.331	150.06
407.555	154.06
407.778	152.06
408.002	146.06
408.226	140.06
408.449	146.06
408.673	141.06
408.896	127.06
409.12	139.06
409.344	138.06
409.567	132.06
409.791	141.06
410.014	136.06
410.238	143.06
410.461	121.06
410.685	128.06
410.908	130.06
411.132	143.06
411.355	140.06
411.578	146.06
411.802	128.06
412.025	134.06
412.249	131.06
412.472	140.06
412.695	145.06
412.919	128.06
413.142	127.06
413.365	135.06
413.589	127.06
413.812	128.06
414.035	139.06
414.258	138.06
414.482	137.06
414.705	133.06
414.928	129.06
415.151	123.06
415.374	128.06
415.597	133.06
415.821	137.06
416.044	135.06
416.267	123.06
416.49	128.06
416.713	147.06
416.936	145.06
417.159	124.06
417.382	147.06
417.605	141.06
417.828	125.06
418.051	123.06
418.274	145.06
418.497	130.06
418.72	140.06
418.943	129.06
419.166	138.06
419.389	132.06
419.611	137.06
419.834	131.06
420.057	129.06
420.28	129.06
420.503	141.06
420.726	136.06
420.948	150.06
421.171	141.06
421.394	132.06
421.617	126.06
421.839	115.06
422.062	141.06
422.285	128.06
422.507	131.06
422.73	128.06
422.953	136.06
423.175	133.06
423.398	122.06
423.621	133.06
423.843	130.06
424.066	128.06
424.288	146.06
424.511	141.06
424.733	134.06
424.956	136.06
425.178	141.06
425.401	151.06
425.623	135.06
425.846	136.06
426.068	136.06
426.291	132.06
426.513	135.06
426.735	131.06
426.958	135.06
427.18	128.06
427.402	134.06
427.625	139.06
427.847	137.06
428.069	128.06
428.292	143.06
428.514	147.06
428.736	128.06
428.958	129.06
429.181	118.06
429.403	128.06
429.625	131.06
429.847	130.06
430.069	141.06
430.292	134.06
430.514	127.06
430.736	110.06
430.958	123.06
431.18	123.06
431.402	123.06
431.624	130.06
431.846	123.06
432.068	118.06
432.29	121.06
432.512	132.06
432.734	118.06
432.956	133.06
433.178	134.06
433.4	122.06
433.622	127.06
433.844	129.06
434.066	122.06
434.287	105.06
434.509	127.06
434.731	135.06
434.953	125.06
435.175	117.06
435.397	131.06
435.618	131.06
435.84	117.06
436.062	148.06
436.284	143.06
436.505	137.06
436.727	129.06
436.949	113.06
437.17	126.06
437.392	131.06
437.614	127.06
437.835	132.06
438.057	141.06
438.278	145.06
438.5	121.06
438.721	155.06
438.943	146.06
439.165	135.06
439.386	136.06
439.608	131.06
439.829	127.06
440.05	122.06
440.272	117.06
440.493	127.06
440.715	128.06
440.936	133.06
441.158	134.06
441.379	132.06
441.6	133.06
441.822	147.06
442.043	153.06
442.264	143.06
442.486	146.06
442.707	125.06
442.928	147.06
443.149	134.06
443.371	141.06
443.592	137.06
443.813	126.06
444.034	145.06
444.255	148.06
444.476	151.06
444.698	148.06
444.919	130.06
445.14	214.06
445.361	185.06
445.582	130.06
445.803	137.06
446.024	124.06
446.245	154.06
446.466	136.06
446.687	141.06
446.908	133.06
447.129	131.06
447.35	139.06
447.571	134.06
447.792	130.06
448.013	127.06
448.234	125.06
448.455	140.06
448.675	137.06
448.896	141.06
449.117	124.06
449.338	136.06
449.559	133.06
449.779	148.06
450	145.06
450.221	127.06
450.442	127.06
450.662	128.06
450.883	145.06
451.104	123.06
451.324	111.06
451.545	131.06
451.766	121.06
451.986	121.06
452.207	135.06
452.428	127.06
452.648	126.06
452.869	113.06
453.089	124.06
453.31	125.06
453.53	133.06
453.751	104.06
453.971	117.06
454.192	122.06
454.412	120.06
454.633	122.06
454.853	123.06
455.073	109.06
455.294	113.06
455.514	120.06
455.734	121.06
455.955	122.06
456.175	122.06
456.395	112.06
456.616	114.06
456.836	107.06
457.056	102.06
457.276	135.06
457.497	105.06
457.717	110.06
457.937	118.06
458.157	107.06
458.377	118.06
458.598	121.06
458.818	120.06
459.038	140.06
459.258	117.06
459.478	129.06
459.698	129.06
459.918	135.06
460.138	112.06
460.358	137.06
460.578	140.06
460.798	138.06
461.018	129.06
461.238	135.06
461.458	134.06
461.678	124.06
461.898	129.06
462.118	142.06
462.338	138.06
462.558	126.06
462.777	146.06
462.997	134.06
463.217	145.06
463.437	136.06
463.657	131.06
463.876	134.06
464.096	130.06
464.316	133.06
464.536	156.06
464.755	159.06
464.975	132.06
465.195	137.06
465.414	141.06
465.634	129.06
465.854	135.06
466.073	122.06
466.293	123.06
466.512	134.06
466.732	117.06
466.951	133.06
467.171	126.06
467.391	125.06
467.61	134.06
467.829	131.06
468.049	126.06
468.268	113.06
468.488	125.06
468.707	125.06
468.927	121.06
469.146	113.06
469.365	113.06
469.585	124.06
469.804	131.06
470.023	110.06
470.243	121.06
470.462	126.06
470.681	126.06
470.901	130.06
471.12	119.06
471.339	120.06
471.558	139.06
471.777	123.06
471.997	110.06
472.216	129.06
472.435	124.06
472.654	127.06
472.873	129.06
473.092	125.06
473.311	121.06
473.53	149.06
473.749	141.06
473.968	129.06
474.187	139.06
474.406	126.06
474.625	124.06
474.844	127.06
475.063	117.06
475.282	122.06
475.501	116.06
475.72	124.06
475.939	127.06
476.158	128.06
476.377	123.06
476.596	115.06
476.814	131.06
477.033	126.06
477.252	128.06
477.471	127.06
477.69	143.06
477.908	150.06
478.127	141.06
478.346	128.06
478.564	145.06
478.783	134.06
479.002	127.06
479.22	134.06
479.439	146.06
479.658	131.06
479.876	134.06
480.095	127.06
480.313	139.06
480.532	156.06
480.751	133.06
480.969	136.06
481.188	135.06
481.406	134.06
481.624	131.06
481.843	134.06
482.061	133.06
482.28	140.06
482.498	132.06
482.717	127.06
482.935	134.06
483.153	127.06
483.372	125.06
483.59	147.06
483.808	133.06
484.027	135.06
484.245	144.06
484.463	145.06
484.681	153.06
484.9	137.06
485.118	131.06
485.336	120.06
485.554	138.06
485.772	131.06
485.99	140.06
486.209	145.06
486.427	123.06
486.645	137.06
486.863	139.06
487.081	139.06
487.299	146.06
487.517	137.06
487.735	141.06
487.953	133.06
488.171	146.06
488.389	156.06
488.607	151.06
488.825	145.06
489.043	133.06
489.261	131.06
489.479	146.06
489.696	147.06
489.914	147.06
490.132	142.06
490.35	140.06
490.568	145.06
490.786	144.06
491.003	129.06
491.221	145.06
491.439	135.06
491.657	142.06
491.874	160.06
492.092	141.06
492.31	153.06
492.527	138.06
492.745	167.06
492.963	141.06
493.18	157.06
493.398	144.06
493.615	159.06
493.833	147.06
494.05	139.06
494.268	143.06
494.485	145.06
494.703	145.06
494.92	139.06
495.138	134.06
495.355	149.06
495.573	159.06
495.79	146.06
496.008	144.06
496.225	145.06
496.442	130.06
496.66	151.06
496.877	151.06
497.094	161.06
497.312	151.06
497.529	157.06
497.746	146.06
497.963	146.06
498.181	159.06
498.398	168.06
498.615	167.06
498.832	160.06
499.049	168.06
499.267	176.06
499.484	191.06
499.701	197.06
499.918	185.06
500.135	193.06
500.352	201.06
500.569	220.06
500.786	209.06
501.003	205.06
501.22	195.06
501.437	187.06
501.654	169.06
501.871	171.06
502.088	188.06
502.305	176.06
502.522	149.06
502.739	142.06
502.956	155.06
503.172	166.06
503.389	143.06
503.606	151.06
503.823	147.06
504.04	139.06
504.256	150.06
504.473	151.06
504.69	154.06
