Data from 1968.PennyLincolnUp.Lamp.En5.5.200Scan.071719.P1._HRD10591_14-51-25-970.txt Node
Date: Thu Jul 18 14:51:25 EDT 2019
User: cochatt
Spectrometer: HR+D1059
Trigger mode: 1
Integration Time (sec): 1.000000E-1
Scans to average: 1
Electric dark correction enabled: true
Nonlinearity correction enabled: false
Boxcar width: 0
XAxis mode: Wavelengths
Number of Pixels in Spectrum: 2048
>>>>>Begin Spectral Data<<<<<
223.165	-23.38
223.4	-23.38
223.635	-23.38
223.869	-12.38
224.104	-11.38
224.338	-12.38
224.573	-23.38
224.808	0.62
225.042	3.62
225.277	-2.38
225.511	-12.38
225.746	5.62
225.98	-4.38
226.215	13.62
226.449	14.62
226.683	16.62
226.918	20.62
227.152	26.62
227.387	44.62
227.621	21.62
227.856	38.62
228.09	40.62
228.324	47.62
228.559	55.62
228.793	65.62
229.027	60.62
229.262	55.62
229.496	67.62
229.73	69.62
229.964	80.62
230.199	77.62
230.433	79.62
230.667	77.62
230.901	76.62
231.136	76.62
231.37	76.62
231.604	96.62
231.838	77.62
232.072	89.62
232.306	101.62
232.541	100.62
232.775	88.62
233.009	99.62
233.243	88.62
233.477	85.62
233.711	96.62
233.945	86.62
234.179	81.62
234.413	91.62
234.647	81.62
234.881	84.62
235.115	81.62
235.349	87.62
235.583	86.62
235.817	97.62
236.051	85.62
236.285	93.62
236.519	77.62
236.753	90.62
236.987	77.62
237.221	88.62
237.455	88.62
237.689	88.62
237.922	72.62
238.156	75.62
238.39	80.62
238.624	87.62
238.858	94.62
239.091	88.62
239.325	74.62
239.559	88.62
239.793	84.62
240.027	80.62
240.26	89.62
240.494	93.62
240.728	81.62
240.961	74.62
241.195	92.62
241.429	85.62
241.662	82.62
241.896	100.62
242.13	85.62
242.363	88.62
242.597	89.62
242.83	83.62
243.064	90.62
243.298	88.62
243.531	85.62
243.765	94.62
243.998	95.62
244.232	94.62
244.465	77.62
244.699	83.62
244.932	83.62
245.166	98.62
245.399	82.62
245.633	64.62
245.866	79.62
246.099	96.62
246.333	90.62
246.566	91.62
246.8	89.62
247.033	95.62
247.266	78.62
247.5	82.62
247.733	81.62
247.966	82.62
248.2	85.62
248.433	104.62
248.666	99.62
248.899	67.62
249.133	97.62
249.366	91.62
249.599	96.62
249.832	93.62
250.066	105.62
250.299	87.62
250.532	95.62
250.765	70.62
250.998	85.62
251.231	81.62
251.465	78.62
251.698	89.62
251.931	99.62
252.164	88.62
252.397	95.62
252.63	89.62
252.863	91.62
253.096	92.62
253.329	91.62
253.562	99.62
253.795	87.62
254.028	87.62
254.261	86.62
254.494	84.62
254.727	100.62
254.96	93.62
255.193	91.62
255.426	83.62
255.659	89.62
255.892	110.62
256.124	83.62
256.357	93.62
256.59	94.62
256.823	93.62
257.056	84.62
257.289	101.62
257.521	79.62
257.754	87.62
257.987	106.62
258.22	89.62
258.452	97.62
258.685	96.62
258.918	87.62
259.151	102.62
259.383	87.62
259.616	91.62
259.849	96.62
260.081	98.62
260.314	100.62
260.547	102.62
260.779	92.62
261.012	86.62
261.244	87.62
261.477	94.62
261.71	99.62
261.942	93.62
262.175	102.62
262.407	102.62
262.64	85.62
262.872	82.62
263.105	92.62
263.337	90.62
263.57	100.62
263.802	103.62
264.035	97.62
264.267	92.62
264.499	96.62
264.732	94.62
264.964	95.62
265.197	90.62
265.429	97.62
265.661	101.62
265.894	100.62
266.126	105.62
266.358	94.62
266.591	93.62
266.823	97.62
267.055	99.62
267.287	102.62
267.52	97.62
267.752	108.62
267.984	96.62
268.216	98.62
268.448	95.62
268.681	104.62
268.913	89.62
269.145	81.62
269.377	105.62
269.609	97.62
269.841	104.62
270.073	87.62
270.306	102.62
270.538	104.62
270.77	94.62
271.002	109.62
271.234	103.62
271.466	107.62
271.698	96.62
271.93	92.62
272.162	119.62
272.394	89.62
272.626	90.62
272.858	83.62
273.09	90.62
273.322	104.62
273.553	107.62
273.785	105.62
274.017	118.62
274.249	109.62
274.481	102.62
274.713	115.62
274.945	116.62
275.176	93.62
275.408	99.62
275.64	103.62
275.872	101.62
276.104	88.62
276.335	88.62
276.567	103.62
276.799	98.62
277.031	117.62
277.262	111.62
277.494	102.62
277.726	105.62
277.957	100.62
278.189	107.62
278.421	102.62
278.652	97.62
278.884	95.62
279.115	91.62
279.347	112.62
279.579	101.62
279.81	112.62
280.042	111.62
280.273	104.62
280.505	96.62
280.736	93.62
280.968	86.62
281.199	109.62
281.431	100.62
281.662	92.62
281.894	101.62
282.125	103.62
282.356	106.62
282.588	97.62
282.819	103.62
283.051	97.62
283.282	102.62
283.513	97.62
283.745	107.62
283.976	101.62
284.207	103.62
284.439	105.62
284.67	94.62
284.901	92.62
285.132	104.62
285.364	94.62
285.595	108.62
285.826	97.62
286.057	94.62
286.288	102.62
286.52	88.62
286.751	98.62
286.982	109.62
287.213	101.62
287.444	115.62
287.675	107.62
287.906	105.62
288.138	119.62
288.369	100.62
288.6	98.62
288.831	104.62
289.062	100.62
289.293	124.62
289.524	106.62
289.755	98.62
289.986	101.62
290.217	99.62
290.448	122.62
290.679	102.62
290.91	104.62
291.141	103.62
291.371	97.62
291.602	110.62
291.833	100.62
292.064	94.62
292.295	108.62
292.526	100.62
292.757	94.62
292.987	92.62
293.218	117.62
293.449	103.62
293.68	95.62
293.91	98.62
294.141	105.62
294.372	117.62
294.603	94.62
294.833	106.62
295.064	109.62
295.295	99.62
295.525	91.62
295.756	120.62
295.987	112.62
296.217	102.62
296.448	103.62
296.679	117.62
296.909	93.62
297.14	97.62
297.37	128.62
297.601	108.62
297.831	111.62
298.062	91.62
298.292	95.62
298.523	115.62
298.753	96.62
298.984	120.62
299.214	98.62
299.445	101.62
299.675	112.62
299.905	119.62
300.136	118.62
300.366	108.62
300.597	98.62
300.827	119.62
301.057	106.62
301.288	111.62
301.518	105.62
301.748	105.62
301.979	115.62
302.209	104.62
302.439	98.62
302.669	117.62
302.9	123.62
303.13	102.62
303.36	109.62
303.59	110.62
303.82	115.62
304.051	105.62
304.281	101.62
304.511	115.62
304.741	111.62
304.971	96.62
305.201	100.62
305.431	103.62
305.661	111.62
305.891	101.62
306.121	121.62
306.352	115.62
306.582	113.62
306.812	117.62
307.042	112.62
307.272	119.62
307.502	112.62
307.731	99.62
307.961	109.62
308.191	116.62
308.421	107.62
308.651	109.62
308.881	112.62
309.111	104.62
309.341	118.62
309.571	105.62
309.8	102.62
310.03	115.62
310.26	100.62
310.49	112.62
310.72	110.62
310.949	108.62
311.179	105.62
311.409	104.62
311.639	112.62
311.868	127.62
312.098	121.62
312.328	117.62
312.557	105.62
312.787	97.62
313.017	123.62
313.246	103.62
313.476	95.62
313.706	111.62
313.935	105.62
314.165	101.62
314.394	125.62
314.624	121.62
314.853	118.62
315.083	91.62
315.312	101.62
315.542	113.62
315.771	104.62
316.001	113.62
316.23	108.62
316.46	103.62
316.689	108.62
316.919	105.62
317.148	113.62
317.377	112.62
317.607	119.62
317.836	107.62
318.065	109.62
318.295	121.62
318.524	121.62
318.753	108.62
318.983	115.62
319.212	103.62
319.441	112.62
319.67	113.62
319.9	111.62
320.129	118.62
320.358	101.62
320.587	100.62
320.816	115.62
321.046	121.62
321.275	95.62
321.504	106.62
321.733	127.62
321.962	106.62
322.191	109.62
322.42	107.62
322.649	115.62
322.878	104.62
323.108	104.62
323.337	98.62
323.566	121.62
323.795	104.62
324.024	119.62
324.253	122.62
324.482	135.62
324.71	160.62
324.939	197.62
325.168	165.62
325.397	129.62
325.626	108.62
325.855	109.62
326.084	103.62
326.313	119.62
326.542	105.62
326.77	125.62
326.999	135.62
327.228	137.62
327.457	164.62
327.686	165.62
327.914	142.62
328.143	123.62
328.372	111.62
328.6	111.62
328.829	107.62
329.058	121.62
329.287	117.62
329.515	121.62
329.744	112.62
329.972	124.62
330.201	131.62
330.43	140.62
330.658	120.62
330.887	115.62
331.115	131.62
331.344	129.62
331.572	114.62
331.801	108.62
332.03	112.62
332.258	113.62
332.486	118.62
332.715	127.62
332.943	119.62
333.172	125.62
333.4	107.62
333.629	109.62
333.857	119.62
334.085	115.62
334.314	127.62
334.542	134.62
334.771	120.62
334.999	120.62
335.227	107.62
335.455	123.62
335.684	135.62
335.912	120.62
336.14	123.62
336.369	126.62
336.597	121.62
336.825	121.62
337.053	120.62
337.281	109.62
337.51	107.62
337.738	111.62
337.966	102.62
338.194	105.62
338.422	114.62
338.65	107.62
338.878	127.62
339.106	126.62
339.334	126.62
339.562	119.62
339.79	106.62
340.018	98.62
340.246	119.62
340.474	106.62
340.702	106.62
340.93	119.62
341.158	113.62
341.386	106.62
341.614	109.62
341.842	115.62
342.07	106.62
342.298	123.62
342.526	124.62
342.754	121.62
342.981	119.62
343.209	96.62
343.437	107.62
343.665	121.62
343.893	123.62
344.12	116.62
344.348	101.62
344.576	112.62
344.804	115.62
345.031	106.62
345.259	109.62
345.487	125.62
345.714	123.62
345.942	118.62
346.17	117.62
346.397	109.62
346.625	100.62
346.853	103.62
347.08	100.62
347.308	110.62
347.535	108.62
347.763	117.62
347.99	103.62
348.218	109.62
348.445	102.62
348.673	106.62
348.9	110.62
349.128	102.62
349.355	122.62
349.583	122.62
349.81	105.62
350.037	110.62
350.265	118.62
350.492	110.62
350.72	120.62
350.947	108.62
351.174	104.62
351.402	102.62
351.629	115.62
351.856	105.62
352.083	119.62
352.311	121.62
352.538	103.62
352.765	111.62
352.992	110.62
353.22	114.62
353.447	102.62
353.674	123.62
353.901	120.62
354.128	129.62
354.355	116.62
354.583	102.62
354.81	108.62
355.037	103.62
355.264	103.62
355.491	122.62
355.718	119.62
355.945	107.62
356.172	93.62
356.399	126.62
356.626	128.62
356.853	116.62
357.08	103.62
357.307	108.62
357.534	121.62
357.761	125.62
357.988	104.62
358.215	104.62
358.441	107.62
358.668	117.62
358.895	111.62
359.122	110.62
359.349	117.62
359.576	111.62
359.802	115.62
360.029	111.62
360.256	107.62
360.483	112.62
360.709	115.62
360.936	117.62
361.163	108.62
361.39	101.62
361.616	113.62
361.843	102.62
362.07	96.62
362.296	117.62
362.523	124.62
362.749	115.62
362.976	120.62
363.203	109.62
363.429	115.62
363.656	107.62
363.882	125.62
364.109	101.62
364.335	109.62
364.562	111.62
364.788	95.62
365.015	112.62
365.241	114.62
365.468	104.62
365.694	115.62
365.92	117.62
366.147	112.62
366.373	116.62
366.599	112.62
366.826	108.62
367.052	121.62
367.278	110.62
367.505	118.62
367.731	121.62
367.957	113.62
368.184	109.62
368.41	123.62
368.636	104.62
368.862	112.62
369.089	129.62
369.315	112.62
369.541	119.62
369.767	112.62
369.993	103.62
370.219	114.62
370.445	121.62
370.672	119.62
370.898	103.62
371.124	107.62
371.35	112.62
371.576	104.62
371.802	106.62
372.028	122.62
372.254	114.62
372.48	126.62
372.706	100.62
372.932	112.62
373.158	110.62
373.384	127.62
373.61	124.62
373.835	105.62
374.061	117.62
374.287	112.62
374.513	111.62
374.739	121.62
374.965	110.62
375.191	104.62
375.416	118.62
375.642	116.62
375.868	115.62
376.094	134.62
376.319	120.62
376.545	93.62
376.771	121.62
376.997	121.62
377.222	125.62
377.448	117.62
377.674	108.62
377.899	112.62
378.125	105.62
378.35	111.62
378.576	111.62
378.802	113.62
379.027	120.62
379.253	123.62
379.478	125.62
379.704	116.62
379.929	117.62
380.155	108.62
380.38	116.62
380.606	111.62
380.831	108.62
381.057	129.62
381.282	116.62
381.507	124.62
381.733	108.62
381.958	123.62
382.184	103.62
382.409	116.62
382.634	133.62
382.86	108.62
383.085	119.62
383.31	125.62
383.535	127.62
383.761	131.62
383.986	115.62
384.211	116.62
384.436	110.62
384.662	108.62
384.887	113.62
385.112	100.62
385.337	135.62
385.562	119.62
385.787	118.62
386.013	116.62
386.238	124.62
386.463	119.62
386.688	109.62
386.913	108.62
387.138	110.62
387.363	121.62
387.588	123.62
387.813	142.62
388.038	123.62
388.263	120.62
388.488	115.62
388.713	124.62
388.938	116.62
389.163	130.62
389.387	115.62
389.612	99.62
389.837	109.62
390.062	108.62
390.287	107.62
390.512	119.62
390.736	121.62
390.961	130.62
391.186	121.62
391.411	112.62
391.636	119.62
391.86	119.62
392.085	126.62
392.31	125.62
392.534	124.62
392.759	138.62
392.984	124.62
393.208	110.62
393.433	122.62
393.658	125.62
393.882	130.62
394.107	119.62
394.331	127.62
394.556	112.62
394.78	127.62
395.005	125.62
395.229	119.62
395.454	125.62
395.678	120.62
395.903	116.62
396.127	121.62
396.352	128.62
396.576	122.62
396.801	122.62
397.025	121.62
397.249	111.62
397.474	122.62
397.698	119.62
397.922	124.62
398.147	116.62
398.371	129.62
398.595	123.62
398.82	132.62
399.044	118.62
399.268	133.62
399.492	145.62
399.717	150.62
399.941	151.62
400.165	144.62
400.389	151.62
400.613	120.62
400.837	148.62
401.062	125.62
401.286	115.62
401.51	128.62
401.734	135.62
401.958	136.62
402.182	123.62
402.406	135.62
402.63	139.62
402.854	134.62
403.078	140.62
403.302	131.62
403.526	137.62
403.75	129.62
403.974	147.62
404.198	134.62
404.422	127.62
404.645	139.62
404.869	134.62
405.093	145.62
405.317	124.62
405.541	132.62
405.765	132.62
405.988	148.62
406.212	131.62
406.436	135.62
406.66	136.62
406.883	122.62
407.107	140.62
407.331	138.62
407.555	147.62
407.778	135.62
408.002	125.62
408.226	122.62
408.449	152.62
408.673	123.62
408.896	133.62
409.12	135.62
409.344	129.62
409.567	128.62
409.791	138.62
410.014	143.62
410.238	124.62
410.461	133.62
410.685	129.62
410.908	131.62
411.132	141.62
411.355	149.62
411.578	133.62
411.802	131.62
412.025	121.62
412.249	135.62
412.472	128.62
412.695	127.62
412.919	116.62
413.142	124.62
413.365	138.62
413.589	130.62
413.812	125.62
414.035	127.62
414.258	114.62
414.482	135.62
414.705	143.62
414.928	129.62
415.151	132.62
415.374	137.62
415.597	124.62
415.821	134.62
416.044	137.62
416.267	114.62
416.49	130.62
416.713	126.62
416.936	125.62
417.159	140.62
417.382	128.62
417.605	131.62
417.828	149.62
418.051	131.62
418.274	122.62
418.497	129.62
418.72	115.62
418.943	131.62
419.166	140.62
419.389	135.62
419.611	140.62
419.834	132.62
420.057	130.62
420.28	136.62
420.503	135.62
420.726	124.62
420.948	129.62
421.171	131.62
421.394	133.62
421.617	124.62
421.839	126.62
422.062	139.62
422.285	131.62
422.507	129.62
422.73	113.62
422.953	133.62
423.175	143.62
423.398	144.62
423.621	131.62
423.843	136.62
424.066	140.62
424.288	135.62
424.511	135.62
424.733	135.62
424.956	141.62
425.178	132.62
425.401	124.62
425.623	133.62
425.846	132.62
426.068	135.62
426.291	133.62
426.513	125.62
426.735	125.62
426.958	132.62
427.18	134.62
427.402	164.62
427.625	146.62
427.847	138.62
428.069	138.62
428.292	108.62
428.514	111.62
428.736	119.62
428.958	140.62
429.181	108.62
429.403	123.62
429.625	123.62
429.847	142.62
430.069	125.62
430.292	131.62
430.514	126.62
430.736	127.62
430.958	134.62
431.18	127.62
431.402	128.62
431.624	131.62
431.846	126.62
432.068	123.62
432.29	129.62
432.512	132.62
432.734	121.62
432.956	120.62
433.178	131.62
433.4	128.62
433.622	126.62
433.844	139.62
434.066	143.62
434.287	125.62
434.509	131.62
434.731	129.62
434.953	131.62
435.175	144.62
435.397	143.62
435.618	125.62
435.84	142.62
436.062	140.62
436.284	151.62
436.505	139.62
436.727	128.62
436.949	128.62
437.17	141.62
437.392	119.62
437.614	127.62
437.835	124.62
438.057	123.62
438.278	136.62
438.5	137.62
438.721	134.62
438.943	148.62
439.165	127.62
439.386	136.62
439.608	143.62
439.829	123.62
440.05	126.62
440.272	124.62
440.493	124.62
440.715	141.62
440.936	131.62
441.158	140.62
441.379	129.62
441.6	133.62
441.822	125.62
442.043	118.62
442.264	135.62
442.486	142.62
442.707	143.62
442.928	133.62
443.149	149.62
443.371	143.62
443.592	145.62
443.813	144.62
444.034	143.62
444.255	140.62
444.476	128.62
444.698	139.62
444.919	134.62
445.14	220.62
445.361	172.62
445.582	128.62
445.803	125.62
446.024	131.62
446.245	137.62
446.466	142.62
446.687	127.62
446.908	124.62
447.129	151.62
447.35	123.62
447.571	124.62
447.792	131.62
448.013	134.62
448.234	123.62
448.455	123.62
448.675	134.62
448.896	156.62
449.117	127.62
449.338	137.62
449.559	128.62
449.779	146.62
450	136.62
450.221	120.62
450.442	115.62
450.662	138.62
450.883	128.62
451.104	131.62
451.324	117.62
451.545	133.62
451.766	124.62
451.986	128.62
452.207	127.62
452.428	124.62
452.648	124.62
452.869	127.62
453.089	122.62
453.31	103.62
453.53	125.62
453.751	109.62
453.971	134.62
454.192	111.62
454.412	118.62
454.633	112.62
454.853	129.62
455.073	126.62
455.294	115.62
455.514	129.62
455.734	125.62
455.955	122.62
456.175	122.62
456.395	119.62
456.616	137.62
456.836	116.62
457.056	115.62
457.276	129.62
457.497	110.62
457.717	109.62
457.937	115.62
458.157	125.62
458.377	119.62
458.598	113.62
458.818	134.62
459.038	126.62
459.258	121.62
459.478	106.62
459.698	112.62
459.918	123.62
460.138	121.62
460.358	122.62
460.578	127.62
460.798	136.62
461.018	127.62
461.238	135.62
461.458	131.62
461.678	126.62
461.898	138.62
462.118	129.62
462.338	134.62
462.558	141.62
462.777	129.62
462.997	143.62
463.217	145.62
463.437	132.62
463.657	152.62
463.876	137.62
464.096	147.62
464.316	135.62
464.536	130.62
464.755	139.62
464.975	141.62
465.195	140.62
465.414	146.62
465.634	150.62
465.854	124.62
466.073	116.62
466.293	124.62
466.512	116.62
466.732	125.62
466.951	124.62
467.171	134.62
467.391	114.62
467.61	119.62
467.829	124.62
468.049	120.62
468.268	111.62
468.488	119.62
468.707	130.62
468.927	121.62
469.146	115.62
469.365	137.62
469.585	126.62
469.804	112.62
470.023	113.62
470.243	122.62
470.462	123.62
470.681	146.62
470.901	131.62
471.12	125.62
471.339	125.62
471.558	122.62
471.777	121.62
471.997	111.62
472.216	122.62
472.435	110.62
472.654	113.62
472.873	137.62
473.092	127.62
473.311	129.62
473.53	122.62
473.749	127.62
473.968	124.62
474.187	119.62
474.406	131.62
474.625	124.62
474.844	131.62
475.063	112.62
475.282	107.62
475.501	124.62
475.72	123.62
475.939	128.62
476.158	123.62
476.377	132.62
476.596	105.62
476.814	119.62
477.033	120.62
477.252	125.62
477.471	110.62
477.69	132.62
477.908	135.62
478.127	139.62
478.346	135.62
478.564	145.62
478.783	136.62
479.002	113.62
479.22	138.62
479.439	153.62
479.658	127.62
479.876	140.62
480.095	141.62
480.313	141.62
480.532	135.62
480.751	140.62
480.969	121.62
481.188	141.62
481.406	136.62
481.624	142.62
481.843	137.62
482.061	132.62
482.28	144.62
482.498	125.62
482.717	111.62
482.935	122.62
483.153	129.62
483.372	125.62
483.59	126.62
483.808	135.62
484.027	135.62
484.245	135.62
484.463	130.62
484.681	128.62
484.9	135.62
485.118	131.62
485.336	144.62
485.554	136.62
485.772	142.62
485.99	143.62
486.209	125.62
486.427	133.62
486.645	131.62
486.863	140.62
487.081	153.62
487.299	145.62
487.517	155.62
487.735	132.62
487.953	140.62
488.171	140.62
488.389	142.62
488.607	130.62
488.825	124.62
489.043	138.62
489.261	139.62
489.479	140.62
489.696	147.62
489.914	143.62
490.132	129.62
490.35	146.62
490.568	127.62
490.786	141.62
491.003	140.62
491.221	132.62
491.439	137.62
491.657	145.62
491.874	153.62
492.092	144.62
492.31	164.62
492.527	147.62
492.745	148.62
492.963	150.62
493.18	142.62
493.398	152.62
493.615	149.62
493.833	164.62
494.05	142.62
494.268	144.62
494.485	152.62
494.703	133.62
494.92	141.62
495.138	136.62
495.355	145.62
495.573	142.62
495.79	155.62
496.008	159.62
496.225	150.62
496.442	136.62
496.66	143.62
496.877	154.62
497.094	166.62
497.312	159.62
497.529	156.62
497.746	136.62
497.963	147.62
498.181	145.62
498.398	158.62
498.615	158.62
498.832	155.62
499.049	162.62
499.267	175.62
499.484	165.62
499.701	175.62
499.918	186.62
500.135	204.62
500.352	208.62
500.569	215.62
500.786	221.62
501.003	209.62
501.22	183.62
501.437	175.62
501.654	180.62
501.871	181.62
502.088	179.62
502.305	159.62
502.522	168.62
502.739	155.62
502.956	149.62
503.172	154.62
503.389	158.62
503.606	146.62
503.823	145.62
504.04	143.62
504.256	145.62
504.473	148.62
504.69	158.62
504.907	151.62
