Data from 1968.PennyLincolnUp.Lamp.En5.5.200Scan.071719.P1._HRD10591_14-52-15-970.txt Node
Date: Thu Jul 18 14:52:15 EDT 2019
User: cochatt
Spectrometer: HR+D1059
Trigger mode: 1
Integration Time (sec): 1.000000E-1
Scans to average: 1
Electric dark correction enabled: true
Nonlinearity correction enabled: false
Boxcar width: 0
XAxis mode: Wavelengths
Number of Pixels in Spectrum: 2048
>>>>>Begin Spectral Data<<<<<
223.165	-13.06
223.4	-13.06
223.635	-13.06
223.869	-9.06
224.104	-28.06
224.338	-19.06
224.573	-23.06
224.808	-12.06
225.042	-7.06
225.277	-0.06
225.511	1.94
225.746	9.94
225.98	11.94
226.215	1.94
226.449	12.94
226.683	8.94
226.918	26.94
227.152	36.94
227.387	28.94
227.621	35.94
227.856	43.94
228.09	46.94
228.324	50.94
228.559	57.94
228.793	45.94
229.027	50.94
229.262	70.94
229.496	62.94
229.73	71.94
229.964	79.94
230.199	71.94
230.433	76.94
230.667	76.94
230.901	73.94
231.136	74.94
231.37	78.94
231.604	88.94
231.838	83.94
232.072	97.94
232.306	87.94
232.541	85.94
232.775	79.94
233.009	80.94
233.243	62.94
233.477	78.94
233.711	83.94
233.945	88.94
234.179	69.94
234.413	91.94
234.647	79.94
234.881	89.94
235.115	92.94
235.349	88.94
235.583	75.94
235.817	89.94
236.051	76.94
236.285	81.94
236.519	65.94
236.753	85.94
236.987	83.94
237.221	90.94
237.455	76.94
237.689	75.94
237.922	79.94
238.156	93.94
238.39	86.94
238.624	80.94
238.858	81.94
239.091	83.94
239.325	64.94
239.559	89.94
239.793	78.94
240.027	83.94
240.26	98.94
240.494	84.94
240.728	82.94
240.961	76.94
241.195	89.94
241.429	79.94
241.662	71.94
241.896	76.94
242.13	72.94
242.363	78.94
242.597	88.94
242.83	71.94
243.064	67.94
243.298	71.94
243.531	77.94
243.765	68.94
243.998	82.94
244.232	83.94
244.465	77.94
244.699	81.94
244.932	86.94
245.166	89.94
245.399	97.94
245.633	88.94
245.866	72.94
246.099	83.94
246.333	87.94
246.566	86.94
246.8	89.94
247.033	76.94
247.266	75.94
247.5	88.94
247.733	83.94
247.966	79.94
248.2	71.94
248.433	81.94
248.666	63.94
248.899	90.94
249.133	79.94
249.366	91.94
249.599	71.94
249.832	69.94
250.066	95.94
250.299	93.94
250.532	85.94
250.765	87.94
250.998	85.94
251.231	96.94
251.465	81.94
251.698	81.94
251.931	81.94
252.164	84.94
252.397	75.94
252.63	97.94
252.863	80.94
253.096	101.94
253.329	100.94
253.562	84.94
253.795	76.94
254.028	93.94
254.261	88.94
254.494	99.94
254.727	77.94
254.96	90.94
255.193	96.94
255.426	89.94
255.659	97.94
255.892	91.94
256.124	82.94
256.357	91.94
256.59	98.94
256.823	83.94
257.056	92.94
257.289	100.94
257.521	103.94
257.754	91.94
257.987	74.94
258.22	82.94
258.452	94.94
258.685	75.94
258.918	88.94
259.151	89.94
259.383	104.94
259.616	78.94
259.849	86.94
260.081	93.94
260.314	77.94
260.547	94.94
260.779	94.94
261.012	90.94
261.244	88.94
261.477	100.94
261.71	92.94
261.942	84.94
262.175	91.94
262.407	81.94
262.64	79.94
262.872	89.94
263.105	83.94
263.337	88.94
263.57	81.94
263.802	95.94
264.035	87.94
264.267	91.94
264.499	84.94
264.732	78.94
264.964	86.94
265.197	102.94
265.429	105.94
265.661	81.94
265.894	71.94
266.126	85.94
266.358	85.94
266.591	74.94
266.823	95.94
267.055	82.94
267.287	93.94
267.52	88.94
267.752	94.94
267.984	91.94
268.216	95.94
268.448	104.94
268.681	87.94
268.913	86.94
269.145	105.94
269.377	100.94
269.609	94.94
269.841	83.94
270.073	88.94
270.306	95.94
270.538	91.94
270.77	104.94
271.002	100.94
271.234	100.94
271.466	85.94
271.698	98.94
271.93	86.94
272.162	100.94
272.394	91.94
272.626	103.94
272.858	90.94
273.09	103.94
273.322	87.94
273.553	93.94
273.785	97.94
274.017	94.94
274.249	91.94
274.481	77.94
274.713	83.94
274.945	89.94
275.176	84.94
275.408	86.94
275.64	91.94
275.872	92.94
276.104	100.94
276.335	90.94
276.567	77.94
276.799	83.94
277.031	88.94
277.262	84.94
277.494	91.94
277.726	98.94
277.957	88.94
278.189	97.94
278.421	74.94
278.652	118.94
278.884	108.94
279.115	91.94
279.347	82.94
279.579	87.94
279.81	97.94
280.042	104.94
280.273	87.94
280.505	100.94
280.736	92.94
280.968	92.94
281.199	99.94
281.431	90.94
281.662	87.94
281.894	92.94
282.125	83.94
282.356	89.94
282.588	88.94
282.819	99.94
283.051	97.94
283.282	98.94
283.513	91.94
283.745	107.94
283.976	98.94
284.207	104.94
284.439	88.94
284.67	93.94
284.901	85.94
285.132	97.94
285.364	89.94
285.595	102.94
285.826	108.94
286.057	101.94
286.288	111.94
286.52	91.94
286.751	85.94
286.982	104.94
287.213	85.94
287.444	101.94
287.675	92.94
287.906	104.94
288.138	111.94
288.369	83.94
288.6	99.94
288.831	103.94
289.062	81.94
289.293	82.94
289.524	91.94
289.755	101.94
289.986	93.94
290.217	112.94
290.448	96.94
290.679	101.94
290.91	92.94
291.141	80.94
291.371	96.94
291.602	94.94
291.833	95.94
292.064	103.94
292.295	95.94
292.526	92.94
292.757	97.94
292.987	89.94
293.218	95.94
293.449	107.94
293.68	99.94
293.91	91.94
294.141	104.94
294.372	111.94
294.603	101.94
294.833	102.94
295.064	106.94
295.295	108.94
295.525	97.94
295.756	99.94
295.987	92.94
296.217	101.94
296.448	101.94
296.679	108.94
296.909	101.94
297.14	97.94
297.37	99.94
297.601	95.94
297.831	104.94
298.062	98.94
298.292	99.94
298.523	100.94
298.753	100.94
298.984	85.94
299.214	91.94
299.445	115.94
299.675	97.94
299.905	116.94
300.136	112.94
300.366	105.94
300.597	105.94
300.827	95.94
301.057	120.94
301.288	105.94
301.518	114.94
301.748	95.94
301.979	95.94
302.209	94.94
302.439	106.94
302.669	99.94
302.9	122.94
303.13	99.94
303.36	109.94
303.59	115.94
303.82	115.94
304.051	98.94
304.281	99.94
304.511	104.94
304.741	104.94
304.971	105.94
305.201	111.94
305.431	100.94
305.661	94.94
305.891	97.94
306.121	97.94
306.352	89.94
306.582	119.94
306.812	111.94
307.042	89.94
307.272	83.94
307.502	110.94
307.731	112.94
307.961	108.94
308.191	98.94
308.421	96.94
308.651	99.94
308.881	123.94
309.111	97.94
309.341	94.94
309.571	103.94
309.8	107.94
310.03	98.94
310.26	96.94
310.49	114.94
310.72	112.94
310.949	106.94
311.179	107.94
311.409	100.94
311.639	106.94
311.868	106.94
312.098	117.94
312.328	106.94
312.557	101.94
312.787	108.94
313.017	118.94
313.246	96.94
313.476	105.94
313.706	92.94
313.935	100.94
314.165	98.94
314.394	97.94
314.624	102.94
314.853	111.94
315.083	116.94
315.312	98.94
315.542	103.94
315.771	102.94
316.001	116.94
316.23	98.94
316.46	98.94
316.689	108.94
316.919	119.94
317.148	118.94
317.377	112.94
317.607	113.94
317.836	97.94
318.065	115.94
318.295	117.94
318.524	106.94
318.753	111.94
318.983	91.94
319.212	96.94
319.441	99.94
319.67	115.94
319.9	97.94
320.129	96.94
320.358	103.94
320.587	107.94
320.816	100.94
321.046	103.94
321.275	100.94
321.504	102.94
321.733	106.94
321.962	98.94
322.191	100.94
322.42	108.94
322.649	100.94
322.878	120.94
323.108	105.94
323.337	115.94
323.566	105.94
323.795	108.94
324.024	100.94
324.253	100.94
324.482	122.94
324.71	141.94
324.939	174.94
325.168	171.94
325.397	136.94
325.626	121.94
325.855	112.94
326.084	98.94
326.313	117.94
326.542	118.94
326.77	114.94
326.999	103.94
327.228	133.94
327.457	145.94
327.686	166.94
327.914	133.94
328.143	121.94
328.372	118.94
328.6	121.94
328.829	114.94
329.058	113.94
329.287	114.94
329.515	97.94
329.744	119.94
329.972	109.94
330.201	108.94
330.43	118.94
330.658	98.94
330.887	94.94
331.115	114.94
331.344	100.94
331.572	118.94
331.801	102.94
332.03	101.94
332.258	108.94
332.486	102.94
332.715	132.94
332.943	104.94
333.172	123.94
333.4	117.94
333.629	125.94
333.857	125.94
334.085	120.94
334.314	119.94
334.542	127.94
334.771	108.94
334.999	111.94
335.227	115.94
335.455	113.94
335.684	123.94
335.912	113.94
336.14	103.94
336.369	103.94
336.597	100.94
336.825	104.94
337.053	115.94
337.281	116.94
337.51	115.94
337.738	104.94
337.966	97.94
338.194	112.94
338.422	104.94
338.65	107.94
338.878	115.94
339.106	108.94
339.334	100.94
339.562	113.94
339.79	114.94
340.018	111.94
340.246	115.94
340.474	113.94
340.702	101.94
340.93	97.94
341.158	119.94
341.386	95.94
341.614	115.94
341.842	107.94
342.07	96.94
342.298	94.94
342.526	99.94
342.754	102.94
342.981	124.94
343.209	110.94
343.437	125.94
343.665	99.94
343.893	121.94
344.12	115.94
344.348	112.94
344.576	113.94
344.804	109.94
345.031	113.94
345.259	113.94
345.487	108.94
345.714	114.94
345.942	101.94
346.17	113.94
346.397	96.94
346.625	104.94
346.853	111.94
347.08	107.94
347.308	114.94
347.535	115.94
347.763	108.94
347.99	105.94
348.218	97.94
348.445	96.94
348.673	108.94
348.9	119.94
349.128	114.94
349.355	115.94
349.583	113.94
349.81	106.94
350.037	114.94
350.265	97.94
350.492	99.94
350.72	116.94
350.947	102.94
351.174	117.94
351.402	108.94
351.629	104.94
351.856	105.94
352.083	104.94
352.311	81.94
352.538	108.94
352.765	88.94
352.992	113.94
353.22	122.94
353.447	117.94
353.674	121.94
353.901	115.94
354.128	112.94
354.355	102.94
354.583	116.94
354.81	104.94
355.037	97.94
355.264	100.94
355.491	103.94
355.718	107.94
355.945	125.94
356.172	103.94
356.399	110.94
356.626	103.94
356.853	106.94
357.08	98.94
357.307	104.94
357.534	114.94
357.761	117.94
357.988	107.94
358.215	114.94
358.441	92.94
358.668	104.94
358.895	117.94
359.122	114.94
359.349	103.94
359.576	104.94
359.802	94.94
360.029	100.94
360.256	106.94
360.483	108.94
360.709	97.94
360.936	107.94
361.163	100.94
361.39	104.94
361.616	99.94
361.843	96.94
362.07	108.94
362.296	105.94
362.523	110.94
362.749	95.94
362.976	100.94
363.203	132.94
363.429	102.94
363.656	110.94
363.882	109.94
364.109	121.94
364.335	101.94
364.562	113.94
364.788	101.94
365.015	111.94
365.241	122.94
365.468	109.94
365.694	118.94
365.92	101.94
366.147	108.94
366.373	96.94
366.599	103.94
366.826	95.94
367.052	100.94
367.278	92.94
367.505	108.94
367.731	103.94
367.957	108.94
368.184	116.94
368.41	115.94
368.636	104.94
368.862	109.94
369.089	119.94
369.315	112.94
369.541	113.94
369.767	108.94
369.993	90.94
370.219	115.94
370.445	98.94
370.672	108.94
370.898	112.94
371.124	116.94
371.35	99.94
371.576	115.94
371.802	119.94
372.028	91.94
372.254	106.94
372.48	104.94
372.706	102.94
372.932	112.94
373.158	107.94
373.384	113.94
373.61	104.94
373.835	109.94
374.061	101.94
374.287	117.94
374.513	109.94
374.739	117.94
374.965	118.94
375.191	127.94
375.416	97.94
375.642	104.94
375.868	111.94
376.094	106.94
376.319	101.94
376.545	125.94
376.771	108.94
376.997	105.94
377.222	128.94
377.448	110.94
377.674	105.94
377.899	109.94
378.125	105.94
378.35	101.94
378.576	107.94
378.802	116.94
379.027	111.94
379.253	120.94
379.478	110.94
379.704	109.94
379.929	120.94
380.155	112.94
380.38	109.94
380.606	100.94
380.831	117.94
381.057	106.94
381.282	109.94
381.507	119.94
381.733	115.94
381.958	104.94
382.184	107.94
382.409	109.94
382.634	120.94
382.86	108.94
383.085	107.94
383.31	111.94
383.535	115.94
383.761	120.94
383.986	120.94
384.211	109.94
384.436	114.94
384.662	113.94
384.887	96.94
385.112	111.94
385.337	107.94
385.562	122.94
385.787	108.94
386.013	119.94
386.238	109.94
386.463	113.94
386.688	115.94
386.913	108.94
387.138	114.94
387.363	115.94
387.588	111.94
387.813	105.94
388.038	104.94
388.263	123.94
388.488	115.94
388.713	110.94
388.938	105.94
389.163	131.94
389.387	124.94
389.612	119.94
389.837	101.94
390.062	111.94
390.287	124.94
390.512	116.94
390.736	108.94
390.961	122.94
391.186	122.94
391.411	126.94
391.636	107.94
391.86	109.94
392.085	122.94
392.31	129.94
392.534	131.94
392.759	123.94
392.984	108.94
393.208	114.94
393.433	112.94
393.658	117.94
393.882	103.94
394.107	116.94
394.331	131.94
394.556	104.94
394.78	104.94
395.005	123.94
395.229	111.94
395.454	125.94
395.678	126.94
395.903	117.94
396.127	126.94
396.352	101.94
396.576	126.94
396.801	117.94
397.025	101.94
397.249	127.94
397.474	127.94
397.698	125.94
397.922	113.94
398.147	121.94
398.371	119.94
398.595	130.94
398.82	128.94
399.044	139.94
399.268	132.94
399.492	123.94
399.717	149.94
399.941	149.94
400.165	150.94
400.389	131.94
400.613	116.94
400.837	132.94
401.062	146.94
401.286	128.94
401.51	112.94
401.734	121.94
401.958	132.94
402.182	120.94
402.406	128.94
402.63	135.94
402.854	132.94
403.078	124.94
403.302	120.94
403.526	108.94
403.75	125.94
403.974	117.94
404.198	124.94
404.422	123.94
404.645	106.94
404.869	137.94
405.093	134.94
405.317	129.94
405.541	136.94
405.765	136.94
405.988	115.94
406.212	132.94
406.436	131.94
406.66	134.94
406.883	127.94
407.107	142.94
407.331	128.94
407.555	147.94
407.778	136.94
408.002	143.94
408.226	130.94
408.449	136.94
408.673	147.94
408.896	126.94
409.12	133.94
409.344	123.94
409.567	124.94
409.791	132.94
410.014	124.94
410.238	134.94
410.461	106.94
410.685	116.94
410.908	117.94
411.132	131.94
411.355	122.94
411.578	134.94
411.802	121.94
412.025	115.94
412.249	124.94
412.472	136.94
412.695	122.94
412.919	136.94
413.142	132.94
413.365	123.94
413.589	121.94
413.812	124.94
414.035	127.94
414.258	126.94
414.482	125.94
414.705	113.94
414.928	126.94
415.151	121.94
415.374	126.94
415.597	121.94
415.821	127.94
416.044	131.94
416.267	115.94
416.49	128.94
416.713	126.94
416.936	132.94
417.159	124.94
417.382	125.94
417.605	141.94
417.828	137.94
418.051	125.94
418.274	111.94
418.497	123.94
418.72	107.94
418.943	136.94
419.166	124.94
419.389	131.94
419.611	122.94
419.834	123.94
420.057	148.94
420.28	123.94
420.503	131.94
420.726	116.94
420.948	126.94
421.171	120.94
421.394	122.94
421.617	128.94
421.839	140.94
422.062	131.94
422.285	123.94
422.507	141.94
422.73	122.94
422.953	131.94
423.175	123.94
423.398	127.94
423.621	113.94
423.843	120.94
424.066	122.94
424.288	131.94
424.511	129.94
424.733	127.94
424.956	137.94
425.178	156.94
425.401	130.94
425.623	145.94
425.846	122.94
426.068	129.94
426.291	130.94
426.513	136.94
426.735	116.94
426.958	124.94
427.18	122.94
427.402	144.94
427.625	132.94
427.847	128.94
428.069	130.94
428.292	130.94
428.514	109.94
428.736	122.94
428.958	117.94
429.181	115.94
429.403	121.94
429.625	113.94
429.847	130.94
430.069	150.94
430.292	129.94
430.514	139.94
430.736	120.94
430.958	123.94
431.18	123.94
431.402	119.94
431.624	109.94
431.846	139.94
432.068	126.94
432.29	107.94
432.512	117.94
432.734	122.94
432.956	116.94
433.178	135.94
433.4	122.94
433.622	131.94
433.844	125.94
434.066	121.94
434.287	128.94
434.509	130.94
434.731	132.94
434.953	135.94
435.175	121.94
435.397	129.94
435.618	128.94
435.84	104.94
436.062	133.94
436.284	135.94
436.505	139.94
436.727	130.94
436.949	127.94
437.17	137.94
437.392	115.94
437.614	124.94
437.835	123.94
438.057	127.94
438.278	139.94
438.5	133.94
438.721	145.94
438.943	133.94
439.165	124.94
439.386	134.94
439.608	131.94
439.829	119.94
440.05	114.94
440.272	135.94
440.493	116.94
440.715	146.94
440.936	119.94
441.158	121.94
441.379	127.94
441.6	122.94
441.822	127.94
442.043	138.94
442.264	135.94
442.486	141.94
442.707	132.94
442.928	129.94
443.149	131.94
443.371	120.94
443.592	123.94
443.813	133.94
444.034	162.94
444.255	138.94
444.476	141.94
444.698	124.94
444.919	126.94
445.14	229.94
445.361	177.94
445.582	127.94
445.803	137.94
446.024	145.94
446.245	126.94
446.466	127.94
446.687	119.94
446.908	123.94
447.129	129.94
447.35	129.94
447.571	118.94
447.792	117.94
448.013	108.94
448.234	116.94
448.455	119.94
448.675	149.94
448.896	129.94
449.117	114.94
449.338	107.94
449.559	131.94
449.779	140.94
450	127.94
450.221	133.94
450.442	116.94
450.662	116.94
450.883	126.94
451.104	123.94
451.324	106.94
451.545	121.94
451.766	123.94
451.986	117.94
452.207	120.94
452.428	106.94
452.648	143.94
452.869	119.94
453.089	118.94
453.31	112.94
453.53	121.94
453.751	117.94
453.971	108.94
454.192	114.94
454.412	102.94
454.633	111.94
454.853	107.94
455.073	119.94
455.294	117.94
455.514	135.94
455.734	124.94
455.955	110.94
456.175	101.94
456.395	113.94
456.616	125.94
456.836	113.94
457.056	120.94
457.276	121.94
457.497	107.94
457.717	121.94
457.937	106.94
458.157	96.94
458.377	107.94
458.598	114.94
458.818	109.94
459.038	120.94
459.258	123.94
459.478	111.94
459.698	124.94
459.918	131.94
460.138	121.94
460.358	123.94
460.578	134.94
460.798	135.94
461.018	127.94
461.238	120.94
461.458	129.94
461.678	129.94
461.898	124.94
462.118	114.94
462.338	122.94
462.558	132.94
462.777	112.94
462.997	121.94
463.217	147.94
463.437	135.94
463.657	141.94
463.876	134.94
464.096	139.94
464.316	131.94
464.536	123.94
464.755	136.94
464.975	131.94
465.195	134.94
465.414	129.94
465.634	125.94
465.854	126.94
466.073	135.94
466.293	130.94
466.512	124.94
466.732	125.94
466.951	122.94
467.171	112.94
467.391	116.94
467.61	111.94
467.829	128.94
468.049	113.94
468.268	122.94
468.488	106.94
468.707	121.94
468.927	126.94
469.146	104.94
469.365	104.94
469.585	124.94
469.804	125.94
470.023	123.94
470.243	121.94
470.462	117.94
470.681	124.94
470.901	113.94
471.12	113.94
471.339	105.94
471.558	121.94
471.777	124.94
471.997	119.94
472.216	108.94
472.435	113.94
472.654	128.94
472.873	113.94
473.092	117.94
473.311	120.94
473.53	115.94
473.749	119.94
473.968	125.94
474.187	127.94
474.406	135.94
474.625	126.94
474.844	129.94
475.063	121.94
475.282	121.94
475.501	121.94
475.72	118.94
475.939	119.94
476.158	121.94
476.377	121.94
476.596	128.94
476.814	119.94
477.033	135.94
477.252	117.94
477.471	117.94
477.69	126.94
477.908	129.94
478.127	140.94
478.346	116.94
478.564	128.94
478.783	127.94
479.002	140.94
479.22	140.94
479.439	131.94
479.658	127.94
479.876	136.94
480.095	122.94
480.313	126.94
480.532	133.94
480.751	123.94
480.969	132.94
481.188	140.94
481.406	137.94
481.624	131.94
481.843	137.94
482.061	123.94
482.28	117.94
482.498	132.94
482.717	116.94
482.935	142.94
483.153	132.94
483.372	125.94
483.59	119.94
483.808	120.94
484.027	129.94
484.245	135.94
484.463	133.94
484.681	131.94
484.9	106.94
485.118	123.94
485.336	131.94
485.554	120.94
485.772	124.94
485.99	129.94
486.209	127.94
486.427	119.94
486.645	123.94
486.863	118.94
487.081	111.94
487.299	132.94
487.517	127.94
487.735	121.94
487.953	134.94
488.171	135.94
488.389	122.94
488.607	131.94
488.825	129.94
489.043	136.94
489.261	147.94
489.479	126.94
489.696	137.94
489.914	122.94
490.132	137.94
490.35	134.94
490.568	132.94
490.786	135.94
491.003	130.94
491.221	146.94
491.439	137.94
491.657	155.94
491.874	134.94
492.092	130.94
492.31	135.94
492.527	141.94
492.745	162.94
492.963	135.94
493.18	144.94
493.398	130.94
493.615	138.94
493.833	131.94
494.05	142.94
494.268	135.94
494.485	141.94
494.703	162.94
494.92	145.94
495.138	133.94
495.355	135.94
495.573	132.94
495.79	127.94
496.008	145.94
496.225	131.94
496.442	121.94
496.66	145.94
496.877	140.94
497.094	149.94
497.312	150.94
497.529	147.94
497.746	151.94
497.963	156.94
498.181	157.94
498.398	132.94
498.615	155.94
498.832	147.94
499.049	156.94
499.267	169.94
499.484	152.94
499.701	169.94
499.918	172.94
500.135	198.94
500.352	197.94
500.569	217.94
500.786	196.94
501.003	195.94
501.22	184.94
501.437	182.94
501.654	164.94
501.871	167.94
502.088	152.94
502.305	146.94
502.522	149.94
502.739	164.94
502.956	152.94
503.172	161.94
503.389	135.94
503.606	142.94
503.823	151.94
504.04	135.94
504.256	154.94
504.473	145.94
504.69	140.94
504.907	148.94
505.123	123.94
505.34	149.94
505.557	135.94
505.773	141.94
505.99	136.94
506.207	140.94
506.423	126.94
