Data from 1968.PennyLincolnUp.Lamp.En5.5.200Scan.071719.P1._HRD10591_14-50-35-969.txt Node
Date: Thu Jul 18 14:50:35 EDT 2019
User: cochatt
Spectrometer: HR+D1059
Trigger mode: 1
Integration Time (sec): 1.000000E-1
Scans to average: 1
Electric dark correction enabled: true
Nonlinearity correction enabled: false
Boxcar width: 0
XAxis mode: Wavelengths
Number of Pixels in Spectrum: 2048
>>>>>Begin Spectral Data<<<<<
223.165	-7.62
223.4	-7.62
223.635	-7.62
223.869	-20.62
224.104	-16.62
224.338	-6.62
224.573	-6.62
224.808	-10.62
225.042	-2.62
225.277	1.38
225.511	-4.62
225.746	-7.62
225.98	9.38
226.215	8.38
226.449	3.38
226.683	12.38
226.918	15.38
227.152	33.38
227.387	27.38
227.621	40.38
227.856	33.38
228.09	52.38
228.324	56.38
228.559	49.38
228.793	62.38
229.027	67.38
229.262	81.38
229.496	74.38
229.73	85.38
229.964	85.38
230.199	83.38
230.433	76.38
230.667	82.38
230.901	95.38
231.136	82.38
231.37	85.38
231.604	107.38
231.838	95.38
232.072	83.38
232.306	93.38
232.541	84.38
232.775	88.38
233.009	107.38
233.243	98.38
233.477	76.38
233.711	94.38
233.945	101.38
234.179	88.38
234.413	85.38
234.647	93.38
234.881	82.38
235.115	92.38
235.349	83.38
235.583	89.38
235.817	83.38
236.051	82.38
236.285	98.38
236.519	93.38
236.753	96.38
236.987	86.38
237.221	80.38
237.455	88.38
237.689	95.38
237.922	93.38
238.156	83.38
238.39	98.38
238.624	96.38
238.858	97.38
239.091	83.38
239.325	84.38
239.559	83.38
239.793	79.38
240.027	98.38
240.26	93.38
240.494	81.38
240.728	85.38
240.961	84.38
241.195	95.38
241.429	87.38
241.662	84.38
241.896	94.38
242.13	87.38
242.363	88.38
242.597	76.38
242.83	75.38
243.064	79.38
243.298	84.38
243.531	94.38
243.765	97.38
243.998	85.38
244.232	78.38
244.465	79.38
244.699	92.38
244.932	98.38
245.166	92.38
245.399	89.38
245.633	83.38
245.866	90.38
246.099	95.38
246.333	105.38
246.566	91.38
246.8	83.38
247.033	93.38
247.266	99.38
247.5	80.38
247.733	89.38
247.966	97.38
248.2	86.38
248.433	96.38
248.666	95.38
248.899	100.38
249.133	86.38
249.366	95.38
249.599	89.38
249.832	85.38
250.066	95.38
250.299	97.38
250.532	103.38
250.765	105.38
250.998	111.38
251.231	83.38
251.465	80.38
251.698	97.38
251.931	89.38
252.164	98.38
252.397	81.38
252.63	93.38
252.863	82.38
253.096	92.38
253.329	96.38
253.562	87.38
253.795	96.38
254.028	94.38
254.261	94.38
254.494	85.38
254.727	103.38
254.96	106.38
255.193	99.38
255.426	92.38
255.659	100.38
255.892	105.38
256.124	99.38
256.357	91.38
256.59	103.38
256.823	104.38
257.056	92.38
257.289	80.38
257.521	95.38
257.754	84.38
257.987	102.38
258.22	118.38
258.452	86.38
258.685	85.38
258.918	93.38
259.151	100.38
259.383	93.38
259.616	96.38
259.849	88.38
260.081	95.38
260.314	100.38
260.547	99.38
260.779	93.38
261.012	94.38
261.244	96.38
261.477	101.38
261.71	84.38
261.942	96.38
262.175	104.38
262.407	106.38
262.64	93.38
262.872	101.38
263.105	101.38
263.337	97.38
263.57	92.38
263.802	99.38
264.035	103.38
264.267	88.38
264.499	81.38
264.732	104.38
264.964	107.38
265.197	97.38
265.429	88.38
265.661	105.38
265.894	93.38
266.126	100.38
266.358	91.38
266.591	96.38
266.823	107.38
267.055	110.38
267.287	97.38
267.52	101.38
267.752	96.38
267.984	94.38
268.216	96.38
268.448	103.38
268.681	89.38
268.913	110.38
269.145	105.38
269.377	107.38
269.609	111.38
269.841	107.38
270.073	101.38
270.306	105.38
270.538	114.38
270.77	98.38
271.002	106.38
271.234	97.38
271.466	99.38
271.698	109.38
271.93	88.38
272.162	106.38
272.394	102.38
272.626	87.38
272.858	109.38
273.09	115.38
273.322	118.38
273.553	95.38
273.785	109.38
274.017	98.38
274.249	93.38
274.481	97.38
274.713	111.38
274.945	95.38
275.176	100.38
275.408	100.38
275.64	99.38
275.872	100.38
276.104	104.38
276.335	95.38
276.567	105.38
276.799	114.38
277.031	93.38
277.262	111.38
277.494	109.38
277.726	105.38
277.957	96.38
278.189	108.38
278.421	107.38
278.652	95.38
278.884	114.38
279.115	105.38
279.347	106.38
279.579	109.38
279.81	100.38
280.042	99.38
280.273	112.38
280.505	109.38
280.736	94.38
280.968	104.38
281.199	110.38
281.431	111.38
281.662	107.38
281.894	111.38
282.125	100.38
282.356	116.38
282.588	120.38
282.819	96.38
283.051	113.38
283.282	99.38
283.513	105.38
283.745	101.38
283.976	119.38
284.207	111.38
284.439	114.38
284.67	112.38
284.901	129.38
285.132	115.38
285.364	88.38
285.595	108.38
285.826	113.38
286.057	117.38
286.288	111.38
286.52	105.38
286.751	107.38
286.982	98.38
287.213	110.38
287.444	104.38
287.675	114.38
287.906	108.38
288.138	103.38
288.369	117.38
288.6	111.38
288.831	106.38
289.062	122.38
289.293	106.38
289.524	112.38
289.755	107.38
289.986	95.38
290.217	99.38
290.448	103.38
290.679	108.38
290.91	113.38
291.141	113.38
291.371	125.38
291.602	110.38
291.833	100.38
292.064	111.38
292.295	114.38
292.526	114.38
292.757	115.38
292.987	102.38
293.218	96.38
293.449	90.38
293.68	110.38
293.91	119.38
294.141	124.38
294.372	112.38
294.603	116.38
294.833	98.38
295.064	106.38
295.295	121.38
295.525	105.38
295.756	103.38
295.987	112.38
296.217	122.38
296.448	111.38
296.679	101.38
296.909	112.38
297.14	116.38
297.37	107.38
297.601	111.38
297.831	110.38
298.062	108.38
298.292	115.38
298.523	106.38
298.753	114.38
298.984	116.38
299.214	93.38
299.445	107.38
299.675	109.38
299.905	103.38
300.136	112.38
300.366	109.38
300.597	110.38
300.827	120.38
301.057	103.38
301.288	116.38
301.518	110.38
301.748	114.38
301.979	114.38
302.209	105.38
302.439	105.38
302.669	114.38
302.9	112.38
303.13	103.38
303.36	123.38
303.59	121.38
303.82	122.38
304.051	116.38
304.281	127.38
304.511	103.38
304.741	111.38
304.971	115.38
305.201	129.38
305.431	119.38
305.661	129.38
305.891	104.38
306.121	109.38
306.352	108.38
306.582	120.38
306.812	120.38
307.042	103.38
307.272	120.38
307.502	119.38
307.731	114.38
307.961	111.38
308.191	117.38
308.421	112.38
308.651	120.38
308.881	108.38
309.111	108.38
309.341	113.38
309.571	112.38
309.8	108.38
310.03	115.38
310.26	102.38
310.49	114.38
310.72	119.38
310.949	103.38
311.179	117.38
311.409	119.38
311.639	96.38
311.868	108.38
312.098	109.38
312.328	122.38
312.557	103.38
312.787	117.38
313.017	108.38
313.246	90.38
313.476	108.38
313.706	117.38
313.935	113.38
314.165	103.38
314.394	99.38
314.624	115.38
314.853	112.38
315.083	121.38
315.312	114.38
315.542	109.38
315.771	127.38
316.001	104.38
316.23	111.38
316.46	115.38
316.689	115.38
316.919	100.38
317.148	117.38
317.377	112.38
317.607	116.38
317.836	118.38
318.065	105.38
318.295	108.38
318.524	122.38
318.753	101.38
318.983	107.38
319.212	126.38
319.441	113.38
319.67	114.38
319.9	119.38
320.129	107.38
320.358	120.38
320.587	106.38
320.816	106.38
321.046	115.38
321.275	126.38
321.504	107.38
321.733	114.38
321.962	118.38
322.191	117.38
322.42	116.38
322.649	108.38
322.878	105.38
323.108	127.38
323.337	123.38
323.566	124.38
323.795	126.38
324.024	117.38
324.253	149.38
324.482	149.38
324.71	148.38
324.939	192.38
325.168	161.38
325.397	121.38
325.626	125.38
325.855	135.38
326.084	114.38
326.313	121.38
326.542	117.38
326.77	127.38
326.999	117.38
327.228	140.38
327.457	155.38
327.686	168.38
327.914	148.38
328.143	125.38
328.372	103.38
328.6	123.38
328.829	126.38
329.058	121.38
329.287	128.38
329.515	127.38
329.744	124.38
329.972	122.38
330.201	131.38
330.43	113.38
330.658	123.38
330.887	127.38
331.115	123.38
331.344	108.38
331.572	130.38
331.801	114.38
332.03	128.38
332.258	113.38
332.486	139.38
332.715	123.38
332.943	121.38
333.172	128.38
333.4	120.38
333.629	129.38
333.857	124.38
334.085	104.38
334.314	98.38
334.542	116.38
334.771	124.38
334.999	123.38
335.227	119.38
335.455	118.38
335.684	127.38
335.912	129.38
336.14	132.38
336.369	137.38
336.597	117.38
336.825	133.38
337.053	128.38
337.281	119.38
337.51	117.38
337.738	139.38
337.966	125.38
338.194	121.38
338.422	112.38
338.65	121.38
338.878	119.38
339.106	113.38
339.334	119.38
339.562	111.38
339.79	122.38
340.018	106.38
340.246	122.38
340.474	121.38
340.702	135.38
340.93	114.38
341.158	119.38
341.386	113.38
341.614	122.38
341.842	116.38
342.07	103.38
342.298	127.38
342.526	120.38
342.754	126.38
342.981	117.38
343.209	107.38
343.437	114.38
343.665	125.38
343.893	106.38
344.12	123.38
344.348	135.38
344.576	124.38
344.804	112.38
345.031	124.38
345.259	115.38
345.487	111.38
345.714	118.38
345.942	114.38
346.17	129.38
346.397	112.38
346.625	123.38
346.853	114.38
347.08	115.38
347.308	115.38
347.535	115.38
347.763	106.38
347.99	123.38
348.218	133.38
348.445	123.38
348.673	128.38
348.9	105.38
349.128	112.38
349.355	103.38
349.583	121.38
349.81	97.38
350.037	119.38
350.265	117.38
350.492	113.38
350.72	114.38
350.947	113.38
351.174	112.38
351.402	108.38
351.629	97.38
351.856	113.38
352.083	121.38
352.311	111.38
352.538	109.38
352.765	128.38
352.992	121.38
353.22	107.38
353.447	125.38
353.674	124.38
353.901	108.38
354.128	114.38
354.355	113.38
354.583	121.38
354.81	107.38
355.037	108.38
355.264	116.38
355.491	124.38
355.718	119.38
355.945	131.38
356.172	119.38
356.399	124.38
356.626	107.38
356.853	123.38
357.08	114.38
357.307	121.38
357.534	115.38
357.761	113.38
357.988	114.38
358.215	115.38
358.441	111.38
358.668	120.38
358.895	110.38
359.122	126.38
359.349	100.38
359.576	115.38
359.802	126.38
360.029	125.38
360.256	119.38
360.483	114.38
360.709	119.38
360.936	112.38
361.163	110.38
361.39	126.38
361.616	123.38
361.843	107.38
362.07	112.38
362.296	110.38
362.523	125.38
362.749	116.38
362.976	115.38
363.203	125.38
363.429	117.38
363.656	111.38
363.882	115.38
364.109	125.38
364.335	110.38
364.562	113.38
364.788	115.38
365.015	117.38
365.241	112.38
365.468	107.38
365.694	108.38
365.92	111.38
366.147	119.38
366.373	113.38
366.599	121.38
366.826	107.38
367.052	127.38
367.278	123.38
367.505	133.38
367.731	120.38
367.957	112.38
368.184	123.38
368.41	108.38
368.636	130.38
368.862	127.38
369.089	111.38
369.315	116.38
369.541	115.38
369.767	115.38
369.993	103.38
370.219	112.38
370.445	122.38
370.672	109.38
370.898	114.38
371.124	112.38
371.35	128.38
371.576	123.38
371.802	103.38
372.028	124.38
372.254	97.38
372.48	106.38
372.706	113.38
372.932	130.38
373.158	114.38
373.384	112.38
373.61	123.38
373.835	114.38
374.061	117.38
374.287	111.38
374.513	122.38
374.739	132.38
374.965	112.38
375.191	107.38
375.416	125.38
375.642	126.38
375.868	114.38
376.094	116.38
376.319	111.38
376.545	98.38
376.771	111.38
376.997	115.38
377.222	109.38
377.448	134.38
377.674	127.38
377.899	116.38
378.125	122.38
378.35	114.38
378.576	112.38
378.802	116.38
379.027	127.38
379.253	139.38
379.478	130.38
379.704	121.38
379.929	118.38
380.155	127.38
380.38	121.38
380.606	120.38
380.831	126.38
381.057	129.38
381.282	124.38
381.507	117.38
381.733	125.38
381.958	103.38
382.184	133.38
382.409	117.38
382.634	130.38
382.86	120.38
383.085	125.38
383.31	124.38
383.535	107.38
383.761	123.38
383.986	133.38
384.211	123.38
384.436	120.38
384.662	115.38
384.887	114.38
385.112	136.38
385.337	116.38
385.562	103.38
385.787	127.38
386.013	117.38
386.238	121.38
386.463	127.38
386.688	115.38
386.913	119.38
387.138	117.38
387.363	122.38
387.588	127.38
387.813	126.38
388.038	117.38
388.263	116.38
388.488	120.38
388.713	113.38
388.938	125.38
389.163	111.38
389.387	116.38
389.612	134.38
389.837	123.38
390.062	122.38
390.287	108.38
390.512	124.38
390.736	116.38
390.961	129.38
391.186	120.38
391.411	119.38
391.636	122.38
391.86	117.38
392.085	133.38
392.31	122.38
392.534	131.38
392.759	130.38
392.984	128.38
393.208	116.38
393.433	128.38
393.658	139.38
393.882	113.38
394.107	120.38
394.331	123.38
394.556	132.38
394.78	130.38
395.005	119.38
395.229	128.38
395.454	132.38
395.678	123.38
395.903	115.38
396.127	142.38
396.352	112.38
396.576	135.38
396.801	114.38
397.025	116.38
397.249	132.38
397.474	150.38
397.698	137.38
397.922	130.38
398.147	115.38
398.371	121.38
398.595	130.38
398.82	143.38
399.044	137.38
399.268	127.38
399.492	156.38
399.717	143.38
399.941	127.38
400.165	155.38
400.389	148.38
400.613	132.38
400.837	143.38
401.062	130.38
401.286	125.38
401.51	127.38
401.734	134.38
401.958	131.38
402.182	135.38
402.406	130.38
402.63	138.38
402.854	126.38
403.078	136.38
403.302	141.38
403.526	128.38
403.75	117.38
403.974	137.38
404.198	137.38
404.422	132.38
404.645	137.38
404.869	147.38
405.093	154.38
405.317	129.38
405.541	132.38
405.765	136.38
405.988	137.38
406.212	142.38
406.436	135.38
406.66	146.38
406.883	144.38
407.107	158.38
407.331	154.38
407.555	132.38
407.778	140.38
408.002	139.38
408.226	154.38
408.449	134.38
408.673	142.38
408.896	139.38
409.12	137.38
409.344	148.38
409.567	145.38
409.791	148.38
410.014	147.38
410.238	128.38
410.461	135.38
410.685	136.38
410.908	143.38
411.132	142.38
411.355	159.38
411.578	139.38
411.802	134.38
412.025	115.38
412.249	135.38
412.472	137.38
412.695	130.38
412.919	118.38
413.142	141.38
413.365	140.38
413.589	114.38
413.812	129.38
414.035	129.38
414.258	131.38
414.482	132.38
414.705	127.38
414.928	117.38
415.151	121.38
415.374	121.38
415.597	115.38
415.821	129.38
416.044	129.38
416.267	140.38
416.49	135.38
416.713	125.38
416.936	126.38
417.159	122.38
417.382	130.38
417.605	133.38
417.828	130.38
418.051	127.38
418.274	121.38
418.497	150.38
418.72	132.38
418.943	136.38
419.166	143.38
419.389	148.38
419.611	141.38
419.834	143.38
420.057	135.38
420.28	134.38
420.503	135.38
420.726	136.38
420.948	135.38
421.171	131.38
421.394	130.38
421.617	140.38
421.839	130.38
422.062	142.38
422.285	135.38
422.507	130.38
422.73	153.38
422.953	156.38
423.175	145.38
423.398	132.38
423.621	137.38
423.843	137.38
424.066	124.38
424.288	134.38
424.511	147.38
424.733	135.38
424.956	141.38
425.178	144.38
425.401	143.38
425.623	147.38
425.846	129.38
426.068	134.38
426.291	126.38
426.513	133.38
426.735	133.38
426.958	142.38
427.18	137.38
427.402	141.38
427.625	151.38
427.847	143.38
428.069	150.38
428.292	144.38
428.514	139.38
428.736	137.38
428.958	133.38
429.181	149.38
429.403	133.38
429.625	138.38
429.847	129.38
430.069	131.38
430.292	137.38
430.514	131.38
430.736	125.38
430.958	120.38
431.18	128.38
431.402	132.38
431.624	127.38
431.846	124.38
432.068	120.38
432.29	114.38
432.512	141.38
432.734	132.38
432.956	132.38
433.178	118.38
433.4	125.38
433.622	135.38
433.844	126.38
434.066	133.38
434.287	142.38
434.509	113.38
434.731	121.38
434.953	131.38
435.175	130.38
435.397	135.38
435.618	132.38
435.84	127.38
436.062	143.38
436.284	142.38
436.505	143.38
436.727	129.38
436.949	136.38
437.17	136.38
437.392	144.38
437.614	142.38
437.835	131.38
438.057	130.38
438.278	147.38
438.5	127.38
438.721	143.38
438.943	128.38
439.165	129.38
439.386	139.38
439.608	144.38
439.829	135.38
440.05	139.38
440.272	135.38
440.493	143.38
440.715	137.38
440.936	136.38
441.158	142.38
441.379	139.38
441.6	137.38
441.822	151.38
442.043	154.38
442.264	148.38
442.486	141.38
442.707	150.38
442.928	140.38
443.149	141.38
443.371	140.38
443.592	137.38
443.813	141.38
444.034	160.38
444.255	149.38
444.476	145.38
444.698	143.38
444.919	139.38
445.14	240.38
445.361	193.38
445.582	135.38
445.803	136.38
446.024	130.38
446.245	144.38
446.466	137.38
446.687	138.38
446.908	142.38
447.129	125.38
447.35	141.38
447.571	131.38
447.792	144.38
448.013	116.38
448.234	147.38
448.455	133.38
448.675	140.38
448.896	140.38
449.117	145.38
449.338	136.38
449.559	151.38
449.779	140.38
450	135.38
450.221	139.38
450.442	135.38
450.662	124.38
450.883	125.38
451.104	140.38
451.324	135.38
451.545	131.38
451.766	142.38
451.986	135.38
452.207	125.38
452.428	119.38
452.648	129.38
452.869	141.38
453.089	125.38
453.31	131.38
453.53	135.38
453.751	126.38
453.971	135.38
454.192	127.38
454.412	125.38
454.633	116.38
454.853	135.38
455.073	114.38
455.294	130.38
455.514	123.38
455.734	131.38
455.955	129.38
456.175	117.38
456.395	132.38
456.616	114.38
456.836	130.38
457.056	119.38
457.276	115.38
457.497	126.38
457.717	131.38
457.937	128.38
458.157	124.38
458.377	124.38
458.598	125.38
458.818	135.38
459.038	144.38
459.258	126.38
459.478	120.38
459.698	141.38
459.918	129.38
460.138	114.38
460.358	116.38
460.578	124.38
460.798	133.38
461.018	128.38
461.238	143.38
461.458	153.38
461.678	152.38
461.898	141.38
462.118	139.38
462.338	143.38
462.558	144.38
462.777	151.38
462.997	151.38
463.217	153.38
463.437	156.38
463.657	149.38
463.876	139.38
464.096	133.38
464.316	143.38
464.536	127.38
464.755	144.38
464.975	149.38
465.195	140.38
465.414	143.38
465.634	141.38
465.854	131.38
466.073	139.38
466.293	129.38
466.512	133.38
466.732	106.38
466.951	137.38
467.171	137.38
467.391	113.38
467.61	133.38
467.829	127.38
468.049	131.38
468.268	136.38
468.488	132.38
468.707	133.38
468.927	125.38
469.146	135.38
469.365	129.38
469.585	130.38
469.804	127.38
470.023	138.38
470.243	139.38
470.462	126.38
470.681	132.38
470.901	126.38
471.12	127.38
471.339	148.38
471.558	144.38
471.777	124.38
471.997	147.38
472.216	134.38
472.435	148.38
472.654	135.38
472.873	141.38
473.092	135.38
473.311	116.38
473.53	139.38
473.749	125.38
473.968	139.38
474.187	130.38
474.406	116.38
474.625	131.38
474.844	113.38
475.063	132.38
475.282	119.38
475.501	125.38
475.72	144.38
475.939	130.38
476.158	126.38
476.377	128.38
476.596	135.38
476.814	143.38
477.033	123.38
477.252	124.38
477.471	148.38
477.69	123.38
477.908	131.38
478.127	140.38
478.346	122.38
478.564	150.38
478.783	138.38
479.002	147.38
479.22	135.38
479.439	145.38
479.658	163.38
479.876	158.38
480.095	134.38
480.313	135.38
480.532	135.38
480.751	128.38
480.969	138.38
481.188	139.38
481.406	144.38
481.624	135.38
481.843	153.38
482.061	132.38
482.28	129.38
482.498	132.38
482.717	130.38
482.935	135.38
483.153	134.38
483.372	143.38
483.59	139.38
483.808	148.38
484.027	129.38
484.245	137.38
484.463	127.38
484.681	141.38
484.9	148.38
485.118	119.38
485.336	140.38
485.554	142.38
485.772	131.38
485.99	126.38
486.209	140.38
486.427	144.38
486.645	131.38
486.863	135.38
487.081	149.38
487.299	151.38
487.517	152.38
487.735	139.38
487.953	136.38
488.171	149.38
488.389	138.38
488.607	138.38
488.825	136.38
489.043	137.38
489.261	146.38
489.479	143.38
489.696	143.38
489.914	142.38
490.132	146.38
490.35	137.38
490.568	149.38
490.786	146.38
491.003	148.38
491.221	147.38
491.439	161.38
491.657	152.38
491.874	157.38
492.092	161.38
492.31	140.38
492.527	159.38
492.745	161.38
492.963	150.38
493.18	165.38
493.398	143.38
493.615	161.38
493.833	150.38
494.05	162.38
494.268	158.38
494.485	157.38
494.703	153.38
494.92	147.38
495.138	149.38
495.355	156.38
495.573	151.38
495.79	161.38
496.008	153.38
496.225	152.38
496.442	161.38
496.66	139.38
496.877	153.38
497.094	158.38
497.312	158.38
497.529	162.38
497.746	146.38
497.963	152.38
498.181	163.38
498.398	167.38
498.615	172.38
498.832	164.38
499.049	176.38
499.267	179.38
499.484	168.38
499.701	192.38
499.918	206.38
500.135	225.38
500.352	222.38
500.569	224.38
500.786	220.38
501.003	211.38
501.22	199.38
501.437	194.38
501.654	178.38
501.871	178.38
502.088	191.38
502.305	187.38
502.522	153.38
502.739	170.38
502.956	167.38
503.172	158.38
503.389	156.38
503.606	148.38
503.823	159.38
504.04	156.38
504.256	156.38
504.473	145.38
