Data from 1968.PennyLincolnUp.Lamp.En5.5.200Scan.071719.P1._HRD10591_14-50-04-969.txt Node
Date: Thu Jul 18 14:50:04 EDT 2019
User: cochatt
Spectrometer: HR+D1059
Trigger mode: 1
Integration Time (sec): 1.000000E-1
Scans to average: 1
Electric dark correction enabled: true
Nonlinearity correction enabled: false
Boxcar width: 0
XAxis mode: Wavelengths
Number of Pixels in Spectrum: 2048
>>>>>Begin Spectral Data<<<<<
223.165	-17.75
223.4	-17.75
223.635	-17.75
223.869	-17.75
224.104	-16.75
224.338	1.25
224.573	-5.75
224.808	-23.75
225.042	5.25
225.277	-23.75
225.511	-19.75
225.746	3.25
225.98	9.25
226.215	16.25
226.449	20.25
226.683	22.25
226.918	23.25
227.152	24.25
227.387	21.25
227.621	29.25
227.856	44.25
228.09	36.25
228.324	67.25
228.559	63.25
228.793	58.25
229.027	59.25
229.262	59.25
229.496	73.25
229.73	68.25
229.964	64.25
230.199	71.25
230.433	71.25
230.667	84.25
230.901	69.25
231.136	84.25
231.37	85.25
231.604	92.25
231.838	79.25
232.072	85.25
232.306	78.25
232.541	89.25
232.775	88.25
233.009	85.25
233.243	84.25
233.477	82.25
233.711	101.25
233.945	102.25
234.179	85.25
234.413	90.25
234.647	100.25
234.881	74.25
235.115	72.25
235.349	84.25
235.583	90.25
235.817	92.25
236.051	92.25
236.285	83.25
236.519	86.25
236.753	84.25
236.987	83.25
237.221	90.25
237.455	80.25
237.689	86.25
237.922	87.25
238.156	88.25
238.39	83.25
238.624	78.25
238.858	80.25
239.091	76.25
239.325	63.25
239.559	87.25
239.793	87.25
240.027	81.25
240.26	80.25
240.494	77.25
240.728	101.25
240.961	90.25
241.195	91.25
241.429	71.25
241.662	80.25
241.896	81.25
242.13	93.25
242.363	89.25
242.597	77.25
242.83	75.25
243.064	92.25
243.298	92.25
243.531	68.25
243.765	78.25
243.998	91.25
244.232	83.25
244.465	80.25
244.699	84.25
244.932	85.25
245.166	92.25
245.399	91.25
245.633	87.25
245.866	84.25
246.099	99.25
246.333	85.25
246.566	83.25
246.8	87.25
247.033	89.25
247.266	92.25
247.5	75.25
247.733	86.25
247.966	73.25
248.2	85.25
248.433	72.25
248.666	79.25
248.899	92.25
249.133	97.25
249.366	90.25
249.599	90.25
249.832	92.25
250.066	89.25
250.299	91.25
250.532	93.25
250.765	75.25
250.998	84.25
251.231	93.25
251.465	69.25
251.698	88.25
251.931	83.25
252.164	95.25
252.397	95.25
252.63	79.25
252.863	92.25
253.096	89.25
253.329	103.25
253.562	90.25
253.795	93.25
254.028	88.25
254.261	81.25
254.494	95.25
254.727	87.25
254.96	88.25
255.193	88.25
255.426	85.25
255.659	80.25
255.892	80.25
256.124	89.25
256.357	86.25
256.59	100.25
256.823	91.25
257.056	94.25
257.289	94.25
257.521	84.25
257.754	91.25
257.987	87.25
258.22	93.25
258.452	78.25
258.685	90.25
258.918	91.25
259.151	80.25
259.383	88.25
259.616	87.25
259.849	89.25
260.081	87.25
260.314	93.25
260.547	98.25
260.779	90.25
261.012	88.25
261.244	94.25
261.477	109.25
261.71	93.25
261.942	88.25
262.175	85.25
262.407	105.25
262.64	101.25
262.872	95.25
263.105	86.25
263.337	82.25
263.57	101.25
263.802	94.25
264.035	100.25
264.267	91.25
264.499	106.25
264.732	88.25
264.964	95.25
265.197	90.25
265.429	91.25
265.661	98.25
265.894	103.25
266.126	96.25
266.358	96.25
266.591	105.25
266.823	82.25
267.055	90.25
267.287	95.25
267.52	91.25
267.752	95.25
267.984	93.25
268.216	97.25
268.448	97.25
268.681	90.25
268.913	89.25
269.145	83.25
269.377	102.25
269.609	91.25
269.841	91.25
270.073	98.25
270.306	100.25
270.538	88.25
270.77	106.25
271.002	104.25
271.234	95.25
271.466	99.25
271.698	84.25
271.93	109.25
272.162	110.25
272.394	90.25
272.626	106.25
272.858	103.25
273.09	104.25
273.322	108.25
273.553	102.25
273.785	105.25
274.017	92.25
274.249	99.25
274.481	90.25
274.713	92.25
274.945	96.25
275.176	105.25
275.408	96.25
275.64	97.25
275.872	105.25
276.104	113.25
276.335	106.25
276.567	99.25
276.799	104.25
277.031	104.25
277.262	108.25
277.494	92.25
277.726	98.25
277.957	99.25
278.189	94.25
278.421	86.25
278.652	92.25
278.884	102.25
279.115	110.25
279.347	89.25
279.579	100.25
279.81	96.25
280.042	93.25
280.273	104.25
280.505	103.25
280.736	97.25
280.968	112.25
281.199	120.25
281.431	110.25
281.662	105.25
281.894	119.25
282.125	116.25
282.356	92.25
282.588	100.25
282.819	86.25
283.051	94.25
283.282	98.25
283.513	101.25
283.745	103.25
283.976	107.25
284.207	102.25
284.439	118.25
284.67	104.25
284.901	103.25
285.132	95.25
285.364	90.25
285.595	98.25
285.826	104.25
286.057	91.25
286.288	115.25
286.52	99.25
286.751	100.25
286.982	102.25
287.213	109.25
287.444	90.25
287.675	115.25
287.906	105.25
288.138	91.25
288.369	95.25
288.6	100.25
288.831	109.25
289.062	119.25
289.293	105.25
289.524	97.25
289.755	110.25
289.986	107.25
290.217	98.25
290.448	106.25
290.679	108.25
290.91	123.25
291.141	105.25
291.371	117.25
291.602	97.25
291.833	99.25
292.064	91.25
292.295	103.25
292.526	81.25
292.757	104.25
292.987	95.25
293.218	99.25
293.449	105.25
293.68	104.25
293.91	118.25
294.141	111.25
294.372	102.25
294.603	105.25
294.833	102.25
295.064	106.25
295.295	103.25
295.525	102.25
295.756	115.25
295.987	97.25
296.217	93.25
296.448	110.25
296.679	110.25
296.909	104.25
297.14	95.25
297.37	100.25
297.601	97.25
297.831	116.25
298.062	108.25
298.292	115.25
298.523	110.25
298.753	101.25
298.984	100.25
299.214	92.25
299.445	106.25
299.675	99.25
299.905	102.25
300.136	107.25
300.366	107.25
300.597	117.25
300.827	111.25
301.057	112.25
301.288	109.25
301.518	108.25
301.748	88.25
301.979	90.25
302.209	103.25
302.439	106.25
302.669	93.25
302.9	106.25
303.13	95.25
303.36	103.25
303.59	112.25
303.82	113.25
304.051	116.25
304.281	123.25
304.511	122.25
304.741	113.25
304.971	107.25
305.201	115.25
305.431	100.25
305.661	103.25
305.891	101.25
306.121	107.25
306.352	120.25
306.582	106.25
306.812	103.25
307.042	113.25
307.272	97.25
307.502	100.25
307.731	116.25
307.961	88.25
308.191	111.25
308.421	111.25
308.651	104.25
308.881	108.25
309.111	104.25
309.341	103.25
309.571	108.25
309.8	111.25
310.03	108.25
310.26	100.25
310.49	107.25
310.72	102.25
310.949	90.25
311.179	103.25
311.409	106.25
311.639	116.25
311.868	110.25
312.098	125.25
312.328	117.25
312.557	123.25
312.787	104.25
313.017	119.25
313.246	98.25
313.476	93.25
313.706	101.25
313.935	110.25
314.165	127.25
314.394	99.25
314.624	114.25
314.853	98.25
315.083	97.25
315.312	97.25
315.542	119.25
315.771	117.25
316.001	99.25
316.23	108.25
316.46	113.25
316.689	104.25
316.919	105.25
317.148	116.25
317.377	118.25
317.607	116.25
317.836	116.25
318.065	129.25
318.295	108.25
318.524	107.25
318.753	105.25
318.983	113.25
319.212	107.25
319.441	105.25
319.67	93.25
319.9	119.25
320.129	117.25
320.358	110.25
320.587	108.25
320.816	92.25
321.046	112.25
321.275	125.25
321.504	103.25
321.733	107.25
321.962	111.25
322.191	115.25
322.42	115.25
322.649	110.25
322.878	110.25
323.108	105.25
323.337	125.25
323.566	121.25
323.795	111.25
324.024	121.25
324.253	119.25
324.482	141.25
324.71	160.25
324.939	172.25
325.168	150.25
325.397	117.25
325.626	112.25
325.855	109.25
326.084	113.25
326.313	128.25
326.542	105.25
326.77	108.25
326.999	127.25
327.228	121.25
327.457	144.25
327.686	147.25
327.914	144.25
328.143	123.25
328.372	108.25
328.6	108.25
328.829	101.25
329.058	93.25
329.287	129.25
329.515	120.25
329.744	124.25
329.972	128.25
330.201	116.25
330.43	108.25
330.658	114.25
330.887	131.25
331.115	111.25
331.344	122.25
331.572	127.25
331.801	117.25
332.03	108.25
332.258	111.25
332.486	124.25
332.715	115.25
332.943	111.25
333.172	113.25
333.4	120.25
333.629	136.25
333.857	116.25
334.085	121.25
334.314	127.25
334.542	126.25
334.771	119.25
334.999	119.25
335.227	112.25
335.455	119.25
335.684	109.25
335.912	112.25
336.14	112.25
336.369	119.25
336.597	117.25
336.825	120.25
337.053	111.25
337.281	113.25
337.51	103.25
337.738	113.25
337.966	118.25
338.194	112.25
338.422	109.25
338.65	110.25
338.878	122.25
339.106	123.25
339.334	108.25
339.562	99.25
339.79	113.25
340.018	113.25
340.246	116.25
340.474	103.25
340.702	103.25
340.93	120.25
341.158	115.25
341.386	114.25
341.614	121.25
341.842	125.25
342.07	113.25
342.298	100.25
342.526	117.25
342.754	109.25
342.981	121.25
343.209	117.25
343.437	110.25
343.665	108.25
343.893	123.25
344.12	104.25
344.348	120.25
344.576	104.25
344.804	105.25
345.031	124.25
345.259	107.25
345.487	123.25
345.714	105.25
345.942	104.25
346.17	120.25
346.397	114.25
346.625	115.25
346.853	110.25
347.08	117.25
347.308	99.25
347.535	104.25
347.763	128.25
347.99	105.25
348.218	106.25
348.445	102.25
348.673	116.25
348.9	122.25
349.128	107.25
349.355	112.25
349.583	114.25
349.81	117.25
350.037	112.25
350.265	98.25
350.492	89.25
350.72	109.25
350.947	105.25
351.174	109.25
351.402	109.25
351.629	115.25
351.856	105.25
352.083	111.25
352.311	113.25
352.538	100.25
352.765	102.25
352.992	102.25
353.22	102.25
353.447	128.25
353.674	115.25
353.901	117.25
354.128	132.25
354.355	115.25
354.583	108.25
354.81	109.25
355.037	102.25
355.264	109.25
355.491	104.25
355.718	108.25
355.945	125.25
356.172	91.25
356.399	115.25
356.626	95.25
356.853	123.25
357.08	119.25
357.307	120.25
357.534	116.25
357.761	96.25
357.988	111.25
358.215	106.25
358.441	110.25
358.668	115.25
358.895	93.25
359.122	112.25
359.349	130.25
359.576	125.25
359.802	97.25
360.029	124.25
360.256	111.25
360.483	125.25
360.709	106.25
360.936	115.25
361.163	115.25
361.39	112.25
361.616	116.25
361.843	125.25
362.07	118.25
362.296	100.25
362.523	111.25
362.749	117.25
362.976	112.25
363.203	111.25
363.429	115.25
363.656	119.25
363.882	119.25
364.109	108.25
364.335	96.25
364.562	110.25
364.788	126.25
365.015	113.25
365.241	116.25
365.468	117.25
365.694	104.25
365.92	103.25
366.147	107.25
366.373	96.25
366.599	118.25
366.826	99.25
367.052	115.25
367.278	117.25
367.505	102.25
367.731	117.25
367.957	113.25
368.184	99.25
368.41	113.25
368.636	97.25
368.862	117.25
369.089	110.25
369.315	118.25
369.541	119.25
369.767	118.25
369.993	110.25
370.219	109.25
370.445	108.25
370.672	111.25
370.898	110.25
371.124	119.25
371.35	99.25
371.576	103.25
371.802	115.25
372.028	111.25
372.254	109.25
372.48	105.25
372.706	121.25
372.932	111.25
373.158	100.25
373.384	123.25
373.61	107.25
373.835	112.25
374.061	115.25
374.287	123.25
374.513	119.25
374.739	105.25
374.965	120.25
375.191	112.25
375.416	129.25
375.642	123.25
375.868	134.25
376.094	121.25
376.319	116.25
376.545	114.25
376.771	105.25
376.997	116.25
377.222	99.25
377.448	110.25
377.674	110.25
377.899	103.25
378.125	110.25
378.35	110.25
378.576	103.25
378.802	109.25
379.027	110.25
379.253	118.25
379.478	116.25
379.704	116.25
379.929	98.25
380.155	105.25
380.38	113.25
380.606	115.25
380.831	118.25
381.057	104.25
381.282	99.25
381.507	123.25
381.733	125.25
381.958	120.25
382.184	105.25
382.409	94.25
382.634	112.25
382.86	110.25
383.085	131.25
383.31	126.25
383.535	110.25
383.761	115.25
383.986	123.25
384.211	134.25
384.436	126.25
384.662	128.25
384.887	115.25
385.112	109.25
385.337	108.25
385.562	120.25
385.787	136.25
386.013	122.25
386.238	123.25
386.463	110.25
386.688	127.25
386.913	123.25
387.138	113.25
387.363	135.25
387.588	123.25
387.813	122.25
388.038	121.25
388.263	118.25
388.488	117.25
388.713	121.25
388.938	120.25
389.163	120.25
389.387	119.25
389.612	116.25
389.837	113.25
390.062	113.25
390.287	138.25
390.512	125.25
390.736	132.25
390.961	135.25
391.186	127.25
391.411	119.25
391.636	116.25
391.86	120.25
392.085	119.25
392.31	109.25
392.534	127.25
392.759	137.25
392.984	133.25
393.208	111.25
393.433	117.25
393.658	128.25
393.882	120.25
394.107	128.25
394.331	118.25
394.556	131.25
394.78	117.25
395.005	120.25
395.229	115.25
395.454	126.25
395.678	121.25
395.903	133.25
396.127	128.25
396.352	135.25
396.576	120.25
396.801	112.25
397.025	115.25
397.249	121.25
397.474	138.25
397.698	118.25
397.922	126.25
398.147	120.25
398.371	124.25
398.595	130.25
398.82	117.25
399.044	146.25
399.268	134.25
399.492	150.25
399.717	151.25
399.941	148.25
400.165	158.25
400.389	147.25
400.613	120.25
400.837	132.25
401.062	128.25
401.286	113.25
401.51	131.25
401.734	123.25
401.958	122.25
402.182	119.25
402.406	121.25
402.63	121.25
402.854	128.25
403.078	123.25
403.302	127.25
403.526	148.25
403.75	137.25
403.974	127.25
404.198	133.25
404.422	119.25
404.645	122.25
404.869	120.25
405.093	150.25
405.317	139.25
405.541	157.25
405.765	122.25
405.988	140.25
406.212	134.25
406.436	131.25
406.66	124.25
406.883	135.25
407.107	147.25
407.331	136.25
407.555	140.25
407.778	149.25
408.002	127.25
408.226	142.25
408.449	160.25
408.673	139.25
408.896	121.25
409.12	139.25
409.344	151.25
409.567	136.25
409.791	115.25
410.014	129.25
410.238	122.25
410.461	128.25
410.685	133.25
410.908	141.25
411.132	129.25
411.355	130.25
411.578	128.25
411.802	131.25
412.025	126.25
412.249	135.25
412.472	131.25
412.695	129.25
412.919	128.25
413.142	128.25
413.365	123.25
413.589	120.25
413.812	125.25
414.035	127.25
414.258	122.25
414.482	129.25
414.705	126.25
414.928	129.25
415.151	123.25
415.374	129.25
415.597	116.25
415.821	108.25
416.044	123.25
416.267	137.25
416.49	134.25
416.713	139.25
416.936	126.25
417.159	140.25
417.382	112.25
417.605	139.25
417.828	143.25
418.051	132.25
418.274	123.25
418.497	143.25
418.72	125.25
418.943	141.25
419.166	130.25
419.389	137.25
419.611	119.25
419.834	130.25
420.057	142.25
420.28	150.25
420.503	113.25
420.726	123.25
420.948	134.25
421.171	133.25
421.394	128.25
421.617	135.25
421.839	129.25
422.062	135.25
422.285	115.25
422.507	142.25
422.73	134.25
422.953	145.25
423.175	127.25
423.398	123.25
423.621	142.25
423.843	144.25
424.066	128.25
424.288	140.25
424.511	135.25
424.733	131.25
424.956	136.25
425.178	155.25
425.401	135.25
425.623	147.25
425.846	136.25
426.068	127.25
426.291	120.25
426.513	129.25
426.735	126.25
426.958	127.25
427.18	129.25
427.402	154.25
427.625	158.25
427.847	138.25
428.069	132.25
428.292	141.25
428.514	121.25
428.736	135.25
428.958	125.25
429.181	127.25
429.403	123.25
429.625	145.25
429.847	136.25
430.069	113.25
430.292	123.25
430.514	127.25
430.736	125.25
430.958	128.25
431.18	128.25
431.402	126.25
431.624	131.25
431.846	137.25
432.068	129.25
432.29	131.25
432.512	127.25
432.734	122.25
432.956	126.25
433.178	135.25
433.4	131.25
433.622	150.25
433.844	128.25
434.066	115.25
434.287	116.25
434.509	135.25
434.731	134.25
434.953	122.25
435.175	128.25
435.397	127.25
435.618	128.25
435.84	140.25
436.062	146.25
436.284	135.25
436.505	121.25
436.727	118.25
436.949	135.25
437.17	129.25
437.392	116.25
437.614	116.25
437.835	127.25
438.057	135.25
438.278	135.25
438.5	137.25
438.721	152.25
438.943	132.25
439.165	137.25
439.386	124.25
439.608	122.25
439.829	134.25
440.05	143.25
440.272	147.25
440.493	137.25
440.715	126.25
440.936	139.25
441.158	132.25
441.379	132.25
441.6	133.25
441.822	132.25
442.043	128.25
442.264	139.25
442.486	131.25
442.707	129.25
442.928	135.25
443.149	132.25
443.371	133.25
443.592	140.25
443.813	151.25
444.034	154.25
444.255	150.25
444.476	130.25
444.698	141.25
444.919	141.25
445.14	261.25
445.361	203.25
445.582	142.25
445.803	132.25
446.024	135.25
446.245	135.25
446.466	147.25
446.687	125.25
446.908	125.25
447.129	124.25
447.35	141.25
447.571	124.25
447.792	120.25
448.013	142.25
448.234	120.25
448.455	119.25
448.675	139.25
448.896	126.25
449.117	124.25
449.338	117.25
449.559	134.25
449.779	137.25
450	136.25
450.221	117.25
450.442	117.25
450.662	127.25
450.883	131.25
451.104	129.25
451.324	107.25
451.545	125.25
451.766	135.25
451.986	127.25
452.207	119.25
452.428	103.25
452.648	119.25
452.869	118.25
453.089	121.25
453.31	103.25
453.53	121.25
453.751	115.25
453.971	124.25
454.192	112.25
454.412	109.25
454.633	115.25
454.853	133.25
455.073	129.25
455.294	116.25
455.514	148.25
455.734	121.25
455.955	110.25
456.175	114.25
456.395	117.25
456.616	120.25
456.836	110.25
457.056	131.25
457.276	125.25
457.497	136.25
457.717	125.25
457.937	116.25
458.157	108.25
458.377	117.25
458.598	115.25
458.818	129.25
459.038	125.25
459.258	122.25
459.478	133.25
459.698	129.25
459.918	124.25
460.138	119.25
460.358	115.25
460.578	123.25
460.798	150.25
461.018	138.25
461.238	120.25
461.458	138.25
461.678	145.25
461.898	129.25
462.118	137.25
462.338	143.25
462.558	139.25
462.777	139.25
462.997	154.25
463.217	149.25
463.437	151.25
463.657	137.25
463.876	128.25
464.096	129.25
464.316	125.25
464.536	135.25
464.755	133.25
464.975	138.25
465.195	140.25
465.414	139.25
465.634	135.25
465.854	129.25
466.073	117.25
466.293	141.25
466.512	105.25
466.732	119.25
466.951	122.25
467.171	124.25
467.391	124.25
467.61	125.25
467.829	131.25
468.049	128.25
468.268	117.25
468.488	120.25
468.707	118.25
468.927	116.25
469.146	113.25
469.365	121.25
469.585	127.25
469.804	124.25
470.023	121.25
470.243	133.25
470.462	124.25
470.681	140.25
470.901	135.25
471.12	125.25
471.339	127.25
471.558	114.25
471.777	112.25
471.997	130.25
472.216	125.25
472.435	120.25
472.654	131.25
472.873	133.25
473.092	125.25
473.311	125.25
473.53	125.25
473.749	125.25
473.968	138.25
474.187	128.25
474.406	127.25
474.625	120.25
474.844	121.25
475.063	129.25
475.282	142.25
475.501	130.25
475.72	120.25
475.939	115.25
476.158	118.25
476.377	120.25
476.596	123.25
476.814	119.25
477.033	126.25
477.252	111.25
477.471	125.25
477.69	119.25
477.908	140.25
478.127	143.25
478.346	140.25
478.564	123.25
478.783	134.25
479.002	131.25
479.22	134.25
479.439	117.25
479.658	123.25
479.876	133.25
480.095	144.25
480.313	141.25
480.532	130.25
480.751	131.25
480.969	133.25
481.188	142.25
481.406	153.25
481.624	124.25
481.843	124.25
482.061	128.25
482.28	123.25
482.498	119.25
482.717	122.25
482.935	123.25
483.153	125.25
483.372	140.25
483.59	133.25
483.808	137.25
484.027	127.25
484.245	128.25
484.463	131.25
484.681	139.25
484.9	151.25
485.118	146.25
485.336	123.25
485.554	133.25
485.772	136.25
485.99	135.25
486.209	126.25
486.427	137.25
486.645	134.25
486.863	127.25
487.081	137.25
487.299	123.25
487.517	123.25
487.735	127.25
487.953	127.25
488.171	132.25
488.389	145.25
488.607	143.25
488.825	123.25
489.043	145.25
489.261	149.25
489.479	145.25
489.696	131.25
489.914	112.25
490.132	141.25
490.35	129.25
490.568	140.25
490.786	143.25
491.003	140.25
491.221	150.25
491.439	168.25
491.657	137.25
491.874	131.25
492.092	155.25
492.31	141.25
492.527	151.25
492.745	146.25
492.963	150.25
493.18	149.25
493.398	138.25
493.615	129.25
493.833	135.25
494.05	147.25
494.268	132.25
494.485	143.25
494.703	144.25
494.92	139.25
495.138	144.25
495.355	144.25
495.573	137.25
495.79	147.25
496.008	136.25
496.225	153.25
496.442	145.25
496.66	148.25
496.877	141.25
497.094	139.25
497.312	152.25
497.529	142.25
497.746	152.25
497.963	154.25
498.181	154.25
498.398	162.25
498.615	150.25
498.832	169.25
499.049	162.25
499.267	174.25
499.484	165.25
499.701	174.25
499.918	175.25
500.135	198.25
500.352	200.25
500.569	218.25
500.786	207.25
501.003	205.25
501.22	199.25
501.437	203.25
501.654	168.25
501.871	172.25
502.088	177.25
502.305	159.25
502.522	167.25
502.739	145.25
502.956	139.25
503.172	156.25
503.389	151.25
503.606	138.25
503.823	140.25
504.04	134.25
504.256	155.25
504.473	149.25
504.69	132.25
504.907	146.25
505.123	132.25
505.34	127.25
