Data from 1969.PennyLincolnUp.Lamp.En5.5.200Scan.071719.P1._HRD10591_14-54-27-971.txt Node
Date: Thu Jul 18 14:54:27 EDT 2019
User: cochatt
Spectrometer: HR+D1059
Trigger mode: 1
Integration Time (sec): 1.000000E-1
Scans to average: 1
Electric dark correction enabled: true
Nonlinearity correction enabled: false
Boxcar width: 0
XAxis mode: Wavelengths
Number of Pixels in Spectrum: 2048
>>>>>Begin Spectral Data<<<<<
223.165	-7.19
223.4	-7.19
223.635	-7.19
223.869	-12.19
224.104	-19.19
224.338	-19.19
224.573	-18.19
224.808	-18.19
225.042	10.81
225.277	11.81
225.511	-11.19
225.746	-6.19
225.98	9.81
226.215	-3.19
226.449	7.81
226.683	15.81
226.918	28.81
227.152	29.81
227.387	25.81
227.621	30.81
227.856	52.81
228.09	45.81
228.324	62.81
228.559	66.81
228.793	69.81
229.027	80.81
229.262	82.81
229.496	102.81
229.73	105.81
229.964	121.81
230.199	102.81
230.433	88.81
230.667	89.81
230.901	94.81
231.136	97.81
231.37	88.81
231.604	96.81
231.838	106.81
232.072	101.81
232.306	102.81
232.541	113.81
232.775	98.81
233.009	109.81
233.243	96.81
233.477	100.81
233.711	104.81
233.945	110.81
234.179	98.81
234.413	112.81
234.647	126.81
234.881	107.81
235.115	104.81
235.349	108.81
235.583	116.81
235.817	108.81
236.051	115.81
236.285	101.81
236.519	118.81
236.753	116.81
236.987	95.81
237.221	132.81
237.455	154.81
237.689	141.81
237.922	128.81
238.156	127.81
238.39	108.81
238.624	113.81
238.858	112.81
239.091	111.81
239.325	110.81
239.559	114.81
239.793	107.81
240.027	118.81
240.26	124.81
240.494	130.81
240.728	136.81
240.961	129.81
241.195	121.81
241.429	118.81
241.662	140.81
241.896	118.81
242.13	118.81
242.363	123.81
242.597	129.81
242.83	124.81
243.064	110.81
243.298	128.81
243.531	122.81
243.765	125.81
243.998	123.81
244.232	132.81
244.465	127.81
244.699	109.81
244.932	132.81
245.166	127.81
245.399	121.81
245.633	121.81
245.866	133.81
246.099	130.81
246.333	135.81
246.566	122.81
246.8	136.81
247.033	130.81
247.266	139.81
247.5	143.81
247.733	138.81
247.966	157.81
248.2	130.81
248.433	143.81
248.666	142.81
248.899	131.81
249.133	154.81
249.366	150.81
249.599	169.81
249.832	159.81
250.066	142.81
250.299	143.81
250.532	161.81
250.765	156.81
250.998	174.81
251.231	180.81
251.465	176.81
251.698	161.81
251.931	156.81
252.164	156.81
252.397	171.81
252.63	171.81
252.863	164.81
253.096	163.81
253.329	173.81
253.562	165.81
253.795	182.81
254.028	163.81
254.261	160.81
254.494	165.81
254.727	194.81
254.96	198.81
255.193	190.81
255.426	181.81
255.659	158.81
255.892	173.81
256.124	173.81
256.357	183.81
256.59	173.81
256.823	182.81
257.056	170.81
257.289	182.81
257.521	165.81
257.754	163.81
257.987	172.81
258.22	164.81
258.452	182.81
258.685	172.81
258.918	164.81
259.151	183.81
259.383	177.81
259.616	170.81
259.849	168.81
260.081	190.81
260.314	197.81
260.547	190.81
260.779	192.81
261.012	176.81
261.244	170.81
261.477	193.81
261.71	180.81
261.942	175.81
262.175	182.81
262.407	185.81
262.64	175.81
262.872	170.81
263.105	183.81
263.337	185.81
263.57	171.81
263.802	165.81
264.035	193.81
264.267	174.81
264.499	177.81
264.732	178.81
264.964	168.81
265.197	172.81
265.429	184.81
265.661	196.81
265.894	191.81
266.126	176.81
266.358	172.81
266.591	184.81
266.823	200.81
267.055	186.81
267.287	192.81
267.52	188.81
267.752	188.81
267.984	204.81
268.216	197.81
268.448	214.81
268.681	197.81
268.913	201.81
269.145	210.81
269.377	231.81
269.609	215.81
269.841	226.81
270.073	215.81
270.306	225.81
270.538	234.81
270.77	237.81
271.002	231.81
271.234	232.81
271.466	238.81
271.698	226.81
271.93	253.81
272.162	257.81
272.394	228.81
272.626	232.81
272.858	225.81
273.09	224.81
273.322	234.81
273.553	208.81
273.785	232.81
274.017	199.81
274.249	202.81
274.481	227.81
274.713	220.81
274.945	212.81
275.176	220.81
275.408	216.81
275.64	221.81
275.872	219.81
276.104	228.81
276.335	206.81
276.567	215.81
276.799	236.81
277.031	239.81
277.262	246.81
277.494	260.81
277.726	247.81
277.957	233.81
278.189	229.81
278.421	230.81
278.652	219.81
278.884	224.81
279.115	223.81
279.347	240.81
279.579	221.81
279.81	196.81
280.042	205.81
280.273	230.81
280.505	231.81
280.736	230.81
280.968	217.81
281.199	221.81
281.431	226.81
281.662	231.81
281.894	237.81
282.125	249.81
282.356	233.81
282.588	238.81
282.819	249.81
283.051	224.81
283.282	233.81
283.513	245.81
283.745	222.81
283.976	219.81
284.207	240.81
284.439	265.81
284.67	228.81
284.901	237.81
285.132	243.81
285.364	238.81
285.595	240.81
285.826	247.81
286.057	238.81
286.288	226.81
286.52	236.81
286.751	236.81
286.982	237.81
287.213	248.81
287.444	258.81
287.675	231.81
287.906	248.81
288.138	252.81
288.369	250.81
288.6	251.81
288.831	244.81
289.062	237.81
289.293	243.81
289.524	246.81
289.755	255.81
289.986	247.81
290.217	248.81
290.448	242.81
290.679	268.81
290.91	250.81
291.141	247.81
291.371	260.81
291.602	247.81
291.833	238.81
292.064	264.81
292.295	251.81
292.526	254.81
292.757	258.81
292.987	264.81
293.218	260.81
293.449	248.81
293.68	253.81
293.91	258.81
294.141	256.81
294.372	251.81
294.603	270.81
294.833	234.81
295.064	254.81
295.295	230.81
295.525	234.81
295.756	258.81
295.987	260.81
296.217	282.81
296.448	271.81
296.679	247.81
296.909	245.81
297.14	245.81
297.37	255.81
297.601	255.81
297.831	269.81
298.062	256.81
298.292	266.81
298.523	272.81
298.753	264.81
298.984	273.81
299.214	268.81
299.445	254.81
299.675	272.81
299.905	278.81
300.136	273.81
300.366	265.81
300.597	288.81
300.827	282.81
301.057	291.81
301.288	278.81
301.518	274.81
301.748	282.81
301.979	285.81
302.209	275.81
302.439	288.81
302.669	296.81
302.9	297.81
303.13	273.81
303.36	272.81
303.59	295.81
303.82	284.81
304.051	278.81
304.281	284.81
304.511	275.81
304.741	290.81
304.971	279.81
305.201	282.81
305.431	273.81
305.661	278.81
305.891	280.81
306.121	274.81
306.352	282.81
306.582	263.81
306.812	270.81
307.042	294.81
307.272	258.81
307.502	287.81
307.731	276.81
307.961	281.81
308.191	272.81
308.421	278.81
308.651	288.81
308.881	278.81
309.111	286.81
309.341	252.81
309.571	283.81
309.8	290.81
310.03	314.81
310.26	292.81
310.49	302.81
310.72	285.81
310.949	311.81
311.179	312.81
311.409	305.81
311.639	303.81
311.868	303.81
312.098	318.81
312.328	298.81
312.557	312.81
312.787	303.81
313.017	308.81
313.246	303.81
313.476	304.81
313.706	306.81
313.935	312.81
314.165	316.81
314.394	320.81
314.624	323.81
314.853	313.81
315.083	303.81
315.312	304.81
315.542	325.81
315.771	316.81
316.001	295.81
316.23	320.81
316.46	310.81
316.689	304.81
316.919	309.81
317.148	309.81
317.377	297.81
317.607	300.81
317.836	306.81
318.065	326.81
318.295	328.81
318.524	295.81
318.753	301.81
318.983	305.81
319.212	308.81
319.441	301.81
319.67	303.81
319.9	290.81
320.129	304.81
320.358	300.81
320.587	303.81
320.816	318.81
321.046	318.81
321.275	325.81
321.504	324.81
321.733	314.81
321.962	329.81
322.191	327.81
322.42	332.81
322.649	317.81
322.878	336.81
323.108	357.81
323.337	346.81
323.566	348.81
323.795	370.81
324.024	378.81
324.253	430.81
324.482	545.81
324.71	788.81
324.939	1034.81
325.168	859.81
325.397	500.81
325.626	408.81
325.855	361.81
326.084	356.81
326.313	366.81
326.542	349.81
326.77	361.81
326.999	407.81
327.228	544.81
327.457	715.81
327.686	806.81
327.914	544.81
328.143	430.81
328.372	404.81
328.6	402.81
328.829	380.81
329.058	375.81
329.287	394.81
329.515	382.81
329.744	363.81
329.972	364.81
330.201	393.81
330.43	392.81
330.658	410.81
330.887	398.81
331.115	415.81
331.344	379.81
331.572	363.81
331.801	398.81
332.03	352.81
332.258	375.81
332.486	376.81
332.715	389.81
332.943	364.81
333.172	388.81
333.4	383.81
333.629	392.81
333.857	403.81
334.085	417.81
334.314	411.81
334.542	414.81
334.771	434.81
334.999	425.81
335.227	382.81
335.455	401.81
335.684	384.81
335.912	373.81
336.14	370.81
336.369	380.81
336.597	384.81
336.825	378.81
337.053	377.81
337.281	373.81
337.51	353.81
337.738	344.81
337.966	357.81
338.194	367.81
338.422	356.81
338.65	340.81
338.878	348.81
339.106	365.81
339.334	365.81
339.562	347.81
339.79	357.81
340.018	336.81
340.246	342.81
340.474	373.81
340.702	342.81
340.93	335.81
341.158	350.81
341.386	346.81
341.614	341.81
341.842	349.81
342.07	347.81
342.298	335.81
342.526	332.81
342.754	340.81
342.981	312.81
343.209	362.81
343.437	365.81
343.665	361.81
343.893	381.81
344.12	361.81
344.348	370.81
344.576	359.81
344.804	356.81
345.031	368.81
345.259	335.81
345.487	353.81
345.714	342.81
345.942	346.81
346.17	336.81
346.397	314.81
346.625	328.81
346.853	313.81
347.08	321.81
347.308	329.81
347.535	303.81
347.763	330.81
347.99	333.81
348.218	313.81
348.445	327.81
348.673	337.81
348.9	346.81
349.128	329.81
349.355	327.81
349.583	313.81
349.81	319.81
350.037	340.81
350.265	324.81
350.492	325.81
350.72	318.81
350.947	317.81
351.174	319.81
351.402	316.81
351.629	320.81
351.856	333.81
352.083	314.81
352.311	326.81
352.538	337.81
352.765	324.81
352.992	321.81
353.22	317.81
353.447	330.81
353.674	320.81
353.901	313.81
354.128	294.81
354.355	317.81
354.583	295.81
354.81	324.81
355.037	305.81
355.264	324.81
355.491	312.81
355.718	291.81
355.945	306.81
356.172	306.81
356.399	313.81
356.626	312.81
356.853	330.81
357.08	295.81
357.307	296.81
357.534	317.81
357.761	316.81
357.988	321.81
358.215	302.81
358.441	322.81
358.668	297.81
358.895	324.81
359.122	319.81
359.349	323.81
359.576	323.81
359.802	338.81
360.029	335.81
360.256	351.81
360.483	328.81
360.709	315.81
360.936	318.81
361.163	329.81
361.39	330.81
361.616	323.81
361.843	335.81
362.07	318.81
362.296	320.81
362.523	301.81
362.749	328.81
362.976	318.81
363.203	315.81
363.429	312.81
363.656	302.81
363.882	297.81
364.109	330.81
364.335	317.81
364.562	312.81
364.788	308.81
365.015	301.81
365.241	314.81
365.468	325.81
365.694	321.81
365.92	315.81
366.147	327.81
366.373	298.81
366.599	312.81
366.826	319.81
367.052	320.81
367.278	335.81
367.505	312.81
367.731	302.81
367.957	331.81
368.184	324.81
368.41	311.81
368.636	329.81
368.862	320.81
369.089	328.81
369.315	319.81
369.541	326.81
369.767	298.81
369.993	329.81
370.219	332.81
370.445	317.81
370.672	321.81
370.898	319.81
371.124	330.81
371.35	324.81
371.576	318.81
371.802	314.81
372.028	323.81
372.254	317.81
372.48	303.81
372.706	333.81
372.932	334.81
373.158	333.81
373.384	321.81
373.61	326.81
373.835	318.81
374.061	316.81
374.287	328.81
374.513	330.81
374.739	336.81
374.965	341.81
375.191	330.81
375.416	345.81
375.642	319.81
375.868	350.81
376.094	324.81
376.319	328.81
376.545	321.81
376.771	331.81
376.997	314.81
377.222	316.81
377.448	325.81
377.674	315.81
377.899	311.81
378.125	319.81
378.35	306.81
378.576	311.81
378.802	317.81
379.027	339.81
379.253	310.81
379.478	303.81
379.704	304.81
379.929	318.81
380.155	320.81
380.38	322.81
380.606	306.81
380.831	325.81
381.057	312.81
381.282	331.81
381.507	330.81
381.733	308.81
381.958	320.81
382.184	344.81
382.409	327.81
382.634	325.81
382.86	318.81
383.085	338.81
383.31	312.81
383.535	344.81
383.761	358.81
383.986	338.81
384.211	372.81
384.436	337.81
384.662	357.81
384.887	342.81
385.112	352.81
385.337	355.81
385.562	356.81
385.787	339.81
386.013	356.81
386.238	336.81
386.463	340.81
386.688	357.81
386.913	354.81
387.138	349.81
387.363	361.81
387.588	361.81
387.813	349.81
388.038	365.81
388.263	363.81
388.488	366.81
388.713	340.81
388.938	358.81
389.163	353.81
389.387	374.81
389.612	357.81
389.837	355.81
390.062	348.81
390.287	344.81
390.512	332.81
390.736	348.81
390.961	381.81
391.186	374.81
391.411	372.81
391.636	384.81
391.86	366.81
392.085	373.81
392.31	351.81
392.534	385.81
392.759	376.81
392.984	372.81
393.208	349.81
393.433	362.81
393.658	360.81
393.882	378.81
394.107	356.81
394.331	351.81
394.556	361.81
394.78	343.81
395.005	365.81
395.229	371.81
395.454	388.81
395.678	376.81
395.903	373.81
396.127	385.81
396.352	404.81
396.576	377.81
396.801	368.81
397.025	384.81
397.249	369.81
397.474	376.81
397.698	388.81
397.922	388.81
398.147	395.81
398.371	392.81
398.595	411.81
398.82	418.81
399.044	428.81
399.268	467.81
399.492	495.81
399.717	518.81
399.941	542.81
400.165	532.81
400.389	501.81
400.613	443.81
400.837	424.81
401.062	414.81
401.286	419.81
401.51	397.81
401.734	406.81
401.958	434.81
402.182	424.81
402.406	423.81
402.63	434.81
402.854	443.81
403.078	420.81
403.302	430.81
403.526	436.81
403.75	436.81
403.974	460.81
404.198	442.81
404.422	455.81
404.645	445.81
404.869	455.81
405.093	470.81
405.317	475.81
405.541	480.81
405.765	463.81
405.988	436.81
406.212	456.81
406.436	471.81
406.66	461.81
406.883	460.81
407.107	483.81
407.331	531.81
407.555	552.81
407.778	522.81
408.002	516.81
408.226	484.81
408.449	486.81
408.673	488.81
408.896	476.81
409.12	486.81
409.344	479.81
409.567	438.81
409.791	450.81
410.014	449.81
410.238	436.81
410.461	431.81
410.685	439.81
410.908	450.81
411.132	459.81
411.355	447.81
411.578	452.81
411.802	429.81
412.025	414.81
412.249	457.81
412.472	452.81
412.695	446.81
412.919	444.81
413.142	418.81
413.365	429.81
413.589	419.81
413.812	406.81
414.035	391.81
414.258	426.81
414.482	410.81
414.705	423.81
414.928	396.81
415.151	427.81
415.374	407.81
415.597	400.81
415.821	409.81
416.044	406.81
416.267	414.81
416.49	440.81
416.713	388.81
416.936	393.81
417.159	410.81
417.382	416.81
417.605	416.81
417.828	421.81
418.051	420.81
418.274	405.81
418.497	410.81
418.72	430.81
418.943	432.81
419.166	432.81
419.389	456.81
419.611	439.81
419.834	444.81
420.057	436.81
420.28	428.81
420.503	414.81
420.726	409.81
420.948	414.81
421.171	438.81
421.394	456.81
421.617	440.81
421.839	425.81
422.062	411.81
422.285	414.81
422.507	456.81
422.73	484.81
422.953	484.81
423.175	442.81
423.398	441.81
423.621	452.81
423.843	423.81
424.066	458.81
424.288	427.81
424.511	452.81
424.733	475.81
424.956	488.81
425.178	484.81
425.401	498.81
425.623	496.81
425.846	441.81
426.068	418.81
426.291	423.81
426.513	426.81
426.735	430.81
426.958	443.81
427.18	482.81
427.402	546.81
427.625	574.81
427.847	505.81
428.069	454.81
428.292	398.81
428.514	399.81
428.736	374.81
428.958	406.81
429.181	398.81
429.403	400.81
429.625	392.81
429.847	394.81
430.069	456.81
430.292	430.81
430.514	401.81
430.736	390.81
430.958	404.81
431.18	364.81
431.402	362.81
431.624	375.81
431.846	394.81
432.068	382.81
432.29	379.81
432.512	378.81
432.734	390.81
432.956	397.81
433.178	388.81
433.4	400.81
433.622	396.81
433.844	382.81
434.066	385.81
434.287	394.81
434.509	410.81
434.731	422.81
434.953	400.81
435.175	416.81
435.397	428.81
435.618	416.81
435.84	437.81
436.062	468.81
436.284	506.81
436.505	447.81
436.727	400.81
436.949	404.81
437.17	386.81
437.392	379.81
437.614	392.81
437.835	416.81
438.057	444.81
438.278	502.81
438.5	525.81
438.721	536.81
438.943	502.81
439.165	434.81
439.386	425.81
439.608	392.81
439.829	433.81
440.05	424.81
440.272	443.81
440.493	431.81
440.715	430.81
440.936	408.81
441.158	403.81
441.379	402.81
441.6	400.81
441.822	434.81
442.043	447.81
442.264	473.81
442.486	492.81
442.707	479.81
442.928	432.81
443.149	422.81
443.371	449.81
443.592	465.81
443.813	520.81
444.034	568.81
444.255	492.81
444.476	457.81
444.698	463.81
444.919	458.81
445.14	537.81
445.361	502.81
445.582	449.81
445.803	470.81
446.024	509.81
446.245	528.81
446.466	489.81
446.687	438.81
446.908	422.81
447.129	405.81
447.35	387.81
447.571	402.81
447.792	373.81
448.013	388.81
448.234	390.81
448.455	420.81
448.675	482.81
448.896	520.81
449.117	444.81
449.338	462.81
449.559	493.81
449.779	538.81
450	452.81
450.221	402.81
450.442	367.81
450.662	363.81
450.883	389.81
451.104	386.81
451.324	399.81
451.545	389.81
451.766	378.81
451.986	360.81
452.207	353.81
452.428	344.81
452.648	347.81
452.869	350.81
453.089	357.81
453.31	366.81
453.53	367.81
453.751	359.81
453.971	372.81
454.192	359.81
454.412	346.81
454.633	349.81
454.853	359.81
455.073	361.81
455.294	369.81
455.514	394.81
455.734	385.81
455.955	338.81
456.175	348.81
456.395	335.81
456.616	322.81
456.836	322.81
457.056	328.81
457.276	350.81
457.497	346.81
457.717	353.81
457.937	352.81
458.157	337.81
458.377	352.81
458.598	348.81
458.818	397.81
459.038	424.81
459.258	433.81
459.478	402.81
459.698	400.81
459.918	381.81
460.138	405.81
460.358	401.81
460.578	414.81
460.798	401.81
461.018	408.81
461.238	408.81
461.458	411.81
461.678	389.81
461.898	386.81
462.118	427.81
462.338	429.81
462.558	445.81
462.777	465.81
462.997	485.81
463.217	481.81
463.437	486.81
463.657	476.81
463.876	466.81
464.096	451.81
464.316	460.81
464.536	459.81
464.755	435.81
464.975	420.81
465.195	451.81
465.414	450.81
465.634	440.81
465.854	398.81
466.073	380.81
466.293	384.81
466.512	378.81
466.732	368.81
466.951	368.81
467.171	364.81
467.391	378.81
467.61	376.81
467.829	390.81
468.049	374.81
468.268	367.81
468.488	372.81
468.707	356.81
468.927	346.81
469.146	362.81
469.365	381.81
469.585	367.81
469.804	378.81
470.023	388.81
470.243	381.81
470.462	367.81
470.681	382.81
470.901	390.81
471.12	390.81
471.339	372.81
471.558	362.81
471.777	375.81
471.997	367.81
472.216	376.81
472.435	376.81
472.654	359.81
472.873	384.81
473.092	350.81
473.311	355.81
473.53	362.81
473.749	354.81
473.968	395.81
474.187	435.81
474.406	458.81
474.625	388.81
474.844	357.81
475.063	367.81
475.282	367.81
475.501	368.81
475.72	377.81
475.939	376.81
476.158	386.81
476.377	381.81
476.596	374.81
476.814	399.81
477.033	383.81
477.252	388.81
477.471	386.81
477.69	414.81
477.908	417.81
478.127	415.81
478.346	416.81
478.564	434.81
478.783	424.81
479.002	437.81
479.22	433.81
479.439	419.81
479.658	426.81
479.876	428.81
480.095	444.81
480.313	488.81
480.532	464.81
480.751	466.81
480.969	471.81
481.188	479.81
481.406	509.81
481.624	449.81
481.843	424.81
482.061	423.81
482.28	441.81
482.498	412.81
482.717	419.81
482.935	435.81
483.153	442.81
483.372	429.81
483.59	433.81
483.808	416.81
484.027	408.81
484.245	436.81
484.463	437.81
484.681	455.81
484.9	414.81
485.118	426.81
485.336	435.81
485.554	446.81
485.772	434.81
485.99	434.81
486.209	420.81
486.427	418.81
486.645	449.81
486.863	451.81
487.081	445.81
487.299	448.81
487.517	449.81
487.735	445.81
487.953	449.81
488.171	443.81
488.389	450.81
488.607	434.81
488.825	426.81
489.043	437.81
489.261	454.81
489.479	447.81
489.696	458.81
489.914	444.81
490.132	464.81
490.35	475.81
490.568	466.81
490.786	479.81
491.003	485.81
491.221	475.81
491.439	501.81
491.657	507.81
491.874	504.81
492.092	505.81
492.31	514.81
492.527	512.81
492.745	523.81
492.963	527.81
493.18	536.81
493.398	503.81
493.615	524.81
493.833	506.81
494.05	518.81
494.268	514.81
494.485	525.81
494.703	523.81
494.92	547.81
495.138	516.81
495.355	528.81
495.573	508.81
495.79	524.81
496.008	535.81
496.225	518.81
496.442	525.81
496.66	520.81
496.877	505.81
497.094	520.81
497.312	541.81
497.529	543.81
497.746	561.81
497.963	579.81
498.181	592.81
498.398	600.81
498.615	604.81
498.832	643.81
499.049	672.81
499.267	686.81
499.484	733.81
499.701	746.81
499.918	822.81
500.135	831.81
500.352	926.81
500.569	973.81
500.786	944.81
501.003	895.81
501.22	844.81
501.437	789.81
501.654	728.81
501.871	706.81
502.088	699.81
