Data from 1969.PennyLincolnUp.Lamp.En5.5.200Scan.071719.P1._HRD10591_14-54-36-972.txt Node
Date: Thu Jul 18 14:54:36 EDT 2019
User: cochatt
Spectrometer: HR+D1059
Trigger mode: 1
Integration Time (sec): 1.000000E-1
Scans to average: 1
Electric dark correction enabled: true
Nonlinearity correction enabled: false
Boxcar width: 0
XAxis mode: Wavelengths
Number of Pixels in Spectrum: 2048
>>>>>Begin Spectral Data<<<<<
223.165	-25.56
223.4	-25.56
223.635	-25.56
223.869	-27.56
224.104	0.44
224.338	-9.56
224.573	-20.56
224.808	-7.56
225.042	-3.56
225.277	0.44
225.511	2.44
225.746	0.44
225.98	9.44
226.215	-3.56
226.449	12.44
226.683	19.44
226.918	26.44
227.152	26.44
227.387	38.44
227.621	38.44
227.856	42.44
228.09	51.44
228.324	43.44
228.559	57.44
228.793	74.44
229.027	72.44
229.262	83.44
229.496	103.44
229.73	112.44
229.964	122.44
230.199	95.44
230.433	94.44
230.667	102.44
230.901	105.44
231.136	90.44
231.37	107.44
231.604	96.44
231.838	99.44
232.072	92.44
232.306	99.44
232.541	102.44
232.775	117.44
233.009	110.44
233.243	112.44
233.477	104.44
233.711	111.44
233.945	103.44
234.179	103.44
234.413	93.44
234.647	100.44
234.881	109.44
235.115	94.44
235.349	96.44
235.583	96.44
235.817	112.44
236.051	115.44
236.285	90.44
236.519	101.44
236.753	114.44
236.987	116.44
237.221	138.44
237.455	144.44
237.689	127.44
237.922	115.44
238.156	125.44
238.39	122.44
238.624	105.44
238.858	116.44
239.091	104.44
239.325	115.44
239.559	119.44
239.793	116.44
240.027	123.44
240.26	115.44
240.494	124.44
240.728	125.44
240.961	126.44
241.195	120.44
241.429	113.44
241.662	109.44
241.896	112.44
242.13	120.44
242.363	122.44
242.597	109.44
242.83	126.44
243.064	116.44
243.298	132.44
243.531	103.44
243.765	128.44
243.998	135.44
244.232	104.44
244.465	136.44
244.699	118.44
244.932	130.44
245.166	121.44
245.399	118.44
245.633	135.44
245.866	128.44
246.099	128.44
246.333	115.44
246.566	123.44
246.8	132.44
247.033	118.44
247.266	124.44
247.5	131.44
247.733	132.44
247.966	152.44
248.2	129.44
248.433	137.44
248.666	144.44
248.899	160.44
249.133	160.44
249.366	172.44
249.599	151.44
249.832	147.44
250.066	141.44
250.299	144.44
250.532	158.44
250.765	157.44
250.998	170.44
251.231	157.44
251.465	165.44
251.698	154.44
251.931	152.44
252.164	152.44
252.397	153.44
252.63	159.44
252.863	164.44
253.096	172.44
253.329	180.44
253.562	178.44
253.795	170.44
254.028	159.44
254.261	173.44
254.494	179.44
254.727	187.44
254.96	212.44
255.193	191.44
255.426	169.44
255.659	168.44
255.892	172.44
256.124	191.44
256.357	178.44
256.59	184.44
256.823	175.44
257.056	163.44
257.289	155.44
257.521	167.44
257.754	164.44
257.987	165.44
258.22	181.44
258.452	172.44
258.685	163.44
258.918	168.44
259.151	154.44
259.383	172.44
259.616	178.44
259.849	183.44
260.081	174.44
260.314	178.44
260.547	193.44
260.779	191.44
261.012	189.44
261.244	178.44
261.477	185.44
261.71	160.44
261.942	174.44
262.175	191.44
262.407	180.44
262.64	176.44
262.872	188.44
263.105	166.44
263.337	178.44
263.57	172.44
263.802	170.44
264.035	174.44
264.267	183.44
264.499	180.44
264.732	178.44
264.964	167.44
265.197	174.44
265.429	184.44
265.661	177.44
265.894	194.44
266.126	187.44
266.358	176.44
266.591	189.44
266.823	192.44
267.055	195.44
267.287	178.44
267.52	185.44
267.752	187.44
267.984	176.44
268.216	182.44
268.448	211.44
268.681	203.44
268.913	204.44
269.145	217.44
269.377	201.44
269.609	211.44
269.841	219.44
270.073	208.44
270.306	226.44
270.538	229.44
270.77	233.44
271.002	220.44
271.234	227.44
271.466	233.44
271.698	227.44
271.93	227.44
272.162	238.44
272.394	242.44
272.626	213.44
272.858	221.44
273.09	224.44
273.322	219.44
273.553	206.44
273.785	212.44
274.017	213.44
274.249	224.44
274.481	211.44
274.713	222.44
274.945	225.44
275.176	210.44
275.408	202.44
275.64	193.44
275.872	215.44
276.104	213.44
276.335	211.44
276.567	222.44
276.799	212.44
277.031	233.44
277.262	238.44
277.494	250.44
277.726	252.44
277.957	223.44
278.189	220.44
278.421	209.44
278.652	212.44
278.884	213.44
279.115	221.44
279.347	221.44
279.579	217.44
279.81	216.44
280.042	210.44
280.273	217.44
280.505	230.44
280.736	235.44
280.968	235.44
281.199	221.44
281.431	213.44
281.662	197.44
281.894	234.44
282.125	225.44
282.356	217.44
282.588	249.44
282.819	244.44
283.051	224.44
283.282	233.44
283.513	224.44
283.745	222.44
283.976	243.44
284.207	224.44
284.439	233.44
284.67	240.44
284.901	242.44
285.132	238.44
285.364	224.44
285.595	241.44
285.826	216.44
286.057	250.44
286.288	245.44
286.52	233.44
286.751	246.44
286.982	244.44
287.213	233.44
287.444	244.44
287.675	242.44
287.906	252.44
288.138	258.44
288.369	240.44
288.6	233.44
288.831	244.44
289.062	241.44
289.293	244.44
289.524	244.44
289.755	244.44
289.986	262.44
290.217	218.44
290.448	249.44
290.679	257.44
290.91	244.44
291.141	229.44
291.371	246.44
291.602	247.44
291.833	231.44
292.064	248.44
292.295	235.44
292.526	240.44
292.757	249.44
292.987	243.44
293.218	238.44
293.449	233.44
293.68	250.44
293.91	246.44
294.141	242.44
294.372	246.44
294.603	257.44
294.833	243.44
295.064	248.44
295.295	245.44
295.525	248.44
295.756	272.44
295.987	263.44
296.217	246.44
296.448	258.44
296.679	271.44
296.909	258.44
297.14	264.44
297.37	267.44
297.601	244.44
297.831	264.44
298.062	285.44
298.292	271.44
298.523	256.44
298.753	272.44
298.984	268.44
299.214	258.44
299.445	262.44
299.675	259.44
299.905	264.44
300.136	263.44
300.366	271.44
300.597	263.44
300.827	273.44
301.057	264.44
301.288	281.44
301.518	278.44
301.748	272.44
301.979	268.44
302.209	267.44
302.439	283.44
302.669	271.44
302.9	280.44
303.13	275.44
303.36	283.44
303.59	282.44
303.82	300.44
304.051	260.44
304.281	280.44
304.511	273.44
304.741	264.44
304.971	276.44
305.201	262.44
305.431	274.44
305.661	288.44
305.891	276.44
306.121	279.44
306.352	284.44
306.582	285.44
306.812	283.44
307.042	299.44
307.272	279.44
307.502	275.44
307.731	274.44
307.961	269.44
308.191	271.44
308.421	267.44
308.651	280.44
308.881	274.44
309.111	290.44
309.341	294.44
309.571	292.44
309.8	284.44
310.03	284.44
310.26	288.44
310.49	315.44
310.72	305.44
310.949	312.44
311.179	304.44
311.409	295.44
311.639	303.44
311.868	294.44
312.098	299.44
312.328	307.44
312.557	293.44
312.787	306.44
313.017	326.44
313.246	314.44
313.476	285.44
313.706	312.44
313.935	297.44
314.165	304.44
314.394	306.44
314.624	310.44
314.853	308.44
315.083	304.44
315.312	321.44
315.542	310.44
315.771	297.44
316.001	291.44
316.23	262.44
316.46	306.44
316.689	293.44
316.919	317.44
317.148	312.44
317.377	325.44
317.607	296.44
317.836	308.44
318.065	282.44
318.295	304.44
318.524	308.44
318.753	300.44
318.983	305.44
319.212	303.44
319.441	298.44
319.67	294.44
319.9	307.44
320.129	320.44
320.358	308.44
320.587	308.44
320.816	315.44
321.046	319.44
321.275	310.44
321.504	312.44
321.733	292.44
321.962	312.44
322.191	316.44
322.42	321.44
322.649	341.44
322.878	337.44
323.108	339.44
323.337	342.44
323.566	337.44
323.795	355.44
324.024	353.44
324.253	424.44
324.482	562.44
324.71	752.44
324.939	1003.44
325.168	856.44
325.397	500.44
325.626	395.44
325.855	374.44
326.084	344.44
326.313	352.44
326.542	349.44
326.77	387.44
326.999	416.44
327.228	536.44
327.457	677.44
327.686	796.44
327.914	550.44
328.143	430.44
328.372	401.44
328.6	370.44
328.829	388.44
329.058	397.44
329.287	390.44
329.515	367.44
329.744	361.44
329.972	376.44
330.201	386.44
330.43	398.44
330.658	398.44
330.887	406.44
331.115	416.44
331.344	370.44
331.572	365.44
331.801	378.44
332.03	359.44
332.258	356.44
332.486	368.44
332.715	368.44
332.943	355.44
333.172	378.44
333.4	374.44
333.629	393.44
333.857	382.44
334.085	408.44
334.314	410.44
334.542	411.44
334.771	425.44
334.999	407.44
335.227	388.44
335.455	378.44
335.684	349.44
335.912	378.44
336.14	377.44
336.369	379.44
336.597	378.44
336.825	362.44
337.053	368.44
337.281	357.44
337.51	359.44
337.738	364.44
337.966	364.44
338.194	344.44
338.422	339.44
338.65	357.44
338.878	354.44
339.106	366.44
339.334	349.44
339.562	348.44
339.79	349.44
340.018	341.44
340.246	345.44
340.474	332.44
340.702	336.44
340.93	341.44
341.158	345.44
341.386	348.44
341.614	341.44
341.842	329.44
342.07	342.44
342.298	346.44
342.526	315.44
342.754	343.44
342.981	344.44
343.209	317.44
343.437	333.44
343.665	355.44
343.893	378.44
344.12	372.44
344.348	358.44
344.576	350.44
344.804	342.44
345.031	355.44
345.259	336.44
345.487	334.44
345.714	331.44
345.942	323.44
346.17	337.44
346.397	326.44
346.625	327.44
346.853	320.44
347.08	310.44
347.308	329.44
347.535	317.44
347.763	336.44
347.99	334.44
348.218	326.44
348.445	341.44
348.673	328.44
348.9	329.44
349.128	352.44
349.355	315.44
349.583	323.44
349.81	340.44
350.037	318.44
350.265	306.44
350.492	323.44
350.72	331.44
350.947	320.44
351.174	322.44
351.402	338.44
351.629	288.44
351.856	315.44
352.083	333.44
352.311	331.44
352.538	328.44
352.765	333.44
352.992	322.44
353.22	325.44
353.447	300.44
353.674	319.44
353.901	310.44
354.128	301.44
354.355	311.44
354.583	302.44
354.81	301.44
355.037	313.44
355.264	321.44
355.491	292.44
355.718	308.44
355.945	303.44
356.172	320.44
356.399	312.44
356.626	303.44
356.853	312.44
357.08	304.44
357.307	309.44
357.534	311.44
357.761	314.44
357.988	293.44
358.215	310.44
358.441	308.44
358.668	308.44
358.895	309.44
359.122	299.44
359.349	316.44
359.576	301.44
359.802	329.44
360.029	325.44
360.256	356.44
360.483	329.44
360.709	329.44
360.936	339.44
361.163	314.44
361.39	328.44
361.616	325.44
361.843	338.44
362.07	323.44
362.296	325.44
362.523	321.44
362.749	322.44
362.976	345.44
363.203	310.44
363.429	299.44
363.656	324.44
363.882	322.44
364.109	328.44
364.335	313.44
364.562	316.44
364.788	310.44
365.015	320.44
365.241	316.44
365.468	304.44
365.694	316.44
365.92	319.44
366.147	310.44
366.373	331.44
366.599	296.44
366.826	306.44
367.052	324.44
367.278	300.44
367.505	310.44
367.731	311.44
367.957	310.44
368.184	312.44
368.41	316.44
368.636	331.44
368.862	333.44
369.089	306.44
369.315	312.44
369.541	320.44
369.767	307.44
369.993	312.44
370.219	322.44
370.445	311.44
370.672	315.44
370.898	297.44
371.124	301.44
371.35	315.44
371.576	333.44
371.802	329.44
372.028	321.44
372.254	320.44
372.48	312.44
372.706	315.44
372.932	316.44
373.158	320.44
373.384	323.44
373.61	309.44
373.835	330.44
374.061	303.44
374.287	333.44
374.513	338.44
374.739	316.44
374.965	332.44
375.191	338.44
375.416	340.44
375.642	329.44
375.868	340.44
376.094	325.44
376.319	335.44
376.545	322.44
376.771	325.44
376.997	319.44
377.222	329.44
377.448	321.44
377.674	312.44
377.899	305.44
378.125	328.44
378.35	309.44
378.576	334.44
378.802	339.44
379.027	340.44
379.253	331.44
379.478	301.44
379.704	296.44
379.929	315.44
380.155	313.44
380.38	322.44
380.606	318.44
380.831	331.44
381.057	305.44
381.282	310.44
381.507	329.44
381.733	317.44
381.958	329.44
382.184	326.44
382.409	307.44
382.634	301.44
382.86	326.44
383.085	338.44
383.31	337.44
383.535	337.44
383.761	346.44
383.986	339.44
384.211	343.44
384.436	354.44
384.662	343.44
384.887	348.44
385.112	362.44
385.337	346.44
385.562	357.44
385.787	357.44
386.013	342.44
386.238	370.44
386.463	363.44
386.688	352.44
386.913	359.44
387.138	363.44
387.363	355.44
387.588	347.44
387.813	360.44
388.038	343.44
388.263	369.44
388.488	362.44
388.713	353.44
388.938	364.44
389.163	354.44
389.387	355.44
389.612	355.44
389.837	358.44
390.062	353.44
390.287	347.44
390.512	333.44
390.736	343.44
390.961	354.44
391.186	360.44
391.411	379.44
391.636	372.44
391.86	378.44
392.085	369.44
392.31	389.44
392.534	376.44
392.759	370.44
392.984	369.44
393.208	384.44
393.433	355.44
393.658	378.44
393.882	372.44
394.107	380.44
394.331	354.44
394.556	361.44
394.78	368.44
395.005	370.44
395.229	377.44
395.454	389.44
395.678	376.44
395.903	393.44
396.127	391.44
396.352	390.44
396.576	371.44
396.801	381.44
397.025	380.44
397.249	384.44
397.474	395.44
397.698	375.44
397.922	387.44
398.147	370.44
398.371	405.44
398.595	421.44
398.82	421.44
399.044	453.44
399.268	433.44
399.492	489.44
399.717	525.44
399.941	542.44
400.165	541.44
400.389	497.44
400.613	442.44
400.837	422.44
401.062	409.44
401.286	432.44
401.51	412.44
401.734	423.44
401.958	443.44
402.182	420.44
402.406	439.44
402.63	459.44
402.854	433.44
403.078	434.44
403.302	422.44
403.526	456.44
403.75	454.44
403.974	459.44
404.198	455.44
404.422	461.44
404.645	450.44
404.869	437.44
405.093	457.44
405.317	461.44
405.541	492.44
405.765	463.44
405.988	449.44
406.212	465.44
406.436	467.44
406.66	489.44
406.883	467.44
407.107	483.44
407.331	514.44
407.555	576.44
407.778	541.44
408.002	500.44
408.226	486.44
408.449	465.44
408.673	476.44
408.896	473.44
409.12	482.44
409.344	475.44
409.567	428.44
409.791	443.44
410.014	435.44
410.238	397.44
410.461	436.44
410.685	444.44
410.908	430.44
411.132	443.44
411.355	470.44
411.578	455.44
411.802	440.44
412.025	427.44
412.249	446.44
412.472	450.44
412.695	479.44
412.919	472.44
413.142	440.44
413.365	430.44
413.589	427.44
413.812	413.44
414.035	408.44
414.258	415.44
414.482	400.44
414.705	403.44
414.928	410.44
415.151	420.44
415.374	405.44
415.597	395.44
415.821	405.44
416.044	416.44
416.267	397.44
416.49	404.44
416.713	401.44
416.936	414.44
417.159	402.44
417.382	400.44
417.605	399.44
417.828	413.44
418.051	422.44
418.274	421.44
418.497	420.44
418.72	417.44
418.943	419.44
419.166	418.44
419.389	437.44
419.611	465.44
419.834	452.44
420.057	415.44
420.28	424.44
420.503	408.44
420.726	410.44
420.948	419.44
421.171	446.44
421.394	442.44
421.617	439.44
421.839	418.44
422.062	426.44
422.285	420.44
422.507	453.44
422.73	490.44
422.953	469.44
423.175	416.44
423.398	435.44
423.621	424.44
423.843	423.44
424.066	438.44
424.288	452.44
424.511	457.44
424.733	476.44
424.956	503.44
425.178	484.44
425.401	456.44
425.623	501.44
425.846	449.44
426.068	415.44
426.291	413.44
426.513	424.44
426.735	422.44
426.958	453.44
427.18	459.44
427.402	526.44
427.625	570.44
427.847	514.44
428.069	458.44
428.292	423.44
428.514	417.44
428.736	411.44
428.958	388.44
429.181	391.44
429.403	376.44
429.625	370.44
429.847	414.44
430.069	426.44
430.292	421.44
430.514	383.44
430.736	397.44
430.958	385.44
431.18	382.44
431.402	373.44
431.624	363.44
431.846	380.44
432.068	389.44
432.29	362.44
432.512	381.44
432.734	400.44
432.956	389.44
433.178	383.44
433.4	398.44
433.622	392.44
433.844	392.44
434.066	372.44
434.287	388.44
434.509	409.44
434.731	422.44
434.953	415.44
435.175	430.44
435.397	449.44
435.618	443.44
435.84	422.44
436.062	466.44
436.284	505.44
436.505	439.44
436.727	437.44
436.949	394.44
437.17	398.44
437.392	410.44
437.614	404.44
437.835	423.44
438.057	448.44
438.278	486.44
438.5	505.44
438.721	560.44
438.943	516.44
439.165	421.44
439.386	417.44
439.608	428.44
439.829	416.44
440.05	408.44
440.272	433.44
440.493	402.44
440.715	404.44
440.936	405.44
441.158	427.44
441.379	401.44
441.6	421.44
441.822	436.44
442.043	463.44
442.264	483.44
442.486	498.44
442.707	457.44
442.928	456.44
443.149	422.44
443.371	457.44
443.592	481.44
443.813	533.44
444.034	548.44
444.255	501.44
444.476	456.44
444.698	464.44
444.919	457.44
445.14	560.44
445.361	519.44
445.582	494.44
445.803	475.44
446.024	513.44
446.245	516.44
446.466	483.44
446.687	446.44
446.908	419.44
447.129	391.44
447.35	401.44
447.571	391.44
447.792	391.44
448.013	410.44
448.234	388.44
448.455	418.44
448.675	458.44
448.896	503.44
449.117	457.44
449.338	446.44
449.559	481.44
449.779	548.44
450	453.44
450.221	406.44
450.442	402.44
450.662	407.44
450.883	384.44
451.104	368.44
451.324	374.44
451.545	377.44
451.766	348.44
451.986	357.44
452.207	369.44
452.428	348.44
452.648	356.44
452.869	349.44
453.089	356.44
453.31	358.44
453.53	363.44
453.751	340.44
453.971	336.44
454.192	361.44
454.412	372.44
454.633	347.44
454.853	347.44
455.073	348.44
455.294	359.44
455.514	396.44
455.734	388.44
455.955	355.44
456.175	325.44
456.395	322.44
456.616	333.44
456.836	340.44
457.056	328.44
457.276	327.44
457.497	331.44
457.717	341.44
457.937	345.44
458.157	340.44
458.377	341.44
458.598	360.44
458.818	388.44
459.038	413.44
459.258	431.44
459.478	411.44
459.698	409.44
459.918	383.44
460.138	389.44
460.358	401.44
460.578	405.44
460.798	401.44
461.018	425.44
461.238	418.44
461.458	414.44
461.678	424.44
461.898	416.44
462.118	410.44
462.338	433.44
462.558	430.44
462.777	445.44
462.997	442.44
463.217	476.44
463.437	468.44
463.657	467.44
463.876	457.44
464.096	462.44
464.316	450.44
464.536	429.44
464.755	462.44
464.975	421.44
465.195	456.44
465.414	455.44
465.634	425.44
465.854	389.44
466.073	390.44
466.293	393.44
466.512	379.44
466.732	360.44
466.951	378.44
467.171	373.44
467.391	362.44
467.61	364.44
467.829	376.44
468.049	386.44
468.268	368.44
468.488	356.44
468.707	351.44
468.927	371.44
469.146	352.44
469.365	359.44
469.585	364.44
469.804	380.44
470.023	365.44
470.243	362.44
470.462	369.44
470.681	393.44
470.901	392.44
471.12	390.44
471.339	386.44
471.558	398.44
471.777	382.44
471.997	364.44
472.216	368.44
472.435	388.44
472.654	374.44
472.873	371.44
473.092	373.44
473.311	342.44
473.53	358.44
473.749	395.44
473.968	405.44
474.187	440.44
474.406	440.44
474.625	376.44
474.844	371.44
475.063	346.44
475.282	380.44
475.501	360.44
475.72	364.44
475.939	364.44
476.158	359.44
476.377	383.44
476.596	380.44
476.814	396.44
477.033	388.44
477.252	384.44
477.471	391.44
477.69	404.44
477.908	405.44
478.127	421.44
478.346	420.44
478.564	425.44
478.783	435.44
479.002	445.44
479.22	417.44
479.439	453.44
479.658	445.44
479.876	438.44
480.095	439.44
480.313	473.44
480.532	462.44
480.751	472.44
480.969	450.44
481.188	474.44
481.406	510.44
481.624	456.44
481.843	438.44
482.061	418.44
482.28	415.44
482.498	419.44
482.717	410.44
482.935	425.44
483.153	405.44
483.372	408.44
483.59	425.44
483.808	413.44
484.027	424.44
484.245	420.44
484.463	441.44
484.681	417.44
484.9	427.44
485.118	444.44
485.336	435.44
485.554	452.44
485.772	435.44
485.99	467.44
486.209	437.44
486.427	444.44
486.645	422.44
486.863	441.44
487.081	448.44
487.299	453.44
487.517	451.44
487.735	448.44
487.953	456.44
488.171	442.44
488.389	434.44
488.607	443.44
488.825	454.44
489.043	456.44
489.261	458.44
489.479	465.44
489.696	451.44
489.914	451.44
490.132	461.44
490.35	473.44
490.568	461.44
490.786	491.44
491.003	478.44
491.221	494.44
491.439	493.44
491.657	486.44
491.874	500.44
492.092	517.44
492.31	507.44
492.527	520.44
492.745	506.44
492.963	493.44
493.18	514.44
493.398	524.44
493.615	512.44
493.833	505.44
494.05	524.44
494.268	520.44
494.485	529.44
494.703	501.44
494.92	523.44
495.138	514.44
495.355	514.44
495.573	522.44
495.79	499.44
496.008	527.44
496.225	524.44
496.442	522.44
496.66	545.44
496.877	530.44
497.094	531.44
497.312	533.44
497.529	549.44
497.746	553.44
497.963	560.44
498.181	555.44
498.398	602.44
498.615	621.44
498.832	626.44
499.049	631.44
499.267	676.44
499.484	742.44
499.701	787.44
499.918	814.44
500.135	880.44
500.352	932.44
500.569	950.44
500.786	949.44
501.003	898.44
501.22	849.44
501.437	804.44
501.654	760.44
501.871	716.44
502.088	674.44
502.305	665.44
