Data from 1969.PennyLincolnUp.Lamp.En5.5.200Scan.071719.P1._HRD10591_14-53-50-971.txt Node
Date: Thu Jul 18 14:53:50 EDT 2019
User: cochatt
Spectrometer: HR+D1059
Trigger mode: 1
Integration Time (sec): 1.000000E-1
Scans to average: 1
Electric dark correction enabled: true
Nonlinearity correction enabled: false
Boxcar width: 0
XAxis mode: Wavelengths
Number of Pixels in Spectrum: 2048
>>>>>Begin Spectral Data<<<<<
223.165	-22.94
223.4	-22.94
223.635	-22.94
223.869	-17.94
224.104	-15.94
224.338	-2.94
224.573	-22.94
224.808	-18.94
225.042	-5.94
225.277	-3.94
225.511	-3.94
225.746	8.06
225.98	17.06
226.215	12.06
226.449	9.06
226.683	21.06
226.918	18.06
227.152	30.06
227.387	39.06
227.621	33.06
227.856	54.06
228.09	56.06
228.324	61.06
228.559	64.06
228.793	87.06
229.027	83.06
229.262	101.06
229.496	95.06
229.73	91.06
229.964	104.06
230.199	101.06
230.433	87.06
230.667	102.06
230.901	96.06
231.136	105.06
231.37	99.06
231.604	107.06
231.838	91.06
232.072	93.06
232.306	117.06
232.541	116.06
232.775	117.06
233.009	112.06
233.243	111.06
233.477	102.06
233.711	107.06
233.945	106.06
234.179	109.06
234.413	92.06
234.647	125.06
234.881	97.06
235.115	104.06
235.349	110.06
235.583	109.06
235.817	107.06
236.051	107.06
236.285	104.06
236.519	100.06
236.753	100.06
236.987	121.06
237.221	142.06
237.455	160.06
237.689	135.06
237.922	119.06
238.156	106.06
238.39	109.06
238.624	113.06
238.858	105.06
239.091	121.06
239.325	105.06
239.559	103.06
239.793	108.06
240.027	118.06
240.26	126.06
240.494	121.06
240.728	96.06
240.961	112.06
241.195	112.06
241.429	118.06
241.662	118.06
241.896	127.06
242.13	97.06
242.363	126.06
242.597	125.06
242.83	128.06
243.064	118.06
243.298	127.06
243.531	119.06
243.765	118.06
243.998	120.06
244.232	119.06
244.465	119.06
244.699	133.06
244.932	129.06
245.166	117.06
245.399	128.06
245.633	120.06
245.866	115.06
246.099	127.06
246.333	125.06
246.566	129.06
246.8	132.06
247.033	133.06
247.266	144.06
247.5	133.06
247.733	136.06
247.966	140.06
248.2	127.06
248.433	133.06
248.666	156.06
248.899	146.06
249.133	137.06
249.366	158.06
249.599	148.06
249.832	144.06
250.066	144.06
250.299	154.06
250.532	149.06
250.765	147.06
250.998	171.06
251.231	174.06
251.465	143.06
251.698	158.06
251.931	171.06
252.164	163.06
252.397	160.06
252.63	158.06
252.863	161.06
253.096	164.06
253.329	156.06
253.562	170.06
253.795	180.06
254.028	174.06
254.261	168.06
254.494	175.06
254.727	187.06
254.96	189.06
255.193	176.06
255.426	166.06
255.659	168.06
255.892	168.06
256.124	164.06
256.357	181.06
256.59	172.06
256.823	162.06
257.056	169.06
257.289	166.06
257.521	174.06
257.754	165.06
257.987	164.06
258.22	177.06
258.452	175.06
258.685	164.06
258.918	166.06
259.151	168.06
259.383	183.06
259.616	193.06
259.849	177.06
260.081	181.06
260.314	185.06
260.547	188.06
260.779	184.06
261.012	192.06
261.244	170.06
261.477	165.06
261.71	184.06
261.942	174.06
262.175	184.06
262.407	164.06
262.64	158.06
262.872	168.06
263.105	166.06
263.337	178.06
263.57	164.06
263.802	189.06
264.035	163.06
264.267	166.06
264.499	152.06
264.732	185.06
264.964	178.06
265.197	188.06
265.429	179.06
265.661	179.06
265.894	169.06
266.126	192.06
266.358	186.06
266.591	165.06
266.823	173.06
267.055	186.06
267.287	174.06
267.52	177.06
267.752	189.06
267.984	178.06
268.216	173.06
268.448	198.06
268.681	198.06
268.913	189.06
269.145	203.06
269.377	210.06
269.609	203.06
269.841	203.06
270.073	212.06
270.306	219.06
270.538	214.06
270.77	222.06
271.002	209.06
271.234	209.06
271.466	230.06
271.698	236.06
271.93	224.06
272.162	225.06
272.394	245.06
272.626	208.06
272.858	222.06
273.09	198.06
273.322	182.06
273.553	197.06
273.785	225.06
274.017	200.06
274.249	218.06
274.481	230.06
274.713	206.06
274.945	231.06
275.176	211.06
275.408	213.06
275.64	200.06
275.872	207.06
276.104	214.06
276.335	207.06
276.567	216.06
276.799	215.06
277.031	208.06
277.262	217.06
277.494	226.06
277.726	237.06
277.957	225.06
278.189	221.06
278.421	216.06
278.652	201.06
278.884	204.06
279.115	206.06
279.347	217.06
279.579	222.06
279.81	200.06
280.042	214.06
280.273	200.06
280.505	211.06
280.736	223.06
280.968	225.06
281.199	209.06
281.431	208.06
281.662	222.06
281.894	222.06
282.125	232.06
282.356	221.06
282.588	235.06
282.819	246.06
283.051	219.06
283.282	213.06
283.513	232.06
283.745	217.06
283.976	216.06
284.207	223.06
284.439	240.06
284.67	231.06
284.901	226.06
285.132	239.06
285.364	235.06
285.595	234.06
285.826	228.06
286.057	252.06
286.288	247.06
286.52	231.06
286.751	246.06
286.982	242.06
287.213	239.06
287.444	236.06
287.675	244.06
287.906	221.06
288.138	252.06
288.369	256.06
288.6	249.06
288.831	249.06
289.062	233.06
289.293	234.06
289.524	234.06
289.755	236.06
289.986	246.06
290.217	237.06
290.448	244.06
290.679	254.06
290.91	259.06
291.141	238.06
291.371	237.06
291.602	245.06
291.833	218.06
292.064	240.06
292.295	236.06
292.526	245.06
292.757	251.06
292.987	241.06
293.218	220.06
293.449	226.06
293.68	248.06
293.91	229.06
294.141	243.06
294.372	241.06
294.603	242.06
294.833	237.06
295.064	236.06
295.295	228.06
295.525	237.06
295.756	244.06
295.987	273.06
296.217	258.06
296.448	252.06
296.679	265.06
296.909	246.06
297.14	263.06
297.37	242.06
297.601	266.06
297.831	273.06
298.062	253.06
298.292	261.06
298.523	243.06
298.753	248.06
298.984	252.06
299.214	256.06
299.445	261.06
299.675	271.06
299.905	260.06
300.136	260.06
300.366	265.06
300.597	264.06
300.827	262.06
301.057	263.06
301.288	259.06
301.518	262.06
301.748	281.06
301.979	260.06
302.209	273.06
302.439	256.06
302.669	276.06
302.9	260.06
303.13	263.06
303.36	268.06
303.59	266.06
303.82	274.06
304.051	282.06
304.281	272.06
304.511	273.06
304.741	276.06
304.971	274.06
305.201	274.06
305.431	254.06
305.661	284.06
305.891	265.06
306.121	266.06
306.352	261.06
306.582	255.06
306.812	270.06
307.042	269.06
307.272	281.06
307.502	255.06
307.731	238.06
307.961	267.06
308.191	264.06
308.421	270.06
308.651	254.06
308.881	268.06
309.111	266.06
309.341	280.06
309.571	270.06
309.8	290.06
310.03	283.06
310.26	278.06
310.49	285.06
310.72	284.06
310.949	281.06
311.179	283.06
311.409	294.06
311.639	282.06
311.868	272.06
312.098	299.06
312.328	282.06
312.557	298.06
312.787	289.06
313.017	300.06
313.246	289.06
313.476	288.06
313.706	297.06
313.935	297.06
314.165	285.06
314.394	299.06
314.624	303.06
314.853	283.06
315.083	321.06
315.312	293.06
315.542	294.06
315.771	283.06
316.001	302.06
316.23	292.06
316.46	301.06
316.689	295.06
316.919	290.06
317.148	297.06
317.377	282.06
317.607	302.06
317.836	292.06
318.065	304.06
318.295	290.06
318.524	282.06
318.753	290.06
318.983	289.06
319.212	317.06
319.441	287.06
319.67	275.06
319.9	279.06
320.129	296.06
320.358	296.06
320.587	297.06
320.816	285.06
321.046	308.06
321.275	306.06
321.504	306.06
321.733	289.06
321.962	304.06
322.191	308.06
322.42	305.06
322.649	295.06
322.878	300.06
323.108	315.06
323.337	330.06
323.566	320.06
323.795	342.06
324.024	353.06
324.253	376.06
324.482	476.06
324.71	631.06
324.939	860.06
325.168	733.06
325.397	447.06
325.626	360.06
325.855	328.06
326.084	322.06
326.313	322.06
326.542	331.06
326.77	356.06
326.999	381.06
327.228	466.06
327.457	613.06
327.686	681.06
327.914	485.06
328.143	380.06
328.372	382.06
328.6	352.06
328.829	335.06
329.058	338.06
329.287	364.06
329.515	346.06
329.744	347.06
329.972	335.06
330.201	355.06
330.43	345.06
330.658	359.06
330.887	359.06
331.115	372.06
331.344	358.06
331.572	345.06
331.801	341.06
332.03	353.06
332.258	359.06
332.486	357.06
332.715	335.06
332.943	351.06
333.172	376.06
333.4	376.06
333.629	381.06
333.857	366.06
334.085	373.06
334.314	384.06
334.542	393.06
334.771	393.06
334.999	383.06
335.227	374.06
335.455	356.06
335.684	382.06
335.912	342.06
336.14	358.06
336.369	350.06
336.597	370.06
336.825	369.06
337.053	338.06
337.281	357.06
337.51	334.06
337.738	342.06
337.966	346.06
338.194	342.06
338.422	344.06
338.65	338.06
338.878	334.06
339.106	333.06
339.334	333.06
339.562	318.06
339.79	335.06
340.018	332.06
340.246	324.06
340.474	337.06
340.702	331.06
340.93	336.06
341.158	324.06
341.386	324.06
341.614	329.06
341.842	333.06
342.07	321.06
342.298	316.06
342.526	336.06
342.754	319.06
342.981	317.06
343.209	325.06
343.437	327.06
343.665	357.06
343.893	365.06
344.12	372.06
344.348	342.06
344.576	345.06
344.804	337.06
345.031	331.06
345.259	344.06
345.487	340.06
345.714	314.06
345.942	327.06
346.17	311.06
346.397	324.06
346.625	309.06
346.853	300.06
347.08	310.06
347.308	332.06
347.535	320.06
347.763	312.06
347.99	332.06
348.218	314.06
348.445	331.06
348.673	312.06
348.9	308.06
349.128	304.06
349.355	316.06
349.583	304.06
349.81	293.06
350.037	296.06
350.265	301.06
350.492	316.06
350.72	304.06
350.947	320.06
351.174	314.06
351.402	298.06
351.629	304.06
351.856	328.06
352.083	298.06
352.311	329.06
352.538	333.06
352.765	313.06
352.992	312.06
353.22	315.06
353.447	300.06
353.674	325.06
353.901	293.06
354.128	307.06
354.355	304.06
354.583	301.06
354.81	296.06
355.037	290.06
355.264	297.06
355.491	298.06
355.718	309.06
355.945	292.06
356.172	286.06
356.399	292.06
356.626	300.06
356.853	301.06
357.08	316.06
357.307	298.06
357.534	295.06
357.761	301.06
357.988	301.06
358.215	319.06
358.441	286.06
358.668	282.06
358.895	301.06
359.122	304.06
359.349	313.06
359.576	314.06
359.802	324.06
360.029	311.06
360.256	311.06
360.483	326.06
360.709	298.06
360.936	300.06
361.163	289.06
361.39	316.06
361.616	310.06
361.843	312.06
362.07	302.06
362.296	289.06
362.523	317.06
362.749	297.06
362.976	310.06
363.203	286.06
363.429	299.06
363.656	317.06
363.882	308.06
364.109	294.06
364.335	301.06
364.562	295.06
364.788	293.06
365.015	308.06
365.241	305.06
365.468	298.06
365.694	317.06
365.92	313.06
366.147	302.06
366.373	309.06
366.599	307.06
366.826	302.06
367.052	287.06
367.278	305.06
367.505	312.06
367.731	292.06
367.957	302.06
368.184	315.06
368.41	304.06
368.636	312.06
368.862	288.06
369.089	305.06
369.315	305.06
369.541	294.06
369.767	307.06
369.993	321.06
370.219	309.06
370.445	317.06
370.672	311.06
370.898	322.06
371.124	311.06
371.35	320.06
371.576	331.06
371.802	316.06
372.028	321.06
372.254	325.06
372.48	316.06
372.706	313.06
372.932	322.06
373.158	310.06
373.384	319.06
373.61	326.06
373.835	298.06
374.061	305.06
374.287	299.06
374.513	305.06
374.739	322.06
374.965	321.06
375.191	332.06
375.416	332.06
375.642	303.06
375.868	334.06
376.094	335.06
376.319	315.06
376.545	312.06
376.771	312.06
376.997	318.06
377.222	305.06
377.448	299.06
377.674	318.06
377.899	323.06
378.125	333.06
378.35	312.06
378.576	327.06
378.802	331.06
379.027	322.06
379.253	312.06
379.478	297.06
379.704	302.06
379.929	295.06
380.155	314.06
380.38	313.06
380.606	314.06
380.831	320.06
381.057	312.06
381.282	311.06
381.507	299.06
381.733	326.06
381.958	318.06
382.184	324.06
382.409	337.06
382.634	317.06
382.86	323.06
383.085	332.06
383.31	318.06
383.535	336.06
383.761	330.06
383.986	319.06
384.211	329.06
384.436	337.06
384.662	342.06
384.887	355.06
385.112	357.06
385.337	358.06
385.562	340.06
385.787	353.06
386.013	372.06
386.238	361.06
386.463	345.06
386.688	359.06
386.913	359.06
387.138	360.06
387.363	346.06
387.588	353.06
387.813	344.06
388.038	358.06
388.263	352.06
388.488	339.06
388.713	355.06
388.938	337.06
389.163	334.06
389.387	350.06
389.612	351.06
389.837	347.06
390.062	345.06
390.287	337.06
390.512	341.06
390.736	352.06
390.961	340.06
391.186	336.06
391.411	347.06
391.636	351.06
391.86	372.06
392.085	374.06
392.31	359.06
392.534	372.06
392.759	359.06
392.984	345.06
393.208	348.06
393.433	356.06
393.658	359.06
393.882	357.06
394.107	363.06
394.331	376.06
394.556	361.06
394.78	371.06
395.005	367.06
395.229	349.06
395.454	376.06
395.678	369.06
395.903	400.06
396.127	392.06
396.352	360.06
396.576	364.06
396.801	369.06
397.025	384.06
397.249	379.06
397.474	344.06
397.698	378.06
397.922	392.06
398.147	389.06
398.371	383.06
398.595	378.06
398.82	398.06
399.044	410.06
399.268	425.06
399.492	485.06
399.717	535.06
399.941	520.06
400.165	509.06
400.389	491.06
400.613	437.06
400.837	416.06
401.062	414.06
401.286	407.06
401.51	410.06
401.734	392.06
401.958	407.06
402.182	402.06
402.406	411.06
402.63	405.06
402.854	432.06
403.078	426.06
403.302	426.06
403.526	447.06
403.75	452.06
403.974	451.06
404.198	471.06
404.422	460.06
404.645	425.06
404.869	459.06
405.093	464.06
405.317	445.06
405.541	484.06
405.765	459.06
405.988	432.06
406.212	438.06
406.436	459.06
406.66	449.06
406.883	455.06
407.107	479.06
407.331	486.06
407.555	530.06
407.778	511.06
408.002	493.06
408.226	466.06
408.449	453.06
408.673	456.06
408.896	485.06
409.12	474.06
409.344	461.06
409.567	427.06
409.791	445.06
410.014	431.06
410.238	422.06
410.461	413.06
410.685	418.06
410.908	405.06
411.132	426.06
411.355	441.06
411.578	428.06
411.802	415.06
412.025	398.06
412.249	429.06
412.472	444.06
412.695	444.06
412.919	439.06
413.142	406.06
413.365	406.06
413.589	433.06
413.812	409.06
414.035	420.06
414.258	385.06
414.482	386.06
414.705	405.06
414.928	395.06
415.151	401.06
415.374	397.06
415.597	398.06
415.821	407.06
416.044	424.06
416.267	386.06
416.49	381.06
416.713	389.06
416.936	383.06
417.159	410.06
417.382	406.06
417.605	386.06
417.828	398.06
418.051	400.06
418.274	403.06
418.497	389.06
418.72	394.06
418.943	416.06
419.166	420.06
419.389	428.06
419.611	433.06
419.834	429.06
420.057	432.06
420.28	414.06
420.503	415.06
420.726	413.06
420.948	418.06
421.171	433.06
421.394	447.06
421.617	417.06
421.839	413.06
422.062	415.06
422.285	397.06
422.507	435.06
422.73	473.06
422.953	462.06
423.175	417.06
423.398	426.06
423.621	414.06
423.843	433.06
424.066	429.06
424.288	425.06
424.511	434.06
424.733	442.06
424.956	481.06
425.178	461.06
425.401	458.06
425.623	456.06
425.846	425.06
426.068	440.06
426.291	418.06
426.513	402.06
426.735	406.06
426.958	431.06
427.18	471.06
427.402	499.06
427.625	558.06
427.847	474.06
428.069	428.06
428.292	406.06
428.514	402.06
428.736	378.06
428.958	385.06
429.181	394.06
429.403	339.06
429.625	384.06
429.847	410.06
430.069	421.06
430.292	430.06
430.514	379.06
430.736	401.06
430.958	380.06
431.18	382.06
431.402	381.06
431.624	367.06
431.846	346.06
432.068	383.06
432.29	378.06
432.512	382.06
432.734	378.06
432.956	376.06
433.178	378.06
433.4	381.06
433.622	384.06
433.844	393.06
434.066	398.06
434.287	376.06
434.509	387.06
434.731	402.06
434.953	421.06
435.175	411.06
435.397	416.06
435.618	413.06
435.84	421.06
436.062	447.06
436.284	504.06
436.505	443.06
436.727	408.06
436.949	382.06
437.17	385.06
437.392	384.06
437.614	377.06
437.835	385.06
438.057	448.06
438.278	458.06
438.5	474.06
438.721	510.06
438.943	465.06
439.165	432.06
439.386	405.06
439.608	397.06
439.829	409.06
440.05	421.06
440.272	410.06
440.493	388.06
440.715	396.06
440.936	391.06
441.158	397.06
441.379	409.06
441.6	411.06
441.822	405.06
442.043	468.06
442.264	452.06
442.486	490.06
442.707	422.06
442.928	419.06
443.149	428.06
443.371	422.06
443.592	440.06
443.813	492.06
444.034	515.06
444.255	457.06
444.476	446.06
444.698	472.06
444.919	442.06
445.14	583.06
445.361	503.06
445.582	446.06
445.803	461.06
446.024	485.06
446.245	505.06
446.466	453.06
446.687	434.06
446.908	398.06
447.129	420.06
447.35	390.06
447.571	397.06
447.792	354.06
448.013	380.06
448.234	390.06
448.455	400.06
448.675	440.06
448.896	472.06
449.117	432.06
449.338	448.06
449.559	487.06
449.779	508.06
450	424.06
450.221	362.06
450.442	372.06
450.662	364.06
450.883	351.06
451.104	366.06
451.324	341.06
451.545	341.06
451.766	335.06
451.986	344.06
452.207	342.06
452.428	350.06
452.648	337.06
452.869	342.06
453.089	334.06
453.31	355.06
453.53	360.06
453.751	324.06
453.971	349.06
454.192	332.06
454.412	318.06
454.633	335.06
454.853	330.06
455.073	336.06
455.294	352.06
455.514	362.06
455.734	364.06
455.955	353.06
456.175	333.06
456.395	331.06
456.616	337.06
456.836	330.06
457.056	345.06
457.276	336.06
457.497	350.06
457.717	332.06
457.937	335.06
458.157	355.06
458.377	320.06
458.598	348.06
458.818	374.06
459.038	409.06
459.258	406.06
459.478	380.06
459.698	379.06
459.918	371.06
460.138	389.06
460.358	411.06
460.578	406.06
460.798	397.06
461.018	424.06
461.238	406.06
461.458	422.06
461.678	388.06
461.898	398.06
462.118	409.06
462.338	428.06
462.558	420.06
462.777	457.06
462.997	448.06
463.217	475.06
463.437	469.06
463.657	456.06
463.876	447.06
464.096	446.06
464.316	442.06
464.536	447.06
464.755	450.06
464.975	438.06
465.195	439.06
465.414	464.06
465.634	410.06
465.854	390.06
466.073	380.06
466.293	370.06
466.512	358.06
466.732	372.06
466.951	341.06
467.171	372.06
467.391	351.06
467.61	396.06
467.829	357.06
468.049	366.06
468.268	366.06
468.488	359.06
468.707	362.06
468.927	353.06
469.146	360.06
469.365	351.06
469.585	369.06
469.804	366.06
470.023	379.06
470.243	373.06
470.462	382.06
470.681	385.06
470.901	394.06
471.12	388.06
471.339	360.06
471.558	362.06
471.777	384.06
471.997	358.06
472.216	351.06
472.435	377.06
472.654	381.06
472.873	362.06
473.092	377.06
473.311	352.06
473.53	362.06
473.749	347.06
473.968	367.06
474.187	426.06
474.406	424.06
474.625	382.06
474.844	370.06
475.063	360.06
475.282	367.06
475.501	360.06
475.72	374.06
475.939	353.06
476.158	366.06
476.377	360.06
476.596	379.06
476.814	383.06
477.033	389.06
477.252	368.06
477.471	376.06
477.69	374.06
477.908	426.06
478.127	417.06
478.346	405.06
478.564	416.06
478.783	417.06
479.002	428.06
479.22	439.06
479.439	428.06
479.658	437.06
479.876	439.06
480.095	445.06
480.313	455.06
480.532	445.06
480.751	454.06
480.969	447.06
481.188	452.06
481.406	449.06
481.624	459.06
481.843	422.06
482.061	422.06
482.28	415.06
482.498	393.06
482.717	405.06
482.935	400.06
483.153	422.06
483.372	392.06
483.59	408.06
483.808	392.06
484.027	423.06
484.245	413.06
484.463	413.06
484.681	408.06
484.9	437.06
485.118	442.06
485.336	427.06
485.554	427.06
485.772	430.06
485.99	437.06
486.209	433.06
486.427	426.06
486.645	434.06
486.863	453.06
487.081	424.06
487.299	452.06
487.517	432.06
487.735	414.06
487.953	431.06
488.171	462.06
488.389	465.06
488.607	445.06
488.825	431.06
489.043	438.06
489.261	458.06
489.479	447.06
489.696	461.06
489.914	443.06
490.132	433.06
490.35	448.06
490.568	440.06
490.786	465.06
491.003	463.06
491.221	482.06
491.439	472.06
491.657	482.06
491.874	476.06
492.092	492.06
492.31	502.06
492.527	494.06
492.745	506.06
492.963	502.06
493.18	497.06
493.398	502.06
493.615	487.06
493.833	498.06
494.05	504.06
494.268	490.06
494.485	496.06
494.703	497.06
494.92	501.06
495.138	486.06
495.355	511.06
495.573	502.06
495.79	517.06
496.008	506.06
496.225	512.06
496.442	485.06
496.66	495.06
496.877	513.06
497.094	515.06
497.312	508.06
497.529	525.06
497.746	542.06
497.963	556.06
498.181	571.06
498.398	567.06
498.615	591.06
498.832	632.06
499.049	651.06
499.267	677.06
499.484	712.06
499.701	749.06
499.918	786.06
500.135	845.06
500.352	920.06
500.569	960.06
500.786	961.06
501.003	900.06
501.22	875.06
501.437	799.06
501.654	750.06
501.871	728.06
502.088	673.06
