Data from 1969.PennyLincolnUp.Lamp.En5.5.200Scan.071719.P1._HRD10591_14-54-25-971.txt Node
Date: Thu Jul 18 14:54:25 EDT 2019
User: cochatt
Spectrometer: HR+D1059
Trigger mode: 1
Integration Time (sec): 1.000000E-1
Scans to average: 1
Electric dark correction enabled: true
Nonlinearity correction enabled: false
Boxcar width: 0
XAxis mode: Wavelengths
Number of Pixels in Spectrum: 2048
>>>>>Begin Spectral Data<<<<<
223.165	-10.44
223.4	-10.44
223.635	-10.44
223.869	-17.44
224.104	-12.44
224.338	-15.44
224.573	-7.44
224.808	-13.44
225.042	1.56
225.277	-8.44
225.511	-7.44
225.746	13.56
225.98	-13.44
226.215	2.56
226.449	16.56
226.683	21.56
226.918	22.56
227.152	27.56
227.387	32.56
227.621	42.56
227.856	41.56
228.09	41.56
228.324	44.56
228.559	46.56
228.793	58.56
229.027	78.56
229.262	90.56
229.496	94.56
229.73	95.56
229.964	115.56
230.199	102.56
230.433	104.56
230.667	95.56
230.901	104.56
231.136	84.56
231.37	86.56
231.604	97.56
231.838	94.56
232.072	87.56
232.306	90.56
232.541	110.56
232.775	100.56
233.009	91.56
233.243	116.56
233.477	106.56
233.711	104.56
233.945	99.56
234.179	104.56
234.413	103.56
234.647	109.56
234.881	108.56
235.115	104.56
235.349	111.56
235.583	117.56
235.817	112.56
236.051	106.56
236.285	115.56
236.519	114.56
236.753	99.56
236.987	133.56
237.221	144.56
237.455	150.56
237.689	142.56
237.922	103.56
238.156	124.56
238.39	116.56
238.624	121.56
238.858	102.56
239.091	109.56
239.325	119.56
239.559	111.56
239.793	111.56
240.027	127.56
240.26	106.56
240.494	116.56
240.728	115.56
240.961	108.56
241.195	138.56
241.429	131.56
241.662	117.56
241.896	118.56
242.13	115.56
242.363	118.56
242.597	102.56
242.83	118.56
243.064	125.56
243.298	125.56
243.531	123.56
243.765	123.56
243.998	134.56
244.232	116.56
244.465	122.56
244.699	125.56
244.932	126.56
245.166	132.56
245.399	121.56
245.633	123.56
245.866	121.56
246.099	125.56
246.333	116.56
246.566	132.56
246.8	117.56
247.033	123.56
247.266	138.56
247.5	148.56
247.733	147.56
247.966	150.56
248.2	138.56
248.433	144.56
248.666	153.56
248.899	143.56
249.133	166.56
249.366	150.56
249.599	166.56
249.832	142.56
250.066	151.56
250.299	148.56
250.532	175.56
250.765	171.56
250.998	187.56
251.231	179.56
251.465	172.56
251.698	162.56
251.931	162.56
252.164	182.56
252.397	155.56
252.63	157.56
252.863	143.56
253.096	168.56
253.329	162.56
253.562	167.56
253.795	174.56
254.028	157.56
254.261	171.56
254.494	178.56
254.727	195.56
254.96	212.56
255.193	202.56
255.426	197.56
255.659	182.56
255.892	165.56
256.124	174.56
256.357	194.56
256.59	166.56
256.823	182.56
257.056	187.56
257.289	165.56
257.521	166.56
257.754	187.56
257.987	166.56
258.22	175.56
258.452	180.56
258.685	172.56
258.918	161.56
259.151	176.56
259.383	164.56
259.616	169.56
259.849	177.56
260.081	188.56
260.314	173.56
260.547	192.56
260.779	180.56
261.012	186.56
261.244	191.56
261.477	171.56
261.71	175.56
261.942	191.56
262.175	178.56
262.407	175.56
262.64	169.56
262.872	171.56
263.105	174.56
263.337	172.56
263.57	172.56
263.802	182.56
264.035	185.56
264.267	175.56
264.499	183.56
264.732	195.56
264.964	160.56
265.197	174.56
265.429	183.56
265.661	178.56
265.894	182.56
266.126	199.56
266.358	173.56
266.591	182.56
266.823	187.56
267.055	184.56
267.287	205.56
267.52	174.56
267.752	195.56
267.984	204.56
268.216	161.56
268.448	168.56
268.681	193.56
268.913	191.56
269.145	214.56
269.377	212.56
269.609	202.56
269.841	206.56
270.073	211.56
270.306	223.56
270.538	239.56
270.77	241.56
271.002	240.56
271.234	222.56
271.466	239.56
271.698	234.56
271.93	249.56
272.162	253.56
272.394	237.56
272.626	219.56
272.858	209.56
273.09	220.56
273.322	222.56
273.553	218.56
273.785	229.56
274.017	214.56
274.249	235.56
274.481	211.56
274.713	206.56
274.945	213.56
275.176	233.56
275.408	221.56
275.64	220.56
275.872	208.56
276.104	227.56
276.335	208.56
276.567	212.56
276.799	216.56
277.031	242.56
277.262	259.56
277.494	247.56
277.726	230.56
277.957	221.56
278.189	223.56
278.421	214.56
278.652	217.56
278.884	213.56
279.115	224.56
279.347	230.56
279.579	219.56
279.81	228.56
280.042	218.56
280.273	219.56
280.505	222.56
280.736	232.56
280.968	215.56
281.199	225.56
281.431	241.56
281.662	229.56
281.894	220.56
282.125	231.56
282.356	260.56
282.588	238.56
282.819	237.56
283.051	239.56
283.282	237.56
283.513	225.56
283.745	228.56
283.976	233.56
284.207	223.56
284.439	242.56
284.67	232.56
284.901	239.56
285.132	234.56
285.364	230.56
285.595	217.56
285.826	225.56
286.057	243.56
286.288	223.56
286.52	230.56
286.751	230.56
286.982	244.56
287.213	230.56
287.444	242.56
287.675	233.56
287.906	242.56
288.138	244.56
288.369	261.56
288.6	250.56
288.831	265.56
289.062	266.56
289.293	250.56
289.524	227.56
289.755	258.56
289.986	242.56
290.217	246.56
290.448	254.56
290.679	253.56
290.91	257.56
291.141	259.56
291.371	258.56
291.602	248.56
291.833	268.56
292.064	257.56
292.295	265.56
292.526	262.56
292.757	257.56
292.987	264.56
293.218	265.56
293.449	243.56
293.68	244.56
293.91	240.56
294.141	261.56
294.372	264.56
294.603	251.56
294.833	252.56
295.064	239.56
295.295	246.56
295.525	258.56
295.756	262.56
295.987	252.56
296.217	276.56
296.448	262.56
296.679	280.56
296.909	260.56
297.14	258.56
297.37	261.56
297.601	253.56
297.831	272.56
298.062	261.56
298.292	263.56
298.523	262.56
298.753	252.56
298.984	264.56
299.214	268.56
299.445	257.56
299.675	268.56
299.905	274.56
300.136	259.56
300.366	285.56
300.597	278.56
300.827	293.56
301.057	286.56
301.288	290.56
301.518	264.56
301.748	277.56
301.979	294.56
302.209	290.56
302.439	298.56
302.669	273.56
302.9	259.56
303.13	284.56
303.36	273.56
303.59	294.56
303.82	287.56
304.051	285.56
304.281	280.56
304.511	262.56
304.741	280.56
304.971	276.56
305.201	270.56
305.431	260.56
305.661	274.56
305.891	278.56
306.121	281.56
306.352	285.56
306.582	298.56
306.812	278.56
307.042	267.56
307.272	286.56
307.502	278.56
307.731	274.56
307.961	283.56
308.191	296.56
308.421	277.56
308.651	270.56
308.881	283.56
309.111	302.56
309.341	275.56
309.571	280.56
309.8	304.56
310.03	303.56
310.26	292.56
310.49	298.56
310.72	290.56
310.949	298.56
311.179	302.56
311.409	300.56
311.639	292.56
311.868	306.56
312.098	307.56
312.328	316.56
312.557	295.56
312.787	295.56
313.017	304.56
313.246	298.56
313.476	286.56
313.706	310.56
313.935	326.56
314.165	300.56
314.394	320.56
314.624	298.56
314.853	315.56
315.083	315.56
315.312	326.56
315.542	284.56
315.771	301.56
316.001	311.56
316.23	299.56
316.46	291.56
316.689	316.56
316.919	308.56
317.148	306.56
317.377	325.56
317.607	310.56
317.836	311.56
318.065	310.56
318.295	319.56
318.524	310.56
318.753	317.56
318.983	311.56
319.212	314.56
319.441	302.56
319.67	308.56
319.9	310.56
320.129	314.56
320.358	294.56
320.587	310.56
320.816	300.56
321.046	304.56
321.275	325.56
321.504	324.56
321.733	319.56
321.962	324.56
322.191	327.56
322.42	311.56
322.649	339.56
322.878	327.56
323.108	346.56
323.337	338.56
323.566	349.56
323.795	350.56
324.024	374.56
324.253	410.56
324.482	543.56
324.71	771.56
324.939	1007.56
325.168	832.56
325.397	508.56
325.626	392.56
325.855	364.56
326.084	329.56
326.313	347.56
326.542	358.56
326.77	382.56
326.999	412.56
327.228	532.56
327.457	731.56
327.686	771.56
327.914	553.56
328.143	430.56
328.372	396.56
328.6	403.56
328.829	368.56
329.058	385.56
329.287	392.56
329.515	390.56
329.744	357.56
329.972	380.56
330.201	390.56
330.43	384.56
330.658	397.56
330.887	405.56
331.115	392.56
331.344	374.56
331.572	390.56
331.801	367.56
332.03	372.56
332.258	372.56
332.486	358.56
332.715	366.56
332.943	367.56
333.172	399.56
333.4	409.56
333.629	399.56
333.857	413.56
334.085	424.56
334.314	425.56
334.542	436.56
334.771	444.56
334.999	399.56
335.227	379.56
335.455	376.56
335.684	383.56
335.912	364.56
336.14	380.56
336.369	353.56
336.597	380.56
336.825	374.56
337.053	344.56
337.281	368.56
337.51	354.56
337.738	351.56
337.966	359.56
338.194	345.56
338.422	346.56
338.65	336.56
338.878	335.56
339.106	346.56
339.334	338.56
339.562	345.56
339.79	345.56
340.018	347.56
340.246	339.56
340.474	333.56
340.702	343.56
340.93	327.56
341.158	339.56
341.386	352.56
341.614	331.56
341.842	343.56
342.07	347.56
342.298	358.56
342.526	344.56
342.754	344.56
342.981	336.56
343.209	341.56
343.437	348.56
343.665	352.56
343.893	382.56
344.12	382.56
344.348	366.56
344.576	364.56
344.804	365.56
345.031	348.56
345.259	338.56
345.487	344.56
345.714	338.56
345.942	336.56
346.17	335.56
346.397	327.56
346.625	310.56
346.853	318.56
347.08	320.56
347.308	310.56
347.535	320.56
347.763	350.56
347.99	317.56
348.218	332.56
348.445	336.56
348.673	331.56
348.9	320.56
349.128	317.56
349.355	314.56
349.583	317.56
349.81	304.56
350.037	327.56
350.265	311.56
350.492	319.56
350.72	311.56
350.947	334.56
351.174	335.56
351.402	325.56
351.629	328.56
351.856	329.56
352.083	333.56
352.311	323.56
352.538	324.56
352.765	328.56
352.992	324.56
353.22	330.56
353.447	333.56
353.674	319.56
353.901	315.56
354.128	318.56
354.355	327.56
354.583	300.56
354.81	323.56
355.037	331.56
355.264	312.56
355.491	318.56
355.718	307.56
355.945	318.56
356.172	333.56
356.399	308.56
356.626	316.56
356.853	311.56
357.08	300.56
357.307	308.56
357.534	310.56
357.761	301.56
357.988	291.56
358.215	309.56
358.441	301.56
358.668	312.56
358.895	304.56
359.122	320.56
359.349	301.56
359.576	318.56
359.802	338.56
360.029	354.56
360.256	342.56
360.483	327.56
360.709	316.56
360.936	331.56
361.163	333.56
361.39	322.56
361.616	319.56
361.843	306.56
362.07	327.56
362.296	311.56
362.523	318.56
362.749	303.56
362.976	315.56
363.203	334.56
363.429	320.56
363.656	327.56
363.882	319.56
364.109	307.56
364.335	324.56
364.562	318.56
364.788	314.56
365.015	316.56
365.241	319.56
365.468	314.56
365.694	318.56
365.92	313.56
366.147	329.56
366.373	315.56
366.599	306.56
366.826	318.56
367.052	319.56
367.278	326.56
367.505	315.56
367.731	322.56
367.957	306.56
368.184	319.56
368.41	300.56
368.636	309.56
368.862	312.56
369.089	327.56
369.315	342.56
369.541	313.56
369.767	338.56
369.993	316.56
370.219	318.56
370.445	315.56
370.672	324.56
370.898	324.56
371.124	325.56
371.35	311.56
371.576	317.56
371.802	317.56
372.028	331.56
372.254	323.56
372.48	326.56
372.706	332.56
372.932	332.56
373.158	326.56
373.384	343.56
373.61	320.56
373.835	320.56
374.061	319.56
374.287	324.56
374.513	328.56
374.739	326.56
374.965	324.56
375.191	340.56
375.416	352.56
375.642	334.56
375.868	320.56
376.094	326.56
376.319	317.56
376.545	314.56
376.771	316.56
376.997	326.56
377.222	317.56
377.448	330.56
377.674	327.56
377.899	310.56
378.125	327.56
378.35	337.56
378.576	311.56
378.802	325.56
379.027	299.56
379.253	313.56
379.478	316.56
379.704	323.56
379.929	318.56
380.155	334.56
380.38	321.56
380.606	317.56
380.831	324.56
381.057	318.56
381.282	333.56
381.507	319.56
381.733	328.56
381.958	312.56
382.184	321.56
382.409	304.56
382.634	323.56
382.86	339.56
383.085	332.56
383.31	342.56
383.535	357.56
383.761	343.56
383.986	346.56
384.211	364.56
384.436	374.56
384.662	351.56
384.887	356.56
385.112	364.56
385.337	360.56
385.562	350.56
385.787	350.56
386.013	377.56
386.238	361.56
386.463	379.56
386.688	379.56
386.913	354.56
387.138	360.56
387.363	356.56
387.588	358.56
387.813	344.56
388.038	359.56
388.263	365.56
388.488	358.56
388.713	368.56
388.938	379.56
389.163	368.56
389.387	355.56
389.612	349.56
389.837	361.56
390.062	359.56
390.287	364.56
390.512	357.56
390.736	342.56
390.961	347.56
391.186	341.56
391.411	357.56
391.636	374.56
391.86	397.56
392.085	359.56
392.31	377.56
392.534	378.56
392.759	375.56
392.984	376.56
393.208	361.56
393.433	347.56
393.658	354.56
393.882	368.56
394.107	361.56
394.331	344.56
394.556	364.56
394.78	381.56
395.005	371.56
395.229	378.56
395.454	404.56
395.678	380.56
395.903	374.56
396.127	374.56
396.352	385.56
396.576	368.56
396.801	386.56
397.025	382.56
397.249	374.56
397.474	390.56
397.698	377.56
397.922	377.56
398.147	398.56
398.371	408.56
398.595	398.56
398.82	415.56
399.044	442.56
399.268	464.56
399.492	503.56
399.717	562.56
399.941	532.56
400.165	527.56
400.389	497.56
400.613	464.56
400.837	456.56
401.062	426.56
401.286	413.56
401.51	417.56
401.734	407.56
401.958	419.56
402.182	416.56
402.406	418.56
402.63	444.56
402.854	439.56
403.078	436.56
403.302	428.56
403.526	440.56
403.75	446.56
403.974	436.56
404.198	430.56
404.422	454.56
404.645	453.56
404.869	464.56
405.093	474.56
405.317	496.56
405.541	501.56
405.765	471.56
405.988	463.56
406.212	473.56
406.436	458.56
406.66	473.56
406.883	451.56
407.107	505.56
407.331	532.56
407.555	537.56
407.778	558.56
408.002	516.56
408.226	476.56
408.449	490.56
408.673	472.56
408.896	475.56
409.12	502.56
409.344	495.56
409.567	442.56
409.791	449.56
410.014	448.56
410.238	432.56
410.461	421.56
410.685	435.56
410.908	448.56
411.132	457.56
411.355	475.56
411.578	450.56
411.802	435.56
412.025	428.56
412.249	456.56
412.472	456.56
412.695	467.56
412.919	442.56
413.142	435.56
413.365	447.56
413.589	408.56
413.812	417.56
414.035	422.56
414.258	424.56
414.482	434.56
414.705	442.56
414.928	445.56
415.151	425.56
415.374	411.56
415.597	413.56
415.821	426.56
416.044	413.56
416.267	401.56
416.49	423.56
416.713	390.56
416.936	390.56
417.159	403.56
417.382	410.56
417.605	415.56
417.828	423.56
418.051	420.56
418.274	410.56
418.497	404.56
418.72	412.56
418.943	405.56
419.166	420.56
419.389	443.56
419.611	428.56
419.834	429.56
420.057	444.56
420.28	431.56
420.503	433.56
420.726	430.56
420.948	440.56
421.171	445.56
421.394	452.56
421.617	424.56
421.839	412.56
422.062	406.56
422.285	409.56
422.507	452.56
422.73	467.56
422.953	471.56
423.175	459.56
423.398	437.56
423.621	445.56
423.843	474.56
424.066	463.56
424.288	446.56
424.511	456.56
424.733	482.56
424.956	522.56
425.178	502.56
425.401	480.56
425.623	490.56
425.846	455.56
426.068	446.56
426.291	436.56
426.513	404.56
426.735	424.56
426.958	454.56
427.18	472.56
427.402	512.56
427.625	550.56
427.847	500.56
428.069	450.56
428.292	437.56
428.514	402.56
428.736	386.56
428.958	407.56
429.181	383.56
429.403	395.56
429.625	371.56
429.847	418.56
430.069	444.56
430.292	431.56
430.514	415.56
430.736	395.56
430.958	394.56
431.18	392.56
431.402	393.56
431.624	377.56
431.846	381.56
432.068	377.56
432.29	373.56
432.512	385.56
432.734	394.56
432.956	391.56
433.178	399.56
433.4	398.56
433.622	399.56
433.844	384.56
434.066	382.56
434.287	403.56
434.509	387.56
434.731	403.56
434.953	423.56
435.175	429.56
435.397	439.56
435.618	421.56
435.84	416.56
436.062	478.56
436.284	502.56
436.505	451.56
436.727	415.56
436.949	426.56
437.17	401.56
437.392	404.56
437.614	370.56
437.835	398.56
438.057	470.56
438.278	469.56
438.5	502.56
438.721	527.56
438.943	514.56
439.165	443.56
439.386	414.56
439.608	438.56
439.829	416.56
440.05	421.56
440.272	441.56
440.493	448.56
440.715	404.56
440.936	406.56
441.158	403.56
441.379	416.56
441.6	423.56
441.822	446.56
442.043	448.56
442.264	491.56
442.486	496.56
442.707	447.56
442.928	439.56
443.149	419.56
443.371	456.56
443.592	474.56
443.813	513.56
444.034	550.56
444.255	495.56
444.476	484.56
444.698	486.56
444.919	468.56
445.14	542.56
445.361	490.56
445.582	459.56
445.803	489.56
446.024	518.56
446.245	549.56
446.466	481.56
446.687	415.56
446.908	408.56
447.129	391.56
447.35	410.56
447.571	398.56
447.792	394.56
448.013	391.56
448.234	399.56
448.455	413.56
448.675	483.56
448.896	526.56
449.117	468.56
449.338	454.56
449.559	495.56
449.779	546.56
450	446.56
450.221	370.56
450.442	392.56
450.662	388.56
450.883	360.56
451.104	406.56
451.324	390.56
451.545	378.56
451.766	368.56
451.986	354.56
452.207	355.56
452.428	340.56
452.648	352.56
452.869	362.56
453.089	372.56
453.31	370.56
453.53	341.56
453.751	367.56
453.971	341.56
454.192	359.56
454.412	354.56
454.633	364.56
454.853	344.56
455.073	343.56
455.294	349.56
455.514	398.56
455.734	382.56
455.955	344.56
456.175	348.56
456.395	330.56
456.616	338.56
456.836	343.56
457.056	352.56
457.276	347.56
457.497	348.56
457.717	337.56
457.937	342.56
458.157	352.56
458.377	356.56
458.598	352.56
458.818	394.56
459.038	429.56
459.258	436.56
459.478	412.56
459.698	405.56
459.918	386.56
460.138	380.56
460.358	412.56
460.578	399.56
460.798	422.56
461.018	405.56
461.238	415.56
461.458	436.56
461.678	413.56
461.898	398.56
462.118	436.56
462.338	428.56
462.558	451.56
462.777	456.56
462.997	480.56
463.217	482.56
463.437	498.56
463.657	455.56
463.876	452.56
464.096	469.56
464.316	448.56
464.536	465.56
464.755	444.56
464.975	464.56
465.195	444.56
465.414	444.56
465.634	419.56
465.854	404.56
466.073	381.56
466.293	396.56
466.512	377.56
466.732	367.56
466.951	372.56
467.171	359.56
467.391	388.56
467.61	398.56
467.829	377.56
468.049	365.56
468.268	359.56
468.488	364.56
468.707	358.56
468.927	360.56
469.146	374.56
469.365	384.56
469.585	360.56
469.804	372.56
470.023	362.56
470.243	388.56
470.462	394.56
470.681	394.56
470.901	394.56
471.12	379.56
471.339	363.56
471.558	362.56
471.777	389.56
471.997	386.56
472.216	363.56
472.435	382.56
472.654	380.56
472.873	355.56
473.092	361.56
473.311	343.56
473.53	355.56
473.749	382.56
473.968	378.56
474.187	440.56
474.406	425.56
474.625	388.56
474.844	395.56
475.063	364.56
475.282	370.56
475.501	380.56
475.72	377.56
475.939	347.56
476.158	354.56
476.377	364.56
476.596	390.56
476.814	390.56
477.033	399.56
477.252	392.56
477.471	401.56
477.69	400.56
477.908	415.56
478.127	414.56
478.346	409.56
478.564	422.56
478.783	422.56
479.002	426.56
479.22	443.56
479.439	435.56
479.658	454.56
479.876	450.56
480.095	458.56
480.313	464.56
480.532	450.56
480.751	487.56
480.969	467.56
481.188	476.56
481.406	491.56
481.624	452.56
481.843	438.56
482.061	422.56
482.28	423.56
482.498	416.56
482.717	413.56
482.935	423.56
483.153	415.56
483.372	413.56
483.59	424.56
483.808	422.56
484.027	435.56
484.245	410.56
484.463	440.56
484.681	439.56
484.9	456.56
485.118	436.56
485.336	412.56
485.554	441.56
485.772	438.56
485.99	426.56
486.209	438.56
486.427	438.56
486.645	453.56
486.863	443.56
487.081	439.56
487.299	443.56
487.517	439.56
487.735	460.56
487.953	454.56
488.171	453.56
488.389	461.56
488.607	448.56
488.825	446.56
489.043	465.56
489.261	446.56
489.479	455.56
489.696	460.56
489.914	462.56
490.132	491.56
490.35	456.56
490.568	459.56
490.786	479.56
491.003	493.56
491.221	492.56
491.439	502.56
491.657	489.56
491.874	508.56
492.092	514.56
492.31	533.56
492.527	519.56
492.745	513.56
492.963	505.56
493.18	510.56
493.398	519.56
493.615	509.56
493.833	498.56
494.05	536.56
494.268	532.56
494.485	554.56
494.703	526.56
494.92	518.56
495.138	534.56
495.355	547.56
495.573	516.56
495.79	527.56
496.008	522.56
496.225	530.56
496.442	555.56
496.66	532.56
496.877	526.56
497.094	524.56
497.312	536.56
497.529	566.56
497.746	581.56
497.963	579.56
498.181	585.56
498.398	606.56
498.615	603.56
498.832	623.56
499.049	646.56
499.267	688.56
499.484	727.56
499.701	759.56
499.918	798.56
500.135	859.56
500.352	927.56
500.569	943.56
500.786	952.56
501.003	923.56
501.22	857.56
501.437	811.56
501.654	758.56
501.871	726.56
502.088	692.56
