Data from 1969.PennyLincolnUp.Lamp.En5.5.200Scan.071719.P1._HRD10591_14-54-20-973.txt Node
Date: Thu Jul 18 14:54:20 EDT 2019
User: cochatt
Spectrometer: HR+D1059
Trigger mode: 1
Integration Time (sec): 1.000000E-1
Scans to average: 1
Electric dark correction enabled: true
Nonlinearity correction enabled: false
Boxcar width: 0
XAxis mode: Wavelengths
Number of Pixels in Spectrum: 2048
>>>>>Begin Spectral Data<<<<<
223.165	-3.75
223.4	-3.75
223.635	-3.75
223.869	-14.75
224.104	-6.75
224.338	-19.75
224.573	-17.75
224.808	-23.75
225.042	-11.75
225.277	-0.75
225.511	-1.75
225.746	6.25
225.98	15.25
226.215	4.25
226.449	14.25
226.683	8.25
226.918	23.25
227.152	29.25
227.387	26.25
227.621	24.25
227.856	37.25
228.09	57.25
228.324	57.25
228.559	58.25
228.793	62.25
229.027	78.25
229.262	83.25
229.496	100.25
229.73	104.25
229.964	105.25
230.199	105.25
230.433	89.25
230.667	95.25
230.901	94.25
231.136	99.25
231.37	102.25
231.604	106.25
231.838	107.25
232.072	104.25
232.306	93.25
232.541	107.25
232.775	106.25
233.009	115.25
233.243	120.25
233.477	117.25
233.711	106.25
233.945	115.25
234.179	117.25
234.413	104.25
234.647	112.25
234.881	114.25
235.115	103.25
235.349	97.25
235.583	100.25
235.817	105.25
236.051	118.25
236.285	111.25
236.519	93.25
236.753	119.25
236.987	115.25
237.221	131.25
237.455	144.25
237.689	139.25
237.922	106.25
238.156	106.25
238.39	116.25
238.624	113.25
238.858	113.25
239.091	126.25
239.325	113.25
239.559	121.25
239.793	115.25
240.027	99.25
240.26	107.25
240.494	118.25
240.728	127.25
240.961	128.25
241.195	129.25
241.429	108.25
241.662	110.25
241.896	107.25
242.13	121.25
242.363	112.25
242.597	117.25
242.83	117.25
243.064	132.25
243.298	126.25
243.531	124.25
243.765	107.25
243.998	123.25
244.232	117.25
244.465	135.25
244.699	124.25
244.932	133.25
245.166	125.25
245.399	133.25
245.633	131.25
245.866	131.25
246.099	126.25
246.333	129.25
246.566	129.25
246.8	125.25
247.033	142.25
247.266	143.25
247.5	138.25
247.733	155.25
247.966	125.25
248.2	153.25
248.433	136.25
248.666	148.25
248.899	142.25
249.133	147.25
249.366	158.25
249.599	155.25
249.832	149.25
250.066	124.25
250.299	145.25
250.532	153.25
250.765	179.25
250.998	153.25
251.231	170.25
251.465	151.25
251.698	152.25
251.931	154.25
252.164	159.25
252.397	161.25
252.63	158.25
252.863	159.25
253.096	166.25
253.329	167.25
253.562	167.25
253.795	164.25
254.028	181.25
254.261	156.25
254.494	186.25
254.727	201.25
254.96	205.25
255.193	200.25
255.426	163.25
255.659	169.25
255.892	174.25
256.124	183.25
256.357	165.25
256.59	190.25
256.823	179.25
257.056	165.25
257.289	165.25
257.521	173.25
257.754	169.25
257.987	171.25
258.22	177.25
258.452	184.25
258.685	169.25
258.918	163.25
259.151	167.25
259.383	169.25
259.616	165.25
259.849	190.25
260.081	182.25
260.314	188.25
260.547	199.25
260.779	193.25
261.012	185.25
261.244	187.25
261.477	198.25
261.71	185.25
261.942	161.25
262.175	179.25
262.407	183.25
262.64	191.25
262.872	174.25
263.105	173.25
263.337	169.25
263.57	186.25
263.802	170.25
264.035	190.25
264.267	185.25
264.499	186.25
264.732	174.25
264.964	176.25
265.197	173.25
265.429	180.25
265.661	163.25
265.894	180.25
266.126	201.25
266.358	182.25
266.591	170.25
266.823	183.25
267.055	195.25
267.287	197.25
267.52	196.25
267.752	161.25
267.984	196.25
268.216	201.25
268.448	204.25
268.681	192.25
268.913	201.25
269.145	202.25
269.377	214.25
269.609	216.25
269.841	213.25
270.073	226.25
270.306	216.25
270.538	237.25
270.77	230.25
271.002	234.25
271.234	224.25
271.466	231.25
271.698	229.25
271.93	233.25
272.162	256.25
272.394	223.25
272.626	220.25
272.858	232.25
273.09	215.25
273.322	217.25
273.553	217.25
273.785	201.25
274.017	219.25
274.249	220.25
274.481	208.25
274.713	241.25
274.945	212.25
275.176	213.25
275.408	232.25
275.64	207.25
275.872	196.25
276.104	220.25
276.335	220.25
276.567	215.25
276.799	217.25
277.031	238.25
277.262	218.25
277.494	229.25
277.726	237.25
277.957	229.25
278.189	222.25
278.421	212.25
278.652	223.25
278.884	212.25
279.115	215.25
279.347	216.25
279.579	216.25
279.81	216.25
280.042	230.25
280.273	226.25
280.505	229.25
280.736	232.25
280.968	225.25
281.199	223.25
281.431	222.25
281.662	229.25
281.894	226.25
282.125	218.25
282.356	253.25
282.588	235.25
282.819	242.25
283.051	235.25
283.282	229.25
283.513	237.25
283.745	242.25
283.976	229.25
284.207	245.25
284.439	254.25
284.67	229.25
284.901	251.25
285.132	249.25
285.364	232.25
285.595	221.25
285.826	233.25
286.057	253.25
286.288	227.25
286.52	231.25
286.751	232.25
286.982	248.25
287.213	232.25
287.444	248.25
287.675	231.25
287.906	261.25
288.138	245.25
288.369	243.25
288.6	253.25
288.831	245.25
289.062	252.25
289.293	266.25
289.524	241.25
289.755	248.25
289.986	246.25
290.217	253.25
290.448	237.25
290.679	261.25
290.91	242.25
291.141	244.25
291.371	255.25
291.602	241.25
291.833	263.25
292.064	246.25
292.295	230.25
292.526	263.25
292.757	264.25
292.987	228.25
293.218	245.25
293.449	245.25
293.68	252.25
293.91	251.25
294.141	265.25
294.372	233.25
294.603	242.25
294.833	250.25
295.064	240.25
295.295	242.25
295.525	245.25
295.756	253.25
295.987	247.25
296.217	270.25
296.448	248.25
296.679	253.25
296.909	253.25
297.14	276.25
297.37	260.25
297.601	234.25
297.831	266.25
298.062	266.25
298.292	259.25
298.523	269.25
298.753	266.25
298.984	279.25
299.214	250.25
299.445	259.25
299.675	263.25
299.905	275.25
300.136	271.25
300.366	281.25
300.597	262.25
300.827	271.25
301.057	275.25
301.288	280.25
301.518	286.25
301.748	268.25
301.979	271.25
302.209	274.25
302.439	264.25
302.669	287.25
302.9	286.25
303.13	287.25
303.36	294.25
303.59	275.25
303.82	262.25
304.051	282.25
304.281	283.25
304.511	290.25
304.741	278.25
304.971	267.25
305.201	268.25
305.431	287.25
305.661	275.25
305.891	271.25
306.121	267.25
306.352	271.25
306.582	281.25
306.812	291.25
307.042	297.25
307.272	281.25
307.502	278.25
307.731	262.25
307.961	299.25
308.191	270.25
308.421	263.25
308.651	293.25
308.881	270.25
309.111	282.25
309.341	297.25
309.571	282.25
309.8	297.25
310.03	275.25
310.26	287.25
310.49	278.25
310.72	293.25
310.949	307.25
311.179	292.25
311.409	291.25
311.639	279.25
311.868	296.25
312.098	294.25
312.328	307.25
312.557	301.25
312.787	308.25
313.017	310.25
313.246	315.25
313.476	293.25
313.706	306.25
313.935	310.25
314.165	307.25
314.394	305.25
314.624	326.25
314.853	312.25
315.083	310.25
315.312	308.25
315.542	305.25
315.771	298.25
316.001	292.25
316.23	302.25
316.46	299.25
316.689	289.25
316.919	311.25
317.148	306.25
317.377	305.25
317.607	324.25
317.836	302.25
318.065	302.25
318.295	310.25
318.524	300.25
318.753	293.25
318.983	318.25
319.212	283.25
319.441	296.25
319.67	289.25
319.9	300.25
320.129	297.25
320.358	306.25
320.587	308.25
320.816	315.25
321.046	311.25
321.275	311.25
321.504	304.25
321.733	305.25
321.962	310.25
322.191	298.25
322.42	322.25
322.649	332.25
322.878	315.25
323.108	343.25
323.337	343.25
323.566	348.25
323.795	357.25
324.024	366.25
324.253	414.25
324.482	529.25
324.71	751.25
324.939	982.25
325.168	781.25
325.397	489.25
325.626	395.25
325.855	365.25
326.084	363.25
326.313	333.25
326.542	343.25
326.77	362.25
326.999	401.25
327.228	493.25
327.457	650.25
327.686	753.25
327.914	545.25
328.143	431.25
328.372	398.25
328.6	367.25
328.829	366.25
329.058	379.25
329.287	383.25
329.515	379.25
329.744	360.25
329.972	361.25
330.201	357.25
330.43	381.25
330.658	402.25
330.887	427.25
331.115	388.25
331.344	377.25
331.572	379.25
331.801	378.25
332.03	393.25
332.258	367.25
332.486	362.25
332.715	361.25
332.943	367.25
333.172	374.25
333.4	389.25
333.629	405.25
333.857	403.25
334.085	426.25
334.314	424.25
334.542	420.25
334.771	425.25
334.999	392.25
335.227	383.25
335.455	370.25
335.684	369.25
335.912	377.25
336.14	377.25
336.369	346.25
336.597	356.25
336.825	365.25
337.053	363.25
337.281	350.25
337.51	338.25
337.738	351.25
337.966	346.25
338.194	358.25
338.422	346.25
338.65	342.25
338.878	339.25
339.106	345.25
339.334	375.25
339.562	340.25
339.79	339.25
340.018	358.25
340.246	334.25
340.474	346.25
340.702	339.25
340.93	331.25
341.158	333.25
341.386	350.25
341.614	341.25
341.842	334.25
342.07	334.25
342.298	322.25
342.526	340.25
342.754	328.25
342.981	330.25
343.209	328.25
343.437	331.25
343.665	363.25
343.893	363.25
344.12	377.25
344.348	365.25
344.576	346.25
344.804	342.25
345.031	347.25
345.259	366.25
345.487	323.25
345.714	347.25
345.942	318.25
346.17	330.25
346.397	318.25
346.625	328.25
346.853	333.25
347.08	326.25
347.308	326.25
347.535	332.25
347.763	325.25
347.99	332.25
348.218	348.25
348.445	310.25
348.673	336.25
348.9	320.25
349.128	322.25
349.355	331.25
349.583	308.25
349.81	307.25
350.037	316.25
350.265	317.25
350.492	318.25
350.72	310.25
350.947	297.25
351.174	326.25
351.402	321.25
351.629	330.25
351.856	309.25
352.083	327.25
352.311	318.25
352.538	323.25
352.765	324.25
352.992	314.25
353.22	329.25
353.447	318.25
353.674	325.25
353.901	314.25
354.128	300.25
354.355	306.25
354.583	292.25
354.81	318.25
355.037	294.25
355.264	305.25
355.491	303.25
355.718	312.25
355.945	326.25
356.172	301.25
356.399	323.25
356.626	289.25
356.853	305.25
357.08	294.25
357.307	305.25
357.534	301.25
357.761	313.25
357.988	319.25
358.215	325.25
358.441	312.25
358.668	311.25
358.895	299.25
359.122	316.25
359.349	319.25
359.576	311.25
359.802	314.25
360.029	327.25
360.256	338.25
360.483	324.25
360.709	338.25
360.936	326.25
361.163	335.25
361.39	332.25
361.616	321.25
361.843	321.25
362.07	304.25
362.296	322.25
362.523	319.25
362.749	323.25
362.976	336.25
363.203	306.25
363.429	292.25
363.656	319.25
363.882	300.25
364.109	309.25
364.335	303.25
364.562	302.25
364.788	295.25
365.015	308.25
365.241	311.25
365.468	312.25
365.694	314.25
365.92	318.25
366.147	324.25
366.373	326.25
366.599	296.25
366.826	304.25
367.052	322.25
367.278	315.25
367.505	308.25
367.731	308.25
367.957	317.25
368.184	330.25
368.41	309.25
368.636	330.25
368.862	302.25
369.089	300.25
369.315	319.25
369.541	308.25
369.767	307.25
369.993	313.25
370.219	306.25
370.445	319.25
370.672	307.25
370.898	322.25
371.124	298.25
371.35	335.25
371.576	321.25
371.802	328.25
372.028	311.25
372.254	321.25
372.48	329.25
372.706	336.25
372.932	325.25
373.158	328.25
373.384	311.25
373.61	317.25
373.835	316.25
374.061	313.25
374.287	327.25
374.513	317.25
374.739	313.25
374.965	325.25
375.191	340.25
375.416	343.25
375.642	325.25
375.868	305.25
376.094	327.25
376.319	323.25
376.545	306.25
376.771	313.25
376.997	322.25
377.222	297.25
377.448	331.25
377.674	322.25
377.899	325.25
378.125	322.25
378.35	333.25
378.576	307.25
378.802	322.25
379.027	318.25
379.253	346.25
379.478	314.25
379.704	321.25
379.929	332.25
380.155	314.25
380.38	334.25
380.606	323.25
380.831	325.25
381.057	314.25
381.282	297.25
381.507	305.25
381.733	306.25
381.958	306.25
382.184	326.25
382.409	329.25
382.634	327.25
382.86	335.25
383.085	340.25
383.31	346.25
383.535	334.25
383.761	327.25
383.986	328.25
384.211	324.25
384.436	329.25
384.662	354.25
384.887	365.25
385.112	361.25
385.337	356.25
385.562	361.25
385.787	349.25
386.013	374.25
386.238	365.25
386.463	351.25
386.688	354.25
386.913	345.25
387.138	347.25
387.363	335.25
387.588	363.25
387.813	351.25
388.038	364.25
388.263	348.25
388.488	353.25
388.713	342.25
388.938	343.25
389.163	357.25
389.387	343.25
389.612	338.25
389.837	347.25
390.062	354.25
390.287	348.25
390.512	383.25
390.736	368.25
390.961	380.25
391.186	348.25
391.411	360.25
391.636	365.25
391.86	371.25
392.085	383.25
392.31	384.25
392.534	365.25
392.759	381.25
392.984	373.25
393.208	370.25
393.433	359.25
393.658	361.25
393.882	395.25
394.107	358.25
394.331	363.25
394.556	366.25
394.78	370.25
395.005	373.25
395.229	377.25
395.454	375.25
395.678	374.25
395.903	383.25
396.127	405.25
396.352	373.25
396.576	363.25
396.801	365.25
397.025	381.25
397.249	379.25
397.474	388.25
397.698	387.25
397.922	377.25
398.147	405.25
398.371	393.25
398.595	395.25
398.82	419.25
399.044	433.25
399.268	465.25
399.492	530.25
399.717	537.25
399.941	529.25
400.165	517.25
400.389	485.25
400.613	448.25
400.837	428.25
401.062	425.25
401.286	408.25
401.51	401.25
401.734	409.25
401.958	399.25
402.182	418.25
402.406	437.25
402.63	408.25
402.854	424.25
403.078	431.25
403.302	442.25
403.526	443.25
403.75	436.25
403.974	454.25
404.198	449.25
404.422	452.25
404.645	447.25
404.869	444.25
405.093	473.25
405.317	454.25
405.541	488.25
405.765	457.25
405.988	462.25
406.212	458.25
406.436	469.25
406.66	494.25
406.883	462.25
407.107	473.25
407.331	533.25
407.555	528.25
407.778	533.25
408.002	515.25
408.226	479.25
408.449	474.25
408.673	474.25
408.896	468.25
409.12	482.25
409.344	469.25
409.567	444.25
409.791	451.25
410.014	441.25
410.238	433.25
410.461	417.25
410.685	436.25
410.908	428.25
411.132	438.25
411.355	453.25
411.578	461.25
411.802	443.25
412.025	410.25
412.249	427.25
412.472	439.25
412.695	469.25
412.919	446.25
413.142	437.25
413.365	399.25
413.589	408.25
413.812	413.25
414.035	403.25
414.258	398.25
414.482	426.25
414.705	408.25
414.928	435.25
415.151	400.25
415.374	403.25
415.597	397.25
415.821	407.25
416.044	401.25
416.267	409.25
416.49	406.25
416.713	401.25
416.936	413.25
417.159	406.25
417.382	396.25
417.605	390.25
417.828	417.25
418.051	425.25
418.274	437.25
418.497	399.25
418.72	417.25
418.943	423.25
419.166	431.25
419.389	427.25
419.611	444.25
419.834	438.25
420.057	434.25
420.28	410.25
420.503	418.25
420.726	437.25
420.948	419.25
421.171	437.25
421.394	428.25
421.617	420.25
421.839	410.25
422.062	428.25
422.285	423.25
422.507	461.25
422.73	494.25
422.953	486.25
423.175	440.25
423.398	445.25
423.621	435.25
423.843	452.25
424.066	469.25
424.288	436.25
424.511	437.25
424.733	464.25
424.956	497.25
425.178	468.25
425.401	467.25
425.623	511.25
425.846	439.25
426.068	425.25
426.291	433.25
426.513	443.25
426.735	427.25
426.958	446.25
427.18	469.25
427.402	540.25
427.625	563.25
427.847	485.25
428.069	460.25
428.292	423.25
428.514	413.25
428.736	411.25
428.958	393.25
429.181	383.25
429.403	390.25
429.625	383.25
429.847	406.25
430.069	438.25
430.292	446.25
430.514	394.25
430.736	393.25
430.958	400.25
431.18	387.25
431.402	377.25
431.624	389.25
431.846	373.25
432.068	390.25
432.29	371.25
432.512	374.25
432.734	375.25
432.956	414.25
433.178	383.25
433.4	400.25
433.622	373.25
433.844	382.25
434.066	367.25
434.287	406.25
434.509	405.25
434.731	414.25
434.953	405.25
435.175	413.25
435.397	419.25
435.618	435.25
435.84	460.25
436.062	468.25
436.284	493.25
436.505	447.25
436.727	414.25
436.949	400.25
437.17	398.25
437.392	385.25
437.614	375.25
437.835	401.25
438.057	439.25
438.278	488.25
438.5	508.25
438.721	519.25
438.943	524.25
439.165	449.25
439.386	380.25
439.608	387.25
439.829	415.25
440.05	406.25
440.272	435.25
440.493	421.25
440.715	411.25
440.936	390.25
441.158	399.25
441.379	399.25
441.6	434.25
441.822	429.25
442.043	447.25
442.264	485.25
442.486	492.25
442.707	458.25
442.928	440.25
443.149	482.25
443.371	444.25
443.592	467.25
443.813	513.25
444.034	541.25
444.255	485.25
444.476	451.25
444.698	474.25
444.919	460.25
445.14	551.25
445.361	510.25
445.582	460.25
445.803	470.25
446.024	518.25
446.245	517.25
446.466	486.25
446.687	437.25
446.908	402.25
447.129	383.25
447.35	396.25
447.571	383.25
447.792	371.25
448.013	384.25
448.234	388.25
448.455	439.25
448.675	462.25
448.896	525.25
449.117	454.25
449.338	460.25
449.559	491.25
449.779	544.25
450	465.25
450.221	390.25
450.442	374.25
450.662	383.25
450.883	375.25
451.104	380.25
451.324	374.25
451.545	365.25
451.766	363.25
451.986	351.25
452.207	331.25
452.428	351.25
452.648	360.25
452.869	355.25
453.089	349.25
453.31	353.25
453.53	336.25
453.751	354.25
453.971	346.25
454.192	351.25
454.412	353.25
454.633	340.25
454.853	330.25
455.073	342.25
455.294	366.25
455.514	389.25
455.734	391.25
455.955	347.25
456.175	351.25
456.395	336.25
456.616	326.25
456.836	333.25
457.056	347.25
457.276	348.25
457.497	331.25
457.717	335.25
457.937	344.25
458.157	341.25
458.377	350.25
458.598	367.25
458.818	381.25
459.038	415.25
459.258	411.25
459.478	410.25
459.698	396.25
459.918	362.25
460.138	381.25
460.358	413.25
460.578	418.25
460.798	425.25
461.018	407.25
461.238	412.25
461.458	411.25
461.678	400.25
461.898	405.25
462.118	441.25
462.338	420.25
462.558	433.25
462.777	469.25
462.997	458.25
463.217	500.25
463.437	485.25
463.657	459.25
463.876	456.25
464.096	456.25
464.316	465.25
464.536	425.25
464.755	425.25
464.975	445.25
465.195	444.25
465.414	441.25
465.634	428.25
465.854	415.25
466.073	379.25
466.293	390.25
466.512	362.25
466.732	362.25
466.951	393.25
467.171	374.25
467.391	357.25
467.61	390.25
467.829	379.25
468.049	383.25
468.268	362.25
468.488	365.25
468.707	373.25
468.927	353.25
469.146	339.25
469.365	378.25
469.585	363.25
469.804	375.25
470.023	396.25
470.243	374.25
470.462	399.25
470.681	423.25
470.901	385.25
471.12	377.25
471.339	371.25
471.558	399.25
471.777	383.25
471.997	394.25
472.216	381.25
472.435	401.25
472.654	363.25
472.873	377.25
473.092	368.25
473.311	365.25
473.53	385.25
473.749	359.25
473.968	383.25
474.187	443.25
474.406	427.25
474.625	386.25
474.844	364.25
475.063	353.25
475.282	369.25
475.501	359.25
475.72	377.25
475.939	373.25
476.158	375.25
476.377	372.25
476.596	377.25
476.814	369.25
477.033	382.25
477.252	367.25
477.471	397.25
477.69	413.25
477.908	411.25
478.127	412.25
478.346	433.25
478.564	417.25
478.783	418.25
479.002	430.25
479.22	436.25
479.439	453.25
479.658	429.25
479.876	442.25
480.095	447.25
480.313	466.25
480.532	474.25
480.751	468.25
480.969	479.25
481.188	475.25
481.406	497.25
481.624	441.25
481.843	438.25
482.061	419.25
482.28	422.25
482.498	409.25
482.717	434.25
482.935	411.25
483.153	428.25
483.372	426.25
483.59	409.25
483.808	412.25
484.027	398.25
484.245	420.25
484.463	444.25
484.681	427.25
484.9	428.25
485.118	436.25
485.336	407.25
485.554	439.25
485.772	462.25
485.99	466.25
486.209	441.25
486.427	435.25
486.645	453.25
486.863	450.25
487.081	440.25
487.299	459.25
487.517	445.25
487.735	446.25
487.953	440.25
488.171	441.25
488.389	449.25
488.607	441.25
488.825	418.25
489.043	441.25
489.261	433.25
489.479	435.25
489.696	453.25
489.914	471.25
490.132	450.25
490.35	465.25
490.568	478.25
490.786	484.25
491.003	487.25
491.221	460.25
491.439	484.25
491.657	505.25
491.874	503.25
492.092	516.25
492.31	510.25
492.527	514.25
492.745	523.25
492.963	498.25
493.18	514.25
493.398	523.25
493.615	519.25
493.833	492.25
494.05	528.25
494.268	517.25
494.485	525.25
494.703	517.25
494.92	522.25
495.138	513.25
495.355	523.25
495.573	523.25
495.79	527.25
496.008	546.25
496.225	523.25
496.442	521.25
496.66	528.25
496.877	536.25
497.094	549.25
497.312	528.25
497.529	531.25
497.746	545.25
497.963	559.25
498.181	586.25
498.398	579.25
498.615	602.25
498.832	621.25
499.049	665.25
499.267	684.25
499.484	718.25
499.701	761.25
499.918	817.25
500.135	854.25
500.352	903.25
500.569	949.25
500.786	937.25
501.003	909.25
501.22	843.25
501.437	795.25
501.654	761.25
501.871	692.25
502.088	699.25
