Data from 1969.PennyLincolnUp.Lamp.En5.5.200Scan.071719.P1._HRD10591_14-55-07-972.txt Node
Date: Thu Jul 18 14:55:07 EDT 2019
User: cochatt
Spectrometer: HR+D1059
Trigger mode: 1
Integration Time (sec): 1.000000E-1
Scans to average: 1
Electric dark correction enabled: true
Nonlinearity correction enabled: false
Boxcar width: 0
XAxis mode: Wavelengths
Number of Pixels in Spectrum: 2048
>>>>>Begin Spectral Data<<<<<
223.165	-17.62
223.4	-17.62
223.635	-17.62
223.869	-4.62
224.104	-26.62
224.338	-13.62
224.573	-8.62
224.808	-14.62
225.042	-14.62
225.277	-13.62
225.511	-4.62
225.746	-1.62
225.98	4.38
226.215	18.38
226.449	20.38
226.683	22.38
226.918	24.38
227.152	30.38
227.387	31.38
227.621	43.38
227.856	39.38
228.09	33.38
228.324	42.38
228.559	54.38
228.793	57.38
229.027	79.38
229.262	77.38
229.496	82.38
229.73	100.38
229.964	106.38
230.199	100.38
230.433	101.38
230.667	104.38
230.901	108.38
231.136	108.38
231.37	97.38
231.604	95.38
231.838	98.38
232.072	90.38
232.306	96.38
232.541	101.38
232.775	99.38
233.009	115.38
233.243	106.38
233.477	102.38
233.711	85.38
233.945	100.38
234.179	107.38
234.413	99.38
234.647	106.38
234.881	106.38
235.115	107.38
235.349	107.38
235.583	109.38
235.817	125.38
236.051	120.38
236.285	113.38
236.519	110.38
236.753	119.38
236.987	118.38
237.221	130.38
237.455	151.38
237.689	131.38
237.922	123.38
238.156	131.38
238.39	109.38
238.624	125.38
238.858	98.38
239.091	106.38
239.325	109.38
239.559	115.38
239.793	121.38
240.027	122.38
240.26	103.38
240.494	124.38
240.728	120.38
240.961	112.38
241.195	119.38
241.429	119.38
241.662	124.38
241.896	117.38
242.13	120.38
242.363	118.38
242.597	119.38
242.83	128.38
243.064	109.38
243.298	129.38
243.531	121.38
243.765	119.38
243.998	117.38
244.232	126.38
244.465	124.38
244.699	121.38
244.932	106.38
245.166	126.38
245.399	130.38
245.633	123.38
245.866	136.38
246.099	136.38
246.333	136.38
246.566	131.38
246.8	124.38
247.033	132.38
247.266	138.38
247.5	151.38
247.733	136.38
247.966	149.38
248.2	146.38
248.433	129.38
248.666	140.38
248.899	132.38
249.133	145.38
249.366	154.38
249.599	164.38
249.832	146.38
250.066	154.38
250.299	142.38
250.532	152.38
250.765	156.38
250.998	185.38
251.231	173.38
251.465	171.38
251.698	185.38
251.931	161.38
252.164	166.38
252.397	155.38
252.63	158.38
252.863	158.38
253.096	181.38
253.329	165.38
253.562	162.38
253.795	178.38
254.028	168.38
254.261	187.38
254.494	174.38
254.727	199.38
254.96	226.38
255.193	187.38
255.426	181.38
255.659	163.38
255.892	179.38
256.124	188.38
256.357	182.38
256.59	188.38
256.823	178.38
257.056	163.38
257.289	176.38
257.521	157.38
257.754	157.38
257.987	159.38
258.22	184.38
258.452	169.38
258.685	180.38
258.918	178.38
259.151	168.38
259.383	180.38
259.616	180.38
259.849	178.38
260.081	187.38
260.314	193.38
260.547	188.38
260.779	182.38
261.012	198.38
261.244	181.38
261.477	188.38
261.71	169.38
261.942	172.38
262.175	180.38
262.407	195.38
262.64	184.38
262.872	180.38
263.105	196.38
263.337	183.38
263.57	180.38
263.802	182.38
264.035	172.38
264.267	182.38
264.499	180.38
264.732	166.38
264.964	194.38
265.197	178.38
265.429	174.38
265.661	177.38
265.894	180.38
266.126	183.38
266.358	190.38
266.591	180.38
266.823	181.38
267.055	166.38
267.287	178.38
267.52	194.38
267.752	201.38
267.984	196.38
268.216	189.38
268.448	184.38
268.681	194.38
268.913	193.38
269.145	215.38
269.377	221.38
269.609	221.38
269.841	207.38
270.073	212.38
270.306	218.38
270.538	244.38
270.77	220.38
271.002	230.38
271.234	227.38
271.466	228.38
271.698	260.38
271.93	241.38
272.162	236.38
272.394	240.38
272.626	231.38
272.858	223.38
273.09	219.38
273.322	220.38
273.553	213.38
273.785	236.38
274.017	224.38
274.249	228.38
274.481	210.38
274.713	213.38
274.945	214.38
275.176	210.38
275.408	232.38
275.64	218.38
275.872	211.38
276.104	204.38
276.335	213.38
276.567	218.38
276.799	241.38
277.031	240.38
277.262	264.38
277.494	242.38
277.726	238.38
277.957	227.38
278.189	233.38
278.421	243.38
278.652	232.38
278.884	220.38
279.115	219.38
279.347	219.38
279.579	228.38
279.81	232.38
280.042	234.38
280.273	234.38
280.505	227.38
280.736	210.38
280.968	235.38
281.199	232.38
281.431	233.38
281.662	241.38
281.894	227.38
282.125	231.38
282.356	235.38
282.588	241.38
282.819	240.38
283.051	234.38
283.282	233.38
283.513	232.38
283.745	236.38
283.976	243.38
284.207	243.38
284.439	240.38
284.67	237.38
284.901	240.38
285.132	223.38
285.364	222.38
285.595	243.38
285.826	232.38
286.057	257.38
286.288	229.38
286.52	260.38
286.751	250.38
286.982	227.38
287.213	252.38
287.444	250.38
287.675	259.38
287.906	252.38
288.138	256.38
288.369	247.38
288.6	238.38
288.831	264.38
289.062	240.38
289.293	250.38
289.524	253.38
289.755	249.38
289.986	245.38
290.217	255.38
290.448	272.38
290.679	253.38
290.91	233.38
291.141	235.38
291.371	261.38
291.602	252.38
291.833	245.38
292.064	236.38
292.295	240.38
292.526	261.38
292.757	249.38
292.987	250.38
293.218	263.38
293.449	249.38
293.68	266.38
293.91	235.38
294.141	233.38
294.372	231.38
294.603	275.38
294.833	250.38
295.064	248.38
295.295	255.38
295.525	250.38
295.756	269.38
295.987	264.38
296.217	264.38
296.448	254.38
296.679	250.38
296.909	250.38
297.14	267.38
297.37	263.38
297.601	267.38
297.831	265.38
298.062	250.38
298.292	268.38
298.523	265.38
298.753	247.38
298.984	247.38
299.214	262.38
299.445	281.38
299.675	272.38
299.905	257.38
300.136	270.38
300.366	276.38
300.597	270.38
300.827	272.38
301.057	286.38
301.288	284.38
301.518	286.38
301.748	283.38
301.979	290.38
302.209	304.38
302.439	278.38
302.669	280.38
302.9	284.38
303.13	282.38
303.36	277.38
303.59	280.38
303.82	307.38
304.051	283.38
304.281	285.38
304.511	262.38
304.741	282.38
304.971	277.38
305.201	280.38
305.431	298.38
305.661	277.38
305.891	275.38
306.121	280.38
306.352	285.38
306.582	275.38
306.812	288.38
307.042	280.38
307.272	282.38
307.502	278.38
307.731	277.38
307.961	291.38
308.191	298.38
308.421	274.38
308.651	272.38
308.881	279.38
309.111	302.38
309.341	286.38
309.571	286.38
309.8	301.38
310.03	286.38
310.26	304.38
310.49	286.38
310.72	285.38
310.949	314.38
311.179	321.38
311.409	302.38
311.639	306.38
311.868	300.38
312.098	308.38
312.328	304.38
312.557	308.38
312.787	297.38
313.017	320.38
313.246	317.38
313.476	314.38
313.706	298.38
313.935	307.38
314.165	324.38
314.394	318.38
314.624	332.38
314.853	320.38
315.083	305.38
315.312	306.38
315.542	306.38
315.771	308.38
316.001	306.38
316.23	308.38
316.46	322.38
316.689	327.38
316.919	317.38
317.148	310.38
317.377	317.38
317.607	320.38
317.836	313.38
318.065	295.38
318.295	315.38
318.524	296.38
318.753	307.38
318.983	314.38
319.212	312.38
319.441	304.38
319.67	307.38
319.9	320.38
320.129	304.38
320.358	309.38
320.587	306.38
320.816	302.38
321.046	311.38
321.275	326.38
321.504	320.38
321.733	322.38
321.962	321.38
322.191	338.38
322.42	332.38
322.649	343.38
322.878	334.38
323.108	342.38
323.337	346.38
323.566	362.38
323.795	351.38
324.024	383.38
324.253	415.38
324.482	539.38
324.71	772.38
324.939	1027.38
325.168	842.38
325.397	512.38
325.626	402.38
325.855	373.38
326.084	358.38
326.313	356.38
326.542	362.38
326.77	389.38
326.999	421.38
327.228	524.38
327.457	722.38
327.686	814.38
327.914	581.38
328.143	454.38
328.372	412.38
328.6	404.38
328.829	380.38
329.058	392.38
329.287	382.38
329.515	392.38
329.744	369.38
329.972	373.38
330.201	387.38
330.43	398.38
330.658	405.38
330.887	403.38
331.115	385.38
331.344	373.38
331.572	370.38
331.801	344.38
332.03	370.38
332.258	376.38
332.486	386.38
332.715	351.38
332.943	374.38
333.172	398.38
333.4	376.38
333.629	407.38
333.857	401.38
334.085	415.38
334.314	453.38
334.542	452.38
334.771	432.38
334.999	397.38
335.227	396.38
335.455	412.38
335.684	377.38
335.912	363.38
336.14	372.38
336.369	380.38
336.597	352.38
336.825	370.38
337.053	357.38
337.281	370.38
337.51	359.38
337.738	373.38
337.966	362.38
338.194	353.38
338.422	360.38
338.65	378.38
338.878	354.38
339.106	366.38
339.334	343.38
339.562	342.38
339.79	349.38
340.018	370.38
340.246	357.38
340.474	340.38
340.702	330.38
340.93	340.38
341.158	342.38
341.386	361.38
341.614	350.38
341.842	330.38
342.07	358.38
342.298	349.38
342.526	360.38
342.754	338.38
342.981	351.38
343.209	365.38
343.437	348.38
343.665	354.38
343.893	365.38
344.12	362.38
344.348	372.38
344.576	365.38
344.804	367.38
345.031	363.38
345.259	357.38
345.487	354.38
345.714	345.38
345.942	340.38
346.17	325.38
346.397	322.38
346.625	317.38
346.853	334.38
347.08	348.38
347.308	346.38
347.535	321.38
347.763	343.38
347.99	330.38
348.218	361.38
348.445	344.38
348.673	324.38
348.9	346.38
349.128	325.38
349.355	306.38
349.583	320.38
349.81	310.38
350.037	325.38
350.265	331.38
350.492	332.38
350.72	308.38
350.947	317.38
351.174	306.38
351.402	327.38
351.629	327.38
351.856	343.38
352.083	322.38
352.311	335.38
352.538	314.38
352.765	320.38
352.992	314.38
353.22	318.38
353.447	327.38
353.674	328.38
353.901	324.38
354.128	302.38
354.355	306.38
354.583	329.38
354.81	312.38
355.037	304.38
355.264	326.38
355.491	326.38
355.718	324.38
355.945	320.38
356.172	317.38
356.399	306.38
356.626	307.38
356.853	310.38
357.08	331.38
357.307	316.38
357.534	306.38
357.761	304.38
357.988	305.38
358.215	310.38
358.441	326.38
358.668	324.38
358.895	306.38
359.122	330.38
359.349	317.38
359.576	322.38
359.802	346.38
360.029	342.38
360.256	340.38
360.483	334.38
360.709	329.38
360.936	345.38
361.163	325.38
361.39	318.38
361.616	304.38
361.843	325.38
362.07	306.38
362.296	323.38
362.523	325.38
362.749	316.38
362.976	333.38
363.203	315.38
363.429	318.38
363.656	319.38
363.882	335.38
364.109	312.38
364.335	299.38
364.562	324.38
364.788	307.38
365.015	329.38
365.241	320.38
365.468	319.38
365.694	315.38
365.92	311.38
366.147	315.38
366.373	316.38
366.599	326.38
366.826	291.38
367.052	302.38
367.278	311.38
367.505	304.38
367.731	333.38
367.957	315.38
368.184	297.38
368.41	326.38
368.636	315.38
368.862	332.38
369.089	324.38
369.315	327.38
369.541	318.38
369.767	325.38
369.993	326.38
370.219	326.38
370.445	320.38
370.672	326.38
370.898	330.38
371.124	317.38
371.35	317.38
371.576	322.38
371.802	320.38
372.028	311.38
372.254	337.38
372.48	327.38
372.706	313.38
372.932	320.38
373.158	328.38
373.384	323.38
373.61	324.38
373.835	323.38
374.061	317.38
374.287	340.38
374.513	332.38
374.739	322.38
374.965	325.38
375.191	337.38
375.416	360.38
375.642	332.38
375.868	322.38
376.094	307.38
376.319	318.38
376.545	300.38
376.771	329.38
376.997	321.38
377.222	319.38
377.448	325.38
377.674	322.38
377.899	324.38
378.125	323.38
378.35	329.38
378.576	342.38
378.802	338.38
379.027	313.38
379.253	328.38
379.478	304.38
379.704	317.38
379.929	313.38
380.155	321.38
380.38	308.38
380.606	329.38
380.831	330.38
381.057	339.38
381.282	323.38
381.507	330.38
381.733	337.38
381.958	334.38
382.184	336.38
382.409	316.38
382.634	329.38
382.86	320.38
383.085	341.38
383.31	349.38
383.535	357.38
383.761	326.38
383.986	347.38
384.211	346.38
384.436	350.38
384.662	353.38
384.887	372.38
385.112	356.38
385.337	381.38
385.562	343.38
385.787	363.38
386.013	361.38
386.238	344.38
386.463	374.38
386.688	362.38
386.913	364.38
387.138	350.38
387.363	362.38
387.588	354.38
387.813	369.38
388.038	366.38
388.263	392.38
388.488	378.38
388.713	365.38
388.938	351.38
389.163	356.38
389.387	352.38
389.612	347.38
389.837	377.38
390.062	348.38
390.287	345.38
390.512	350.38
390.736	362.38
390.961	354.38
391.186	385.38
391.411	378.38
391.636	359.38
391.86	391.38
392.085	391.38
392.31	374.38
392.534	368.38
392.759	364.38
392.984	357.38
393.208	368.38
393.433	363.38
393.658	377.38
393.882	370.38
394.107	354.38
394.331	355.38
394.556	374.38
394.78	370.38
395.005	373.38
395.229	355.38
395.454	354.38
395.678	378.38
395.903	400.38
396.127	395.38
396.352	366.38
396.576	370.38
396.801	355.38
397.025	384.38
397.249	374.38
397.474	382.38
397.698	393.38
397.922	376.38
398.147	388.38
398.371	394.38
398.595	407.38
398.82	420.38
399.044	443.38
399.268	469.38
399.492	513.38
399.717	547.38
399.941	558.38
400.165	506.38
400.389	485.38
400.613	450.38
400.837	433.38
401.062	413.38
401.286	434.38
401.51	425.38
401.734	411.38
401.958	423.38
402.182	429.38
402.406	412.38
402.63	428.38
402.854	453.38
403.078	438.38
403.302	448.38
403.526	456.38
403.75	448.38
403.974	440.38
404.198	455.38
404.422	442.38
404.645	467.38
404.869	484.38
405.093	486.38
405.317	497.38
405.541	501.38
405.765	461.38
405.988	443.38
406.212	467.38
406.436	460.38
406.66	476.38
406.883	474.38
407.107	493.38
407.331	533.38
407.555	546.38
407.778	551.38
408.002	514.38
408.226	472.38
408.449	484.38
408.673	467.38
408.896	468.38
409.12	501.38
409.344	460.38
409.567	448.38
409.791	443.38
410.014	449.38
410.238	449.38
410.461	434.38
410.685	449.38
410.908	445.38
411.132	441.38
411.355	458.38
411.578	455.38
411.802	424.38
412.025	424.38
412.249	438.38
412.472	450.38
412.695	462.38
412.919	443.38
413.142	440.38
413.365	423.38
413.589	424.38
413.812	417.38
414.035	407.38
414.258	420.38
414.482	400.38
414.705	412.38
414.928	427.38
415.151	408.38
415.374	417.38
415.597	412.38
415.821	406.38
416.044	403.38
416.267	412.38
416.49	432.38
416.713	414.38
416.936	406.38
417.159	393.38
417.382	414.38
417.605	422.38
417.828	445.38
418.051	434.38
418.274	427.38
418.497	425.38
418.72	421.38
418.943	416.38
419.166	424.38
419.389	448.38
419.611	456.38
419.834	437.38
420.057	433.38
420.28	460.38
420.503	421.38
420.726	414.38
420.948	433.38
421.171	465.38
421.394	437.38
421.617	427.38
421.839	427.38
422.062	419.38
422.285	414.38
422.507	446.38
422.73	481.38
422.953	480.38
423.175	447.38
423.398	429.38
423.621	432.38
423.843	447.38
424.066	458.38
424.288	430.38
424.511	458.38
424.733	479.38
424.956	537.38
425.178	502.38
425.401	478.38
425.623	500.38
425.846	439.38
426.068	412.38
426.291	406.38
426.513	411.38
426.735	451.38
426.958	438.38
427.18	471.38
427.402	553.38
427.625	606.38
427.847	506.38
428.069	470.38
428.292	436.38
428.514	405.38
428.736	396.38
428.958	406.38
429.181	380.38
429.403	385.38
429.625	406.38
429.847	426.38
430.069	434.38
430.292	450.38
430.514	399.38
430.736	397.38
430.958	384.38
431.18	371.38
431.402	378.38
431.624	380.38
431.846	380.38
432.068	382.38
432.29	409.38
432.512	412.38
432.734	397.38
432.956	377.38
433.178	402.38
433.4	392.38
433.622	391.38
433.844	395.38
434.066	384.38
434.287	411.38
434.509	424.38
434.731	407.38
434.953	399.38
435.175	407.38
435.397	436.38
435.618	409.38
435.84	432.38
436.062	480.38
436.284	502.38
436.505	459.38
436.727	420.38
436.949	419.38
437.17	400.38
437.392	390.38
437.614	400.38
437.835	404.38
438.057	464.38
438.278	518.38
438.5	499.38
438.721	547.38
438.943	506.38
439.165	439.38
439.386	414.38
439.608	421.38
439.829	433.38
440.05	412.38
440.272	463.38
440.493	442.38
440.715	436.38
440.936	414.38
441.158	411.38
441.379	422.38
441.6	433.38
441.822	456.38
442.043	479.38
442.264	498.38
442.486	539.38
442.707	448.38
442.928	444.38
443.149	428.38
443.371	458.38
443.592	480.38
443.813	516.38
444.034	543.38
444.255	495.38
444.476	465.38
444.698	460.38
444.919	477.38
445.14	558.38
445.361	491.38
445.582	462.38
445.803	471.38
446.024	523.38
446.245	519.38
446.466	490.38
446.687	438.38
446.908	419.38
447.129	408.38
447.35	374.38
447.571	414.38
447.792	401.38
448.013	378.38
448.234	412.38
448.455	436.38
448.675	472.38
448.896	532.38
449.117	469.38
449.338	446.38
449.559	493.38
449.779	555.38
450	450.38
450.221	397.38
450.442	372.38
450.662	391.38
450.883	388.38
451.104	382.38
451.324	390.38
451.545	369.38
451.766	357.38
451.986	363.38
452.207	364.38
452.428	364.38
452.648	373.38
452.869	350.38
453.089	339.38
453.31	364.38
453.53	337.38
453.751	363.38
453.971	362.38
454.192	371.38
454.412	360.38
454.633	334.38
454.853	350.38
455.073	346.38
455.294	352.38
455.514	412.38
455.734	365.38
455.955	352.38
456.175	349.38
456.395	338.38
456.616	329.38
456.836	330.38
457.056	330.38
457.276	333.38
457.497	315.38
457.717	335.38
457.937	331.38
458.157	354.38
458.377	364.38
458.598	361.38
458.818	389.38
459.038	438.38
459.258	436.38
459.478	410.38
459.698	388.38
459.918	396.38
460.138	412.38
460.358	413.38
460.578	416.38
460.798	442.38
461.018	406.38
461.238	412.38
461.458	430.38
461.678	410.38
461.898	404.38
462.118	414.38
462.338	442.38
462.558	457.38
462.777	455.38
462.997	492.38
463.217	475.38
463.437	521.38
463.657	470.38
463.876	451.38
464.096	444.38
464.316	454.38
464.536	454.38
464.755	450.38
464.975	458.38
465.195	453.38
465.414	468.38
465.634	401.38
465.854	417.38
466.073	410.38
466.293	398.38
466.512	365.38
466.732	365.38
466.951	369.38
467.171	372.38
467.391	359.38
467.61	369.38
467.829	376.38
468.049	382.38
468.268	386.38
468.488	382.38
468.707	362.38
468.927	372.38
469.146	366.38
469.365	349.38
469.585	362.38
469.804	373.38
470.023	406.38
470.243	388.38
470.462	368.38
470.681	406.38
470.901	401.38
471.12	384.38
471.339	358.38
471.558	376.38
471.777	388.38
471.997	383.38
472.216	378.38
472.435	400.38
472.654	374.38
472.873	381.38
473.092	368.38
473.311	368.38
473.53	393.38
473.749	382.38
473.968	411.38
474.187	450.38
474.406	463.38
474.625	399.38
474.844	372.38
475.063	369.38
475.282	368.38
475.501	365.38
475.72	388.38
475.939	363.38
476.158	377.38
476.377	382.38
476.596	388.38
476.814	379.38
477.033	396.38
477.252	386.38
477.471	403.38
477.69	396.38
477.908	413.38
478.127	412.38
478.346	426.38
478.564	424.38
478.783	434.38
479.002	433.38
479.22	411.38
479.439	442.38
479.658	448.38
479.876	456.38
480.095	456.38
480.313	471.38
480.532	479.38
480.751	480.38
480.969	464.38
481.188	472.38
481.406	485.38
481.624	454.38
481.843	434.38
482.061	419.38
482.28	406.38
482.498	418.38
482.717	425.38
482.935	434.38
483.153	420.38
483.372	410.38
483.59	428.38
483.808	408.38
484.027	408.38
484.245	419.38
484.463	432.38
484.681	436.38
484.9	445.38
485.118	429.38
485.336	437.38
485.554	429.38
485.772	442.38
485.99	424.38
486.209	435.38
486.427	446.38
486.645	465.38
486.863	445.38
487.081	459.38
487.299	470.38
487.517	442.38
487.735	457.38
487.953	432.38
488.171	477.38
488.389	458.38
488.607	449.38
488.825	449.38
489.043	457.38
489.261	445.38
489.479	442.38
489.696	467.38
489.914	474.38
490.132	468.38
490.35	456.38
490.568	472.38
490.786	483.38
491.003	475.38
491.221	496.38
491.439	512.38
491.657	503.38
491.874	521.38
492.092	504.38
492.31	531.38
492.527	523.38
492.745	525.38
492.963	524.38
493.18	518.38
493.398	521.38
493.615	522.38
493.833	522.38
494.05	539.38
494.268	518.38
494.485	527.38
494.703	515.38
494.92	548.38
495.138	524.38
495.355	539.38
495.573	526.38
495.79	536.38
496.008	530.38
496.225	524.38
496.442	526.38
496.66	532.38
496.877	526.38
497.094	553.38
497.312	540.38
497.529	546.38
497.746	572.38
497.963	560.38
498.181	584.38
498.398	593.38
498.615	620.38
498.832	631.38
499.049	688.38
499.267	694.38
499.484	726.38
499.701	758.38
499.918	822.38
500.135	877.38
500.352	954.38
500.569	963.38
500.786	969.38
501.003	894.38
501.22	872.38
501.437	814.38
501.654	778.38
501.871	745.38
502.088	712.38
