Data from 1969.PennyLincolnUp.Lamp.En5.5.200Scan.071719.P1._HRD10591_14-55-46-972.txt Node
Date: Thu Jul 18 14:55:46 EDT 2019
User: cochatt
Spectrometer: HR+D1059
Trigger mode: 1
Integration Time (sec): 1.000000E-1
Scans to average: 1
Electric dark correction enabled: true
Nonlinearity correction enabled: false
Boxcar width: 0
XAxis mode: Wavelengths
Number of Pixels in Spectrum: 2048
>>>>>Begin Spectral Data<<<<<
223.165	-17.81
223.4	-17.81
223.635	-17.81
223.869	-13.81
224.104	-17.81
224.338	-13.81
224.573	-11.81
224.808	-12.81
225.042	-10.81
225.277	-9.81
225.511	-3.81
225.746	8.19
225.98	33.19
226.215	12.19
226.449	1.19
226.683	17.19
226.918	24.19
227.152	16.19
227.387	29.19
227.621	30.19
227.856	40.19
228.09	38.19
228.324	50.19
228.559	52.19
228.793	73.19
229.027	91.19
229.262	92.19
229.496	100.19
229.73	105.19
229.964	129.19
230.199	99.19
230.433	116.19
230.667	93.19
230.901	90.19
231.136	93.19
231.37	102.19
231.604	108.19
231.838	96.19
232.072	107.19
232.306	85.19
232.541	100.19
232.775	99.19
233.009	100.19
233.243	105.19
233.477	94.19
233.711	109.19
233.945	113.19
234.179	90.19
234.413	95.19
234.647	97.19
234.881	110.19
235.115	97.19
235.349	115.19
235.583	110.19
235.817	105.19
236.051	112.19
236.285	101.19
236.519	113.19
236.753	110.19
236.987	106.19
237.221	128.19
237.455	169.19
237.689	135.19
237.922	126.19
238.156	102.19
238.39	116.19
238.624	106.19
238.858	105.19
239.091	105.19
239.325	103.19
239.559	104.19
239.793	106.19
240.027	126.19
240.26	116.19
240.494	119.19
240.728	134.19
240.961	133.19
241.195	118.19
241.429	118.19
241.662	127.19
241.896	108.19
242.13	128.19
242.363	116.19
242.597	112.19
242.83	112.19
243.064	137.19
243.298	115.19
243.531	135.19
243.765	132.19
243.998	119.19
244.232	125.19
244.465	122.19
244.699	126.19
244.932	139.19
245.166	126.19
245.399	134.19
245.633	132.19
245.866	122.19
246.099	118.19
246.333	137.19
246.566	127.19
246.8	132.19
247.033	133.19
247.266	141.19
247.5	149.19
247.733	157.19
247.966	145.19
248.2	141.19
248.433	158.19
248.666	141.19
248.899	169.19
249.133	166.19
249.366	163.19
249.599	132.19
249.832	153.19
250.066	130.19
250.299	168.19
250.532	168.19
250.765	180.19
250.998	192.19
251.231	179.19
251.465	183.19
251.698	164.19
251.931	170.19
252.164	175.19
252.397	170.19
252.63	162.19
252.863	162.19
253.096	176.19
253.329	176.19
253.562	176.19
253.795	168.19
254.028	188.19
254.261	199.19
254.494	180.19
254.727	198.19
254.96	220.19
255.193	216.19
255.426	198.19
255.659	186.19
255.892	188.19
256.124	182.19
256.357	202.19
256.59	187.19
256.823	173.19
257.056	181.19
257.289	180.19
257.521	167.19
257.754	174.19
257.987	168.19
258.22	171.19
258.452	173.19
258.685	188.19
258.918	157.19
259.151	145.19
259.383	188.19
259.616	186.19
259.849	179.19
260.081	194.19
260.314	190.19
260.547	210.19
260.779	198.19
261.012	188.19
261.244	185.19
261.477	201.19
261.71	174.19
261.942	188.19
262.175	182.19
262.407	194.19
262.64	167.19
262.872	164.19
263.105	178.19
263.337	185.19
263.57	180.19
263.802	194.19
264.035	182.19
264.267	190.19
264.499	190.19
264.732	177.19
264.964	191.19
265.197	193.19
265.429	198.19
265.661	182.19
265.894	177.19
266.126	198.19
266.358	198.19
266.591	185.19
266.823	198.19
267.055	190.19
267.287	189.19
267.52	197.19
267.752	192.19
267.984	199.19
268.216	179.19
268.448	186.19
268.681	204.19
268.913	207.19
269.145	240.19
269.377	235.19
269.609	220.19
269.841	201.19
270.073	221.19
270.306	242.19
270.538	256.19
270.77	260.19
271.002	221.19
271.234	225.19
271.466	258.19
271.698	255.19
271.93	251.19
272.162	244.19
272.394	256.19
272.626	227.19
272.858	226.19
273.09	245.19
273.322	225.19
273.553	222.19
273.785	227.19
274.017	240.19
274.249	225.19
274.481	216.19
274.713	216.19
274.945	232.19
275.176	211.19
275.408	227.19
275.64	214.19
275.872	234.19
276.104	241.19
276.335	224.19
276.567	235.19
276.799	228.19
277.031	253.19
277.262	278.19
277.494	263.19
277.726	245.19
277.957	234.19
278.189	241.19
278.421	242.19
278.652	213.19
278.884	217.19
279.115	204.19
279.347	240.19
279.579	243.19
279.81	236.19
280.042	231.19
280.273	251.19
280.505	214.19
280.736	245.19
280.968	230.19
281.199	210.19
281.431	218.19
281.662	243.19
281.894	243.19
282.125	240.19
282.356	255.19
282.588	254.19
282.819	261.19
283.051	235.19
283.282	227.19
283.513	215.19
283.745	246.19
283.976	262.19
284.207	244.19
284.439	244.19
284.67	252.19
284.901	261.19
285.132	235.19
285.364	240.19
285.595	232.19
285.826	242.19
286.057	263.19
286.288	244.19
286.52	247.19
286.751	265.19
286.982	259.19
287.213	233.19
287.444	264.19
287.675	244.19
287.906	265.19
288.138	263.19
288.369	251.19
288.6	268.19
288.831	248.19
289.062	248.19
289.293	255.19
289.524	252.19
289.755	241.19
289.986	246.19
290.217	259.19
290.448	257.19
290.679	250.19
290.91	234.19
291.141	241.19
291.371	252.19
291.602	235.19
291.833	244.19
292.064	262.19
292.295	258.19
292.526	256.19
292.757	272.19
292.987	267.19
293.218	265.19
293.449	269.19
293.68	245.19
293.91	249.19
294.141	268.19
294.372	260.19
294.603	268.19
294.833	266.19
295.064	264.19
295.295	256.19
295.525	262.19
295.756	252.19
295.987	259.19
296.217	296.19
296.448	272.19
296.679	244.19
296.909	248.19
297.14	266.19
297.37	264.19
297.601	261.19
297.831	264.19
298.062	256.19
298.292	268.19
298.523	262.19
298.753	261.19
298.984	261.19
299.214	263.19
299.445	287.19
299.675	282.19
299.905	284.19
300.136	264.19
300.366	264.19
300.597	282.19
300.827	285.19
301.057	283.19
301.288	291.19
301.518	287.19
301.748	290.19
301.979	285.19
302.209	299.19
302.439	294.19
302.669	292.19
302.9	273.19
303.13	274.19
303.36	289.19
303.59	297.19
303.82	285.19
304.051	298.19
304.281	297.19
304.511	299.19
304.741	298.19
304.971	281.19
305.201	274.19
305.431	299.19
305.661	275.19
305.891	294.19
306.121	284.19
306.352	310.19
306.582	275.19
306.812	276.19
307.042	292.19
307.272	290.19
307.502	288.19
307.731	320.19
307.961	313.19
308.191	284.19
308.421	264.19
308.651	277.19
308.881	294.19
309.111	285.19
309.341	283.19
309.571	295.19
309.8	290.19
310.03	310.19
310.26	317.19
310.49	341.19
310.72	333.19
310.949	324.19
311.179	336.19
311.409	309.19
311.639	316.19
311.868	313.19
312.098	330.19
312.328	314.19
312.557	330.19
312.787	342.19
313.017	317.19
313.246	320.19
313.476	308.19
313.706	316.19
313.935	314.19
314.165	356.19
314.394	318.19
314.624	325.19
314.853	323.19
315.083	317.19
315.312	341.19
315.542	320.19
315.771	310.19
316.001	318.19
316.23	316.19
316.46	316.19
316.689	307.19
316.919	328.19
317.148	327.19
317.377	325.19
317.607	315.19
317.836	304.19
318.065	309.19
318.295	317.19
318.524	325.19
318.753	319.19
318.983	319.19
319.212	350.19
319.441	314.19
319.67	314.19
319.9	323.19
320.129	314.19
320.358	331.19
320.587	320.19
320.816	315.19
321.046	337.19
321.275	331.19
321.504	316.19
321.733	329.19
321.962	338.19
322.191	338.19
322.42	344.19
322.649	349.19
322.878	342.19
323.108	354.19
323.337	374.19
323.566	360.19
323.795	391.19
324.024	404.19
324.253	448.19
324.482	637.19
324.71	869.19
324.939	1130.19
325.168	977.19
325.397	561.19
325.626	443.19
325.855	402.19
326.084	379.19
326.313	365.19
326.542	363.19
326.77	422.19
326.999	457.19
327.228	589.19
327.457	789.19
327.686	876.19
327.914	640.19
328.143	450.19
328.372	445.19
328.6	426.19
328.829	397.19
329.058	409.19
329.287	400.19
329.515	409.19
329.744	396.19
329.972	392.19
330.201	399.19
330.43	417.19
330.658	421.19
330.887	444.19
331.115	441.19
331.344	378.19
331.572	384.19
331.801	373.19
332.03	382.19
332.258	396.19
332.486	361.19
332.715	390.19
332.943	395.19
333.172	394.19
333.4	418.19
333.629	415.19
333.857	408.19
334.085	438.19
334.314	452.19
334.542	446.19
334.771	460.19
334.999	441.19
335.227	392.19
335.455	391.19
335.684	385.19
335.912	404.19
336.14	394.19
336.369	396.19
336.597	396.19
336.825	385.19
337.053	386.19
337.281	367.19
337.51	376.19
337.738	366.19
337.966	384.19
338.194	374.19
338.422	360.19
338.65	356.19
338.878	363.19
339.106	384.19
339.334	357.19
339.562	368.19
339.79	345.19
340.018	365.19
340.246	363.19
340.474	354.19
340.702	348.19
340.93	350.19
341.158	359.19
341.386	373.19
341.614	362.19
341.842	373.19
342.07	356.19
342.298	345.19
342.526	330.19
342.754	342.19
342.981	346.19
343.209	334.19
343.437	361.19
343.665	352.19
343.893	375.19
344.12	380.19
344.348	356.19
344.576	366.19
344.804	357.19
345.031	341.19
345.259	368.19
345.487	363.19
345.714	350.19
345.942	338.19
346.17	337.19
346.397	330.19
346.625	342.19
346.853	355.19
347.08	348.19
347.308	370.19
347.535	352.19
347.763	338.19
347.99	353.19
348.218	316.19
348.445	333.19
348.673	350.19
348.9	337.19
349.128	337.19
349.355	329.19
349.583	333.19
349.81	323.19
350.037	324.19
350.265	331.19
350.492	345.19
350.72	329.19
350.947	331.19
351.174	338.19
351.402	339.19
351.629	323.19
351.856	340.19
352.083	335.19
352.311	340.19
352.538	349.19
352.765	348.19
352.992	347.19
353.22	338.19
353.447	335.19
353.674	336.19
353.901	328.19
354.128	322.19
354.355	322.19
354.583	312.19
354.81	301.19
355.037	312.19
355.264	321.19
355.491	338.19
355.718	296.19
355.945	321.19
356.172	311.19
356.399	311.19
356.626	320.19
356.853	323.19
357.08	328.19
357.307	333.19
357.534	309.19
357.761	339.19
357.988	334.19
358.215	339.19
358.441	324.19
358.668	311.19
358.895	318.19
359.122	331.19
359.349	325.19
359.576	332.19
359.802	354.19
360.029	355.19
360.256	358.19
360.483	340.19
360.709	321.19
360.936	337.19
361.163	327.19
361.39	335.19
361.616	320.19
361.843	322.19
362.07	326.19
362.296	333.19
362.523	323.19
362.749	324.19
362.976	324.19
363.203	311.19
363.429	317.19
363.656	333.19
363.882	314.19
364.109	330.19
364.335	329.19
364.562	321.19
364.788	337.19
365.015	324.19
365.241	324.19
365.468	330.19
365.694	341.19
365.92	324.19
366.147	326.19
366.373	318.19
366.599	321.19
366.826	315.19
367.052	317.19
367.278	325.19
367.505	316.19
367.731	336.19
367.957	308.19
368.184	328.19
368.41	331.19
368.636	333.19
368.862	347.19
369.089	349.19
369.315	324.19
369.541	312.19
369.767	321.19
369.993	328.19
370.219	328.19
370.445	336.19
370.672	324.19
370.898	313.19
371.124	328.19
371.35	330.19
371.576	343.19
371.802	317.19
372.028	345.19
372.254	324.19
372.48	321.19
372.706	336.19
372.932	339.19
373.158	338.19
373.384	342.19
373.61	337.19
373.835	339.19
374.061	355.19
374.287	316.19
374.513	353.19
374.739	353.19
374.965	344.19
375.191	353.19
375.416	348.19
375.642	344.19
375.868	336.19
376.094	371.19
376.319	349.19
376.545	336.19
376.771	328.19
376.997	312.19
377.222	323.19
377.448	317.19
377.674	333.19
377.899	298.19
378.125	341.19
378.35	325.19
378.576	306.19
378.802	332.19
379.027	316.19
379.253	314.19
379.478	339.19
379.704	328.19
379.929	314.19
380.155	329.19
380.38	326.19
380.606	318.19
380.831	318.19
381.057	308.19
381.282	332.19
381.507	326.19
381.733	341.19
381.958	343.19
382.184	355.19
382.409	327.19
382.634	340.19
382.86	342.19
383.085	335.19
383.31	340.19
383.535	363.19
383.761	353.19
383.986	347.19
384.211	332.19
384.436	363.19
384.662	363.19
384.887	361.19
385.112	353.19
385.337	368.19
385.562	375.19
385.787	376.19
386.013	389.19
386.238	384.19
386.463	368.19
386.688	375.19
386.913	352.19
387.138	349.19
387.363	377.19
387.588	386.19
387.813	365.19
388.038	359.19
388.263	360.19
388.488	360.19
388.713	373.19
388.938	362.19
389.163	372.19
389.387	368.19
389.612	366.19
389.837	364.19
390.062	369.19
390.287	386.19
390.512	380.19
390.736	394.19
390.961	378.19
391.186	378.19
391.411	383.19
391.636	394.19
391.86	390.19
392.085	394.19
392.31	384.19
392.534	380.19
392.759	396.19
392.984	373.19
393.208	369.19
393.433	377.19
393.658	395.19
393.882	390.19
394.107	378.19
394.331	369.19
394.556	365.19
394.78	373.19
395.005	388.19
395.229	378.19
395.454	398.19
395.678	408.19
395.903	405.19
396.127	404.19
396.352	416.19
396.576	374.19
396.801	363.19
397.025	402.19
397.249	380.19
397.474	382.19
397.698	396.19
397.922	405.19
398.147	394.19
398.371	429.19
398.595	420.19
398.82	420.19
399.044	452.19
399.268	473.19
399.492	526.19
399.717	534.19
399.941	560.19
400.165	534.19
400.389	545.19
400.613	485.19
400.837	440.19
401.062	423.19
401.286	432.19
401.51	428.19
401.734	432.19
401.958	425.19
402.182	443.19
402.406	446.19
402.63	453.19
402.854	456.19
403.078	452.19
403.302	448.19
403.526	459.19
403.75	456.19
403.974	461.19
404.198	464.19
404.422	466.19
404.645	470.19
404.869	464.19
405.093	480.19
405.317	496.19
405.541	525.19
405.765	481.19
405.988	471.19
406.212	475.19
406.436	474.19
406.66	490.19
406.883	481.19
407.107	520.19
407.331	534.19
407.555	572.19
407.778	560.19
408.002	522.19
408.226	525.19
408.449	484.19
408.673	487.19
408.896	494.19
409.12	524.19
409.344	490.19
409.567	476.19
409.791	458.19
410.014	470.19
410.238	442.19
410.461	442.19
410.685	457.19
410.908	458.19
411.132	478.19
411.355	480.19
411.578	469.19
411.802	433.19
412.025	467.19
412.249	453.19
412.472	467.19
412.695	474.19
412.919	455.19
413.142	444.19
413.365	438.19
413.589	440.19
413.812	438.19
414.035	444.19
414.258	433.19
414.482	414.19
414.705	436.19
414.928	429.19
415.151	418.19
415.374	439.19
415.597	426.19
415.821	418.19
416.044	407.19
416.267	410.19
416.49	444.19
416.713	432.19
416.936	430.19
417.159	425.19
417.382	416.19
417.605	412.19
417.828	444.19
418.051	424.19
418.274	436.19
418.497	422.19
418.72	423.19
418.943	430.19
419.166	447.19
419.389	455.19
419.611	458.19
419.834	454.19
420.057	456.19
420.28	442.19
420.503	443.19
420.726	438.19
420.948	432.19
421.171	457.19
421.394	463.19
421.617	429.19
421.839	426.19
422.062	449.19
422.285	446.19
422.507	458.19
422.73	520.19
422.953	488.19
423.175	449.19
423.398	455.19
423.621	450.19
423.843	460.19
424.066	472.19
424.288	455.19
424.511	464.19
424.733	506.19
424.956	558.19
425.178	523.19
425.401	512.19
425.623	525.19
425.846	457.19
426.068	444.19
426.291	446.19
426.513	423.19
426.735	429.19
426.958	460.19
427.18	521.19
427.402	563.19
427.625	596.19
427.847	562.19
428.069	507.19
428.292	468.19
428.514	424.19
428.736	402.19
428.958	403.19
429.181	424.19
429.403	412.19
429.625	421.19
429.847	454.19
430.069	459.19
430.292	467.19
430.514	411.19
430.736	416.19
430.958	415.19
431.18	410.19
431.402	386.19
431.624	405.19
431.846	398.19
432.068	407.19
432.29	395.19
432.512	386.19
432.734	398.19
432.956	414.19
433.178	411.19
433.4	389.19
433.622	391.19
433.844	396.19
434.066	406.19
434.287	397.19
434.509	414.19
434.731	412.19
434.953	425.19
435.175	438.19
435.397	446.19
435.618	446.19
435.84	473.19
436.062	509.19
436.284	539.19
436.505	454.19
436.727	440.19
436.949	432.19
437.17	407.19
437.392	402.19
437.614	404.19
437.835	425.19
438.057	477.19
438.278	514.19
438.5	524.19
438.721	560.19
438.943	557.19
439.165	463.19
439.386	444.19
439.608	453.19
439.829	450.19
440.05	456.19
440.272	462.19
440.493	465.19
440.715	442.19
440.936	430.19
441.158	432.19
441.379	432.19
441.6	439.19
441.822	438.19
442.043	478.19
442.264	519.19
442.486	530.19
442.707	483.19
442.928	458.19
443.149	449.19
443.371	467.19
443.592	484.19
443.813	553.19
444.034	578.19
444.255	501.19
444.476	492.19
444.698	488.19
444.919	500.19
445.14	630.19
445.361	534.19
445.582	463.19
445.803	485.19
446.024	570.19
446.245	541.19
446.466	492.19
446.687	438.19
446.908	415.19
447.129	396.19
447.35	402.19
447.571	394.19
447.792	390.19
448.013	382.19
448.234	412.19
448.455	436.19
448.675	514.19
448.896	560.19
449.117	492.19
449.338	464.19
449.559	533.19
449.779	562.19
450	492.19
450.221	434.19
450.442	426.19
450.662	390.19
450.883	418.19
451.104	406.19
451.324	408.19
451.545	385.19
451.766	355.19
451.986	366.19
452.207	327.19
452.428	358.19
452.648	354.19
452.869	369.19
453.089	371.19
453.31	371.19
453.53	376.19
453.751	379.19
453.971	358.19
454.192	381.19
454.412	368.19
454.633	352.19
454.853	346.19
455.073	343.19
455.294	378.19
455.514	415.19
455.734	404.19
455.955	366.19
456.175	365.19
456.395	357.19
456.616	333.19
456.836	346.19
457.056	348.19
457.276	342.19
457.497	360.19
457.717	357.19
457.937	344.19
458.157	348.19
458.377	373.19
458.598	372.19
458.818	398.19
459.038	451.19
459.258	464.19
459.478	436.19
459.698	425.19
459.918	418.19
460.138	412.19
460.358	418.19
460.578	398.19
460.798	425.19
461.018	427.19
461.238	441.19
461.458	434.19
461.678	418.19
461.898	440.19
462.118	416.19
462.338	454.19
462.558	443.19
462.777	480.19
462.997	471.19
463.217	492.19
463.437	500.19
463.657	466.19
463.876	467.19
464.096	468.19
464.316	472.19
464.536	472.19
464.755	465.19
464.975	454.19
465.195	463.19
465.414	502.19
465.634	442.19
465.854	402.19
466.073	395.19
466.293	394.19
466.512	377.19
466.732	386.19
466.951	379.19
467.171	374.19
467.391	390.19
467.61	392.19
467.829	379.19
468.049	379.19
468.268	396.19
468.488	380.19
468.707	370.19
468.927	366.19
469.146	358.19
469.365	364.19
469.585	365.19
469.804	393.19
470.023	408.19
470.243	421.19
470.462	403.19
470.681	407.19
470.901	411.19
471.12	411.19
471.339	402.19
471.558	401.19
471.777	402.19
471.997	398.19
472.216	403.19
472.435	412.19
472.654	407.19
472.873	388.19
473.092	368.19
473.311	380.19
473.53	377.19
473.749	388.19
473.968	394.19
474.187	456.19
474.406	476.19
474.625	390.19
474.844	379.19
475.063	383.19
475.282	369.19
475.501	383.19
475.72	394.19
475.939	379.19
476.158	385.19
476.377	404.19
476.596	390.19
476.814	390.19
477.033	388.19
477.252	406.19
477.471	414.19
477.69	411.19
477.908	414.19
478.127	420.19
478.346	427.19
478.564	436.19
478.783	434.19
479.002	442.19
479.22	449.19
479.439	440.19
479.658	463.19
479.876	474.19
480.095	441.19
480.313	495.19
480.532	490.19
480.751	466.19
480.969	474.19
481.188	505.19
481.406	524.19
481.624	477.19
481.843	450.19
482.061	445.19
482.28	449.19
482.498	437.19
482.717	436.19
482.935	435.19
483.153	435.19
483.372	436.19
483.59	440.19
483.808	432.19
484.027	423.19
484.245	446.19
484.463	440.19
484.681	429.19
484.9	463.19
485.118	442.19
485.336	457.19
485.554	445.19
485.772	449.19
485.99	440.19
486.209	449.19
486.427	447.19
486.645	454.19
486.863	476.19
487.081	450.19
487.299	451.19
487.517	456.19
487.735	500.19
487.953	488.19
488.171	475.19
488.389	472.19
488.607	484.19
488.825	451.19
489.043	457.19
489.261	470.19
489.479	483.19
489.696	467.19
489.914	484.19
490.132	492.19
490.35	487.19
490.568	491.19
490.786	502.19
491.003	496.19
491.221	497.19
491.439	502.19
491.657	537.19
491.874	547.19
492.092	535.19
492.31	523.19
492.527	512.19
492.745	543.19
492.963	547.19
493.18	564.19
493.398	552.19
493.615	527.19
493.833	546.19
494.05	566.19
494.268	553.19
494.485	556.19
494.703	545.19
494.92	544.19
495.138	564.19
495.355	573.19
495.573	561.19
495.79	547.19
496.008	571.19
496.225	570.19
496.442	574.19
496.66	559.19
496.877	544.19
497.094	563.19
497.312	568.19
497.529	577.19
497.746	577.19
497.963	613.19
498.181	628.19
498.398	611.19
498.615	655.19
498.832	634.19
499.049	668.19
499.267	714.19
499.484	724.19
499.701	778.19
499.918	866.19
500.135	901.19
500.352	970.19
500.569	987.19
500.786	1000.19
501.003	953.19
501.22	896.19
501.437	846.19
501.654	789.19
501.871	734.19
502.088	717.19
