Data from 1969.PennyLincolnUp.Lamp.En5.5.200Scan.071719.P1._HRD10591_14-56-44-973.txt Node
Date: Thu Jul 18 14:56:44 EDT 2019
User: cochatt
Spectrometer: HR+D1059
Trigger mode: 1
Integration Time (sec): 1.000000E-1
Scans to average: 1
Electric dark correction enabled: true
Nonlinearity correction enabled: false
Boxcar width: 0
XAxis mode: Wavelengths
Number of Pixels in Spectrum: 2048
>>>>>Begin Spectral Data<<<<<
223.165	-26.06
223.4	-26.06
223.635	-26.06
223.869	-14.06
224.104	-20.06
224.338	-20.06
224.573	-28.06
224.808	-2.06
225.042	1.94
225.277	-5.06
225.511	-4.06
225.746	7.94
225.98	-7.06
226.215	14.94
226.449	17.94
226.683	29.94
226.918	32.94
227.152	20.94
227.387	30.94
227.621	26.94
227.856	39.94
228.09	37.94
228.324	46.94
228.559	45.94
228.793	54.94
229.027	85.94
229.262	93.94
229.496	97.94
229.73	105.94
229.964	116.94
230.199	109.94
230.433	109.94
230.667	99.94
230.901	96.94
231.136	92.94
231.37	101.94
231.604	101.94
231.838	107.94
232.072	123.94
232.306	109.94
232.541	101.94
232.775	98.94
233.009	117.94
233.243	104.94
233.477	110.94
233.711	114.94
233.945	109.94
234.179	115.94
234.413	111.94
234.647	108.94
234.881	111.94
235.115	111.94
235.349	93.94
235.583	122.94
235.817	120.94
236.051	103.94
236.285	104.94
236.519	113.94
236.753	125.94
236.987	119.94
237.221	141.94
237.455	150.94
237.689	136.94
237.922	134.94
238.156	127.94
238.39	120.94
238.624	107.94
238.858	124.94
239.091	129.94
239.325	116.94
239.559	114.94
239.793	130.94
240.027	128.94
240.26	122.94
240.494	123.94
240.728	129.94
240.961	143.94
241.195	129.94
241.429	125.94
241.662	125.94
241.896	128.94
242.13	125.94
242.363	129.94
242.597	115.94
242.83	136.94
243.064	118.94
243.298	115.94
243.531	124.94
243.765	141.94
243.998	123.94
244.232	137.94
244.465	131.94
244.699	124.94
244.932	158.94
245.166	136.94
245.399	133.94
245.633	120.94
245.866	129.94
246.099	145.94
246.333	126.94
246.566	125.94
246.8	131.94
247.033	137.94
247.266	134.94
247.5	124.94
247.733	138.94
247.966	146.94
248.2	139.94
248.433	136.94
248.666	145.94
248.899	156.94
249.133	168.94
249.366	158.94
249.599	163.94
249.832	138.94
250.066	162.94
250.299	149.94
250.532	150.94
250.765	166.94
250.998	173.94
251.231	183.94
251.465	174.94
251.698	183.94
251.931	179.94
252.164	151.94
252.397	150.94
252.63	159.94
252.863	177.94
253.096	169.94
253.329	179.94
253.562	191.94
253.795	177.94
254.028	180.94
254.261	181.94
254.494	200.94
254.727	223.94
254.96	224.94
255.193	228.94
255.426	199.94
255.659	202.94
255.892	197.94
256.124	202.94
256.357	214.94
256.59	174.94
256.823	181.94
257.056	186.94
257.289	165.94
257.521	179.94
257.754	179.94
257.987	177.94
258.22	172.94
258.452	177.94
258.685	158.94
258.918	198.94
259.151	162.94
259.383	187.94
259.616	175.94
259.849	184.94
260.081	187.94
260.314	214.94
260.547	206.94
260.779	189.94
261.012	203.94
261.244	190.94
261.477	184.94
261.71	195.94
261.942	177.94
262.175	181.94
262.407	189.94
262.64	196.94
262.872	173.94
263.105	168.94
263.337	177.94
263.57	177.94
263.802	189.94
264.035	181.94
264.267	204.94
264.499	188.94
264.732	186.94
264.964	196.94
265.197	179.94
265.429	179.94
265.661	194.94
265.894	191.94
266.126	185.94
266.358	180.94
266.591	200.94
266.823	180.94
267.055	204.94
267.287	189.94
267.52	191.94
267.752	197.94
267.984	199.94
268.216	185.94
268.448	206.94
268.681	197.94
268.913	205.94
269.145	229.94
269.377	222.94
269.609	225.94
269.841	214.94
270.073	220.94
270.306	237.94
270.538	259.94
270.77	261.94
271.002	260.94
271.234	236.94
271.466	245.94
271.698	252.94
271.93	264.94
272.162	248.94
272.394	265.94
272.626	252.94
272.858	220.94
273.09	237.94
273.322	248.94
273.553	211.94
273.785	241.94
274.017	238.94
274.249	220.94
274.481	220.94
274.713	243.94
274.945	229.94
275.176	224.94
275.408	214.94
275.64	216.94
275.872	230.94
276.104	218.94
276.335	214.94
276.567	251.94
276.799	252.94
277.031	258.94
277.262	256.94
277.494	280.94
277.726	243.94
277.957	222.94
278.189	230.94
278.421	232.94
278.652	236.94
278.884	242.94
279.115	219.94
279.347	233.94
279.579	247.94
279.81	228.94
280.042	249.94
280.273	224.94
280.505	234.94
280.736	229.94
280.968	228.94
281.199	246.94
281.431	238.94
281.662	239.94
281.894	234.94
282.125	245.94
282.356	230.94
282.588	271.94
282.819	261.94
283.051	253.94
283.282	236.94
283.513	243.94
283.745	234.94
283.976	247.94
284.207	255.94
284.439	259.94
284.67	245.94
284.901	251.94
285.132	242.94
285.364	249.94
285.595	257.94
285.826	239.94
286.057	253.94
286.288	239.94
286.52	268.94
286.751	250.94
286.982	245.94
287.213	235.94
287.444	265.94
287.675	244.94
287.906	257.94
288.138	268.94
288.369	270.94
288.6	275.94
288.831	251.94
289.062	265.94
289.293	256.94
289.524	263.94
289.755	262.94
289.986	261.94
290.217	250.94
290.448	250.94
290.679	261.94
290.91	266.94
291.141	248.94
291.371	257.94
291.602	261.94
291.833	252.94
292.064	279.94
292.295	278.94
292.526	260.94
292.757	243.94
292.987	267.94
293.218	271.94
293.449	268.94
293.68	291.94
293.91	245.94
294.141	261.94
294.372	267.94
294.603	264.94
294.833	269.94
295.064	271.94
295.295	257.94
295.525	271.94
295.756	260.94
295.987	244.94
296.217	299.94
296.448	286.94
296.679	279.94
296.909	265.94
297.14	268.94
297.37	263.94
297.601	287.94
297.831	281.94
298.062	290.94
298.292	285.94
298.523	265.94
298.753	288.94
298.984	279.94
299.214	271.94
299.445	271.94
299.675	289.94
299.905	295.94
300.136	293.94
300.366	279.94
300.597	271.94
300.827	280.94
301.057	296.94
301.288	307.94
301.518	289.94
301.748	267.94
301.979	310.94
302.209	307.94
302.439	295.94
302.669	277.94
302.9	301.94
303.13	295.94
303.36	299.94
303.59	299.94
303.82	292.94
304.051	286.94
304.281	293.94
304.511	299.94
304.741	307.94
304.971	295.94
305.201	287.94
305.431	289.94
305.661	302.94
305.891	267.94
306.121	301.94
306.352	294.94
306.582	284.94
306.812	284.94
307.042	294.94
307.272	273.94
307.502	288.94
307.731	282.94
307.961	275.94
308.191	296.94
308.421	293.94
308.651	286.94
308.881	297.94
309.111	315.94
309.341	309.94
309.571	289.94
309.8	297.94
310.03	300.94
310.26	310.94
310.49	319.94
310.72	314.94
310.949	335.94
311.179	329.94
311.409	315.94
311.639	333.94
311.868	318.94
312.098	315.94
312.328	320.94
312.557	325.94
312.787	324.94
313.017	324.94
313.246	345.94
313.476	315.94
313.706	321.94
313.935	349.94
314.165	327.94
314.394	334.94
314.624	325.94
314.853	338.94
315.083	323.94
315.312	335.94
315.542	327.94
315.771	318.94
316.001	329.94
316.23	330.94
316.46	326.94
316.689	322.94
316.919	303.94
317.148	325.94
317.377	323.94
317.607	324.94
317.836	315.94
318.065	321.94
318.295	316.94
318.524	332.94
318.753	318.94
318.983	337.94
319.212	325.94
319.441	325.94
319.67	328.94
319.9	319.94
320.129	317.94
320.358	326.94
320.587	329.94
320.816	326.94
321.046	331.94
321.275	334.94
321.504	359.94
321.733	348.94
321.962	339.94
322.191	331.94
322.42	333.94
322.649	366.94
322.878	375.94
323.108	370.94
323.337	378.94
323.566	382.94
323.795	400.94
324.024	427.94
324.253	491.94
324.482	638.94
324.71	926.94
324.939	1225.94
325.168	1027.94
325.397	578.94
325.626	451.94
325.855	400.94
326.084	389.94
326.313	372.94
326.542	398.94
326.77	410.94
326.999	452.94
327.228	586.94
327.457	822.94
327.686	935.94
327.914	641.94
328.143	466.94
328.372	429.94
328.6	426.94
328.829	423.94
329.058	418.94
329.287	413.94
329.515	404.94
329.744	415.94
329.972	400.94
330.201	421.94
330.43	447.94
330.658	439.94
330.887	449.94
331.115	435.94
331.344	409.94
331.572	399.94
331.801	396.94
332.03	390.94
332.258	378.94
332.486	390.94
332.715	408.94
332.943	400.94
333.172	398.94
333.4	419.94
333.629	428.94
333.857	430.94
334.085	458.94
334.314	441.94
334.542	445.94
334.771	459.94
334.999	432.94
335.227	423.94
335.455	421.94
335.684	422.94
335.912	391.94
336.14	377.94
336.369	388.94
336.597	392.94
336.825	394.94
337.053	391.94
337.281	386.94
337.51	373.94
337.738	361.94
337.966	371.94
338.194	389.94
338.422	382.94
338.65	359.94
338.878	364.94
339.106	361.94
339.334	357.94
339.562	374.94
339.79	361.94
340.018	369.94
340.246	371.94
340.474	353.94
340.702	357.94
340.93	357.94
341.158	355.94
341.386	348.94
341.614	361.94
341.842	353.94
342.07	354.94
342.298	365.94
342.526	360.94
342.754	364.94
342.981	353.94
343.209	363.94
343.437	370.94
343.665	379.94
343.893	402.94
344.12	404.94
344.348	385.94
344.576	365.94
344.804	381.94
345.031	391.94
345.259	348.94
345.487	339.94
345.714	349.94
345.942	348.94
346.17	350.94
346.397	323.94
346.625	344.94
346.853	341.94
347.08	337.94
347.308	345.94
347.535	356.94
347.763	351.94
347.99	335.94
348.218	353.94
348.445	359.94
348.673	353.94
348.9	363.94
349.128	325.94
349.355	348.94
349.583	338.94
349.81	342.94
350.037	342.94
350.265	344.94
350.492	324.94
350.72	343.94
350.947	321.94
351.174	359.94
351.402	339.94
351.629	344.94
351.856	366.94
352.083	332.94
352.311	327.94
352.538	346.94
352.765	349.94
352.992	327.94
353.22	333.94
353.447	341.94
353.674	347.94
353.901	340.94
354.128	338.94
354.355	340.94
354.583	333.94
354.81	323.94
355.037	336.94
355.264	328.94
355.491	319.94
355.718	335.94
355.945	336.94
356.172	348.94
356.399	331.94
356.626	310.94
356.853	339.94
357.08	339.94
357.307	327.94
357.534	339.94
357.761	334.94
357.988	351.94
358.215	358.94
358.441	323.94
358.668	324.94
358.895	351.94
359.122	343.94
359.349	339.94
359.576	351.94
359.802	360.94
360.029	359.94
360.256	374.94
360.483	361.94
360.709	357.94
360.936	346.94
361.163	328.94
361.39	364.94
361.616	354.94
361.843	331.94
362.07	346.94
362.296	356.94
362.523	329.94
362.749	340.94
362.976	319.94
363.203	335.94
363.429	342.94
363.656	337.94
363.882	347.94
364.109	327.94
364.335	319.94
364.562	310.94
364.788	343.94
365.015	331.94
365.241	340.94
365.468	317.94
365.694	335.94
365.92	325.94
366.147	332.94
366.373	321.94
366.599	331.94
366.826	295.94
367.052	328.94
367.278	338.94
367.505	305.94
367.731	351.94
367.957	341.94
368.184	349.94
368.41	327.94
368.636	349.94
368.862	337.94
369.089	348.94
369.315	325.94
369.541	328.94
369.767	304.94
369.993	323.94
370.219	342.94
370.445	331.94
370.672	337.94
370.898	340.94
371.124	339.94
371.35	349.94
371.576	339.94
371.802	334.94
372.028	344.94
372.254	323.94
372.48	327.94
372.706	338.94
372.932	345.94
373.158	359.94
373.384	346.94
373.61	339.94
373.835	323.94
374.061	352.94
374.287	353.94
374.513	349.94
374.739	343.94
374.965	346.94
375.191	356.94
375.416	339.94
375.642	342.94
375.868	362.94
376.094	339.94
376.319	348.94
376.545	334.94
376.771	335.94
376.997	317.94
377.222	319.94
377.448	343.94
377.674	330.94
377.899	339.94
378.125	325.94
378.35	330.94
378.576	320.94
378.802	331.94
379.027	330.94
379.253	334.94
379.478	324.94
379.704	337.94
379.929	326.94
380.155	328.94
380.38	333.94
380.606	342.94
380.831	334.94
381.057	339.94
381.282	329.94
381.507	332.94
381.733	331.94
381.958	346.94
382.184	350.94
382.409	321.94
382.634	344.94
382.86	336.94
383.085	347.94
383.31	333.94
383.535	358.94
383.761	362.94
383.986	350.94
384.211	359.94
384.436	381.94
384.662	376.94
384.887	367.94
385.112	352.94
385.337	379.94
385.562	379.94
385.787	370.94
386.013	378.94
386.238	370.94
386.463	380.94
386.688	379.94
386.913	370.94
387.138	355.94
387.363	381.94
387.588	389.94
387.813	373.94
388.038	351.94
388.263	381.94
388.488	379.94
388.713	375.94
388.938	377.94
389.163	374.94
389.387	364.94
389.612	359.94
389.837	379.94
390.062	366.94
390.287	392.94
390.512	366.94
390.736	359.94
390.961	372.94
391.186	380.94
391.411	385.94
391.636	380.94
391.86	423.94
392.085	417.94
392.31	390.94
392.534	386.94
392.759	389.94
392.984	384.94
393.208	364.94
393.433	374.94
393.658	359.94
393.882	377.94
394.107	383.94
394.331	394.94
394.556	373.94
394.78	383.94
395.005	399.94
395.229	375.94
395.454	396.94
395.678	390.94
395.903	386.94
396.127	414.94
396.352	406.94
396.576	389.94
396.801	382.94
397.025	385.94
397.249	396.94
397.474	396.94
397.698	386.94
397.922	398.94
398.147	429.94
398.371	428.94
398.595	435.94
398.82	442.94
399.044	454.94
399.268	484.94
399.492	510.94
399.717	563.94
399.941	571.94
400.165	539.94
400.389	527.94
400.613	486.94
400.837	445.94
401.062	428.94
401.286	454.94
401.51	423.94
401.734	449.94
401.958	463.94
402.182	442.94
402.406	446.94
402.63	466.94
402.854	432.94
403.078	445.94
403.302	449.94
403.526	476.94
403.75	471.94
403.974	476.94
404.198	473.94
404.422	471.94
404.645	479.94
404.869	474.94
405.093	501.94
405.317	511.94
405.541	510.94
405.765	506.94
405.988	467.94
406.212	484.94
406.436	490.94
406.66	507.94
406.883	485.94
407.107	481.94
407.331	521.94
407.555	589.94
407.778	602.94
408.002	541.94
408.226	517.94
408.449	490.94
408.673	504.94
408.896	520.94
409.12	513.94
409.344	519.94
409.567	459.94
409.791	468.94
410.014	436.94
410.238	444.94
410.461	481.94
410.685	444.94
410.908	470.94
411.132	475.94
411.355	488.94
411.578	469.94
411.802	485.94
412.025	447.94
412.249	467.94
412.472	445.94
412.695	513.94
412.919	461.94
413.142	468.94
413.365	441.94
413.589	429.94
413.812	434.94
414.035	418.94
414.258	404.94
414.482	429.94
414.705	452.94
414.928	420.94
415.151	426.94
415.374	429.94
415.597	419.94
415.821	424.94
416.044	429.94
416.267	433.94
416.49	413.94
416.713	429.94
416.936	429.94
417.159	407.94
417.382	445.94
417.605	420.94
417.828	437.94
418.051	446.94
418.274	430.94
418.497	419.94
418.72	437.94
418.943	427.94
419.166	433.94
419.389	478.94
419.611	452.94
419.834	446.94
420.057	467.94
420.28	439.94
420.503	454.94
420.726	429.94
420.948	442.94
421.171	459.94
421.394	462.94
421.617	428.94
421.839	452.94
422.062	422.94
422.285	447.94
422.507	469.94
422.73	533.94
422.953	511.94
423.175	476.94
423.398	462.94
423.621	470.94
423.843	485.94
424.066	486.94
424.288	479.94
424.511	490.94
424.733	495.94
424.956	531.94
425.178	534.94
425.401	498.94
425.623	515.94
425.846	478.94
426.068	471.94
426.291	449.94
426.513	439.94
426.735	463.94
426.958	450.94
427.18	504.94
427.402	562.94
427.625	610.94
427.847	566.94
428.069	485.94
428.292	480.94
428.514	439.94
428.736	418.94
428.958	417.94
429.181	393.94
429.403	387.94
429.625	407.94
429.847	427.94
430.069	465.94
430.292	475.94
430.514	408.94
430.736	423.94
430.958	405.94
431.18	393.94
431.402	385.94
431.624	391.94
431.846	411.94
432.068	430.94
432.29	414.94
432.512	391.94
432.734	392.94
432.956	420.94
433.178	409.94
433.4	398.94
433.622	419.94
433.844	413.94
434.066	389.94
434.287	408.94
434.509	409.94
434.731	414.94
434.953	430.94
435.175	461.94
435.397	443.94
435.618	445.94
435.84	454.94
436.062	525.94
436.284	566.94
436.505	460.94
436.727	437.94
436.949	424.94
437.17	414.94
437.392	406.94
437.614	417.94
437.835	437.94
438.057	484.94
438.278	537.94
438.5	538.94
438.721	576.94
438.943	548.94
439.165	478.94
439.386	453.94
439.608	458.94
439.829	443.94
440.05	441.94
440.272	467.94
440.493	451.94
440.715	438.94
440.936	442.94
441.158	425.94
441.379	441.94
441.6	438.94
441.822	463.94
442.043	499.94
442.264	538.94
442.486	554.94
442.707	494.94
442.928	459.94
443.149	472.94
443.371	495.94
443.592	488.94
443.813	550.94
444.034	595.94
444.255	516.94
444.476	475.94
444.698	507.94
444.919	493.94
445.14	578.94
445.361	506.94
445.582	507.94
445.803	531.94
446.024	533.94
446.245	528.94
446.466	537.94
446.687	467.94
446.908	440.94
447.129	440.94
447.35	429.94
447.571	425.94
447.792	378.94
448.013	414.94
448.234	424.94
448.455	460.94
448.675	502.94
448.896	591.94
449.117	492.94
449.338	483.94
449.559	542.94
449.779	569.94
450	480.94
450.221	435.94
450.442	416.94
450.662	407.94
450.883	413.94
451.104	409.94
451.324	405.94
451.545	379.94
451.766	381.94
451.986	368.94
452.207	367.94
452.428	375.94
452.648	371.94
452.869	379.94
453.089	360.94
453.31	380.94
453.53	372.94
453.751	375.94
453.971	369.94
454.192	386.94
454.412	370.94
454.633	377.94
454.853	371.94
455.073	368.94
455.294	392.94
455.514	420.94
455.734	426.94
455.955	366.94
456.175	367.94
456.395	354.94
456.616	351.94
456.836	375.94
457.056	349.94
457.276	335.94
457.497	359.94
457.717	371.94
457.937	366.94
458.157	359.94
458.377	361.94
458.598	374.94
458.818	410.94
459.038	467.94
459.258	483.94
459.478	436.94
459.698	410.94
459.918	396.94
460.138	393.94
460.358	441.94
460.578	440.94
460.798	415.94
461.018	440.94
461.238	422.94
461.458	428.94
461.678	435.94
461.898	439.94
462.118	435.94
462.338	456.94
462.558	462.94
462.777	469.94
462.997	503.94
463.217	499.94
463.437	500.94
463.657	477.94
463.876	473.94
464.096	478.94
464.316	451.94
464.536	465.94
464.755	468.94
464.975	470.94
465.195	477.94
465.414	474.94
465.634	458.94
465.854	414.94
466.073	389.94
466.293	402.94
466.512	401.94
466.732	396.94
466.951	391.94
467.171	379.94
467.391	407.94
467.61	398.94
467.829	397.94
468.049	399.94
468.268	388.94
468.488	379.94
468.707	386.94
468.927	373.94
469.146	392.94
469.365	371.94
469.585	387.94
469.804	378.94
470.023	391.94
470.243	397.94
470.462	417.94
470.681	408.94
470.901	414.94
471.12	392.94
471.339	394.94
471.558	414.94
471.777	410.94
471.997	380.94
472.216	389.94
472.435	427.94
472.654	393.94
472.873	395.94
473.092	378.94
473.311	391.94
473.53	392.94
473.749	391.94
473.968	402.94
474.187	478.94
474.406	468.94
474.625	412.94
474.844	396.94
475.063	381.94
475.282	375.94
475.501	391.94
475.72	386.94
475.939	385.94
476.158	393.94
476.377	400.94
476.596	405.94
476.814	391.94
477.033	400.94
477.252	424.94
477.471	423.94
477.69	431.94
477.908	427.94
478.127	435.94
478.346	442.94
478.564	446.94
478.783	445.94
479.002	457.94
479.22	455.94
479.439	478.94
479.658	472.94
479.876	473.94
480.095	460.94
480.313	490.94
480.532	488.94
480.751	502.94
480.969	479.94
481.188	526.94
481.406	522.94
481.624	477.94
481.843	477.94
482.061	455.94
482.28	450.94
482.498	443.94
482.717	445.94
482.935	421.94
483.153	430.94
483.372	456.94
483.59	463.94
483.808	432.94
484.027	433.94
484.245	451.94
484.463	438.94
484.681	441.94
484.9	451.94
485.118	464.94
485.336	435.94
485.554	461.94
485.772	467.94
485.99	452.94
486.209	459.94
486.427	454.94
486.645	478.94
486.863	473.94
487.081	480.94
487.299	464.94
487.517	474.94
487.735	466.94
487.953	468.94
488.171	456.94
488.389	445.94
488.607	462.94
488.825	483.94
489.043	478.94
489.261	465.94
489.479	483.94
489.696	470.94
489.914	486.94
490.132	488.94
490.35	501.94
490.568	501.94
490.786	516.94
491.003	525.94
491.221	503.94
491.439	513.94
491.657	524.94
491.874	568.94
492.092	554.94
492.31	562.94
492.527	540.94
492.745	554.94
492.963	565.94
493.18	580.94
493.398	565.94
493.615	578.94
493.833	548.94
494.05	550.94
494.268	566.94
494.485	552.94
494.703	534.94
494.92	563.94
495.138	567.94
495.355	589.94
495.573	568.94
495.79	562.94
496.008	558.94
496.225	569.94
496.442	580.94
496.66	553.94
496.877	553.94
497.094	565.94
497.312	567.94
497.529	592.94
497.746	586.94
497.963	594.94
498.181	590.94
498.398	622.94
498.615	670.94
498.832	680.94
499.049	691.94
499.267	700.94
499.484	761.94
499.701	809.94
499.918	860.94
500.135	917.94
500.352	1010.94
500.569	1022.94
500.786	1012.94
501.003	937.94
501.22	890.94
501.437	858.94
501.654	816.94
501.871	782.94
502.088	707.94
