Data from 1969.PennyLincolnUp.Lamp.En5.5.200Scan.071719.P1._HRD10591_14-53-46-971.txt Node
Date: Thu Jul 18 14:53:46 EDT 2019
User: cochatt
Spectrometer: HR+D1059
Trigger mode: 1
Integration Time (sec): 1.000000E-1
Scans to average: 1
Electric dark correction enabled: true
Nonlinearity correction enabled: false
Boxcar width: 0
XAxis mode: Wavelengths
Number of Pixels in Spectrum: 2048
>>>>>Begin Spectral Data<<<<<
223.165	-20.25
223.4	-20.25
223.635	-20.25
223.869	-6.25
224.104	-23.25
224.338	3.75
224.573	-8.25
224.808	-22.25
225.042	-11.25
225.277	-12.25
225.511	-2.25
225.746	10.75
225.98	-6.25
226.215	2.75
226.449	-1.25
226.683	30.75
226.918	32.75
227.152	32.75
227.387	28.75
227.621	29.75
227.856	52.75
228.09	52.75
228.324	60.75
228.559	44.75
228.793	63.75
229.027	87.75
229.262	77.75
229.496	85.75
229.73	95.75
229.964	99.75
230.199	98.75
230.433	103.75
230.667	97.75
230.901	94.75
231.136	101.75
231.37	90.75
231.604	86.75
231.838	89.75
232.072	94.75
232.306	90.75
232.541	113.75
232.775	100.75
233.009	95.75
233.243	102.75
233.477	101.75
233.711	111.75
233.945	97.75
234.179	103.75
234.413	104.75
234.647	101.75
234.881	109.75
235.115	114.75
235.349	90.75
235.583	93.75
235.817	113.75
236.051	98.75
236.285	102.75
236.519	101.75
236.753	103.75
236.987	103.75
237.221	116.75
237.455	129.75
237.689	127.75
237.922	114.75
238.156	112.75
238.39	113.75
238.624	104.75
238.858	117.75
239.091	108.75
239.325	127.75
239.559	114.75
239.793	104.75
240.027	114.75
240.26	106.75
240.494	109.75
240.728	118.75
240.961	101.75
241.195	116.75
241.429	122.75
241.662	115.75
241.896	106.75
242.13	106.75
242.363	114.75
242.597	114.75
242.83	106.75
243.064	114.75
243.298	127.75
243.531	121.75
243.765	98.75
243.998	130.75
244.232	135.75
244.465	133.75
244.699	113.75
244.932	117.75
245.166	120.75
245.399	114.75
245.633	119.75
245.866	114.75
246.099	113.75
246.333	122.75
246.566	127.75
246.8	120.75
247.033	125.75
247.266	127.75
247.5	133.75
247.733	117.75
247.966	133.75
248.2	131.75
248.433	128.75
248.666	135.75
248.899	133.75
249.133	157.75
249.366	155.75
249.599	132.75
249.832	142.75
250.066	131.75
250.299	137.75
250.532	143.75
250.765	159.75
250.998	151.75
251.231	163.75
251.465	155.75
251.698	142.75
251.931	138.75
252.164	154.75
252.397	169.75
252.63	142.75
252.863	154.75
253.096	156.75
253.329	176.75
253.562	162.75
253.795	164.75
254.028	153.75
254.261	144.75
254.494	170.75
254.727	168.75
254.96	177.75
255.193	199.75
255.426	164.75
255.659	161.75
255.892	175.75
256.124	172.75
256.357	166.75
256.59	155.75
256.823	157.75
257.056	156.75
257.289	147.75
257.521	159.75
257.754	149.75
257.987	165.75
258.22	165.75
258.452	173.75
258.685	158.75
258.918	169.75
259.151	173.75
259.383	161.75
259.616	165.75
259.849	187.75
260.081	172.75
260.314	180.75
260.547	185.75
260.779	183.75
261.012	157.75
261.244	172.75
261.477	183.75
261.71	175.75
261.942	151.75
262.175	167.75
262.407	162.75
262.64	164.75
262.872	173.75
263.105	166.75
263.337	173.75
263.57	174.75
263.802	159.75
264.035	167.75
264.267	168.75
264.499	165.75
264.732	178.75
264.964	177.75
265.197	154.75
265.429	167.75
265.661	162.75
265.894	190.75
266.126	188.75
266.358	181.75
266.591	173.75
266.823	181.75
267.055	191.75
267.287	187.75
267.52	194.75
267.752	178.75
267.984	183.75
268.216	183.75
268.448	165.75
268.681	178.75
268.913	199.75
269.145	208.75
269.377	205.75
269.609	208.75
269.841	195.75
270.073	201.75
270.306	209.75
270.538	214.75
270.77	213.75
271.002	200.75
271.234	215.75
271.466	227.75
271.698	207.75
271.93	200.75
272.162	214.75
272.394	214.75
272.626	212.75
272.858	215.75
273.09	180.75
273.322	181.75
273.553	203.75
273.785	209.75
274.017	201.75
274.249	196.75
274.481	195.75
274.713	189.75
274.945	203.75
275.176	200.75
275.408	196.75
275.64	210.75
275.872	216.75
276.104	218.75
276.335	207.75
276.567	212.75
276.799	203.75
277.031	227.75
277.262	216.75
277.494	215.75
277.726	223.75
277.957	219.75
278.189	215.75
278.421	211.75
278.652	203.75
278.884	195.75
279.115	201.75
279.347	202.75
279.579	206.75
279.81	208.75
280.042	232.75
280.273	205.75
280.505	212.75
280.736	201.75
280.968	225.75
281.199	230.75
281.431	213.75
281.662	215.75
281.894	212.75
282.125	224.75
282.356	222.75
282.588	220.75
282.819	234.75
283.051	218.75
283.282	220.75
283.513	227.75
283.745	242.75
283.976	216.75
284.207	241.75
284.439	236.75
284.67	228.75
284.901	232.75
285.132	214.75
285.364	243.75
285.595	234.75
285.826	236.75
286.057	234.75
286.288	234.75
286.52	224.75
286.751	258.75
286.982	239.75
287.213	239.75
287.444	240.75
287.675	240.75
287.906	227.75
288.138	220.75
288.369	257.75
288.6	235.75
288.831	228.75
289.062	247.75
289.293	242.75
289.524	227.75
289.755	224.75
289.986	241.75
290.217	245.75
290.448	239.75
290.679	238.75
290.91	234.75
291.141	228.75
291.371	256.75
291.602	236.75
291.833	243.75
292.064	221.75
292.295	231.75
292.526	245.75
292.757	237.75
292.987	233.75
293.218	232.75
293.449	244.75
293.68	243.75
293.91	235.75
294.141	243.75
294.372	245.75
294.603	256.75
294.833	246.75
295.064	241.75
295.295	229.75
295.525	231.75
295.756	231.75
295.987	240.75
296.217	246.75
296.448	241.75
296.679	242.75
296.909	253.75
297.14	257.75
297.37	275.75
297.601	254.75
297.831	237.75
298.062	244.75
298.292	238.75
298.523	247.75
298.753	255.75
298.984	256.75
299.214	248.75
299.445	244.75
299.675	266.75
299.905	265.75
300.136	256.75
300.366	269.75
300.597	245.75
300.827	252.75
301.057	280.75
301.288	267.75
301.518	263.75
301.748	257.75
301.979	273.75
302.209	248.75
302.439	267.75
302.669	275.75
302.9	261.75
303.13	270.75
303.36	263.75
303.59	262.75
303.82	255.75
304.051	267.75
304.281	275.75
304.511	273.75
304.741	270.75
304.971	277.75
305.201	257.75
305.431	267.75
305.661	255.75
305.891	259.75
306.121	264.75
306.352	267.75
306.582	275.75
306.812	261.75
307.042	261.75
307.272	272.75
307.502	264.75
307.731	260.75
307.961	277.75
308.191	259.75
308.421	282.75
308.651	258.75
308.881	268.75
309.111	279.75
309.341	266.75
309.571	271.75
309.8	262.75
310.03	276.75
310.26	278.75
310.49	271.75
310.72	284.75
310.949	273.75
311.179	318.75
311.409	289.75
311.639	271.75
311.868	291.75
312.098	269.75
312.328	275.75
312.557	298.75
312.787	289.75
313.017	289.75
313.246	289.75
313.476	290.75
313.706	293.75
313.935	282.75
314.165	294.75
314.394	296.75
314.624	294.75
314.853	287.75
315.083	285.75
315.312	297.75
315.542	284.75
315.771	292.75
316.001	295.75
316.23	299.75
316.46	286.75
316.689	307.75
316.919	311.75
317.148	285.75
317.377	297.75
317.607	290.75
317.836	299.75
318.065	284.75
318.295	280.75
318.524	275.75
318.753	285.75
318.983	305.75
319.212	288.75
319.441	295.75
319.67	284.75
319.9	299.75
320.129	313.75
320.358	298.75
320.587	295.75
320.816	308.75
321.046	309.75
321.275	296.75
321.504	292.75
321.733	294.75
321.962	300.75
322.191	302.75
322.42	302.75
322.649	309.75
322.878	302.75
323.108	289.75
323.337	317.75
323.566	323.75
323.795	315.75
324.024	340.75
324.253	386.75
324.482	471.75
324.71	662.75
324.939	825.75
325.168	698.75
325.397	455.75
325.626	362.75
325.855	332.75
326.084	348.75
326.313	333.75
326.542	333.75
326.77	359.75
326.999	378.75
327.228	431.75
327.457	612.75
327.686	654.75
327.914	482.75
328.143	376.75
328.372	348.75
328.6	335.75
328.829	322.75
329.058	349.75
329.287	357.75
329.515	350.75
329.744	355.75
329.972	358.75
330.201	348.75
330.43	355.75
330.658	377.75
330.887	371.75
331.115	368.75
331.344	347.75
331.572	337.75
331.801	341.75
332.03	355.75
332.258	355.75
332.486	338.75
332.715	346.75
332.943	360.75
333.172	374.75
333.4	373.75
333.629	376.75
333.857	396.75
334.085	391.75
334.314	375.75
334.542	398.75
334.771	379.75
334.999	367.75
335.227	373.75
335.455	363.75
335.684	377.75
335.912	346.75
336.14	347.75
336.369	343.75
336.597	356.75
336.825	352.75
337.053	347.75
337.281	350.75
337.51	326.75
337.738	348.75
337.966	337.75
338.194	335.75
338.422	333.75
338.65	346.75
338.878	347.75
339.106	331.75
339.334	357.75
339.562	324.75
339.79	329.75
340.018	324.75
340.246	324.75
340.474	322.75
340.702	323.75
340.93	313.75
341.158	321.75
341.386	328.75
341.614	355.75
341.842	324.75
342.07	298.75
342.298	332.75
342.526	316.75
342.754	329.75
342.981	314.75
343.209	310.75
343.437	339.75
343.665	320.75
343.893	372.75
344.12	379.75
344.348	377.75
344.576	342.75
344.804	332.75
345.031	332.75
345.259	351.75
345.487	322.75
345.714	313.75
345.942	320.75
346.17	318.75
346.397	305.75
346.625	317.75
346.853	309.75
347.08	315.75
347.308	322.75
347.535	323.75
347.763	315.75
347.99	317.75
348.218	305.75
348.445	306.75
348.673	337.75
348.9	299.75
349.128	319.75
349.355	283.75
349.583	321.75
349.81	319.75
350.037	298.75
350.265	307.75
350.492	311.75
350.72	300.75
350.947	307.75
351.174	288.75
351.402	324.75
351.629	307.75
351.856	316.75
352.083	306.75
352.311	307.75
352.538	299.75
352.765	303.75
352.992	299.75
353.22	309.75
353.447	311.75
353.674	297.75
353.901	317.75
354.128	295.75
354.355	315.75
354.583	306.75
354.81	281.75
355.037	315.75
355.264	319.75
355.491	300.75
355.718	300.75
355.945	320.75
356.172	325.75
356.399	307.75
356.626	295.75
356.853	292.75
357.08	312.75
357.307	304.75
357.534	298.75
357.761	290.75
357.988	315.75
358.215	301.75
358.441	300.75
358.668	283.75
358.895	283.75
359.122	306.75
359.349	307.75
359.576	330.75
359.802	307.75
360.029	321.75
360.256	347.75
360.483	323.75
360.709	319.75
360.936	329.75
361.163	331.75
361.39	309.75
361.616	308.75
361.843	306.75
362.07	293.75
362.296	316.75
362.523	299.75
362.749	317.75
362.976	311.75
363.203	289.75
363.429	293.75
363.656	310.75
363.882	282.75
364.109	294.75
364.335	314.75
364.562	305.75
364.788	301.75
365.015	293.75
365.241	297.75
365.468	301.75
365.694	307.75
365.92	291.75
366.147	291.75
366.373	313.75
366.599	308.75
366.826	306.75
367.052	296.75
367.278	293.75
367.505	295.75
367.731	326.75
367.957	309.75
368.184	299.75
368.41	291.75
368.636	321.75
368.862	315.75
369.089	297.75
369.315	304.75
369.541	305.75
369.767	303.75
369.993	302.75
370.219	305.75
370.445	307.75
370.672	315.75
370.898	299.75
371.124	302.75
371.35	318.75
371.576	314.75
371.802	304.75
372.028	299.75
372.254	305.75
372.48	315.75
372.706	313.75
372.932	322.75
373.158	323.75
373.384	312.75
373.61	306.75
373.835	320.75
374.061	331.75
374.287	314.75
374.513	317.75
374.739	330.75
374.965	327.75
375.191	322.75
375.416	333.75
375.642	335.75
375.868	322.75
376.094	316.75
376.319	296.75
376.545	320.75
376.771	300.75
376.997	307.75
377.222	296.75
377.448	320.75
377.674	320.75
377.899	331.75
378.125	294.75
378.35	309.75
378.576	330.75
378.802	309.75
379.027	325.75
379.253	325.75
379.478	319.75
379.704	298.75
379.929	287.75
380.155	306.75
380.38	312.75
380.606	308.75
380.831	333.75
381.057	321.75
381.282	320.75
381.507	300.75
381.733	305.75
381.958	323.75
382.184	307.75
382.409	320.75
382.634	316.75
382.86	311.75
383.085	341.75
383.31	336.75
383.535	340.75
383.761	333.75
383.986	347.75
384.211	349.75
384.436	349.75
384.662	356.75
384.887	361.75
385.112	363.75
385.337	369.75
385.562	361.75
385.787	339.75
386.013	349.75
386.238	363.75
386.463	358.75
386.688	356.75
386.913	353.75
387.138	370.75
387.363	364.75
387.588	337.75
387.813	374.75
388.038	355.75
388.263	363.75
388.488	360.75
388.713	355.75
388.938	358.75
389.163	350.75
389.387	356.75
389.612	322.75
389.837	353.75
390.062	345.75
390.287	332.75
390.512	347.75
390.736	340.75
390.961	342.75
391.186	340.75
391.411	340.75
391.636	378.75
391.86	363.75
392.085	385.75
392.31	397.75
392.534	373.75
392.759	374.75
392.984	370.75
393.208	366.75
393.433	385.75
393.658	398.75
393.882	360.75
394.107	345.75
394.331	353.75
394.556	376.75
394.78	363.75
395.005	353.75
395.229	375.75
395.454	360.75
395.678	386.75
395.903	357.75
396.127	393.75
396.352	379.75
396.576	378.75
396.801	382.75
397.025	377.75
397.249	407.75
397.474	361.75
397.698	369.75
397.922	380.75
398.147	385.75
398.371	375.75
398.595	387.75
398.82	409.75
399.044	441.75
399.268	458.75
399.492	509.75
399.717	510.75
399.941	534.75
400.165	509.75
400.389	496.75
400.613	444.75
400.837	415.75
401.062	441.75
401.286	411.75
401.51	394.75
401.734	400.75
401.958	424.75
402.182	390.75
402.406	419.75
402.63	435.75
402.854	442.75
403.078	443.75
403.302	436.75
403.526	427.75
403.75	449.75
403.974	417.75
404.198	433.75
404.422	453.75
404.645	455.75
404.869	449.75
405.093	460.75
405.317	463.75
405.541	478.75
405.765	438.75
405.988	444.75
406.212	457.75
406.436	439.75
406.66	476.75
406.883	464.75
407.107	487.75
407.331	533.75
407.555	528.75
407.778	543.75
408.002	500.75
408.226	479.75
408.449	492.75
408.673	451.75
408.896	463.75
409.12	497.75
409.344	474.75
409.567	453.75
409.791	441.75
410.014	457.75
410.238	430.75
410.461	441.75
410.685	432.75
410.908	449.75
411.132	459.75
411.355	457.75
411.578	446.75
411.802	432.75
412.025	408.75
412.249	411.75
412.472	427.75
412.695	444.75
412.919	419.75
413.142	408.75
413.365	424.75
413.589	417.75
413.812	419.75
414.035	395.75
414.258	406.75
414.482	405.75
414.705	412.75
414.928	388.75
415.151	407.75
415.374	410.75
415.597	400.75
415.821	409.75
416.044	407.75
416.267	379.75
416.49	403.75
416.713	403.75
416.936	394.75
417.159	417.75
417.382	391.75
417.605	410.75
417.828	401.75
418.051	402.75
418.274	415.75
418.497	394.75
418.72	411.75
418.943	409.75
419.166	404.75
419.389	443.75
419.611	449.75
419.834	417.75
420.057	417.75
420.28	417.75
420.503	396.75
420.726	399.75
420.948	420.75
421.171	438.75
421.394	427.75
421.617	411.75
421.839	415.75
422.062	414.75
422.285	414.75
422.507	437.75
422.73	483.75
422.953	470.75
423.175	445.75
423.398	427.75
423.621	437.75
423.843	439.75
424.066	441.75
424.288	427.75
424.511	444.75
424.733	441.75
424.956	479.75
425.178	475.75
425.401	475.75
425.623	472.75
425.846	443.75
426.068	429.75
426.291	426.75
426.513	418.75
426.735	428.75
426.958	435.75
427.18	457.75
427.402	520.75
427.625	530.75
427.847	473.75
428.069	441.75
428.292	405.75
428.514	397.75
428.736	417.75
428.958	390.75
429.181	388.75
429.403	384.75
429.625	381.75
429.847	403.75
430.069	410.75
430.292	424.75
430.514	383.75
430.736	377.75
430.958	379.75
431.18	385.75
431.402	370.75
431.624	358.75
431.846	396.75
432.068	383.75
432.29	378.75
432.512	372.75
432.734	363.75
432.956	364.75
433.178	373.75
433.4	395.75
433.622	393.75
433.844	399.75
434.066	376.75
434.287	387.75
434.509	377.75
434.731	392.75
434.953	406.75
435.175	416.75
435.397	420.75
435.618	410.75
435.84	425.75
436.062	454.75
436.284	467.75
436.505	425.75
436.727	413.75
436.949	384.75
437.17	380.75
437.392	395.75
437.614	385.75
437.835	395.75
438.057	415.75
438.278	439.75
438.5	474.75
438.721	533.75
438.943	495.75
439.165	413.75
439.386	388.75
439.608	398.75
439.829	411.75
440.05	421.75
440.272	424.75
440.493	423.75
440.715	402.75
440.936	399.75
441.158	416.75
441.379	397.75
441.6	425.75
441.822	410.75
442.043	433.75
442.264	475.75
442.486	492.75
442.707	433.75
442.928	424.75
443.149	425.75
443.371	442.75
443.592	447.75
443.813	471.75
444.034	519.75
444.255	472.75
444.476	455.75
444.698	459.75
444.919	460.75
445.14	577.75
445.361	488.75
445.582	465.75
445.803	461.75
446.024	476.75
446.245	494.75
446.466	467.75
446.687	418.75
446.908	395.75
447.129	393.75
447.35	384.75
447.571	395.75
447.792	389.75
448.013	390.75
448.234	378.75
448.455	419.75
448.675	466.75
448.896	481.75
449.117	463.75
449.338	432.75
449.559	474.75
449.779	498.75
450	459.75
450.221	390.75
450.442	375.75
450.662	371.75
450.883	361.75
451.104	364.75
451.324	354.75
451.545	360.75
451.766	352.75
451.986	344.75
452.207	353.75
452.428	336.75
452.648	338.75
452.869	327.75
453.089	356.75
453.31	351.75
453.53	353.75
453.751	347.75
453.971	337.75
454.192	352.75
454.412	352.75
454.633	332.75
454.853	331.75
455.073	311.75
455.294	364.75
455.514	369.75
455.734	363.75
455.955	315.75
456.175	330.75
456.395	319.75
456.616	325.75
456.836	332.75
457.056	343.75
457.276	335.75
457.497	344.75
457.717	351.75
457.937	354.75
458.157	353.75
458.377	361.75
458.598	361.75
458.818	354.75
459.038	418.75
459.258	427.75
459.478	381.75
459.698	397.75
459.918	386.75
460.138	394.75
460.358	395.75
460.578	419.75
460.798	420.75
461.018	435.75
461.238	405.75
461.458	397.75
461.678	406.75
461.898	410.75
462.118	410.75
462.338	420.75
462.558	436.75
462.777	445.75
462.997	481.75
463.217	469.75
463.437	476.75
463.657	459.75
463.876	467.75
464.096	451.75
464.316	433.75
464.536	450.75
464.755	445.75
464.975	426.75
465.195	441.75
465.414	463.75
465.634	410.75
465.854	364.75
466.073	383.75
466.293	393.75
466.512	358.75
466.732	361.75
466.951	379.75
467.171	364.75
467.391	360.75
467.61	380.75
467.829	372.75
468.049	351.75
468.268	373.75
468.488	367.75
468.707	339.75
468.927	360.75
469.146	352.75
469.365	373.75
469.585	371.75
469.804	371.75
470.023	345.75
470.243	361.75
470.462	370.75
470.681	397.75
470.901	388.75
471.12	380.75
471.339	371.75
471.558	385.75
471.777	383.75
471.997	369.75
472.216	370.75
472.435	367.75
472.654	365.75
472.873	356.75
473.092	378.75
473.311	356.75
473.53	360.75
473.749	367.75
473.968	380.75
474.187	414.75
474.406	437.75
474.625	383.75
474.844	362.75
475.063	371.75
475.282	357.75
475.501	367.75
475.72	375.75
475.939	386.75
476.158	377.75
476.377	356.75
476.596	366.75
476.814	386.75
477.033	383.75
477.252	391.75
477.471	389.75
477.69	398.75
477.908	407.75
478.127	419.75
478.346	428.75
478.564	433.75
478.783	427.75
479.002	436.75
479.22	419.75
479.439	457.75
479.658	441.75
479.876	437.75
480.095	441.75
480.313	460.75
480.532	459.75
480.751	446.75
480.969	451.75
481.188	458.75
481.406	440.75
481.624	445.75
481.843	419.75
482.061	423.75
482.28	408.75
482.498	419.75
482.717	416.75
482.935	414.75
483.153	426.75
483.372	425.75
483.59	413.75
483.808	413.75
484.027	425.75
484.245	435.75
484.463	433.75
484.681	420.75
484.9	454.75
485.118	439.75
485.336	433.75
485.554	441.75
485.772	450.75
485.99	445.75
486.209	455.75
486.427	425.75
486.645	460.75
486.863	452.75
487.081	460.75
487.299	450.75
487.517	434.75
487.735	450.75
487.953	452.75
488.171	452.75
488.389	444.75
488.607	445.75
488.825	414.75
489.043	442.75
489.261	441.75
489.479	446.75
489.696	452.75
489.914	444.75
490.132	459.75
490.35	501.75
490.568	478.75
490.786	462.75
491.003	481.75
491.221	466.75
491.439	472.75
491.657	481.75
491.874	496.75
492.092	485.75
492.31	505.75
492.527	492.75
492.745	527.75
492.963	495.75
493.18	504.75
493.398	515.75
493.615	516.75
493.833	502.75
494.05	525.75
494.268	519.75
494.485	490.75
494.703	525.75
494.92	520.75
495.138	516.75
495.355	499.75
495.573	498.75
495.79	502.75
496.008	527.75
496.225	506.75
496.442	492.75
496.66	531.75
496.877	499.75
497.094	520.75
497.312	540.75
497.529	545.75
497.746	541.75
497.963	544.75
498.181	580.75
498.398	580.75
498.615	590.75
498.832	608.75
499.049	652.75
499.267	693.75
499.484	728.75
499.701	759.75
499.918	801.75
500.135	876.75
500.352	938.75
500.569	981.75
500.786	938.75
501.003	913.75
501.22	868.75
501.437	795.75
501.654	807.75
501.871	709.75
502.088	695.75
502.305	665.75
