Data from 1969.PennyLincolnUp.Lamp.En5.5.200Scan.071719.P1._HRD10591_14-56-23-973.txt Node
Date: Thu Jul 18 14:56:23 EDT 2019
User: cochatt
Spectrometer: HR+D1059
Trigger mode: 1
Integration Time (sec): 1.000000E-1
Scans to average: 1
Electric dark correction enabled: true
Nonlinearity correction enabled: false
Boxcar width: 0
XAxis mode: Wavelengths
Number of Pixels in Spectrum: 2048
>>>>>Begin Spectral Data<<<<<
223.165	-14.75
223.4	-14.75
223.635	-14.75
223.869	-24.75
224.104	-27.75
224.338	-24.75
224.573	-10.75
224.808	-6.75
225.042	-6.75
225.277	3.25
225.511	-15.75
225.746	11.25
225.98	19.25
226.215	17.25
226.449	14.25
226.683	22.25
226.918	27.25
227.152	17.25
227.387	29.25
227.621	23.25
227.856	29.25
228.09	45.25
228.324	52.25
228.559	63.25
228.793	51.25
229.027	68.25
229.262	93.25
229.496	98.25
229.73	97.25
229.964	120.25
230.199	103.25
230.433	99.25
230.667	104.25
230.901	105.25
231.136	99.25
231.37	93.25
231.604	105.25
231.838	78.25
232.072	108.25
232.306	100.25
232.541	96.25
232.775	98.25
233.009	108.25
233.243	92.25
233.477	90.25
233.711	113.25
233.945	91.25
234.179	97.25
234.413	99.25
234.647	108.25
234.881	105.25
235.115	107.25
235.349	101.25
235.583	117.25
235.817	97.25
236.051	120.25
236.285	94.25
236.519	118.25
236.753	114.25
236.987	131.25
237.221	143.25
237.455	178.25
237.689	144.25
237.922	112.25
238.156	106.25
238.39	105.25
238.624	117.25
238.858	116.25
239.091	104.25
239.325	123.25
239.559	118.25
239.793	108.25
240.027	120.25
240.26	116.25
240.494	134.25
240.728	120.25
240.961	126.25
241.195	123.25
241.429	126.25
241.662	115.25
241.896	125.25
242.13	124.25
242.363	119.25
242.597	110.25
242.83	114.25
243.064	116.25
243.298	113.25
243.531	120.25
243.765	122.25
243.998	133.25
244.232	120.25
244.465	132.25
244.699	142.25
244.932	130.25
245.166	136.25
245.399	140.25
245.633	144.25
245.866	136.25
246.099	140.25
246.333	146.25
246.566	141.25
246.8	126.25
247.033	140.25
247.266	145.25
247.5	119.25
247.733	138.25
247.966	126.25
248.2	141.25
248.433	146.25
248.666	158.25
248.899	154.25
249.133	152.25
249.366	172.25
249.599	150.25
249.832	154.25
250.066	153.25
250.299	152.25
250.532	166.25
250.765	148.25
250.998	189.25
251.231	169.25
251.465	174.25
251.698	156.25
251.931	160.25
252.164	164.25
252.397	164.25
252.63	164.25
252.863	173.25
253.096	174.25
253.329	180.25
253.562	187.25
253.795	193.25
254.028	191.25
254.261	176.25
254.494	178.25
254.727	210.25
254.96	216.25
255.193	205.25
255.426	184.25
255.659	180.25
255.892	190.25
256.124	209.25
256.357	193.25
256.59	178.25
256.823	182.25
257.056	173.25
257.289	161.25
257.521	176.25
257.754	173.25
257.987	173.25
258.22	181.25
258.452	184.25
258.685	171.25
258.918	177.25
259.151	192.25
259.383	179.25
259.616	186.25
259.849	184.25
260.081	202.25
260.314	205.25
260.547	201.25
260.779	189.25
261.012	203.25
261.244	196.25
261.477	180.25
261.71	185.25
261.942	203.25
262.175	185.25
262.407	194.25
262.64	184.25
262.872	179.25
263.105	186.25
263.337	188.25
263.57	192.25
263.802	170.25
264.035	166.25
264.267	185.25
264.499	177.25
264.732	187.25
264.964	177.25
265.197	164.25
265.429	171.25
265.661	194.25
265.894	182.25
266.126	190.25
266.358	197.25
266.591	189.25
266.823	193.25
267.055	196.25
267.287	197.25
267.52	200.25
267.752	196.25
267.984	203.25
268.216	208.25
268.448	222.25
268.681	217.25
268.913	211.25
269.145	210.25
269.377	226.25
269.609	220.25
269.841	217.25
270.073	223.25
270.306	248.25
270.538	249.25
270.77	245.25
271.002	236.25
271.234	224.25
271.466	257.25
271.698	258.25
271.93	244.25
272.162	240.25
272.394	263.25
272.626	229.25
272.858	222.25
273.09	226.25
273.322	211.25
273.553	219.25
273.785	223.25
274.017	230.25
274.249	224.25
274.481	230.25
274.713	236.25
274.945	221.25
275.176	226.25
275.408	224.25
275.64	227.25
275.872	221.25
276.104	236.25
276.335	235.25
276.567	222.25
276.799	244.25
277.031	264.25
277.262	269.25
277.494	270.25
277.726	247.25
277.957	247.25
278.189	233.25
278.421	235.25
278.652	226.25
278.884	237.25
279.115	233.25
279.347	222.25
279.579	234.25
279.81	214.25
280.042	221.25
280.273	235.25
280.505	217.25
280.736	232.25
280.968	251.25
281.199	232.25
281.431	231.25
281.662	237.25
281.894	256.25
282.125	228.25
282.356	243.25
282.588	260.25
282.819	259.25
283.051	246.25
283.282	236.25
283.513	245.25
283.745	249.25
283.976	233.25
284.207	254.25
284.439	246.25
284.67	260.25
284.901	257.25
285.132	245.25
285.364	235.25
285.595	258.25
285.826	233.25
286.057	246.25
286.288	248.25
286.52	237.25
286.751	244.25
286.982	257.25
287.213	260.25
287.444	261.25
287.675	263.25
287.906	248.25
288.138	256.25
288.369	260.25
288.6	264.25
288.831	274.25
289.062	283.25
289.293	253.25
289.524	253.25
289.755	267.25
289.986	274.25
290.217	252.25
290.448	266.25
290.679	253.25
290.91	266.25
291.141	261.25
291.371	246.25
291.602	251.25
291.833	262.25
292.064	260.25
292.295	244.25
292.526	254.25
292.757	263.25
292.987	253.25
293.218	245.25
293.449	257.25
293.68	259.25
293.91	251.25
294.141	254.25
294.372	246.25
294.603	250.25
294.833	273.25
295.064	238.25
295.295	258.25
295.525	270.25
295.756	276.25
295.987	268.25
296.217	301.25
296.448	303.25
296.679	283.25
296.909	280.25
297.14	266.25
297.37	281.25
297.601	279.25
297.831	258.25
298.062	263.25
298.292	261.25
298.523	261.25
298.753	280.25
298.984	273.25
299.214	276.25
299.445	272.25
299.675	276.25
299.905	293.25
300.136	266.25
300.366	274.25
300.597	284.25
300.827	283.25
301.057	282.25
301.288	290.25
301.518	309.25
301.748	299.25
301.979	297.25
302.209	289.25
302.439	301.25
302.669	288.25
302.9	285.25
303.13	284.25
303.36	284.25
303.59	298.25
303.82	294.25
304.051	305.25
304.281	313.25
304.511	300.25
304.741	284.25
304.971	264.25
305.201	297.25
305.431	269.25
305.661	284.25
305.891	287.25
306.121	267.25
306.352	304.25
306.582	285.25
306.812	276.25
307.042	280.25
307.272	281.25
307.502	293.25
307.731	285.25
307.961	277.25
308.191	275.25
308.421	294.25
308.651	260.25
308.881	293.25
309.111	297.25
309.341	287.25
309.571	310.25
309.8	306.25
310.03	294.25
310.26	327.25
310.49	310.25
310.72	314.25
310.949	339.25
311.179	333.25
311.409	316.25
311.639	304.25
311.868	305.25
312.098	322.25
312.328	317.25
312.557	318.25
312.787	334.25
313.017	334.25
313.246	326.25
313.476	297.25
313.706	312.25
313.935	315.25
314.165	310.25
314.394	349.25
314.624	325.25
314.853	317.25
315.083	333.25
315.312	328.25
315.542	310.25
315.771	317.25
316.001	313.25
316.23	304.25
316.46	319.25
316.689	310.25
316.919	320.25
317.148	341.25
317.377	318.25
317.607	316.25
317.836	317.25
318.065	329.25
318.295	318.25
318.524	324.25
318.753	317.25
318.983	315.25
319.212	310.25
319.441	336.25
319.67	318.25
319.9	321.25
320.129	301.25
320.358	333.25
320.587	327.25
320.816	339.25
321.046	328.25
321.275	335.25
321.504	325.25
321.733	340.25
321.962	325.25
322.191	353.25
322.42	334.25
322.649	350.25
322.878	344.25
323.108	360.25
323.337	363.25
323.566	358.25
323.795	377.25
324.024	416.25
324.253	467.25
324.482	622.25
324.71	880.25
324.939	1131.25
325.168	950.25
325.397	566.25
325.626	418.25
325.855	388.25
326.084	392.25
326.313	385.25
326.542	375.25
326.77	413.25
326.999	453.25
327.228	584.25
327.457	794.25
327.686	850.25
327.914	613.25
328.143	453.25
328.372	435.25
328.6	406.25
328.829	410.25
329.058	416.25
329.287	436.25
329.515	405.25
329.744	396.25
329.972	413.25
330.201	396.25
330.43	420.25
330.658	413.25
330.887	473.25
331.115	436.25
331.344	402.25
331.572	386.25
331.801	410.25
332.03	415.25
332.258	405.25
332.486	375.25
332.715	378.25
332.943	385.25
333.172	393.25
333.4	410.25
333.629	410.25
333.857	409.25
334.085	414.25
334.314	430.25
334.542	444.25
334.771	470.25
334.999	434.25
335.227	425.25
335.455	413.25
335.684	413.25
335.912	393.25
336.14	359.25
336.369	392.25
336.597	379.25
336.825	368.25
337.053	364.25
337.281	360.25
337.51	387.25
337.738	368.25
337.966	389.25
338.194	360.25
338.422	381.25
338.65	369.25
338.878	374.25
339.106	356.25
339.334	356.25
339.562	349.25
339.79	372.25
340.018	352.25
340.246	357.25
340.474	357.25
340.702	343.25
340.93	364.25
341.158	362.25
341.386	359.25
341.614	339.25
341.842	358.25
342.07	343.25
342.298	348.25
342.526	343.25
342.754	363.25
342.981	328.25
343.209	360.25
343.437	360.25
343.665	376.25
343.893	380.25
344.12	388.25
344.348	391.25
344.576	382.25
344.804	355.25
345.031	363.25
345.259	378.25
345.487	348.25
345.714	350.25
345.942	354.25
346.17	338.25
346.397	339.25
346.625	341.25
346.853	340.25
347.08	354.25
347.308	336.25
347.535	362.25
347.763	373.25
347.99	358.25
348.218	351.25
348.445	337.25
348.673	361.25
348.9	327.25
349.128	332.25
349.355	329.25
349.583	333.25
349.81	329.25
350.037	333.25
350.265	341.25
350.492	326.25
350.72	319.25
350.947	318.25
351.174	338.25
351.402	358.25
351.629	338.25
351.856	345.25
352.083	343.25
352.311	349.25
352.538	333.25
352.765	333.25
352.992	348.25
353.22	352.25
353.447	326.25
353.674	322.25
353.901	345.25
354.128	345.25
354.355	329.25
354.583	316.25
354.81	337.25
355.037	336.25
355.264	341.25
355.491	316.25
355.718	313.25
355.945	323.25
356.172	315.25
356.399	329.25
356.626	316.25
356.853	326.25
357.08	301.25
357.307	320.25
357.534	316.25
357.761	339.25
357.988	338.25
358.215	318.25
358.441	314.25
358.668	310.25
358.895	331.25
359.122	331.25
359.349	335.25
359.576	343.25
359.802	355.25
360.029	353.25
360.256	364.25
360.483	358.25
360.709	344.25
360.936	343.25
361.163	333.25
361.39	333.25
361.616	329.25
361.843	330.25
362.07	343.25
362.296	322.25
362.523	336.25
362.749	324.25
362.976	310.25
363.203	328.25
363.429	338.25
363.656	324.25
363.882	330.25
364.109	315.25
364.335	333.25
364.562	336.25
364.788	334.25
365.015	334.25
365.241	315.25
365.468	314.25
365.694	310.25
365.92	339.25
366.147	340.25
366.373	312.25
366.599	322.25
366.826	299.25
367.052	312.25
367.278	326.25
367.505	340.25
367.731	321.25
367.957	319.25
368.184	342.25
368.41	337.25
368.636	337.25
368.862	329.25
369.089	350.25
369.315	322.25
369.541	341.25
369.767	309.25
369.993	336.25
370.219	330.25
370.445	325.25
370.672	318.25
370.898	340.25
371.124	335.25
371.35	324.25
371.576	325.25
371.802	323.25
372.028	323.25
372.254	320.25
372.48	325.25
372.706	333.25
372.932	320.25
373.158	318.25
373.384	363.25
373.61	330.25
373.835	332.25
374.061	332.25
374.287	341.25
374.513	335.25
374.739	318.25
374.965	338.25
375.191	337.25
375.416	345.25
375.642	350.25
375.868	339.25
376.094	337.25
376.319	343.25
376.545	341.25
376.771	333.25
376.997	332.25
377.222	331.25
377.448	312.25
377.674	328.25
377.899	334.25
378.125	336.25
378.35	333.25
378.576	323.25
378.802	336.25
379.027	331.25
379.253	341.25
379.478	339.25
379.704	330.25
379.929	322.25
380.155	338.25
380.38	328.25
380.606	319.25
380.831	327.25
381.057	354.25
381.282	318.25
381.507	320.25
381.733	346.25
381.958	344.25
382.184	318.25
382.409	332.25
382.634	334.25
382.86	335.25
383.085	345.25
383.31	345.25
383.535	340.25
383.761	342.25
383.986	354.25
384.211	358.25
384.436	341.25
384.662	368.25
384.887	360.25
385.112	357.25
385.337	365.25
385.562	373.25
385.787	386.25
386.013	386.25
386.238	366.25
386.463	388.25
386.688	363.25
386.913	362.25
387.138	387.25
387.363	374.25
387.588	367.25
387.813	377.25
388.038	374.25
388.263	376.25
388.488	374.25
388.713	365.25
388.938	375.25
389.163	381.25
389.387	374.25
389.612	360.25
389.837	353.25
390.062	371.25
390.287	365.25
390.512	357.25
390.736	354.25
390.961	358.25
391.186	365.25
391.411	379.25
391.636	388.25
391.86	402.25
392.085	381.25
392.31	382.25
392.534	375.25
392.759	377.25
392.984	362.25
393.208	378.25
393.433	372.25
393.658	372.25
393.882	361.25
394.107	372.25
394.331	381.25
394.556	349.25
394.78	386.25
395.005	381.25
395.229	377.25
395.454	380.25
395.678	390.25
395.903	390.25
396.127	398.25
396.352	394.25
396.576	393.25
396.801	384.25
397.025	380.25
397.249	369.25
397.474	396.25
397.698	389.25
397.922	405.25
398.147	418.25
398.371	413.25
398.595	410.25
398.82	424.25
399.044	432.25
399.268	460.25
399.492	526.25
399.717	548.25
399.941	553.25
400.165	531.25
400.389	532.25
400.613	482.25
400.837	458.25
401.062	417.25
401.286	432.25
401.51	438.25
401.734	451.25
401.958	420.25
402.182	420.25
402.406	441.25
402.63	449.25
402.854	459.25
403.078	463.25
403.302	466.25
403.526	473.25
403.75	480.25
403.974	460.25
404.198	473.25
404.422	483.25
404.645	461.25
404.869	452.25
405.093	493.25
405.317	504.25
405.541	512.25
405.765	487.25
405.988	468.25
406.212	489.25
406.436	465.25
406.66	480.25
406.883	501.25
407.107	505.25
407.331	531.25
407.555	570.25
407.778	594.25
408.002	525.25
408.226	514.25
408.449	490.25
408.673	448.25
408.896	485.25
409.12	501.25
409.344	495.25
409.567	468.25
409.791	451.25
410.014	463.25
410.238	441.25
410.461	444.25
410.685	433.25
410.908	459.25
411.132	475.25
411.355	500.25
411.578	466.25
411.802	432.25
412.025	430.25
412.249	438.25
412.472	470.25
412.695	499.25
412.919	461.25
413.142	448.25
413.365	436.25
413.589	433.25
413.812	419.25
414.035	453.25
414.258	429.25
414.482	414.25
414.705	430.25
414.928	427.25
415.151	448.25
415.374	426.25
415.597	413.25
415.821	441.25
416.044	412.25
416.267	395.25
416.49	402.25
416.713	410.25
416.936	444.25
417.159	427.25
417.382	414.25
417.605	430.25
417.828	454.25
418.051	421.25
418.274	442.25
418.497	426.25
418.72	433.25
418.943	436.25
419.166	442.25
419.389	470.25
419.611	449.25
419.834	436.25
420.057	438.25
420.28	443.25
420.503	442.25
420.726	451.25
420.948	458.25
421.171	483.25
421.394	485.25
421.617	444.25
421.839	420.25
422.062	439.25
422.285	431.25
422.507	473.25
422.73	524.25
422.953	500.25
423.175	463.25
423.398	446.25
423.621	462.25
423.843	477.25
424.066	459.25
424.288	481.25
424.511	484.25
424.733	506.25
424.956	526.25
425.178	516.25
425.401	504.25
425.623	516.25
425.846	438.25
426.068	436.25
426.291	429.25
426.513	458.25
426.735	471.25
426.958	476.25
427.18	519.25
427.402	580.25
427.625	631.25
427.847	551.25
428.069	508.25
428.292	430.25
428.514	430.25
428.736	413.25
428.958	417.25
429.181	406.25
429.403	416.25
429.625	400.25
429.847	442.25
430.069	450.25
430.292	452.25
430.514	421.25
430.736	415.25
430.958	403.25
431.18	398.25
431.402	387.25
431.624	410.25
431.846	381.25
432.068	374.25
432.29	395.25
432.512	392.25
432.734	413.25
432.956	396.25
433.178	397.25
433.4	417.25
433.622	402.25
433.844	420.25
434.066	398.25
434.287	420.25
434.509	418.25
434.731	427.25
434.953	430.25
435.175	433.25
435.397	456.25
435.618	441.25
435.84	458.25
436.062	509.25
436.284	524.25
436.505	476.25
436.727	429.25
436.949	440.25
437.17	392.25
437.392	394.25
437.614	417.25
437.835	422.25
438.057	472.25
438.278	508.25
438.5	520.25
438.721	589.25
438.943	555.25
439.165	467.25
439.386	450.25
439.608	442.25
439.829	412.25
440.05	447.25
440.272	442.25
440.493	432.25
440.715	430.25
440.936	418.25
441.158	414.25
441.379	427.25
441.6	427.25
441.822	456.25
442.043	490.25
442.264	527.25
442.486	531.25
442.707	461.25
442.928	448.25
443.149	462.25
443.371	485.25
443.592	497.25
443.813	570.25
444.034	565.25
444.255	498.25
444.476	474.25
444.698	489.25
444.919	467.25
445.14	541.25
445.361	502.25
445.582	468.25
445.803	513.25
446.024	536.25
446.245	552.25
446.466	530.25
446.687	458.25
446.908	429.25
447.129	427.25
447.35	409.25
447.571	408.25
447.792	397.25
448.013	406.25
448.234	418.25
448.455	443.25
448.675	500.25
448.896	567.25
449.117	484.25
449.338	460.25
449.559	536.25
449.779	554.25
450	477.25
450.221	406.25
450.442	405.25
450.662	389.25
450.883	408.25
451.104	408.25
451.324	412.25
451.545	394.25
451.766	393.25
451.986	376.25
452.207	368.25
452.428	366.25
452.648	372.25
452.869	378.25
453.089	396.25
453.31	383.25
453.53	369.25
453.751	392.25
453.971	356.25
454.192	380.25
454.412	360.25
454.633	374.25
454.853	363.25
455.073	332.25
455.294	380.25
455.514	414.25
455.734	401.25
455.955	353.25
456.175	349.25
456.395	339.25
456.616	332.25
456.836	353.25
457.056	357.25
457.276	337.25
457.497	350.25
457.717	370.25
457.937	356.25
458.157	362.25
458.377	335.25
458.598	385.25
458.818	422.25
459.038	449.25
459.258	472.25
459.478	404.25
459.698	427.25
459.918	406.25
460.138	404.25
460.358	441.25
460.578	424.25
460.798	426.25
461.018	416.25
461.238	437.25
461.458	422.25
461.678	408.25
461.898	426.25
462.118	438.25
462.338	442.25
462.558	452.25
462.777	462.25
462.997	502.25
463.217	501.25
463.437	496.25
463.657	493.25
463.876	476.25
464.096	473.25
464.316	458.25
464.536	478.25
464.755	463.25
464.975	465.25
465.195	478.25
465.414	473.25
465.634	452.25
465.854	396.25
466.073	419.25
466.293	422.25
466.512	385.25
466.732	394.25
466.951	403.25
467.171	373.25
467.391	376.25
467.61	386.25
467.829	393.25
468.049	391.25
468.268	377.25
468.488	379.25
468.707	374.25
468.927	384.25
469.146	385.25
469.365	378.25
469.585	399.25
469.804	391.25
470.023	416.25
470.243	388.25
470.462	401.25
470.681	429.25
470.901	408.25
471.12	388.25
471.339	384.25
471.558	360.25
471.777	379.25
471.997	389.25
472.216	394.25
472.435	406.25
472.654	418.25
472.873	377.25
473.092	384.25
473.311	382.25
473.53	394.25
473.749	371.25
473.968	401.25
474.187	452.25
474.406	452.25
474.625	407.25
474.844	388.25
475.063	374.25
475.282	372.25
475.501	376.25
475.72	385.25
475.939	374.25
476.158	384.25
476.377	394.25
476.596	383.25
476.814	394.25
477.033	390.25
477.252	392.25
477.471	409.25
477.69	442.25
477.908	439.25
478.127	439.25
478.346	430.25
478.564	440.25
478.783	454.25
479.002	447.25
479.22	466.25
479.439	450.25
479.658	471.25
479.876	473.25
480.095	479.25
480.313	491.25
480.532	477.25
480.751	480.25
480.969	482.25
481.188	514.25
481.406	519.25
481.624	458.25
481.843	459.25
482.061	463.25
482.28	443.25
482.498	445.25
482.717	434.25
482.935	441.25
483.153	434.25
483.372	447.25
483.59	442.25
483.808	434.25
484.027	440.25
484.245	433.25
484.463	434.25
484.681	443.25
484.9	446.25
485.118	442.25
485.336	459.25
485.554	455.25
485.772	443.25
485.99	453.25
486.209	446.25
486.427	446.25
486.645	452.25
486.863	480.25
487.081	469.25
487.299	465.25
487.517	464.25
487.735	456.25
487.953	475.25
488.171	472.25
488.389	460.25
488.607	458.25
488.825	489.25
489.043	464.25
489.261	479.25
489.479	457.25
489.696	445.25
489.914	478.25
490.132	477.25
490.35	505.25
490.568	488.25
490.786	504.25
491.003	526.25
491.221	527.25
491.439	500.25
491.657	530.25
491.874	532.25
492.092	555.25
492.31	548.25
492.527	549.25
492.745	537.25
492.963	549.25
493.18	566.25
493.398	561.25
493.615	576.25
493.833	554.25
494.05	535.25
494.268	572.25
494.485	561.25
494.703	531.25
494.92	523.25
495.138	546.25
495.355	527.25
495.573	531.25
495.79	547.25
496.008	560.25
496.225	554.25
496.442	550.25
496.66	552.25
496.877	548.25
497.094	548.25
497.312	580.25
497.529	578.25
497.746	590.25
497.963	598.25
498.181	604.25
498.398	614.25
498.615	648.25
498.832	651.25
499.049	676.25
499.267	704.25
499.484	748.25
499.701	803.25
499.918	839.25
500.135	914.25
500.352	974.25
500.569	1009.25
500.786	969.25
501.003	964.25
501.22	908.25
501.437	858.25
501.654	809.25
501.871	782.25
502.088	712.25
