Data from 1969.PennyLincolnUp.Lamp.En5.5.200Scan.071719.P1._HRD10591_14-56-35-973.txt Node
Date: Thu Jul 18 14:56:35 EDT 2019
User: cochatt
Spectrometer: HR+D1059
Trigger mode: 1
Integration Time (sec): 1.000000E-1
Scans to average: 1
Electric dark correction enabled: true
Nonlinearity correction enabled: false
Boxcar width: 0
XAxis mode: Wavelengths
Number of Pixels in Spectrum: 2048
>>>>>Begin Spectral Data<<<<<
223.165	-17.44
223.4	-17.44
223.635	-17.44
223.869	-26.44
224.104	-20.44
224.338	-9.44
224.573	-11.44
224.808	-4.44
225.042	-2.44
225.277	-4.44
225.511	-7.44
225.746	-2.44
225.98	5.56
226.215	14.56
226.449	14.56
226.683	16.56
226.918	25.56
227.152	29.56
227.387	40.56
227.621	39.56
227.856	33.56
228.09	47.56
228.324	58.56
228.559	57.56
228.793	63.56
229.027	74.56
229.262	72.56
229.496	99.56
229.73	109.56
229.964	118.56
230.199	112.56
230.433	89.56
230.667	97.56
230.901	93.56
231.136	101.56
231.37	95.56
231.604	97.56
231.838	113.56
232.072	107.56
232.306	110.56
232.541	113.56
232.775	101.56
233.009	106.56
233.243	110.56
233.477	114.56
233.711	114.56
233.945	100.56
234.179	121.56
234.413	118.56
234.647	108.56
234.881	103.56
235.115	103.56
235.349	118.56
235.583	106.56
235.817	115.56
236.051	123.56
236.285	123.56
236.519	122.56
236.753	115.56
236.987	123.56
237.221	158.56
237.455	175.56
237.689	137.56
237.922	126.56
238.156	121.56
238.39	118.56
238.624	118.56
238.858	119.56
239.091	97.56
239.325	104.56
239.559	137.56
239.793	115.56
240.027	122.56
240.26	126.56
240.494	127.56
240.728	128.56
240.961	132.56
241.195	131.56
241.429	130.56
241.662	124.56
241.896	126.56
242.13	121.56
242.363	126.56
242.597	124.56
242.83	131.56
243.064	118.56
243.298	125.56
243.531	135.56
243.765	128.56
243.998	119.56
244.232	120.56
244.465	115.56
244.699	123.56
244.932	132.56
245.166	127.56
245.399	113.56
245.633	143.56
245.866	125.56
246.099	120.56
246.333	133.56
246.566	121.56
246.8	134.56
247.033	138.56
247.266	141.56
247.5	154.56
247.733	156.56
247.966	159.56
248.2	141.56
248.433	142.56
248.666	149.56
248.899	157.56
249.133	165.56
249.366	170.56
249.599	163.56
249.832	161.56
250.066	142.56
250.299	161.56
250.532	164.56
250.765	170.56
250.998	200.56
251.231	182.56
251.465	186.56
251.698	174.56
251.931	182.56
252.164	166.56
252.397	192.56
252.63	166.56
252.863	172.56
253.096	181.56
253.329	193.56
253.562	194.56
253.795	193.56
254.028	181.56
254.261	183.56
254.494	186.56
254.727	210.56
254.96	223.56
255.193	218.56
255.426	214.56
255.659	197.56
255.892	187.56
256.124	194.56
256.357	203.56
256.59	186.56
256.823	183.56
257.056	188.56
257.289	182.56
257.521	184.56
257.754	182.56
257.987	182.56
258.22	186.56
258.452	171.56
258.685	163.56
258.918	172.56
259.151	167.56
259.383	185.56
259.616	201.56
259.849	196.56
260.081	213.56
260.314	235.56
260.547	208.56
260.779	214.56
261.012	197.56
261.244	186.56
261.477	188.56
261.71	194.56
261.942	186.56
262.175	185.56
262.407	213.56
262.64	177.56
262.872	183.56
263.105	190.56
263.337	193.56
263.57	198.56
263.802	196.56
264.035	194.56
264.267	206.56
264.499	197.56
264.732	193.56
264.964	201.56
265.197	197.56
265.429	198.56
265.661	180.56
265.894	186.56
266.126	193.56
266.358	191.56
266.591	184.56
266.823	221.56
267.055	207.56
267.287	211.56
267.52	198.56
267.752	190.56
267.984	205.56
268.216	223.56
268.448	209.56
268.681	219.56
268.913	227.56
269.145	230.56
269.377	236.56
269.609	245.56
269.841	223.56
270.073	250.56
270.306	245.56
270.538	270.56
270.77	261.56
271.002	259.56
271.234	267.56
271.466	263.56
271.698	270.56
271.93	250.56
272.162	276.56
272.394	265.56
272.626	250.56
272.858	240.56
273.09	224.56
273.322	239.56
273.553	225.56
273.785	230.56
274.017	238.56
274.249	211.56
274.481	221.56
274.713	238.56
274.945	238.56
275.176	225.56
275.408	223.56
275.64	242.56
275.872	223.56
276.104	230.56
276.335	244.56
276.567	247.56
276.799	246.56
277.031	262.56
277.262	275.56
277.494	273.56
277.726	259.56
277.957	258.56
278.189	250.56
278.421	231.56
278.652	243.56
278.884	241.56
279.115	232.56
279.347	241.56
279.579	238.56
279.81	236.56
280.042	245.56
280.273	245.56
280.505	250.56
280.736	233.56
280.968	253.56
281.199	228.56
281.431	241.56
281.662	248.56
281.894	235.56
282.125	237.56
282.356	243.56
282.588	257.56
282.819	271.56
283.051	246.56
283.282	255.56
283.513	254.56
283.745	258.56
283.976	270.56
284.207	263.56
284.439	251.56
284.67	251.56
284.901	252.56
285.132	250.56
285.364	259.56
285.595	272.56
285.826	247.56
286.057	249.56
286.288	249.56
286.52	238.56
286.751	251.56
286.982	255.56
287.213	248.56
287.444	261.56
287.675	247.56
287.906	261.56
288.138	285.56
288.369	278.56
288.6	282.56
288.831	278.56
289.062	278.56
289.293	270.56
289.524	271.56
289.755	242.56
289.986	248.56
290.217	267.56
290.448	261.56
290.679	262.56
290.91	271.56
291.141	269.56
291.371	265.56
291.602	265.56
291.833	265.56
292.064	277.56
292.295	257.56
292.526	248.56
292.757	255.56
292.987	255.56
293.218	246.56
293.449	269.56
293.68	269.56
293.91	274.56
294.141	268.56
294.372	273.56
294.603	287.56
294.833	263.56
295.064	264.56
295.295	261.56
295.525	262.56
295.756	261.56
295.987	278.56
296.217	285.56
296.448	294.56
296.679	263.56
296.909	257.56
297.14	275.56
297.37	256.56
297.601	274.56
297.831	275.56
298.062	297.56
298.292	283.56
298.523	287.56
298.753	276.56
298.984	298.56
299.214	272.56
299.445	272.56
299.675	277.56
299.905	274.56
300.136	295.56
300.366	293.56
300.597	287.56
300.827	301.56
301.057	283.56
301.288	286.56
301.518	289.56
301.748	291.56
301.979	318.56
302.209	305.56
302.439	310.56
302.669	289.56
302.9	298.56
303.13	301.56
303.36	313.56
303.59	307.56
303.82	304.56
304.051	296.56
304.281	283.56
304.511	285.56
304.741	289.56
304.971	315.56
305.201	293.56
305.431	293.56
305.661	287.56
305.891	293.56
306.121	307.56
306.352	283.56
306.582	311.56
306.812	300.56
307.042	301.56
307.272	293.56
307.502	305.56
307.731	305.56
307.961	294.56
308.191	290.56
308.421	301.56
308.651	308.56
308.881	317.56
309.111	306.56
309.341	305.56
309.571	317.56
309.8	323.56
310.03	317.56
310.26	339.56
310.49	327.56
310.72	337.56
310.949	333.56
311.179	328.56
311.409	328.56
311.639	318.56
311.868	337.56
312.098	334.56
312.328	326.56
312.557	352.56
312.787	349.56
313.017	350.56
313.246	334.56
313.476	327.56
313.706	337.56
313.935	331.56
314.165	336.56
314.394	326.56
314.624	335.56
314.853	344.56
315.083	323.56
315.312	337.56
315.542	314.56
315.771	329.56
316.001	339.56
316.23	335.56
316.46	335.56
316.689	331.56
316.919	321.56
317.148	340.56
317.377	357.56
317.607	313.56
317.836	323.56
318.065	335.56
318.295	320.56
318.524	346.56
318.753	321.56
318.983	310.56
319.212	329.56
319.441	331.56
319.67	340.56
319.9	332.56
320.129	321.56
320.358	327.56
320.587	341.56
320.816	357.56
321.046	349.56
321.275	371.56
321.504	333.56
321.733	356.56
321.962	334.56
322.191	340.56
322.42	363.56
322.649	366.56
322.878	374.56
323.108	375.56
323.337	378.56
323.566	398.56
323.795	417.56
324.024	440.56
324.253	499.56
324.482	661.56
324.71	965.56
324.939	1295.56
325.168	1076.56
325.397	608.56
325.626	448.56
325.855	415.56
326.084	394.56
326.313	389.56
326.542	402.56
326.77	442.56
326.999	491.56
327.228	611.56
327.457	883.56
327.686	987.56
327.914	675.56
328.143	517.56
328.372	483.56
328.6	457.56
328.829	428.56
329.058	460.56
329.287	451.56
329.515	449.56
329.744	426.56
329.972	426.56
330.201	418.56
330.43	457.56
330.658	470.56
330.887	513.56
331.115	468.56
331.344	426.56
331.572	425.56
331.801	399.56
332.03	435.56
332.258	408.56
332.486	406.56
332.715	390.56
332.943	411.56
333.172	412.56
333.4	427.56
333.629	434.56
333.857	453.56
334.085	461.56
334.314	438.56
334.542	486.56
334.771	471.56
334.999	465.56
335.227	429.56
335.455	437.56
335.684	413.56
335.912	391.56
336.14	406.56
336.369	412.56
336.597	402.56
336.825	383.56
337.053	390.56
337.281	386.56
337.51	380.56
337.738	391.56
337.966	404.56
338.194	398.56
338.422	375.56
338.65	371.56
338.878	381.56
339.106	390.56
339.334	353.56
339.562	381.56
339.79	358.56
340.018	366.56
340.246	366.56
340.474	369.56
340.702	360.56
340.93	367.56
341.158	373.56
341.386	365.56
341.614	369.56
341.842	361.56
342.07	365.56
342.298	372.56
342.526	354.56
342.754	354.56
342.981	354.56
343.209	353.56
343.437	382.56
343.665	381.56
343.893	411.56
344.12	405.56
344.348	393.56
344.576	373.56
344.804	392.56
345.031	381.56
345.259	398.56
345.487	377.56
345.714	371.56
345.942	360.56
346.17	360.56
346.397	355.56
346.625	364.56
346.853	349.56
347.08	341.56
347.308	334.56
347.535	361.56
347.763	365.56
347.99	372.56
348.218	360.56
348.445	353.56
348.673	373.56
348.9	365.56
349.128	357.56
349.355	348.56
349.583	334.56
349.81	350.56
350.037	338.56
350.265	343.56
350.492	348.56
350.72	355.56
350.947	329.56
351.174	355.56
351.402	348.56
351.629	365.56
351.856	357.56
352.083	364.56
352.311	336.56
352.538	357.56
352.765	377.56
352.992	351.56
353.22	349.56
353.447	353.56
353.674	323.56
353.901	343.56
354.128	349.56
354.355	335.56
354.583	340.56
354.81	330.56
355.037	339.56
355.264	339.56
355.491	341.56
355.718	331.56
355.945	336.56
356.172	328.56
356.399	343.56
356.626	325.56
356.853	361.56
357.08	348.56
357.307	351.56
357.534	313.56
357.761	339.56
357.988	310.56
358.215	333.56
358.441	325.56
358.668	323.56
358.895	337.56
359.122	343.56
359.349	352.56
359.576	337.56
359.802	349.56
360.029	359.56
360.256	368.56
360.483	375.56
360.709	354.56
360.936	342.56
361.163	350.56
361.39	357.56
361.616	351.56
361.843	362.56
362.07	344.56
362.296	373.56
362.523	364.56
362.749	351.56
362.976	344.56
363.203	350.56
363.429	354.56
363.656	338.56
363.882	342.56
364.109	345.56
364.335	353.56
364.562	346.56
364.788	332.56
365.015	331.56
365.241	332.56
365.468	346.56
365.694	352.56
365.92	333.56
366.147	330.56
366.373	341.56
366.599	352.56
366.826	326.56
367.052	336.56
367.278	342.56
367.505	364.56
367.731	340.56
367.957	335.56
368.184	338.56
368.41	330.56
368.636	342.56
368.862	350.56
369.089	358.56
369.315	348.56
369.541	333.56
369.767	353.56
369.993	358.56
370.219	333.56
370.445	338.56
370.672	327.56
370.898	348.56
371.124	348.56
371.35	349.56
371.576	338.56
371.802	345.56
372.028	332.56
372.254	324.56
372.48	353.56
372.706	367.56
372.932	373.56
373.158	345.56
373.384	369.56
373.61	360.56
373.835	349.56
374.061	343.56
374.287	360.56
374.513	355.56
374.739	365.56
374.965	362.56
375.191	380.56
375.416	369.56
375.642	356.56
375.868	350.56
376.094	330.56
376.319	341.56
376.545	341.56
376.771	340.56
376.997	358.56
377.222	346.56
377.448	325.56
377.674	330.56
377.899	338.56
378.125	337.56
378.35	349.56
378.576	330.56
378.802	324.56
379.027	329.56
379.253	351.56
379.478	329.56
379.704	332.56
379.929	324.56
380.155	326.56
380.38	346.56
380.606	341.56
380.831	344.56
381.057	357.56
381.282	342.56
381.507	342.56
381.733	343.56
381.958	336.56
382.184	353.56
382.409	349.56
382.634	331.56
382.86	349.56
383.085	353.56
383.31	347.56
383.535	376.56
383.761	364.56
383.986	346.56
384.211	349.56
384.436	375.56
384.662	371.56
384.887	388.56
385.112	378.56
385.337	405.56
385.562	389.56
385.787	376.56
386.013	395.56
386.238	381.56
386.463	382.56
386.688	382.56
386.913	385.56
387.138	394.56
387.363	375.56
387.588	375.56
387.813	382.56
388.038	373.56
388.263	394.56
388.488	389.56
388.713	382.56
388.938	379.56
389.163	399.56
389.387	362.56
389.612	371.56
389.837	380.56
390.062	397.56
390.287	378.56
390.512	374.56
390.736	389.56
390.961	389.56
391.186	390.56
391.411	401.56
391.636	424.56
391.86	403.56
392.085	409.56
392.31	411.56
392.534	383.56
392.759	403.56
392.984	391.56
393.208	381.56
393.433	401.56
393.658	390.56
393.882	393.56
394.107	387.56
394.331	394.56
394.556	401.56
394.78	393.56
395.005	370.56
395.229	403.56
395.454	409.56
395.678	392.56
395.903	412.56
396.127	419.56
396.352	403.56
396.576	400.56
396.801	415.56
397.025	405.56
397.249	409.56
397.474	400.56
397.698	405.56
397.922	413.56
398.147	423.56
398.371	449.56
398.595	426.56
398.82	448.56
399.044	448.56
399.268	499.56
399.492	543.56
399.717	569.56
399.941	584.56
400.165	575.56
400.389	539.56
400.613	506.56
400.837	463.56
401.062	429.56
401.286	449.56
401.51	444.56
401.734	457.56
401.958	458.56
402.182	463.56
402.406	462.56
402.63	459.56
402.854	470.56
403.078	459.56
403.302	469.56
403.526	483.56
403.75	486.56
403.974	467.56
404.198	491.56
404.422	506.56
404.645	490.56
404.869	497.56
405.093	500.56
405.317	518.56
405.541	532.56
405.765	492.56
405.988	491.56
406.212	499.56
406.436	511.56
406.66	515.56
406.883	503.56
407.107	527.56
407.331	541.56
407.555	598.56
407.778	577.56
408.002	569.56
408.226	514.56
408.449	516.56
408.673	524.56
408.896	539.56
409.12	548.56
409.344	518.56
409.567	455.56
409.791	483.56
410.014	472.56
410.238	455.56
410.461	473.56
410.685	458.56
410.908	481.56
411.132	511.56
411.355	515.56
411.578	483.56
411.802	469.56
412.025	450.56
412.249	441.56
412.472	472.56
412.695	501.56
412.919	500.56
413.142	470.56
413.365	461.56
413.589	443.56
413.812	445.56
414.035	442.56
414.258	421.56
414.482	433.56
414.705	456.56
414.928	437.56
415.151	442.56
415.374	449.56
415.597	445.56
415.821	444.56
416.044	425.56
416.267	435.56
416.49	431.56
416.713	425.56
416.936	443.56
417.159	425.56
417.382	445.56
417.605	426.56
417.828	444.56
418.051	451.56
418.274	468.56
418.497	423.56
418.72	448.56
418.943	444.56
419.166	459.56
419.389	466.56
419.611	456.56
419.834	458.56
420.057	466.56
420.28	461.56
420.503	457.56
420.726	449.56
420.948	471.56
421.171	489.56
421.394	531.56
421.617	457.56
421.839	457.56
422.062	454.56
422.285	457.56
422.507	512.56
422.73	543.56
422.953	516.56
423.175	463.56
423.398	457.56
423.621	468.56
423.843	470.56
424.066	522.56
424.288	495.56
424.511	492.56
424.733	537.56
424.956	567.56
425.178	557.56
425.401	542.56
425.623	558.56
425.846	489.56
426.068	449.56
426.291	475.56
426.513	451.56
426.735	475.56
426.958	471.56
427.18	525.56
427.402	608.56
427.625	658.56
427.847	579.56
428.069	505.56
428.292	475.56
428.514	446.56
428.736	426.56
428.958	413.56
429.181	417.56
429.403	437.56
429.625	429.56
429.847	465.56
430.069	493.56
430.292	475.56
430.514	411.56
430.736	403.56
430.958	404.56
431.18	414.56
431.402	410.56
431.624	417.56
431.846	419.56
432.068	414.56
432.29	407.56
432.512	399.56
432.734	413.56
432.956	423.56
433.178	438.56
433.4	402.56
433.622	413.56
433.844	401.56
434.066	417.56
434.287	413.56
434.509	409.56
434.731	435.56
434.953	429.56
435.175	457.56
435.397	459.56
435.618	449.56
435.84	495.56
436.062	533.56
436.284	572.56
436.505	487.56
436.727	447.56
436.949	448.56
437.17	443.56
437.392	418.56
437.614	437.56
437.835	459.56
438.057	507.56
438.278	568.56
438.5	545.56
438.721	607.56
438.943	571.56
439.165	478.56
439.386	464.56
439.608	464.56
439.829	448.56
440.05	478.56
440.272	493.56
440.493	471.56
440.715	437.56
440.936	452.56
441.158	454.56
441.379	442.56
441.6	436.56
441.822	465.56
442.043	495.56
442.264	551.56
442.486	563.56
442.707	497.56
442.928	481.56
443.149	475.56
443.371	493.56
443.592	536.56
443.813	585.56
444.034	580.56
444.255	521.56
444.476	511.56
444.698	508.56
444.919	509.56
445.14	596.56
445.361	526.56
445.582	504.56
445.803	528.56
446.024	603.56
446.245	569.56
446.466	535.56
446.687	475.56
446.908	452.56
447.129	456.56
447.35	440.56
447.571	437.56
447.792	409.56
448.013	396.56
448.234	437.56
448.455	445.56
448.675	513.56
448.896	573.56
449.117	501.56
449.338	505.56
449.559	581.56
449.779	610.56
450	505.56
450.221	449.56
450.442	428.56
450.662	431.56
450.883	425.56
451.104	433.56
451.324	429.56
451.545	411.56
451.766	374.56
451.986	381.56
452.207	399.56
452.428	366.56
452.648	383.56
452.869	388.56
453.089	377.56
453.31	395.56
453.53	383.56
453.751	380.56
453.971	403.56
454.192	374.56
454.412	378.56
454.633	375.56
454.853	383.56
455.073	371.56
455.294	393.56
455.514	418.56
455.734	414.56
455.955	394.56
456.175	384.56
456.395	357.56
456.616	365.56
456.836	365.56
457.056	379.56
457.276	356.56
457.497	365.56
457.717	370.56
457.937	367.56
458.157	380.56
458.377	377.56
458.598	404.56
458.818	421.56
459.038	478.56
459.258	490.56
459.478	453.56
459.698	429.56
459.918	411.56
460.138	403.56
460.358	429.56
460.578	458.56
460.798	442.56
461.018	469.56
461.238	442.56
461.458	442.56
461.678	442.56
461.898	445.56
462.118	452.56
462.338	455.56
462.558	440.56
462.777	480.56
462.997	476.56
463.217	505.56
463.437	531.56
463.657	503.56
463.876	484.56
464.096	494.56
464.316	509.56
464.536	491.56
464.755	493.56
464.975	492.56
465.195	474.56
465.414	509.56
465.634	475.56
465.854	450.56
466.073	431.56
466.293	411.56
466.512	397.56
466.732	414.56
466.951	418.56
467.171	403.56
467.391	394.56
467.61	396.56
467.829	420.56
468.049	427.56
468.268	423.56
468.488	395.56
468.707	394.56
468.927	370.56
469.146	366.56
469.365	397.56
469.585	383.56
469.804	387.56
470.023	411.56
470.243	403.56
470.462	408.56
470.681	437.56
470.901	435.56
471.12	415.56
471.339	405.56
471.558	411.56
471.777	389.56
471.997	405.56
472.216	400.56
472.435	417.56
472.654	415.56
472.873	404.56
473.092	387.56
473.311	379.56
473.53	411.56
473.749	427.56
473.968	424.56
474.187	491.56
474.406	502.56
474.625	406.56
474.844	403.56
475.063	393.56
475.282	374.56
475.501	405.56
475.72	414.56
475.939	417.56
476.158	414.56
476.377	403.56
476.596	391.56
476.814	417.56
477.033	414.56
477.252	422.56
477.471	427.56
477.69	427.56
477.908	426.56
478.127	451.56
478.346	450.56
478.564	444.56
478.783	462.56
479.002	443.56
479.22	443.56
479.439	474.56
479.658	477.56
479.876	490.56
480.095	492.56
480.313	511.56
480.532	485.56
480.751	487.56
480.969	528.56
481.188	539.56
481.406	558.56
481.624	521.56
481.843	468.56
482.061	472.56
482.28	474.56
482.498	458.56
482.717	465.56
482.935	457.56
483.153	451.56
483.372	462.56
483.59	455.56
483.808	466.56
484.027	439.56
484.245	467.56
484.463	454.56
484.681	471.56
484.9	478.56
485.118	479.56
485.336	483.56
485.554	494.56
485.772	500.56
485.99	462.56
486.209	480.56
486.427	474.56
486.645	487.56
486.863	490.56
487.081	489.56
487.299	475.56
487.517	490.56
487.735	502.56
487.953	483.56
488.171	480.56
488.389	468.56
488.607	497.56
488.825	493.56
489.043	481.56
489.261	490.56
489.479	469.56
489.696	488.56
489.914	518.56
490.132	512.56
490.35	495.56
490.568	507.56
490.786	527.56
491.003	533.56
491.221	527.56
491.439	550.56
491.657	579.56
491.874	574.56
492.092	576.56
492.31	575.56
492.527	581.56
492.745	576.56
492.963	574.56
493.18	565.56
493.398	553.56
493.615	572.56
493.833	566.56
494.05	583.56
494.268	584.56
494.485	577.56
494.703	553.56
494.92	589.56
495.138	584.56
495.355	590.56
495.573	554.56
495.79	567.56
496.008	582.56
496.225	572.56
496.442	566.56
496.66	582.56
496.877	563.56
497.094	592.56
497.312	597.56
497.529	612.56
497.746	609.56
497.963	642.56
498.181	659.56
498.398	647.56
498.615	674.56
498.832	691.56
499.049	709.56
499.267	749.56
499.484	789.56
499.701	840.56
499.918	871.56
500.135	919.56
500.352	977.56
500.569	1030.56
500.786	1011.56
501.003	996.56
501.22	939.56
501.437	893.56
501.654	825.56
501.871	781.56
502.088	789.56
