Data from 1969.PennyLincolnUp.Lamp.En5.5.200Scan.071719.P1._HRD10591_14-56-41-973.txt Node
Date: Thu Jul 18 14:56:41 EDT 2019
User: cochatt
Spectrometer: HR+D1059
Trigger mode: 1
Integration Time (sec): 1.000000E-1
Scans to average: 1
Electric dark correction enabled: true
Nonlinearity correction enabled: false
Boxcar width: 0
XAxis mode: Wavelengths
Number of Pixels in Spectrum: 2048
>>>>>Begin Spectral Data<<<<<
223.165	-7.38
223.4	-7.38
223.635	-7.38
223.869	-3.38
224.104	-12.38
224.338	-22.38
224.573	-21.38
224.808	-3.38
225.042	-13.38
225.277	-9.38
225.511	-8.38
225.746	11.62
225.98	4.62
226.215	6.62
226.449	11.62
226.683	11.62
226.918	24.62
227.152	30.62
227.387	29.62
227.621	45.62
227.856	40.62
228.09	46.62
228.324	50.62
228.559	50.62
228.793	69.62
229.027	96.62
229.262	82.62
229.496	80.62
229.73	95.62
229.964	105.62
230.199	104.62
230.433	100.62
230.667	103.62
230.901	98.62
231.136	104.62
231.37	91.62
231.604	100.62
231.838	96.62
232.072	100.62
232.306	104.62
232.541	92.62
232.775	91.62
233.009	104.62
233.243	106.62
233.477	120.62
233.711	114.62
233.945	100.62
234.179	101.62
234.413	99.62
234.647	107.62
234.881	117.62
235.115	121.62
235.349	108.62
235.583	94.62
235.817	110.62
236.051	117.62
236.285	120.62
236.519	115.62
236.753	118.62
236.987	127.62
237.221	150.62
237.455	157.62
237.689	127.62
237.922	108.62
238.156	111.62
238.39	116.62
238.624	109.62
238.858	112.62
239.091	118.62
239.325	96.62
239.559	104.62
239.793	104.62
240.027	119.62
240.26	126.62
240.494	119.62
240.728	138.62
240.961	136.62
241.195	128.62
241.429	123.62
241.662	116.62
241.896	116.62
242.13	104.62
242.363	128.62
242.597	106.62
242.83	116.62
243.064	124.62
243.298	108.62
243.531	121.62
243.765	114.62
243.998	126.62
244.232	137.62
244.465	125.62
244.699	99.62
244.932	109.62
245.166	122.62
245.399	133.62
245.633	130.62
245.866	116.62
246.099	133.62
246.333	136.62
246.566	141.62
246.8	142.62
247.033	146.62
247.266	137.62
247.5	126.62
247.733	139.62
247.966	145.62
248.2	139.62
248.433	144.62
248.666	146.62
248.899	161.62
249.133	157.62
249.366	173.62
249.599	151.62
249.832	158.62
250.066	168.62
250.299	166.62
250.532	164.62
250.765	175.62
250.998	179.62
251.231	194.62
251.465	170.62
251.698	173.62
251.931	166.62
252.164	175.62
252.397	164.62
252.63	164.62
252.863	170.62
253.096	177.62
253.329	173.62
253.562	170.62
253.795	181.62
254.028	182.62
254.261	197.62
254.494	173.62
254.727	206.62
254.96	235.62
255.193	206.62
255.426	174.62
255.659	187.62
255.892	186.62
256.124	189.62
256.357	198.62
256.59	189.62
256.823	192.62
257.056	166.62
257.289	169.62
257.521	172.62
257.754	168.62
257.987	171.62
258.22	168.62
258.452	183.62
258.685	169.62
258.918	180.62
259.151	166.62
259.383	186.62
259.616	194.62
259.849	191.62
260.081	210.62
260.314	207.62
260.547	202.62
260.779	196.62
261.012	187.62
261.244	193.62
261.477	194.62
261.71	197.62
261.942	182.62
262.175	176.62
262.407	188.62
262.64	180.62
262.872	147.62
263.105	183.62
263.337	173.62
263.57	176.62
263.802	175.62
264.035	177.62
264.267	180.62
264.499	173.62
264.732	188.62
264.964	182.62
265.197	171.62
265.429	182.62
265.661	159.62
265.894	167.62
266.126	196.62
266.358	173.62
266.591	185.62
266.823	184.62
267.055	189.62
267.287	187.62
267.52	193.62
267.752	178.62
267.984	193.62
268.216	197.62
268.448	189.62
268.681	206.62
268.913	204.62
269.145	231.62
269.377	216.62
269.609	235.62
269.841	221.62
270.073	195.62
270.306	237.62
270.538	257.62
270.77	256.62
271.002	246.62
271.234	222.62
271.466	244.62
271.698	251.62
271.93	253.62
272.162	260.62
272.394	258.62
272.626	237.62
272.858	225.62
273.09	226.62
273.322	232.62
273.553	213.62
273.785	207.62
274.017	203.62
274.249	217.62
274.481	212.62
274.713	209.62
274.945	219.62
275.176	228.62
275.408	204.62
275.64	230.62
275.872	221.62
276.104	210.62
276.335	213.62
276.567	232.62
276.799	234.62
277.031	233.62
277.262	259.62
277.494	283.62
277.726	243.62
277.957	227.62
278.189	225.62
278.421	226.62
278.652	231.62
278.884	236.62
279.115	232.62
279.347	205.62
279.579	220.62
279.81	218.62
280.042	222.62
280.273	223.62
280.505	219.62
280.736	236.62
280.968	220.62
281.199	234.62
281.431	231.62
281.662	233.62
281.894	249.62
282.125	233.62
282.356	229.62
282.588	238.62
282.819	238.62
283.051	241.62
283.282	228.62
283.513	241.62
283.745	245.62
283.976	249.62
284.207	241.62
284.439	248.62
284.67	231.62
284.901	217.62
285.132	233.62
285.364	225.62
285.595	258.62
285.826	242.62
286.057	254.62
286.288	235.62
286.52	233.62
286.751	243.62
286.982	235.62
287.213	225.62
287.444	249.62
287.675	259.62
287.906	273.62
288.138	258.62
288.369	254.62
288.6	243.62
288.831	247.62
289.062	240.62
289.293	245.62
289.524	255.62
289.755	266.62
289.986	250.62
290.217	242.62
290.448	255.62
290.679	248.62
290.91	243.62
291.141	276.62
291.371	253.62
291.602	256.62
291.833	265.62
292.064	250.62
292.295	237.62
292.526	257.62
292.757	250.62
292.987	250.62
293.218	277.62
293.449	246.62
293.68	263.62
293.91	258.62
294.141	257.62
294.372	249.62
294.603	242.62
294.833	255.62
295.064	265.62
295.295	259.62
295.525	248.62
295.756	237.62
295.987	274.62
296.217	280.62
296.448	268.62
296.679	271.62
296.909	257.62
297.14	252.62
297.37	268.62
297.601	267.62
297.831	251.62
298.062	259.62
298.292	263.62
298.523	275.62
298.753	280.62
298.984	265.62
299.214	269.62
299.445	272.62
299.675	278.62
299.905	288.62
300.136	276.62
300.366	280.62
300.597	279.62
300.827	273.62
301.057	298.62
301.288	288.62
301.518	290.62
301.748	292.62
301.979	293.62
302.209	274.62
302.439	270.62
302.669	306.62
302.9	286.62
303.13	293.62
303.36	290.62
303.59	297.62
303.82	302.62
304.051	275.62
304.281	288.62
304.511	272.62
304.741	277.62
304.971	276.62
305.201	289.62
305.431	276.62
305.661	285.62
305.891	281.62
306.121	278.62
306.352	310.62
306.582	293.62
306.812	279.62
307.042	288.62
307.272	286.62
307.502	289.62
307.731	282.62
307.961	287.62
308.191	306.62
308.421	278.62
308.651	286.62
308.881	281.62
309.111	281.62
309.341	288.62
309.571	314.62
309.8	295.62
310.03	312.62
310.26	307.62
310.49	313.62
310.72	308.62
310.949	318.62
311.179	328.62
311.409	316.62
311.639	292.62
311.868	307.62
312.098	304.62
312.328	309.62
312.557	323.62
312.787	333.62
313.017	348.62
313.246	317.62
313.476	325.62
313.706	296.62
313.935	330.62
314.165	327.62
314.394	325.62
314.624	316.62
314.853	300.62
315.083	325.62
315.312	316.62
315.542	318.62
315.771	315.62
316.001	306.62
316.23	326.62
316.46	308.62
316.689	323.62
316.919	295.62
317.148	331.62
317.377	321.62
317.607	322.62
317.836	305.62
318.065	283.62
318.295	306.62
318.524	306.62
318.753	327.62
318.983	315.62
319.212	316.62
319.441	334.62
319.67	334.62
319.9	326.62
320.129	311.62
320.358	323.62
320.587	316.62
320.816	326.62
321.046	320.62
321.275	329.62
321.504	334.62
321.733	334.62
321.962	325.62
322.191	343.62
322.42	347.62
322.649	339.62
322.878	363.62
323.108	348.62
323.337	352.62
323.566	386.62
323.795	377.62
324.024	402.62
324.253	461.62
324.482	604.62
324.71	884.62
324.939	1155.62
325.168	956.62
325.397	561.62
325.626	422.62
325.855	388.62
326.084	365.62
326.313	354.62
326.542	368.62
326.77	390.62
326.999	449.62
327.228	549.62
327.457	762.62
327.686	882.62
327.914	620.62
328.143	474.62
328.372	429.62
328.6	416.62
328.829	410.62
329.058	406.62
329.287	411.62
329.515	389.62
329.744	394.62
329.972	386.62
330.201	405.62
330.43	425.62
330.658	446.62
330.887	440.62
331.115	444.62
331.344	391.62
331.572	404.62
331.801	390.62
332.03	380.62
332.258	385.62
332.486	370.62
332.715	356.62
332.943	381.62
333.172	400.62
333.4	402.62
333.629	422.62
333.857	427.62
334.085	422.62
334.314	436.62
334.542	452.62
334.771	451.62
334.999	410.62
335.227	396.62
335.455	368.62
335.684	395.62
335.912	380.62
336.14	385.62
336.369	374.62
336.597	371.62
336.825	361.62
337.053	364.62
337.281	368.62
337.51	358.62
337.738	384.62
337.966	380.62
338.194	369.62
338.422	366.62
338.65	348.62
338.878	365.62
339.106	372.62
339.334	359.62
339.562	349.62
339.79	357.62
340.018	361.62
340.246	363.62
340.474	347.62
340.702	356.62
340.93	350.62
341.158	375.62
341.386	350.62
341.614	358.62
341.842	353.62
342.07	335.62
342.298	356.62
342.526	347.62
342.754	333.62
342.981	336.62
343.209	350.62
343.437	348.62
343.665	354.62
343.893	372.62
344.12	382.62
344.348	379.62
344.576	377.62
344.804	356.62
345.031	362.62
345.259	343.62
345.487	345.62
345.714	349.62
345.942	348.62
346.17	346.62
346.397	341.62
346.625	342.62
346.853	313.62
347.08	314.62
347.308	330.62
347.535	338.62
347.763	313.62
347.99	348.62
348.218	330.62
348.445	363.62
348.673	345.62
348.9	318.62
349.128	332.62
349.355	308.62
349.583	318.62
349.81	332.62
350.037	331.62
350.265	321.62
350.492	322.62
350.72	325.62
350.947	341.62
351.174	339.62
351.402	346.62
351.629	341.62
351.856	345.62
352.083	349.62
352.311	342.62
352.538	347.62
352.765	332.62
352.992	349.62
353.22	321.62
353.447	334.62
353.674	338.62
353.901	345.62
354.128	321.62
354.355	300.62
354.583	306.62
354.81	322.62
355.037	334.62
355.264	320.62
355.491	317.62
355.718	295.62
355.945	304.62
356.172	320.62
356.399	311.62
356.626	341.62
356.853	324.62
357.08	322.62
357.307	317.62
357.534	300.62
357.761	311.62
357.988	314.62
358.215	328.62
358.441	331.62
358.668	334.62
358.895	313.62
359.122	312.62
359.349	313.62
359.576	336.62
359.802	314.62
360.029	358.62
360.256	366.62
360.483	352.62
360.709	321.62
360.936	355.62
361.163	331.62
361.39	312.62
361.616	319.62
361.843	319.62
362.07	321.62
362.296	342.62
362.523	316.62
362.749	347.62
362.976	353.62
363.203	312.62
363.429	306.62
363.656	320.62
363.882	304.62
364.109	308.62
364.335	321.62
364.562	314.62
364.788	320.62
365.015	294.62
365.241	324.62
365.468	315.62
365.694	296.62
365.92	313.62
366.147	316.62
366.373	332.62
366.599	321.62
366.826	331.62
367.052	327.62
367.278	321.62
367.505	326.62
367.731	316.62
367.957	313.62
368.184	333.62
368.41	318.62
368.636	341.62
368.862	338.62
369.089	321.62
369.315	323.62
369.541	308.62
369.767	313.62
369.993	313.62
370.219	332.62
370.445	315.62
370.672	328.62
370.898	324.62
371.124	335.62
371.35	317.62
371.576	333.62
371.802	327.62
372.028	321.62
372.254	331.62
372.48	326.62
372.706	330.62
372.932	333.62
373.158	349.62
373.384	337.62
373.61	312.62
373.835	357.62
374.061	318.62
374.287	348.62
374.513	327.62
374.739	341.62
374.965	335.62
375.191	340.62
375.416	346.62
375.642	329.62
375.868	319.62
376.094	323.62
376.319	344.62
376.545	325.62
376.771	344.62
376.997	331.62
377.222	333.62
377.448	346.62
377.674	322.62
377.899	320.62
378.125	321.62
378.35	334.62
378.576	314.62
378.802	323.62
379.027	349.62
379.253	317.62
379.478	322.62
379.704	338.62
379.929	331.62
380.155	338.62
380.38	328.62
380.606	334.62
380.831	329.62
381.057	328.62
381.282	333.62
381.507	318.62
381.733	340.62
381.958	319.62
382.184	338.62
382.409	334.62
382.634	330.62
382.86	344.62
383.085	330.62
383.31	338.62
383.535	342.62
383.761	346.62
383.986	344.62
384.211	344.62
384.436	368.62
384.662	361.62
384.887	352.62
385.112	362.62
385.337	357.62
385.562	360.62
385.787	377.62
386.013	375.62
386.238	355.62
386.463	358.62
386.688	364.62
386.913	359.62
387.138	377.62
387.363	363.62
387.588	375.62
387.813	346.62
388.038	324.62
388.263	373.62
388.488	357.62
388.713	357.62
388.938	364.62
389.163	354.62
389.387	351.62
389.612	385.62
389.837	359.62
390.062	372.62
390.287	358.62
390.512	363.62
390.736	359.62
390.961	369.62
391.186	371.62
391.411	375.62
391.636	381.62
391.86	374.62
392.085	380.62
392.31	366.62
392.534	384.62
392.759	388.62
392.984	383.62
393.208	395.62
393.433	391.62
393.658	360.62
393.882	373.62
394.107	358.62
394.331	380.62
394.556	365.62
394.78	366.62
395.005	360.62
395.229	365.62
395.454	380.62
395.678	398.62
395.903	397.62
396.127	398.62
396.352	393.62
396.576	381.62
396.801	377.62
397.025	376.62
397.249	390.62
397.474	411.62
397.698	391.62
397.922	415.62
398.147	404.62
398.371	390.62
398.595	411.62
398.82	448.62
399.044	448.62
399.268	473.62
399.492	496.62
399.717	538.62
399.941	553.62
400.165	518.62
400.389	500.62
400.613	474.62
400.837	445.62
401.062	437.62
401.286	428.62
401.51	424.62
401.734	412.62
401.958	441.62
402.182	433.62
402.406	455.62
402.63	444.62
402.854	439.62
403.078	453.62
403.302	449.62
403.526	425.62
403.75	458.62
403.974	434.62
404.198	436.62
404.422	468.62
404.645	459.62
404.869	469.62
405.093	486.62
405.317	502.62
405.541	514.62
405.765	486.62
405.988	465.62
406.212	468.62
406.436	477.62
406.66	496.62
406.883	490.62
407.107	516.62
407.331	528.62
407.555	563.62
407.778	561.62
408.002	524.62
408.226	488.62
408.449	478.62
408.673	479.62
408.896	508.62
409.12	506.62
409.344	498.62
409.567	440.62
409.791	452.62
410.014	443.62
410.238	449.62
410.461	444.62
410.685	432.62
410.908	463.62
411.132	465.62
411.355	493.62
411.578	464.62
411.802	436.62
412.025	453.62
412.249	452.62
412.472	447.62
412.695	461.62
412.919	465.62
413.142	422.62
413.365	441.62
413.589	434.62
413.812	444.62
414.035	428.62
414.258	417.62
414.482	386.62
414.705	435.62
414.928	396.62
415.151	414.62
415.374	426.62
415.597	413.62
415.821	405.62
416.044	421.62
416.267	390.62
416.49	422.62
416.713	420.62
416.936	413.62
417.159	445.62
417.382	429.62
417.605	411.62
417.828	408.62
418.051	425.62
418.274	434.62
418.497	420.62
418.72	439.62
418.943	419.62
419.166	448.62
419.389	460.62
419.611	463.62
419.834	442.62
420.057	434.62
420.28	444.62
420.503	442.62
420.726	436.62
420.948	434.62
421.171	475.62
421.394	467.62
421.617	435.62
421.839	414.62
422.062	422.62
422.285	436.62
422.507	476.62
422.73	523.62
422.953	476.62
423.175	460.62
423.398	445.62
423.621	453.62
423.843	472.62
424.066	468.62
424.288	472.62
424.511	482.62
424.733	506.62
424.956	520.62
425.178	507.62
425.401	500.62
425.623	521.62
425.846	455.62
426.068	454.62
426.291	436.62
426.513	439.62
426.735	443.62
426.958	477.62
427.18	502.62
427.402	578.62
427.625	612.62
427.847	553.62
428.069	490.62
428.292	442.62
428.514	425.62
428.736	440.62
428.958	408.62
429.181	413.62
429.403	402.62
429.625	393.62
429.847	423.62
430.069	450.62
430.292	456.62
430.514	414.62
430.736	400.62
430.958	402.62
431.18	402.62
431.402	396.62
431.624	396.62
431.846	413.62
432.068	390.62
432.29	394.62
432.512	390.62
432.734	403.62
432.956	394.62
433.178	391.62
433.4	388.62
433.622	409.62
433.844	415.62
434.066	374.62
434.287	406.62
434.509	398.62
434.731	404.62
434.953	422.62
435.175	414.62
435.397	452.62
435.618	451.62
435.84	448.62
436.062	510.62
436.284	529.62
436.505	450.62
436.727	428.62
436.949	409.62
437.17	401.62
437.392	396.62
437.614	412.62
437.835	418.62
438.057	466.62
438.278	524.62
438.5	531.62
438.721	552.62
438.943	539.62
439.165	460.62
439.386	432.62
439.608	442.62
439.829	433.62
440.05	459.62
440.272	452.62
440.493	440.62
440.715	436.62
440.936	427.62
441.158	411.62
441.379	423.62
441.6	441.62
441.822	441.62
442.043	464.62
442.264	502.62
442.486	524.62
442.707	457.62
442.928	434.62
443.149	458.62
443.371	478.62
443.592	483.62
443.813	552.62
444.034	562.62
444.255	491.62
444.476	480.62
444.698	486.62
444.919	487.62
445.14	578.62
445.361	514.62
445.582	502.62
445.803	494.62
446.024	539.62
446.245	537.62
446.466	496.62
446.687	438.62
446.908	437.62
447.129	407.62
447.35	412.62
447.571	395.62
447.792	398.62
448.013	408.62
448.234	398.62
448.455	426.62
448.675	509.62
448.896	540.62
449.117	472.62
449.338	469.62
449.559	518.62
449.779	558.62
450	458.62
450.221	452.62
450.442	397.62
450.662	390.62
450.883	388.62
451.104	408.62
451.324	374.62
451.545	380.62
451.766	370.62
451.986	374.62
452.207	363.62
452.428	353.62
452.648	366.62
452.869	365.62
453.089	379.62
453.31	384.62
453.53	383.62
453.751	360.62
453.971	358.62
454.192	350.62
454.412	365.62
454.633	361.62
454.853	362.62
455.073	338.62
455.294	383.62
455.514	419.62
455.734	416.62
455.955	353.62
456.175	368.62
456.395	352.62
456.616	351.62
456.836	343.62
457.056	320.62
457.276	355.62
457.497	346.62
457.717	352.62
457.937	375.62
458.157	356.62
458.377	372.62
458.598	370.62
458.818	399.62
459.038	456.62
459.258	457.62
459.478	419.62
459.698	381.62
459.918	401.62
460.138	403.62
460.358	420.62
460.578	417.62
460.798	421.62
461.018	440.62
461.238	409.62
461.458	418.62
461.678	419.62
461.898	414.62
462.118	441.62
462.338	448.62
462.558	438.62
462.777	446.62
462.997	474.62
463.217	481.62
463.437	504.62
463.657	462.62
463.876	470.62
464.096	450.62
464.316	469.62
464.536	456.62
464.755	453.62
464.975	454.62
465.195	472.62
465.414	491.62
465.634	413.62
465.854	414.62
466.073	407.62
466.293	398.62
466.512	373.62
466.732	381.62
466.951	375.62
467.171	382.62
467.391	372.62
467.61	379.62
467.829	388.62
468.049	390.62
468.268	390.62
468.488	356.62
468.707	373.62
468.927	363.62
469.146	362.62
469.365	365.62
469.585	381.62
469.804	382.62
470.023	370.62
470.243	390.62
470.462	401.62
470.681	406.62
470.901	399.62
471.12	407.62
471.339	388.62
471.558	402.62
471.777	370.62
471.997	357.62
472.216	372.62
472.435	416.62
472.654	406.62
472.873	365.62
473.092	366.62
473.311	355.62
473.53	376.62
473.749	382.62
473.968	404.62
474.187	461.62
474.406	461.62
474.625	398.62
474.844	385.62
475.063	369.62
475.282	366.62
475.501	377.62
475.72	382.62
475.939	367.62
476.158	387.62
476.377	390.62
476.596	373.62
476.814	392.62
477.033	402.62
477.252	415.62
477.471	395.62
477.69	396.62
477.908	410.62
478.127	432.62
478.346	410.62
478.564	435.62
478.783	429.62
479.002	434.62
479.22	445.62
479.439	440.62
479.658	449.62
479.876	453.62
480.095	447.62
480.313	473.62
480.532	480.62
480.751	475.62
480.969	500.62
481.188	484.62
481.406	529.62
481.624	468.62
481.843	454.62
482.061	435.62
482.28	437.62
482.498	428.62
482.717	425.62
482.935	406.62
483.153	420.62
483.372	419.62
483.59	418.62
483.808	447.62
484.027	453.62
484.245	433.62
484.463	438.62
484.681	449.62
484.9	449.62
485.118	454.62
485.336	427.62
485.554	449.62
485.772	447.62
485.99	456.62
486.209	450.62
486.427	462.62
486.645	460.62
486.863	443.62
487.081	450.62
487.299	444.62
487.517	454.62
487.735	445.62
487.953	474.62
488.171	474.62
488.389	443.62
488.607	481.62
488.825	464.62
489.043	458.62
489.261	460.62
489.479	458.62
489.696	469.62
489.914	463.62
490.132	472.62
490.35	469.62
490.568	474.62
490.786	482.62
491.003	486.62
491.221	514.62
491.439	512.62
491.657	530.62
491.874	521.62
492.092	541.62
492.31	522.62
492.527	522.62
492.745	547.62
492.963	510.62
493.18	528.62
493.398	548.62
493.615	544.62
493.833	535.62
494.05	554.62
494.268	569.62
494.485	540.62
494.703	539.62
494.92	555.62
495.138	550.62
495.355	517.62
495.573	554.62
495.79	526.62
496.008	554.62
496.225	545.62
496.442	581.62
496.66	565.62
496.877	536.62
497.094	572.62
497.312	556.62
497.529	572.62
497.746	565.62
497.963	588.62
498.181	607.62
498.398	628.62
498.615	630.62
498.832	641.62
499.049	699.62
499.267	718.62
499.484	732.62
499.701	770.62
499.918	844.62
500.135	889.62
500.352	975.62
500.569	946.62
500.786	982.62
501.003	961.62
501.22	885.62
501.437	833.62
501.654	820.62
501.871	757.62
502.088	725.62
502.305	677.62
