Data from 1969.PennyLincolnUp.Lamp.En5.5.200Scan.071719.P1._HRD10591_14-56-24-973.txt Node
Date: Thu Jul 18 14:56:24 EDT 2019
User: cochatt
Spectrometer: HR+D1059
Trigger mode: 1
Integration Time (sec): 1.000000E-1
Scans to average: 1
Electric dark correction enabled: true
Nonlinearity correction enabled: false
Boxcar width: 0
XAxis mode: Wavelengths
Number of Pixels in Spectrum: 2048
>>>>>Begin Spectral Data<<<<<
223.165	-14.31
223.4	-14.31
223.635	-14.31
223.869	-18.31
224.104	-17.31
224.338	-9.31
224.573	0.69
224.808	-6.31
225.042	-6.31
225.277	-2.31
225.511	-1.31
225.746	5.69
225.98	6.69
226.215	2.69
226.449	10.69
226.683	11.69
226.918	11.69
227.152	25.69
227.387	46.69
227.621	34.69
227.856	40.69
228.09	41.69
228.324	41.69
228.559	63.69
228.793	68.69
229.027	77.69
229.262	94.69
229.496	101.69
229.73	116.69
229.964	124.69
230.199	111.69
230.433	90.69
230.667	105.69
230.901	80.69
231.136	91.69
231.37	112.69
231.604	117.69
231.838	100.69
232.072	116.69
232.306	103.69
232.541	104.69
232.775	98.69
233.009	116.69
233.243	125.69
233.477	105.69
233.711	110.69
233.945	95.69
234.179	127.69
234.413	123.69
234.647	111.69
234.881	106.69
235.115	104.69
235.349	105.69
235.583	100.69
235.817	105.69
236.051	101.69
236.285	114.69
236.519	114.69
236.753	128.69
236.987	123.69
237.221	163.69
237.455	171.69
237.689	137.69
237.922	109.69
238.156	118.69
238.39	136.69
238.624	115.69
238.858	128.69
239.091	114.69
239.325	119.69
239.559	106.69
239.793	120.69
240.027	122.69
240.26	124.69
240.494	138.69
240.728	144.69
240.961	116.69
241.195	127.69
241.429	132.69
241.662	124.69
241.896	126.69
242.13	114.69
242.363	130.69
242.597	134.69
242.83	138.69
243.064	111.69
243.298	132.69
243.531	134.69
243.765	128.69
243.998	132.69
244.232	125.69
244.465	138.69
244.699	136.69
244.932	132.69
245.166	126.69
245.399	132.69
245.633	141.69
245.866	139.69
246.099	135.69
246.333	147.69
246.566	129.69
246.8	138.69
247.033	131.69
247.266	133.69
247.5	144.69
247.733	155.69
247.966	141.69
248.2	155.69
248.433	167.69
248.666	144.69
248.899	154.69
249.133	168.69
249.366	171.69
249.599	161.69
249.832	150.69
250.066	145.69
250.299	162.69
250.532	181.69
250.765	170.69
250.998	186.69
251.231	178.69
251.465	170.69
251.698	175.69
251.931	157.69
252.164	159.69
252.397	157.69
252.63	197.69
252.863	197.69
253.096	200.69
253.329	189.69
253.562	175.69
253.795	183.69
254.028	179.69
254.261	197.69
254.494	182.69
254.727	202.69
254.96	235.69
255.193	212.69
255.426	188.69
255.659	204.69
255.892	201.69
256.124	205.69
256.357	195.69
256.59	195.69
256.823	180.69
257.056	185.69
257.289	185.69
257.521	179.69
257.754	179.69
257.987	183.69
258.22	164.69
258.452	166.69
258.685	170.69
258.918	191.69
259.151	190.69
259.383	152.69
259.616	186.69
259.849	190.69
260.081	195.69
260.314	199.69
260.547	214.69
260.779	217.69
261.012	202.69
261.244	198.69
261.477	197.69
261.71	188.69
261.942	190.69
262.175	199.69
262.407	207.69
262.64	183.69
262.872	199.69
263.105	183.69
263.337	187.69
263.57	179.69
263.802	195.69
264.035	189.69
264.267	198.69
264.499	202.69
264.732	204.69
264.964	192.69
265.197	183.69
265.429	204.69
265.661	180.69
265.894	187.69
266.126	196.69
266.358	196.69
266.591	197.69
266.823	205.69
267.055	211.69
267.287	205.69
267.52	213.69
267.752	202.69
267.984	211.69
268.216	221.69
268.448	211.69
268.681	199.69
268.913	228.69
269.145	228.69
269.377	255.69
269.609	235.69
269.841	229.69
270.073	228.69
270.306	235.69
270.538	259.69
270.77	257.69
271.002	268.69
271.234	238.69
271.466	247.69
271.698	276.69
271.93	255.69
272.162	283.69
272.394	270.69
272.626	250.69
272.858	251.69
273.09	240.69
273.322	240.69
273.553	243.69
273.785	228.69
274.017	236.69
274.249	231.69
274.481	217.69
274.713	240.69
274.945	244.69
275.176	227.69
275.408	221.69
275.64	216.69
275.872	235.69
276.104	223.69
276.335	236.69
276.567	231.69
276.799	270.69
277.031	259.69
277.262	262.69
277.494	278.69
277.726	251.69
277.957	258.69
278.189	234.69
278.421	239.69
278.652	243.69
278.884	258.69
279.115	253.69
279.347	241.69
279.579	232.69
279.81	233.69
280.042	255.69
280.273	226.69
280.505	231.69
280.736	248.69
280.968	242.69
281.199	267.69
281.431	241.69
281.662	252.69
281.894	239.69
282.125	253.69
282.356	242.69
282.588	260.69
282.819	275.69
283.051	242.69
283.282	250.69
283.513	238.69
283.745	265.69
283.976	262.69
284.207	270.69
284.439	261.69
284.67	251.69
284.901	260.69
285.132	266.69
285.364	253.69
285.595	255.69
285.826	271.69
286.057	256.69
286.288	259.69
286.52	267.69
286.751	242.69
286.982	272.69
287.213	250.69
287.444	256.69
287.675	264.69
287.906	280.69
288.138	272.69
288.369	273.69
288.6	271.69
288.831	268.69
289.062	260.69
289.293	279.69
289.524	271.69
289.755	260.69
289.986	268.69
290.217	266.69
290.448	255.69
290.679	272.69
290.91	271.69
291.141	257.69
291.371	282.69
291.602	264.69
291.833	280.69
292.064	270.69
292.295	273.69
292.526	266.69
292.757	266.69
292.987	278.69
293.218	278.69
293.449	286.69
293.68	269.69
293.91	270.69
294.141	268.69
294.372	253.69
294.603	258.69
294.833	268.69
295.064	267.69
295.295	278.69
295.525	276.69
295.756	282.69
295.987	275.69
296.217	300.69
296.448	283.69
296.679	276.69
296.909	292.69
297.14	288.69
297.37	282.69
297.601	279.69
297.831	292.69
298.062	281.69
298.292	290.69
298.523	297.69
298.753	286.69
298.984	275.69
299.214	278.69
299.445	294.69
299.675	275.69
299.905	286.69
300.136	294.69
300.366	307.69
300.597	297.69
300.827	286.69
301.057	310.69
301.288	299.69
301.518	309.69
301.748	324.69
301.979	298.69
302.209	309.69
302.439	307.69
302.669	316.69
302.9	311.69
303.13	303.69
303.36	306.69
303.59	303.69
303.82	296.69
304.051	310.69
304.281	308.69
304.511	294.69
304.741	296.69
304.971	307.69
305.201	300.69
305.431	310.69
305.661	290.69
305.891	285.69
306.121	312.69
306.352	303.69
306.582	306.69
306.812	289.69
307.042	290.69
307.272	283.69
307.502	306.69
307.731	309.69
307.961	311.69
308.191	300.69
308.421	308.69
308.651	300.69
308.881	329.69
309.111	310.69
309.341	311.69
309.571	312.69
309.8	299.69
310.03	323.69
310.26	318.69
310.49	330.69
310.72	316.69
310.949	340.69
311.179	334.69
311.409	326.69
311.639	323.69
311.868	326.69
312.098	332.69
312.328	318.69
312.557	319.69
312.787	342.69
313.017	343.69
313.246	326.69
313.476	327.69
313.706	320.69
313.935	327.69
314.165	339.69
314.394	343.69
314.624	331.69
314.853	351.69
315.083	356.69
315.312	336.69
315.542	355.69
315.771	323.69
316.001	326.69
316.23	328.69
316.46	330.69
316.689	337.69
316.919	326.69
317.148	354.69
317.377	339.69
317.607	340.69
317.836	339.69
318.065	328.69
318.295	326.69
318.524	346.69
318.753	325.69
318.983	318.69
319.212	330.69
319.441	346.69
319.67	341.69
319.9	322.69
320.129	335.69
320.358	335.69
320.587	331.69
320.816	344.69
321.046	351.69
321.275	332.69
321.504	318.69
321.733	328.69
321.962	325.69
322.191	354.69
322.42	349.69
322.649	359.69
322.878	359.69
323.108	360.69
323.337	392.69
323.566	384.69
323.795	412.69
324.024	432.69
324.253	501.69
324.482	652.69
324.71	903.69
324.939	1244.69
325.168	1018.69
325.397	594.69
325.626	453.69
325.855	412.69
326.084	403.69
326.313	414.69
326.542	393.69
326.77	425.69
326.999	495.69
327.228	618.69
327.457	875.69
327.686	951.69
327.914	666.69
328.143	493.69
328.372	462.69
328.6	442.69
328.829	437.69
329.058	414.69
329.287	447.69
329.515	411.69
329.744	392.69
329.972	395.69
330.201	432.69
330.43	447.69
330.658	484.69
330.887	475.69
331.115	463.69
331.344	427.69
331.572	410.69
331.801	410.69
332.03	388.69
332.258	399.69
332.486	418.69
332.715	396.69
332.943	395.69
333.172	408.69
333.4	424.69
333.629	436.69
333.857	432.69
334.085	454.69
334.314	437.69
334.542	461.69
334.771	483.69
334.999	442.69
335.227	430.69
335.455	424.69
335.684	415.69
335.912	406.69
336.14	399.69
336.369	392.69
336.597	399.69
336.825	415.69
337.053	409.69
337.281	383.69
337.51	386.69
337.738	390.69
337.966	390.69
338.194	395.69
338.422	403.69
338.65	410.69
338.878	383.69
339.106	379.69
339.334	384.69
339.562	368.69
339.79	375.69
340.018	367.69
340.246	372.69
340.474	380.69
340.702	386.69
340.93	367.69
341.158	356.69
341.386	351.69
341.614	350.69
341.842	376.69
342.07	365.69
342.298	371.69
342.526	334.69
342.754	378.69
342.981	374.69
343.209	366.69
343.437	393.69
343.665	378.69
343.893	400.69
344.12	411.69
344.348	392.69
344.576	378.69
344.804	394.69
345.031	384.69
345.259	376.69
345.487	379.69
345.714	383.69
345.942	346.69
346.17	356.69
346.397	364.69
346.625	364.69
346.853	348.69
347.08	350.69
347.308	346.69
347.535	371.69
347.763	359.69
347.99	357.69
348.218	380.69
348.445	375.69
348.673	357.69
348.9	368.69
349.128	344.69
349.355	334.69
349.583	326.69
349.81	348.69
350.037	342.69
350.265	344.69
350.492	348.69
350.72	353.69
350.947	339.69
351.174	384.69
351.402	352.69
351.629	349.69
351.856	346.69
352.083	348.69
352.311	376.69
352.538	370.69
352.765	353.69
352.992	362.69
353.22	350.69
353.447	349.69
353.674	348.69
353.901	326.69
354.128	330.69
354.355	331.69
354.583	343.69
354.81	345.69
355.037	340.69
355.264	338.69
355.491	343.69
355.718	343.69
355.945	339.69
356.172	302.69
356.399	347.69
356.626	340.69
356.853	340.69
357.08	339.69
357.307	354.69
357.534	337.69
357.761	352.69
357.988	345.69
358.215	356.69
358.441	340.69
358.668	325.69
358.895	342.69
359.122	349.69
359.349	330.69
359.576	355.69
359.802	363.69
360.029	390.69
360.256	383.69
360.483	372.69
360.709	364.69
360.936	373.69
361.163	363.69
361.39	357.69
361.616	357.69
361.843	341.69
362.07	372.69
362.296	352.69
362.523	330.69
362.749	365.69
362.976	339.69
363.203	337.69
363.429	341.69
363.656	354.69
363.882	359.69
364.109	348.69
364.335	339.69
364.562	327.69
364.788	344.69
365.015	336.69
365.241	324.69
365.468	336.69
365.694	334.69
365.92	343.69
366.147	326.69
366.373	342.69
366.599	342.69
366.826	336.69
367.052	317.69
367.278	331.69
367.505	317.69
367.731	329.69
367.957	326.69
368.184	357.69
368.41	351.69
368.636	342.69
368.862	342.69
369.089	357.69
369.315	339.69
369.541	336.69
369.767	351.69
369.993	363.69
370.219	348.69
370.445	343.69
370.672	339.69
370.898	342.69
371.124	359.69
371.35	357.69
371.576	349.69
371.802	353.69
372.028	344.69
372.254	350.69
372.48	361.69
372.706	351.69
372.932	366.69
373.158	351.69
373.384	344.69
373.61	344.69
373.835	352.69
374.061	352.69
374.287	365.69
374.513	360.69
374.739	365.69
374.965	375.69
375.191	354.69
375.416	357.69
375.642	379.69
375.868	354.69
376.094	348.69
376.319	350.69
376.545	349.69
376.771	349.69
376.997	360.69
377.222	344.69
377.448	354.69
377.674	338.69
377.899	353.69
378.125	347.69
378.35	353.69
378.576	342.69
378.802	309.69
379.027	336.69
379.253	351.69
379.478	355.69
379.704	338.69
379.929	350.69
380.155	341.69
380.38	340.69
380.606	335.69
380.831	324.69
381.057	332.69
381.282	349.69
381.507	354.69
381.733	356.69
381.958	355.69
382.184	352.69
382.409	335.69
382.634	362.69
382.86	352.69
383.085	352.69
383.31	360.69
383.535	370.69
383.761	367.69
383.986	347.69
384.211	349.69
384.436	363.69
384.662	385.69
384.887	380.69
385.112	390.69
385.337	379.69
385.562	386.69
385.787	389.69
386.013	381.69
386.238	392.69
386.463	385.69
386.688	396.69
386.913	368.69
387.138	390.69
387.363	362.69
387.588	380.69
387.813	357.69
388.038	378.69
388.263	372.69
388.488	389.69
388.713	394.69
388.938	366.69
389.163	390.69
389.387	390.69
389.612	360.69
389.837	388.69
390.062	386.69
390.287	401.69
390.512	385.69
390.736	372.69
390.961	385.69
391.186	364.69
391.411	383.69
391.636	396.69
391.86	420.69
392.085	414.69
392.31	412.69
392.534	402.69
392.759	382.69
392.984	387.69
393.208	390.69
393.433	401.69
393.658	393.69
393.882	395.69
394.107	377.69
394.331	380.69
394.556	394.69
394.78	396.69
395.005	414.69
395.229	418.69
395.454	406.69
395.678	427.69
395.903	413.69
396.127	414.69
396.352	408.69
396.576	413.69
396.801	384.69
397.025	408.69
397.249	397.69
397.474	414.69
397.698	418.69
397.922	434.69
398.147	434.69
398.371	445.69
398.595	446.69
398.82	444.69
399.044	464.69
399.268	484.69
399.492	542.69
399.717	576.69
399.941	577.69
400.165	570.69
400.389	538.69
400.613	468.69
400.837	462.69
401.062	470.69
401.286	439.69
401.51	440.69
401.734	467.69
401.958	473.69
402.182	426.69
402.406	467.69
402.63	459.69
402.854	461.69
403.078	477.69
403.302	460.69
403.526	504.69
403.75	469.69
403.974	481.69
404.198	479.69
404.422	504.69
404.645	495.69
404.869	508.69
405.093	506.69
405.317	516.69
405.541	537.69
405.765	508.69
405.988	488.69
406.212	494.69
406.436	494.69
406.66	524.69
406.883	502.69
407.107	512.69
407.331	537.69
407.555	589.69
407.778	590.69
408.002	564.69
408.226	545.69
408.449	529.69
408.673	531.69
408.896	520.69
409.12	533.69
409.344	509.69
409.567	487.69
409.791	476.69
410.014	467.69
410.238	465.69
410.461	466.69
410.685	482.69
410.908	487.69
411.132	490.69
411.355	515.69
411.578	483.69
411.802	490.69
412.025	431.69
412.249	442.69
412.472	472.69
412.695	499.69
412.919	514.69
413.142	474.69
413.365	452.69
413.589	442.69
413.812	445.69
414.035	446.69
414.258	452.69
414.482	444.69
414.705	447.69
414.928	448.69
415.151	434.69
415.374	443.69
415.597	431.69
415.821	427.69
416.044	447.69
416.267	434.69
416.49	422.69
416.713	428.69
416.936	444.69
417.159	450.69
417.382	431.69
417.605	463.69
417.828	452.69
418.051	441.69
418.274	444.69
418.497	440.69
418.72	442.69
418.943	445.69
419.166	466.69
419.389	476.69
419.611	469.69
419.834	443.69
420.057	445.69
420.28	483.69
420.503	444.69
420.726	454.69
420.948	474.69
421.171	475.69
421.394	484.69
421.617	467.69
421.839	467.69
422.062	463.69
422.285	468.69
422.507	502.69
422.73	540.69
422.953	537.69
423.175	479.69
423.398	474.69
423.621	474.69
423.843	484.69
424.066	497.69
424.288	509.69
424.511	500.69
424.733	500.69
424.956	567.69
425.178	542.69
425.401	544.69
425.623	583.69
425.846	476.69
426.068	466.69
426.291	441.69
426.513	455.69
426.735	474.69
426.958	487.69
427.18	529.69
427.402	603.69
427.625	666.69
427.847	552.69
428.069	495.69
428.292	448.69
428.514	435.69
428.736	414.69
428.958	430.69
429.181	440.69
429.403	435.69
429.625	448.69
429.847	462.69
430.069	463.69
430.292	470.69
430.514	422.69
430.736	452.69
430.958	414.69
431.18	416.69
431.402	428.69
431.624	400.69
431.846	406.69
432.068	399.69
432.29	415.69
432.512	415.69
432.734	415.69
432.956	430.69
433.178	428.69
433.4	413.69
433.622	437.69
433.844	432.69
434.066	424.69
434.287	429.69
434.509	424.69
434.731	431.69
434.953	439.69
435.175	458.69
435.397	466.69
435.618	460.69
435.84	480.69
436.062	556.69
436.284	554.69
436.505	475.69
436.727	448.69
436.949	441.69
437.17	446.69
437.392	444.69
437.614	442.69
437.835	449.69
438.057	516.69
438.278	580.69
438.5	555.69
438.721	607.69
438.943	577.69
439.165	469.69
439.386	446.69
439.608	466.69
439.829	457.69
440.05	467.69
440.272	500.69
440.493	448.69
440.715	472.69
440.936	455.69
441.158	448.69
441.379	440.69
441.6	453.69
441.822	466.69
442.043	505.69
442.264	545.69
442.486	575.69
442.707	513.69
442.928	470.69
443.149	488.69
443.371	491.69
443.592	514.69
443.813	572.69
444.034	603.69
444.255	526.69
444.476	502.69
444.698	507.69
444.919	522.69
445.14	579.69
445.361	519.69
445.582	488.69
445.803	543.69
446.024	580.69
446.245	584.69
446.466	536.69
446.687	469.69
446.908	436.69
447.129	431.69
447.35	424.69
447.571	420.69
447.792	436.69
448.013	425.69
448.234	407.69
448.455	447.69
448.675	518.69
448.896	585.69
449.117	494.69
449.338	484.69
449.559	538.69
449.779	606.69
450	514.69
450.221	443.69
450.442	423.69
450.662	420.69
450.883	426.69
451.104	420.69
451.324	413.69
451.545	393.69
451.766	401.69
451.986	404.69
452.207	387.69
452.428	380.69
452.648	379.69
452.869	372.69
453.089	375.69
453.31	403.69
453.53	376.69
453.751	384.69
453.971	379.69
454.192	411.69
454.412	381.69
454.633	376.69
454.853	371.69
455.073	371.69
455.294	401.69
455.514	431.69
455.734	426.69
455.955	375.69
456.175	375.69
456.395	370.69
456.616	365.69
456.836	378.69
457.056	372.69
457.276	354.69
457.497	370.69
457.717	379.69
457.937	367.69
458.157	370.69
458.377	382.69
458.598	409.69
458.818	429.69
459.038	472.69
459.258	487.69
459.478	440.69
459.698	416.69
459.918	411.69
460.138	421.69
460.358	442.69
460.578	440.69
460.798	470.69
461.018	462.69
461.238	446.69
461.458	439.69
461.678	458.69
461.898	425.69
462.118	472.69
462.338	451.69
462.558	455.69
462.777	479.69
462.997	489.69
463.217	533.69
463.437	518.69
463.657	479.69
463.876	490.69
464.096	481.69
464.316	483.69
464.536	485.69
464.755	513.69
464.975	466.69
465.195	478.69
465.414	537.69
465.634	457.69
465.854	414.69
466.073	412.69
466.293	413.69
466.512	397.69
466.732	401.69
466.951	398.69
467.171	394.69
467.391	417.69
467.61	402.69
467.829	413.69
468.049	406.69
468.268	409.69
468.488	381.69
468.707	401.69
468.927	381.69
469.146	378.69
469.365	382.69
469.585	398.69
469.804	399.69
470.023	401.69
470.243	413.69
470.462	397.69
470.681	431.69
470.901	437.69
471.12	388.69
471.339	399.69
471.558	401.69
471.777	399.69
471.997	395.69
472.216	401.69
472.435	426.69
472.654	423.69
472.873	390.69
473.092	382.69
473.311	390.69
473.53	391.69
473.749	382.69
473.968	411.69
474.187	478.69
474.406	491.69
474.625	419.69
474.844	400.69
475.063	383.69
475.282	416.69
475.501	395.69
475.72	406.69
475.939	387.69
476.158	406.69
476.377	410.69
476.596	398.69
476.814	422.69
477.033	412.69
477.252	434.69
477.471	424.69
477.69	425.69
477.908	443.69
478.127	438.69
478.346	453.69
478.564	447.69
478.783	456.69
479.002	445.69
479.22	484.69
479.439	464.69
479.658	466.69
479.876	474.69
480.095	504.69
480.313	531.69
480.532	511.69
480.751	514.69
480.969	511.69
481.188	533.69
481.406	547.69
481.624	515.69
481.843	469.69
482.061	466.69
482.28	459.69
482.498	474.69
482.717	455.69
482.935	467.69
483.153	440.69
483.372	458.69
483.59	444.69
483.808	454.69
484.027	462.69
484.245	471.69
484.463	448.69
484.681	462.69
484.9	454.69
485.118	485.69
485.336	452.69
485.554	450.69
485.772	470.69
485.99	468.69
486.209	464.69
486.427	474.69
486.645	484.69
486.863	476.69
487.081	491.69
487.299	468.69
487.517	493.69
487.735	492.69
487.953	468.69
488.171	491.69
488.389	480.69
488.607	459.69
488.825	496.69
489.043	511.69
489.261	493.69
489.479	512.69
489.696	501.69
489.914	483.69
490.132	489.69
490.35	495.69
490.568	504.69
490.786	504.69
491.003	522.69
491.221	556.69
491.439	549.69
491.657	537.69
491.874	582.69
492.092	579.69
492.31	552.69
492.527	573.69
492.745	578.69
492.963	569.69
493.18	558.69
493.398	571.69
493.615	576.69
493.833	583.69
494.05	587.69
494.268	564.69
494.485	585.69
494.703	556.69
494.92	568.69
495.138	554.69
495.355	568.69
495.573	587.69
495.79	579.69
496.008	575.69
496.225	583.69
496.442	575.69
496.66	585.69
496.877	572.69
497.094	583.69
497.312	587.69
497.529	574.69
497.746	619.69
497.963	628.69
498.181	639.69
498.398	648.69
498.615	662.69
498.832	690.69
499.049	699.69
499.267	752.69
499.484	760.69
499.701	841.69
499.918	864.69
500.135	938.69
500.352	1023.69
500.569	1020.69
500.786	1024.69
501.003	966.69
501.22	939.69
501.437	886.69
501.654	815.69
501.871	770.69
502.088	744.69
