Data from 1969.PennyLincolnUp.Lamp.En5.5.200Scan.071719.P1._HRD10591_14-55-49-972.txt Node
Date: Thu Jul 18 14:55:49 EDT 2019
User: cochatt
Spectrometer: HR+D1059
Trigger mode: 1
Integration Time (sec): 1.000000E-1
Scans to average: 1
Electric dark correction enabled: true
Nonlinearity correction enabled: false
Boxcar width: 0
XAxis mode: Wavelengths
Number of Pixels in Spectrum: 2048
>>>>>Begin Spectral Data<<<<<
223.165	-34.75
223.4	-34.75
223.635	-34.75
223.869	-21.75
224.104	-23.75
224.338	-8.75
224.573	-19.75
224.808	-19.75
225.042	-0.75
225.277	3.25
225.511	-15.75
225.746	12.25
225.98	6.25
226.215	34.25
226.449	20.25
226.683	21.25
226.918	22.25
227.152	25.25
227.387	29.25
227.621	38.25
227.856	40.25
228.09	43.25
228.324	53.25
228.559	47.25
228.793	51.25
229.027	68.25
229.262	97.25
229.496	91.25
229.73	118.25
229.964	124.25
230.199	107.25
230.433	92.25
230.667	98.25
230.901	99.25
231.136	101.25
231.37	94.25
231.604	106.25
231.838	117.25
232.072	104.25
232.306	107.25
232.541	98.25
232.775	103.25
233.009	102.25
233.243	98.25
233.477	96.25
233.711	106.25
233.945	104.25
234.179	115.25
234.413	115.25
234.647	119.25
234.881	107.25
235.115	101.25
235.349	104.25
235.583	109.25
235.817	100.25
236.051	116.25
236.285	113.25
236.519	113.25
236.753	123.25
236.987	116.25
237.221	136.25
237.455	164.25
237.689	139.25
237.922	122.25
238.156	108.25
238.39	110.25
238.624	104.25
238.858	109.25
239.091	110.25
239.325	117.25
239.559	103.25
239.793	124.25
240.027	119.25
240.26	130.25
240.494	128.25
240.728	126.25
240.961	125.25
241.195	138.25
241.429	121.25
241.662	121.25
241.896	108.25
242.13	120.25
242.363	134.25
242.597	123.25
242.83	120.25
243.064	128.25
243.298	110.25
243.531	112.25
243.765	122.25
243.998	119.25
244.232	126.25
244.465	135.25
244.699	114.25
244.932	125.25
245.166	124.25
245.399	134.25
245.633	124.25
245.866	125.25
246.099	126.25
246.333	126.25
246.566	126.25
246.8	115.25
247.033	138.25
247.266	126.25
247.5	132.25
247.733	131.25
247.966	153.25
248.2	122.25
248.433	140.25
248.666	143.25
248.899	157.25
249.133	165.25
249.366	163.25
249.599	157.25
249.832	150.25
250.066	148.25
250.299	153.25
250.532	141.25
250.765	171.25
250.998	186.25
251.231	184.25
251.465	167.25
251.698	160.25
251.931	164.25
252.164	180.25
252.397	178.25
252.63	156.25
252.863	185.25
253.096	180.25
253.329	175.25
253.562	170.25
253.795	172.25
254.028	178.25
254.261	171.25
254.494	199.25
254.727	211.25
254.96	212.25
255.193	206.25
255.426	195.25
255.659	179.25
255.892	187.25
256.124	181.25
256.357	191.25
256.59	188.25
256.823	190.25
257.056	185.25
257.289	170.25
257.521	158.25
257.754	168.25
257.987	175.25
258.22	189.25
258.452	158.25
258.685	167.25
258.918	167.25
259.151	176.25
259.383	176.25
259.616	196.25
259.849	185.25
260.081	196.25
260.314	216.25
260.547	201.25
260.779	208.25
261.012	192.25
261.244	185.25
261.477	193.25
261.71	166.25
261.942	192.25
262.175	208.25
262.407	174.25
262.64	187.25
262.872	178.25
263.105	170.25
263.337	176.25
263.57	200.25
263.802	182.25
264.035	186.25
264.267	183.25
264.499	181.25
264.732	169.25
264.964	184.25
265.197	203.25
265.429	186.25
265.661	189.25
265.894	170.25
266.126	179.25
266.358	190.25
266.591	199.25
266.823	193.25
267.055	195.25
267.287	174.25
267.52	206.25
267.752	183.25
267.984	201.25
268.216	200.25
268.448	209.25
268.681	202.25
268.913	211.25
269.145	232.25
269.377	216.25
269.609	223.25
269.841	225.25
270.073	214.25
270.306	220.25
270.538	251.25
270.77	240.25
271.002	231.25
271.234	212.25
271.466	240.25
271.698	257.25
271.93	256.25
272.162	236.25
272.394	238.25
272.626	239.25
272.858	232.25
273.09	231.25
273.322	215.25
273.553	230.25
273.785	216.25
274.017	221.25
274.249	212.25
274.481	230.25
274.713	217.25
274.945	218.25
275.176	237.25
275.408	234.25
275.64	235.25
275.872	222.25
276.104	220.25
276.335	221.25
276.567	233.25
276.799	227.25
277.031	254.25
277.262	271.25
277.494	252.25
277.726	252.25
277.957	231.25
278.189	226.25
278.421	239.25
278.652	214.25
278.884	223.25
279.115	226.25
279.347	235.25
279.579	222.25
279.81	236.25
280.042	230.25
280.273	216.25
280.505	221.25
280.736	224.25
280.968	217.25
281.199	240.25
281.431	222.25
281.662	227.25
281.894	226.25
282.125	238.25
282.356	235.25
282.588	258.25
282.819	235.25
283.051	237.25
283.282	238.25
283.513	244.25
283.745	241.25
283.976	235.25
284.207	252.25
284.439	256.25
284.67	240.25
284.901	237.25
285.132	254.25
285.364	225.25
285.595	244.25
285.826	235.25
286.057	240.25
286.288	236.25
286.52	253.25
286.751	245.25
286.982	243.25
287.213	260.25
287.444	248.25
287.675	266.25
287.906	266.25
288.138	264.25
288.369	256.25
288.6	244.25
288.831	251.25
289.062	262.25
289.293	253.25
289.524	248.25
289.755	256.25
289.986	258.25
290.217	260.25
290.448	259.25
290.679	263.25
290.91	265.25
291.141	252.25
291.371	248.25
291.602	246.25
291.833	267.25
292.064	250.25
292.295	252.25
292.526	270.25
292.757	250.25
292.987	264.25
293.218	246.25
293.449	254.25
293.68	280.25
293.91	254.25
294.141	251.25
294.372	259.25
294.603	264.25
294.833	260.25
295.064	257.25
295.295	237.25
295.525	256.25
295.756	245.25
295.987	262.25
296.217	277.25
296.448	284.25
296.679	266.25
296.909	240.25
297.14	270.25
297.37	250.25
297.601	264.25
297.831	264.25
298.062	275.25
298.292	250.25
298.523	270.25
298.753	273.25
298.984	265.25
299.214	286.25
299.445	249.25
299.675	272.25
299.905	282.25
300.136	273.25
300.366	285.25
300.597	268.25
300.827	285.25
301.057	276.25
301.288	289.25
301.518	292.25
301.748	280.25
301.979	291.25
302.209	284.25
302.439	285.25
302.669	277.25
302.9	274.25
303.13	308.25
303.36	296.25
303.59	292.25
303.82	290.25
304.051	304.25
304.281	296.25
304.511	267.25
304.741	293.25
304.971	285.25
305.201	290.25
305.431	269.25
305.661	288.25
305.891	270.25
306.121	280.25
306.352	298.25
306.582	306.25
306.812	278.25
307.042	278.25
307.272	294.25
307.502	281.25
307.731	264.25
307.961	290.25
308.191	281.25
308.421	294.25
308.651	298.25
308.881	286.25
309.111	277.25
309.341	304.25
309.571	300.25
309.8	308.25
310.03	297.25
310.26	297.25
310.49	318.25
310.72	312.25
310.949	332.25
311.179	306.25
311.409	294.25
311.639	304.25
311.868	323.25
312.098	306.25
312.328	313.25
312.557	328.25
312.787	345.25
313.017	327.25
313.246	309.25
313.476	306.25
313.706	299.25
313.935	316.25
314.165	323.25
314.394	317.25
314.624	335.25
314.853	326.25
315.083	345.25
315.312	322.25
315.542	314.25
315.771	291.25
316.001	310.25
316.23	319.25
316.46	316.25
316.689	306.25
316.919	305.25
317.148	312.25
317.377	336.25
317.607	310.25
317.836	310.25
318.065	325.25
318.295	308.25
318.524	297.25
318.753	328.25
318.983	310.25
319.212	310.25
319.441	322.25
319.67	338.25
319.9	316.25
320.129	321.25
320.358	320.25
320.587	313.25
320.816	322.25
321.046	308.25
321.275	335.25
321.504	322.25
321.733	335.25
321.962	325.25
322.191	316.25
322.42	326.25
322.649	330.25
322.878	350.25
323.108	366.25
323.337	350.25
323.566	370.25
323.795	366.25
324.024	413.25
324.253	466.25
324.482	584.25
324.71	827.25
324.939	1089.25
325.168	908.25
325.397	530.25
325.626	432.25
325.855	377.25
326.084	360.25
326.313	372.25
326.542	372.25
326.77	389.25
326.999	442.25
327.228	542.25
327.457	764.25
327.686	848.25
327.914	617.25
328.143	440.25
328.372	410.25
328.6	413.25
328.829	395.25
329.058	412.25
329.287	414.25
329.515	398.25
329.744	386.25
329.972	383.25
330.201	394.25
330.43	419.25
330.658	419.25
330.887	456.25
331.115	420.25
331.344	424.25
331.572	380.25
331.801	376.25
332.03	384.25
332.258	402.25
332.486	383.25
332.715	401.25
332.943	422.25
333.172	411.25
333.4	410.25
333.629	420.25
333.857	433.25
334.085	444.25
334.314	448.25
334.542	438.25
334.771	453.25
334.999	415.25
335.227	404.25
335.455	398.25
335.684	378.25
335.912	390.25
336.14	379.25
336.369	372.25
336.597	378.25
336.825	367.25
337.053	380.25
337.281	364.25
337.51	374.25
337.738	390.25
337.966	362.25
338.194	370.25
338.422	372.25
338.65	353.25
338.878	390.25
339.106	352.25
339.334	372.25
339.562	347.25
339.79	340.25
340.018	351.25
340.246	339.25
340.474	364.25
340.702	336.25
340.93	375.25
341.158	344.25
341.386	359.25
341.614	360.25
341.842	328.25
342.07	353.25
342.298	348.25
342.526	336.25
342.754	342.25
342.981	342.25
343.209	326.25
343.437	325.25
343.665	393.25
343.893	372.25
344.12	389.25
344.348	382.25
344.576	365.25
344.804	374.25
345.031	363.25
345.259	356.25
345.487	379.25
345.714	356.25
345.942	344.25
346.17	319.25
346.397	326.25
346.625	329.25
346.853	333.25
347.08	338.25
347.308	332.25
347.535	345.25
347.763	366.25
347.99	354.25
348.218	345.25
348.445	350.25
348.673	340.25
348.9	326.25
349.128	312.25
349.355	332.25
349.583	322.25
349.81	322.25
350.037	309.25
350.265	328.25
350.492	332.25
350.72	334.25
350.947	332.25
351.174	334.25
351.402	344.25
351.629	324.25
351.856	320.25
352.083	336.25
352.311	338.25
352.538	348.25
352.765	322.25
352.992	328.25
353.22	323.25
353.447	311.25
353.674	327.25
353.901	331.25
354.128	315.25
354.355	328.25
354.583	309.25
354.81	325.25
355.037	314.25
355.264	318.25
355.491	324.25
355.718	316.25
355.945	328.25
356.172	328.25
356.399	320.25
356.626	326.25
356.853	312.25
357.08	319.25
357.307	300.25
357.534	315.25
357.761	306.25
357.988	320.25
358.215	318.25
358.441	317.25
358.668	319.25
358.895	321.25
359.122	333.25
359.349	337.25
359.576	344.25
359.802	319.25
360.029	364.25
360.256	346.25
360.483	343.25
360.709	346.25
360.936	320.25
361.163	316.25
361.39	328.25
361.616	308.25
361.843	326.25
362.07	356.25
362.296	338.25
362.523	333.25
362.749	342.25
362.976	315.25
363.203	340.25
363.429	329.25
363.656	310.25
363.882	325.25
364.109	349.25
364.335	320.25
364.562	324.25
364.788	323.25
365.015	333.25
365.241	322.25
365.468	329.25
365.694	313.25
365.92	321.25
366.147	340.25
366.373	330.25
366.599	330.25
366.826	328.25
367.052	321.25
367.278	320.25
367.505	312.25
367.731	323.25
367.957	306.25
368.184	314.25
368.41	328.25
368.636	339.25
368.862	336.25
369.089	340.25
369.315	334.25
369.541	331.25
369.767	325.25
369.993	326.25
370.219	318.25
370.445	332.25
370.672	334.25
370.898	325.25
371.124	317.25
371.35	312.25
371.576	324.25
371.802	322.25
372.028	329.25
372.254	324.25
372.48	324.25
372.706	331.25
372.932	344.25
373.158	337.25
373.384	328.25
373.61	344.25
373.835	324.25
374.061	325.25
374.287	339.25
374.513	338.25
374.739	352.25
374.965	355.25
375.191	349.25
375.416	346.25
375.642	347.25
375.868	328.25
376.094	342.25
376.319	343.25
376.545	323.25
376.771	326.25
376.997	333.25
377.222	325.25
377.448	338.25
377.674	330.25
377.899	330.25
378.125	314.25
378.35	322.25
378.576	325.25
378.802	323.25
379.027	314.25
379.253	333.25
379.478	341.25
379.704	327.25
379.929	332.25
380.155	327.25
380.38	325.25
380.606	329.25
380.831	314.25
381.057	315.25
381.282	333.25
381.507	318.25
381.733	340.25
381.958	330.25
382.184	345.25
382.409	355.25
382.634	316.25
382.86	330.25
383.085	338.25
383.31	342.25
383.535	350.25
383.761	352.25
383.986	349.25
384.211	344.25
384.436	368.25
384.662	364.25
384.887	380.25
385.112	378.25
385.337	365.25
385.562	350.25
385.787	360.25
386.013	390.25
386.238	359.25
386.463	360.25
386.688	369.25
386.913	375.25
387.138	355.25
387.363	354.25
387.588	363.25
387.813	362.25
388.038	357.25
388.263	363.25
388.488	347.25
388.713	348.25
388.938	366.25
389.163	365.25
389.387	364.25
389.612	332.25
389.837	365.25
390.062	362.25
390.287	372.25
390.512	342.25
390.736	374.25
390.961	370.25
391.186	354.25
391.411	388.25
391.636	390.25
391.86	372.25
392.085	390.25
392.31	384.25
392.534	388.25
392.759	379.25
392.984	378.25
393.208	372.25
393.433	365.25
393.658	369.25
393.882	382.25
394.107	365.25
394.331	380.25
394.556	373.25
394.78	371.25
395.005	390.25
395.229	386.25
395.454	397.25
395.678	397.25
395.903	401.25
396.127	415.25
396.352	396.25
396.576	371.25
396.801	375.25
397.025	380.25
397.249	392.25
397.474	399.25
397.698	394.25
397.922	408.25
398.147	421.25
398.371	416.25
398.595	432.25
398.82	424.25
399.044	444.25
399.268	452.25
399.492	509.25
399.717	557.25
399.941	539.25
400.165	554.25
400.389	509.25
400.613	472.25
400.837	466.25
401.062	443.25
401.286	435.25
401.51	432.25
401.734	433.25
401.958	429.25
402.182	430.25
402.406	430.25
402.63	456.25
402.854	440.25
403.078	432.25
403.302	440.25
403.526	451.25
403.75	461.25
403.974	448.25
404.198	436.25
404.422	480.25
404.645	456.25
404.869	477.25
405.093	482.25
405.317	496.25
405.541	521.25
405.765	473.25
405.988	477.25
406.212	464.25
406.436	466.25
406.66	463.25
406.883	469.25
407.107	493.25
407.331	532.25
407.555	583.25
407.778	558.25
408.002	521.25
408.226	501.25
408.449	498.25
408.673	493.25
408.896	477.25
409.12	502.25
409.344	491.25
409.567	448.25
409.791	458.25
410.014	434.25
410.238	442.25
410.461	445.25
410.685	437.25
410.908	436.25
411.132	466.25
411.355	484.25
411.578	458.25
411.802	443.25
412.025	448.25
412.249	444.25
412.472	459.25
412.695	482.25
412.919	470.25
413.142	435.25
413.365	440.25
413.589	426.25
413.812	418.25
414.035	422.25
414.258	432.25
414.482	438.25
414.705	417.25
414.928	442.25
415.151	416.25
415.374	424.25
415.597	439.25
415.821	402.25
416.044	409.25
416.267	407.25
416.49	413.25
416.713	386.25
416.936	404.25
417.159	408.25
417.382	418.25
417.605	424.25
417.828	423.25
418.051	436.25
418.274	419.25
418.497	434.25
418.72	420.25
418.943	425.25
419.166	450.25
419.389	457.25
419.611	459.25
419.834	434.25
420.057	437.25
420.28	432.25
420.503	437.25
420.726	425.25
420.948	432.25
421.171	467.25
421.394	452.25
421.617	424.25
421.839	437.25
422.062	415.25
422.285	416.25
422.507	486.25
422.73	523.25
422.953	490.25
423.175	465.25
423.398	439.25
423.621	434.25
423.843	460.25
424.066	454.25
424.288	461.25
424.511	478.25
424.733	505.25
424.956	534.25
425.178	502.25
425.401	488.25
425.623	493.25
425.846	445.25
426.068	412.25
426.291	441.25
426.513	444.25
426.735	447.25
426.958	469.25
427.18	514.25
427.402	567.25
427.625	603.25
427.847	544.25
428.069	476.25
428.292	438.25
428.514	420.25
428.736	402.25
428.958	430.25
429.181	399.25
429.403	388.25
429.625	407.25
429.847	424.25
430.069	462.25
430.292	447.25
430.514	409.25
430.736	426.25
430.958	385.25
431.18	385.25
431.402	390.25
431.624	389.25
431.846	380.25
432.068	393.25
432.29	378.25
432.512	393.25
432.734	395.25
432.956	406.25
433.178	419.25
433.4	418.25
433.622	393.25
433.844	373.25
434.066	388.25
434.287	407.25
434.509	408.25
434.731	421.25
434.953	414.25
435.175	456.25
435.397	445.25
435.618	425.25
435.84	455.25
436.062	518.25
436.284	532.25
436.505	466.25
436.727	420.25
436.949	394.25
437.17	399.25
437.392	412.25
437.614	427.25
437.835	418.25
438.057	470.25
438.278	508.25
438.5	518.25
438.721	567.25
438.943	534.25
439.165	434.25
439.386	426.25
439.608	439.25
439.829	451.25
440.05	435.25
440.272	463.25
440.493	449.25
440.715	412.25
440.936	416.25
441.158	423.25
441.379	428.25
441.6	442.25
441.822	459.25
442.043	481.25
442.264	500.25
442.486	509.25
442.707	458.25
442.928	453.25
443.149	454.25
443.371	465.25
443.592	498.25
443.813	573.25
444.034	568.25
444.255	493.25
444.476	460.25
444.698	472.25
444.919	480.25
445.14	596.25
445.361	518.25
445.582	475.25
445.803	487.25
446.024	559.25
446.245	555.25
446.466	500.25
446.687	462.25
446.908	411.25
447.129	410.25
447.35	404.25
447.571	411.25
447.792	382.25
448.013	395.25
448.234	399.25
448.455	416.25
448.675	477.25
448.896	547.25
449.117	480.25
449.338	453.25
449.559	525.25
449.779	566.25
450	476.25
450.221	404.25
450.442	402.25
450.662	371.25
450.883	382.25
451.104	391.25
451.324	386.25
451.545	380.25
451.766	393.25
451.986	364.25
452.207	356.25
452.428	344.25
452.648	371.25
452.869	358.25
453.089	372.25
453.31	375.25
453.53	362.25
453.751	362.25
453.971	355.25
454.192	368.25
454.412	372.25
454.633	363.25
454.853	351.25
455.073	357.25
455.294	368.25
455.514	401.25
455.734	390.25
455.955	363.25
456.175	375.25
456.395	363.25
456.616	352.25
456.836	356.25
457.056	323.25
457.276	330.25
457.497	348.25
457.717	371.25
457.937	342.25
458.157	348.25
458.377	350.25
458.598	386.25
458.818	386.25
459.038	431.25
459.258	474.25
459.478	406.25
459.698	394.25
459.918	399.25
460.138	404.25
460.358	413.25
460.578	418.25
460.798	419.25
461.018	454.25
461.238	421.25
461.458	427.25
461.678	412.25
461.898	413.25
462.118	424.25
462.338	451.25
462.558	448.25
462.777	456.25
462.997	477.25
463.217	506.25
463.437	512.25
463.657	473.25
463.876	480.25
464.096	467.25
464.316	462.25
464.536	451.25
464.755	458.25
464.975	454.25
465.195	465.25
465.414	490.25
465.634	423.25
465.854	420.25
466.073	398.25
466.293	415.25
466.512	384.25
466.732	387.25
466.951	358.25
467.171	372.25
467.391	376.25
467.61	375.25
467.829	376.25
468.049	373.25
468.268	404.25
468.488	371.25
468.707	384.25
468.927	372.25
469.146	348.25
469.365	379.25
469.585	376.25
469.804	389.25
470.023	410.25
470.243	390.25
470.462	384.25
470.681	423.25
470.901	396.25
471.12	390.25
471.339	371.25
471.558	375.25
471.777	382.25
471.997	387.25
472.216	364.25
472.435	410.25
472.654	392.25
472.873	397.25
473.092	378.25
473.311	392.25
473.53	381.25
473.749	376.25
473.968	414.25
474.187	457.25
474.406	445.25
474.625	394.25
474.844	391.25
475.063	386.25
475.282	388.25
475.501	376.25
475.72	388.25
475.939	386.25
476.158	404.25
476.377	398.25
476.596	377.25
476.814	406.25
477.033	402.25
477.252	387.25
477.471	416.25
477.69	402.25
477.908	417.25
478.127	406.25
478.346	427.25
478.564	419.25
478.783	424.25
479.002	426.25
479.22	441.25
479.439	444.25
479.658	447.25
479.876	446.25
480.095	464.25
480.313	493.25
480.532	470.25
480.751	461.25
480.969	482.25
481.188	494.25
481.406	515.25
481.624	480.25
481.843	460.25
482.061	433.25
482.28	423.25
482.498	445.25
482.717	440.25
482.935	434.25
483.153	442.25
483.372	434.25
483.59	428.25
483.808	423.25
484.027	441.25
484.245	409.25
484.463	430.25
484.681	448.25
484.9	426.25
485.118	446.25
485.336	438.25
485.554	442.25
485.772	454.25
485.99	442.25
486.209	438.25
486.427	451.25
486.645	451.25
486.863	471.25
487.081	459.25
487.299	463.25
487.517	445.25
487.735	466.25
487.953	463.25
488.171	467.25
488.389	456.25
488.607	455.25
488.825	473.25
489.043	458.25
489.261	473.25
489.479	451.25
489.696	466.25
489.914	482.25
490.132	468.25
490.35	484.25
490.568	496.25
490.786	491.25
491.003	484.25
491.221	504.25
491.439	516.25
491.657	504.25
491.874	535.25
492.092	533.25
492.31	525.25
492.527	511.25
492.745	535.25
492.963	554.25
493.18	542.25
493.398	546.25
493.615	565.25
493.833	544.25
494.05	558.25
494.268	564.25
494.485	546.25
494.703	540.25
494.92	550.25
495.138	534.25
495.355	541.25
495.573	539.25
495.79	530.25
496.008	549.25
496.225	557.25
496.442	561.25
496.66	560.25
496.877	572.25
497.094	556.25
497.312	582.25
497.529	551.25
497.746	587.25
497.963	587.25
498.181	608.25
498.398	624.25
498.615	629.25
498.832	642.25
499.049	696.25
499.267	710.25
499.484	746.25
499.701	800.25
499.918	831.25
500.135	919.25
500.352	949.25
500.569	980.25
500.786	972.25
501.003	937.25
501.22	903.25
501.437	819.25
501.654	781.25
501.871	746.25
502.088	697.25
