Data from 1969.PennyLincolnUp.Lamp.En5.5.200Scan.071719.P1._HRD10591_14-55-05-972.txt Node
Date: Thu Jul 18 14:55:05 EDT 2019
User: cochatt
Spectrometer: HR+D1059
Trigger mode: 1
Integration Time (sec): 1.000000E-1
Scans to average: 1
Electric dark correction enabled: true
Nonlinearity correction enabled: false
Boxcar width: 0
XAxis mode: Wavelengths
Number of Pixels in Spectrum: 2048
>>>>>Begin Spectral Data<<<<<
223.165	-9.69
223.4	-9.69
223.635	-9.69
223.869	-7.69
224.104	-15.69
224.338	-31.69
224.573	-10.69
224.808	-11.69
225.042	-10.69
225.277	-5.69
225.511	-10.69
225.746	16.31
225.98	1.31
226.215	18.31
226.449	13.31
226.683	13.31
226.918	29.31
227.152	22.31
227.387	24.31
227.621	34.31
227.856	43.31
228.09	39.31
228.324	45.31
228.559	67.31
228.793	69.31
229.027	84.31
229.262	112.31
229.496	117.31
229.73	101.31
229.964	125.31
230.199	109.31
230.433	102.31
230.667	97.31
230.901	90.31
231.136	102.31
231.37	106.31
231.604	91.31
231.838	106.31
232.072	94.31
232.306	87.31
232.541	87.31
232.775	107.31
233.009	107.31
233.243	108.31
233.477	107.31
233.711	97.31
233.945	94.31
234.179	120.31
234.413	111.31
234.647	102.31
234.881	105.31
235.115	111.31
235.349	104.31
235.583	112.31
235.817	112.31
236.051	93.31
236.285	98.31
236.519	108.31
236.753	108.31
236.987	122.31
237.221	153.31
237.455	161.31
237.689	145.31
237.922	110.31
238.156	125.31
238.39	110.31
238.624	114.31
238.858	124.31
239.091	119.31
239.325	110.31
239.559	123.31
239.793	116.31
240.027	125.31
240.26	117.31
240.494	132.31
240.728	131.31
240.961	147.31
241.195	123.31
241.429	126.31
241.662	120.31
241.896	126.31
242.13	123.31
242.363	127.31
242.597	116.31
242.83	110.31
243.064	119.31
243.298	117.31
243.531	121.31
243.765	135.31
243.998	128.31
244.232	134.31
244.465	115.31
244.699	125.31
244.932	125.31
245.166	146.31
245.399	132.31
245.633	141.31
245.866	143.31
246.099	125.31
246.333	131.31
246.566	129.31
246.8	127.31
247.033	155.31
247.266	147.31
247.5	143.31
247.733	146.31
247.966	150.31
248.2	143.31
248.433	137.31
248.666	161.31
248.899	159.31
249.133	169.31
249.366	182.31
249.599	151.31
249.832	155.31
250.066	163.31
250.299	147.31
250.532	155.31
250.765	177.31
250.998	172.31
251.231	176.31
251.465	162.31
251.698	177.31
251.931	169.31
252.164	176.31
252.397	157.31
252.63	172.31
252.863	170.31
253.096	174.31
253.329	186.31
253.562	181.31
253.795	172.31
254.028	183.31
254.261	181.31
254.494	188.31
254.727	204.31
254.96	214.31
255.193	214.31
255.426	202.31
255.659	182.31
255.892	203.31
256.124	187.31
256.357	182.31
256.59	199.31
256.823	157.31
257.056	185.31
257.289	175.31
257.521	176.31
257.754	170.31
257.987	179.31
258.22	193.31
258.452	173.31
258.685	188.31
258.918	189.31
259.151	169.31
259.383	197.31
259.616	185.31
259.849	191.31
260.081	197.31
260.314	209.31
260.547	220.31
260.779	200.31
261.012	203.31
261.244	183.31
261.477	182.31
261.71	194.31
261.942	199.31
262.175	205.31
262.407	203.31
262.64	183.31
262.872	187.31
263.105	184.31
263.337	177.31
263.57	185.31
263.802	176.31
264.035	195.31
264.267	181.31
264.499	195.31
264.732	198.31
264.964	180.31
265.197	195.31
265.429	174.31
265.661	182.31
265.894	189.31
266.126	185.31
266.358	197.31
266.591	187.31
266.823	211.31
267.055	190.31
267.287	176.31
267.52	179.31
267.752	200.31
267.984	206.31
268.216	196.31
268.448	204.31
268.681	208.31
268.913	228.31
269.145	237.31
269.377	224.31
269.609	248.31
269.841	240.31
270.073	233.31
270.306	264.31
270.538	262.31
270.77	231.31
271.002	232.31
271.234	247.31
271.466	231.31
271.698	235.31
271.93	263.31
272.162	278.31
272.394	272.31
272.626	246.31
272.858	231.31
273.09	226.31
273.322	247.31
273.553	234.31
273.785	229.31
274.017	214.31
274.249	214.31
274.481	212.31
274.713	209.31
274.945	252.31
275.176	225.31
275.408	216.31
275.64	222.31
275.872	224.31
276.104	223.31
276.335	213.31
276.567	235.31
276.799	222.31
277.031	268.31
277.262	262.31
277.494	275.31
277.726	251.31
277.957	250.31
278.189	256.31
278.421	230.31
278.652	240.31
278.884	251.31
279.115	237.31
279.347	229.31
279.579	235.31
279.81	237.31
280.042	229.31
280.273	236.31
280.505	235.31
280.736	243.31
280.968	237.31
281.199	226.31
281.431	239.31
281.662	229.31
281.894	257.31
282.125	242.31
282.356	251.31
282.588	256.31
282.819	252.31
283.051	241.31
283.282	237.31
283.513	237.31
283.745	236.31
283.976	235.31
284.207	252.31
284.439	241.31
284.67	242.31
284.901	251.31
285.132	238.31
285.364	232.31
285.595	253.31
285.826	240.31
286.057	248.31
286.288	238.31
286.52	249.31
286.751	250.31
286.982	251.31
287.213	261.31
287.444	241.31
287.675	255.31
287.906	257.31
288.138	270.31
288.369	275.31
288.6	264.31
288.831	282.31
289.062	285.31
289.293	281.31
289.524	260.31
289.755	245.31
289.986	255.31
290.217	273.31
290.448	261.31
290.679	264.31
290.91	252.31
291.141	264.31
291.371	263.31
291.602	270.31
291.833	273.31
292.064	263.31
292.295	263.31
292.526	263.31
292.757	271.31
292.987	270.31
293.218	247.31
293.449	278.31
293.68	253.31
293.91	267.31
294.141	269.31
294.372	276.31
294.603	261.31
294.833	246.31
295.064	266.31
295.295	279.31
295.525	271.31
295.756	273.31
295.987	276.31
296.217	273.31
296.448	289.31
296.679	276.31
296.909	277.31
297.14	257.31
297.37	283.31
297.601	280.31
297.831	285.31
298.062	280.31
298.292	269.31
298.523	279.31
298.753	281.31
298.984	284.31
299.214	273.31
299.445	285.31
299.675	269.31
299.905	290.31
300.136	271.31
300.366	282.31
300.597	277.31
300.827	289.31
301.057	300.31
301.288	293.31
301.518	279.31
301.748	292.31
301.979	297.31
302.209	277.31
302.439	299.31
302.669	303.31
302.9	269.31
303.13	311.31
303.36	299.31
303.59	288.31
303.82	299.31
304.051	288.31
304.281	285.31
304.511	309.31
304.741	301.31
304.971	315.31
305.201	301.31
305.431	271.31
305.661	293.31
305.891	294.31
306.121	290.31
306.352	292.31
306.582	303.31
306.812	287.31
307.042	299.31
307.272	307.31
307.502	283.31
307.731	297.31
307.961	320.31
308.191	284.31
308.421	300.31
308.651	294.31
308.881	309.31
309.111	295.31
309.341	323.31
309.571	293.31
309.8	295.31
310.03	310.31
310.26	317.31
310.49	305.31
310.72	317.31
310.949	336.31
311.179	330.31
311.409	332.31
311.639	330.31
311.868	334.31
312.098	297.31
312.328	307.31
312.557	335.31
312.787	329.31
313.017	328.31
313.246	319.31
313.476	310.31
313.706	320.31
313.935	343.31
314.165	345.31
314.394	333.31
314.624	326.31
314.853	323.31
315.083	311.31
315.312	311.31
315.542	320.31
315.771	318.31
316.001	302.31
316.23	331.31
316.46	313.31
316.689	320.31
316.919	330.31
317.148	333.31
317.377	331.31
317.607	338.31
317.836	318.31
318.065	321.31
318.295	311.31
318.524	326.31
318.753	298.31
318.983	318.31
319.212	317.31
319.441	344.31
319.67	339.31
319.9	337.31
320.129	333.31
320.358	331.31
320.587	335.31
320.816	332.31
321.046	318.31
321.275	349.31
321.504	340.31
321.733	327.31
321.962	331.31
322.191	344.31
322.42	349.31
322.649	360.31
322.878	353.31
323.108	347.31
323.337	373.31
323.566	372.31
323.795	376.31
324.024	395.31
324.253	466.31
324.482	629.31
324.71	887.31
324.939	1136.31
325.168	944.31
325.397	562.31
325.626	433.31
325.855	395.31
326.084	381.31
326.313	382.31
326.542	372.31
326.77	413.31
326.999	448.31
327.228	573.31
327.457	771.31
327.686	876.31
327.914	616.31
328.143	455.31
328.372	441.31
328.6	417.31
328.829	416.31
329.058	440.31
329.287	407.31
329.515	411.31
329.744	417.31
329.972	410.31
330.201	418.31
330.43	427.31
330.658	443.31
330.887	465.31
331.115	450.31
331.344	400.31
331.572	418.31
331.801	395.31
332.03	395.31
332.258	376.31
332.486	389.31
332.715	402.31
332.943	409.31
333.172	408.31
333.4	421.31
333.629	412.31
333.857	419.31
334.085	434.31
334.314	471.31
334.542	463.31
334.771	475.31
334.999	436.31
335.227	414.31
335.455	397.31
335.684	427.31
335.912	392.31
336.14	389.31
336.369	388.31
336.597	383.31
336.825	391.31
337.053	403.31
337.281	371.31
337.51	388.31
337.738	362.31
337.966	376.31
338.194	366.31
338.422	373.31
338.65	369.31
338.878	367.31
339.106	373.31
339.334	367.31
339.562	364.31
339.79	356.31
340.018	369.31
340.246	362.31
340.474	356.31
340.702	376.31
340.93	367.31
341.158	364.31
341.386	368.31
341.614	363.31
341.842	363.31
342.07	355.31
342.298	363.31
342.526	364.31
342.754	365.31
342.981	364.31
343.209	349.31
343.437	361.31
343.665	383.31
343.893	393.31
344.12	387.31
344.348	388.31
344.576	379.31
344.804	358.31
345.031	379.31
345.259	357.31
345.487	381.31
345.714	352.31
345.942	352.31
346.17	352.31
346.397	350.31
346.625	339.31
346.853	361.31
347.08	339.31
347.308	350.31
347.535	357.31
347.763	342.31
347.99	371.31
348.218	350.31
348.445	350.31
348.673	334.31
348.9	335.31
349.128	348.31
349.355	331.31
349.583	331.31
349.81	331.31
350.037	345.31
350.265	353.31
350.492	335.31
350.72	353.31
350.947	333.31
351.174	339.31
351.402	335.31
351.629	336.31
351.856	341.31
352.083	345.31
352.311	341.31
352.538	348.31
352.765	340.31
352.992	341.31
353.22	346.31
353.447	334.31
353.674	325.31
353.901	335.31
354.128	337.31
354.355	334.31
354.583	336.31
354.81	321.31
355.037	317.31
355.264	325.31
355.491	328.31
355.718	329.31
355.945	320.31
356.172	324.31
356.399	319.31
356.626	340.31
356.853	327.31
357.08	341.31
357.307	336.31
357.534	317.31
357.761	336.31
357.988	326.31
358.215	310.31
358.441	325.31
358.668	337.31
358.895	340.31
359.122	338.31
359.349	332.31
359.576	326.31
359.802	342.31
360.029	365.31
360.256	357.31
360.483	352.31
360.709	352.31
360.936	343.31
361.163	334.31
361.39	352.31
361.616	365.31
361.843	342.31
362.07	331.31
362.296	331.31
362.523	348.31
362.749	353.31
362.976	351.31
363.203	325.31
363.429	345.31
363.656	318.31
363.882	334.31
364.109	328.31
364.335	326.31
364.562	328.31
364.788	337.31
365.015	326.31
365.241	319.31
365.468	335.31
365.694	317.31
365.92	332.31
366.147	325.31
366.373	320.31
366.599	337.31
366.826	338.31
367.052	333.31
367.278	354.31
367.505	355.31
367.731	357.31
367.957	341.31
368.184	348.31
368.41	331.31
368.636	336.31
368.862	351.31
369.089	340.31
369.315	327.31
369.541	333.31
369.767	340.31
369.993	328.31
370.219	332.31
370.445	328.31
370.672	318.31
370.898	333.31
371.124	323.31
371.35	336.31
371.576	344.31
371.802	339.31
372.028	341.31
372.254	328.31
372.48	328.31
372.706	330.31
372.932	343.31
373.158	367.31
373.384	351.31
373.61	353.31
373.835	339.31
374.061	340.31
374.287	348.31
374.513	349.31
374.739	347.31
374.965	359.31
375.191	364.31
375.416	362.31
375.642	355.31
375.868	355.31
376.094	333.31
376.319	327.31
376.545	339.31
376.771	337.31
376.997	364.31
377.222	341.31
377.448	340.31
377.674	332.31
377.899	347.31
378.125	327.31
378.35	332.31
378.576	331.31
378.802	322.31
379.027	331.31
379.253	341.31
379.478	332.31
379.704	333.31
379.929	341.31
380.155	332.31
380.38	343.31
380.606	330.31
380.831	320.31
381.057	349.31
381.282	328.31
381.507	350.31
381.733	343.31
381.958	345.31
382.184	353.31
382.409	353.31
382.634	337.31
382.86	327.31
383.085	345.31
383.31	357.31
383.535	352.31
383.761	349.31
383.986	367.31
384.211	366.31
384.436	377.31
384.662	366.31
384.887	371.31
385.112	377.31
385.337	377.31
385.562	388.31
385.787	369.31
386.013	386.31
386.238	383.31
386.463	374.31
386.688	377.31
386.913	369.31
387.138	360.31
387.363	352.31
387.588	375.31
387.813	375.31
388.038	383.31
388.263	381.31
388.488	358.31
388.713	378.31
388.938	366.31
389.163	365.31
389.387	383.31
389.612	381.31
389.837	373.31
390.062	376.31
390.287	379.31
390.512	379.31
390.736	379.31
390.961	380.31
391.186	366.31
391.411	377.31
391.636	376.31
391.86	395.31
392.085	407.31
392.31	405.31
392.534	390.31
392.759	386.31
392.984	377.31
393.208	397.31
393.433	392.31
393.658	371.31
393.882	400.31
394.107	376.31
394.331	399.31
394.556	392.31
394.78	397.31
395.005	400.31
395.229	394.31
395.454	393.31
395.678	396.31
395.903	422.31
396.127	397.31
396.352	429.31
396.576	384.31
396.801	378.31
397.025	408.31
397.249	393.31
397.474	405.31
397.698	402.31
397.922	410.31
398.147	413.31
398.371	435.31
398.595	435.31
398.82	447.31
399.044	452.31
399.268	484.31
399.492	527.31
399.717	580.31
399.941	576.31
400.165	547.31
400.389	531.31
400.613	449.31
400.837	465.31
401.062	441.31
401.286	437.31
401.51	430.31
401.734	457.31
401.958	449.31
402.182	451.31
402.406	445.31
402.63	463.31
402.854	469.31
403.078	447.31
403.302	457.31
403.526	477.31
403.75	477.31
403.974	487.31
404.198	479.31
404.422	483.31
404.645	470.31
404.869	481.31
405.093	485.31
405.317	506.31
405.541	535.31
405.765	509.31
405.988	455.31
406.212	493.31
406.436	492.31
406.66	522.31
406.883	510.31
407.107	538.31
407.331	563.31
407.555	589.31
407.778	581.31
408.002	559.31
408.226	493.31
408.449	496.31
408.673	484.31
408.896	508.31
409.12	523.31
409.344	491.31
409.567	455.31
409.791	471.31
410.014	454.31
410.238	459.31
410.461	463.31
410.685	470.31
410.908	460.31
411.132	483.31
411.355	488.31
411.578	469.31
411.802	454.31
412.025	473.31
412.249	480.31
412.472	464.31
412.695	474.31
412.919	479.31
413.142	447.31
413.365	449.31
413.589	437.31
413.812	439.31
414.035	418.31
414.258	435.31
414.482	421.31
414.705	430.31
414.928	442.31
415.151	436.31
415.374	427.31
415.597	421.31
415.821	437.31
416.044	438.31
416.267	468.31
416.49	413.31
416.713	436.31
416.936	449.31
417.159	431.31
417.382	429.31
417.605	428.31
417.828	444.31
418.051	442.31
418.274	436.31
418.497	443.31
418.72	448.31
418.943	437.31
419.166	462.31
419.389	468.31
419.611	469.31
419.834	468.31
420.057	446.31
420.28	460.31
420.503	451.31
420.726	445.31
420.948	454.31
421.171	473.31
421.394	488.31
421.617	458.31
421.839	442.31
422.062	453.31
422.285	439.31
422.507	489.31
422.73	513.31
422.953	519.31
423.175	466.31
423.398	461.31
423.621	455.31
423.843	478.31
424.066	479.31
424.288	488.31
424.511	494.31
424.733	525.31
424.956	545.31
425.178	544.31
425.401	524.31
425.623	538.31
425.846	470.31
426.068	440.31
426.291	452.31
426.513	463.31
426.735	449.31
426.958	473.31
427.18	512.31
427.402	565.31
427.625	631.31
427.847	525.31
428.069	494.31
428.292	481.31
428.514	452.31
428.736	416.31
428.958	418.31
429.181	419.31
429.403	415.31
429.625	421.31
429.847	429.31
430.069	462.31
430.292	467.31
430.514	442.31
430.736	420.31
430.958	412.31
431.18	388.31
431.402	392.31
431.624	416.31
431.846	398.31
432.068	400.31
432.29	415.31
432.512	405.31
432.734	416.31
432.956	398.31
433.178	413.31
433.4	423.31
433.622	411.31
433.844	392.31
434.066	399.31
434.287	402.31
434.509	438.31
434.731	429.31
434.953	444.31
435.175	442.31
435.397	472.31
435.618	441.31
435.84	476.31
436.062	526.31
436.284	547.31
436.505	489.31
436.727	455.31
436.949	437.31
437.17	420.31
437.392	401.31
437.614	424.31
437.835	441.31
438.057	475.31
438.278	549.31
438.5	545.31
438.721	599.31
438.943	556.31
439.165	456.31
439.386	433.31
439.608	439.31
439.829	438.31
440.05	462.31
440.272	462.31
440.493	467.31
440.715	431.31
440.936	433.31
441.158	432.31
441.379	421.31
441.6	465.31
441.822	469.31
442.043	486.31
442.264	501.31
442.486	535.31
442.707	501.31
442.928	456.31
443.149	490.31
443.371	481.31
443.592	519.31
443.813	542.31
444.034	621.31
444.255	527.31
444.476	487.31
444.698	502.31
444.919	500.31
445.14	569.31
445.361	509.31
445.582	497.31
445.803	515.31
446.024	545.31
446.245	573.31
446.466	490.31
446.687	468.31
446.908	415.31
447.129	435.31
447.35	444.31
447.571	418.31
447.792	397.31
448.013	398.31
448.234	431.31
448.455	444.31
448.675	515.31
448.896	565.31
449.117	481.31
449.338	476.31
449.559	545.31
449.779	582.31
450	486.31
450.221	424.31
450.442	408.31
450.662	387.31
450.883	411.31
451.104	400.31
451.324	413.31
451.545	375.31
451.766	385.31
451.986	403.31
452.207	379.31
452.428	380.31
452.648	367.31
452.869	357.31
453.089	381.31
453.31	379.31
453.53	354.31
453.751	380.31
453.971	389.31
454.192	387.31
454.412	386.31
454.633	352.31
454.853	349.31
455.073	360.31
455.294	383.31
455.514	396.31
455.734	403.31
455.955	368.31
456.175	342.31
456.395	354.31
456.616	351.31
456.836	354.31
457.056	364.31
457.276	360.31
457.497	335.31
457.717	340.31
457.937	344.31
458.157	356.31
458.377	367.31
458.598	396.31
458.818	410.31
459.038	451.31
459.258	480.31
459.478	418.31
459.698	405.31
459.918	430.31
460.138	437.31
460.358	431.31
460.578	439.31
460.798	433.31
461.018	442.31
461.238	440.31
461.458	435.31
461.678	429.31
461.898	428.31
462.118	430.31
462.338	445.31
462.558	464.31
462.777	478.31
462.997	501.31
463.217	495.31
463.437	516.31
463.657	487.31
463.876	465.31
464.096	465.31
464.316	496.31
464.536	470.31
464.755	465.31
464.975	456.31
465.195	474.31
465.414	501.31
465.634	459.31
465.854	443.31
466.073	419.31
466.293	399.31
466.512	387.31
466.732	388.31
466.951	407.31
467.171	384.31
467.391	388.31
467.61	403.31
467.829	383.31
468.049	401.31
468.268	395.31
468.488	389.31
468.707	389.31
468.927	383.31
469.146	398.31
469.365	376.31
469.585	381.31
469.804	391.31
470.023	389.31
470.243	395.31
470.462	413.31
470.681	405.31
470.901	408.31
471.12	399.31
471.339	412.31
471.558	379.31
471.777	396.31
471.997	387.31
472.216	410.31
472.435	402.31
472.654	392.31
472.873	379.31
473.092	371.31
473.311	388.31
473.53	395.31
473.749	378.31
473.968	431.31
474.187	463.31
474.406	465.31
474.625	405.31
474.844	394.31
475.063	385.31
475.282	384.31
475.501	388.31
475.72	394.31
475.939	399.31
476.158	390.31
476.377	392.31
476.596	380.31
476.814	399.31
477.033	404.31
477.252	405.31
477.471	414.31
477.69	422.31
477.908	431.31
478.127	419.31
478.346	418.31
478.564	437.31
478.783	462.31
479.002	451.31
479.22	441.31
479.439	455.31
479.658	470.31
479.876	460.31
480.095	481.31
480.313	523.31
480.532	511.31
480.751	488.31
480.969	484.31
481.188	529.31
481.406	533.31
481.624	475.31
481.843	457.31
482.061	462.31
482.28	411.31
482.498	439.31
482.717	426.31
482.935	447.31
483.153	440.31
483.372	445.31
483.59	457.31
483.808	434.31
484.027	448.31
484.245	444.31
484.463	453.31
484.681	475.31
484.9	451.31
485.118	461.31
485.336	464.31
485.554	453.31
485.772	461.31
485.99	476.31
486.209	463.31
486.427	478.31
486.645	477.31
486.863	495.31
487.081	471.31
487.299	478.31
487.517	469.31
487.735	481.31
487.953	477.31
488.171	475.31
488.389	482.31
488.607	484.31
488.825	464.31
489.043	480.31
489.261	485.31
489.479	499.31
489.696	474.31
489.914	483.31
490.132	498.31
490.35	504.31
490.568	485.31
490.786	499.31
491.003	513.31
491.221	544.31
491.439	541.31
491.657	540.31
491.874	535.31
492.092	558.31
492.31	540.31
492.527	556.31
492.745	548.31
492.963	532.31
493.18	541.31
493.398	547.31
493.615	561.31
493.833	561.31
494.05	577.31
494.268	552.31
494.485	556.31
494.703	561.31
494.92	558.31
495.138	536.31
495.355	542.31
495.573	559.31
495.79	567.31
496.008	566.31
496.225	580.31
496.442	568.31
496.66	589.31
496.877	553.31
497.094	570.31
497.312	565.31
497.529	586.31
497.746	580.31
497.963	600.31
498.181	595.31
498.398	647.31
498.615	635.31
498.832	644.31
499.049	699.31
499.267	720.31
499.484	760.31
499.701	796.31
499.918	855.31
500.135	918.31
500.352	999.31
500.569	993.31
500.786	996.31
501.003	962.31
501.22	910.31
501.437	881.31
501.654	810.31
501.871	765.31
502.088	724.31
