Data from 1969.PennyLincolnUp.Lamp.En5.5.200Scan.071719.P1._HRD10591_14-54-58-972.txt Node
Date: Thu Jul 18 14:54:58 EDT 2019
User: cochatt
Spectrometer: HR+D1059
Trigger mode: 1
Integration Time (sec): 1.000000E-1
Scans to average: 1
Electric dark correction enabled: true
Nonlinearity correction enabled: false
Boxcar width: 0
XAxis mode: Wavelengths
Number of Pixels in Spectrum: 2048
>>>>>Begin Spectral Data<<<<<
223.165	-13.5
223.4	-13.5
223.635	-13.5
223.869	-18.5
224.104	-22.5
224.338	-28.5
224.573	-18.5
224.808	-9.5
225.042	-0.5
225.277	-5.5
225.511	0.5
225.746	-4.5
225.98	16.5
226.215	9.5
226.449	5.5
226.683	19.5
226.918	33.5
227.152	36.5
227.387	28.5
227.621	35.5
227.856	31.5
228.09	43.5
228.324	49.5
228.559	49.5
228.793	66.5
229.027	67.5
229.262	88.5
229.496	95.5
229.73	100.5
229.964	114.5
230.199	92.5
230.433	99.5
230.667	98.5
230.901	85.5
231.136	96.5
231.37	96.5
231.604	100.5
231.838	105.5
232.072	105.5
232.306	90.5
232.541	81.5
232.775	99.5
233.009	123.5
233.243	112.5
233.477	109.5
233.711	100.5
233.945	104.5
234.179	103.5
234.413	119.5
234.647	108.5
234.881	99.5
235.115	97.5
235.349	101.5
235.583	119.5
235.817	109.5
236.051	107.5
236.285	120.5
236.519	115.5
236.753	115.5
236.987	122.5
237.221	127.5
237.455	154.5
237.689	125.5
237.922	119.5
238.156	100.5
238.39	110.5
238.624	113.5
238.858	122.5
239.091	106.5
239.325	106.5
239.559	113.5
239.793	113.5
240.027	114.5
240.26	114.5
240.494	109.5
240.728	111.5
240.961	111.5
241.195	128.5
241.429	112.5
241.662	114.5
241.896	116.5
242.13	117.5
242.363	123.5
242.597	121.5
242.83	132.5
243.064	121.5
243.298	121.5
243.531	136.5
243.765	114.5
243.998	121.5
244.232	115.5
244.465	130.5
244.699	108.5
244.932	126.5
245.166	121.5
245.399	124.5
245.633	111.5
245.866	133.5
246.099	136.5
246.333	144.5
246.566	127.5
246.8	139.5
247.033	134.5
247.266	147.5
247.5	149.5
247.733	130.5
247.966	153.5
248.2	137.5
248.433	148.5
248.666	139.5
248.899	163.5
249.133	157.5
249.366	171.5
249.599	159.5
249.832	140.5
250.066	163.5
250.299	153.5
250.532	167.5
250.765	153.5
250.998	168.5
251.231	175.5
251.465	166.5
251.698	177.5
251.931	163.5
252.164	167.5
252.397	155.5
252.63	157.5
252.863	167.5
253.096	165.5
253.329	184.5
253.562	177.5
253.795	180.5
254.028	170.5
254.261	171.5
254.494	177.5
254.727	205.5
254.96	222.5
255.193	198.5
255.426	185.5
255.659	170.5
255.892	171.5
256.124	176.5
256.357	188.5
256.59	191.5
256.823	188.5
257.056	164.5
257.289	184.5
257.521	162.5
257.754	163.5
257.987	166.5
258.22	181.5
258.452	163.5
258.685	154.5
258.918	177.5
259.151	175.5
259.383	179.5
259.616	188.5
259.849	183.5
260.081	196.5
260.314	192.5
260.547	209.5
260.779	212.5
261.012	171.5
261.244	170.5
261.477	181.5
261.71	170.5
261.942	175.5
262.175	171.5
262.407	186.5
262.64	173.5
262.872	162.5
263.105	166.5
263.337	184.5
263.57	175.5
263.802	186.5
264.035	175.5
264.267	181.5
264.499	178.5
264.732	183.5
264.964	181.5
265.197	185.5
265.429	174.5
265.661	186.5
265.894	187.5
266.126	160.5
266.358	171.5
266.591	181.5
266.823	187.5
267.055	199.5
267.287	179.5
267.52	188.5
267.752	184.5
267.984	204.5
268.216	197.5
268.448	210.5
268.681	207.5
268.913	207.5
269.145	204.5
269.377	219.5
269.609	228.5
269.841	209.5
270.073	222.5
270.306	235.5
270.538	251.5
270.77	241.5
271.002	242.5
271.234	244.5
271.466	267.5
271.698	258.5
271.93	246.5
272.162	250.5
272.394	239.5
272.626	228.5
272.858	227.5
273.09	218.5
273.322	207.5
273.553	196.5
273.785	223.5
274.017	217.5
274.249	222.5
274.481	211.5
274.713	220.5
274.945	216.5
275.176	192.5
275.408	222.5
275.64	210.5
275.872	215.5
276.104	227.5
276.335	222.5
276.567	204.5
276.799	217.5
277.031	225.5
277.262	264.5
277.494	241.5
277.726	250.5
277.957	243.5
278.189	224.5
278.421	212.5
278.652	239.5
278.884	224.5
279.115	228.5
279.347	238.5
279.579	209.5
279.81	205.5
280.042	219.5
280.273	226.5
280.505	232.5
280.736	232.5
280.968	224.5
281.199	230.5
281.431	234.5
281.662	239.5
281.894	224.5
282.125	231.5
282.356	261.5
282.588	236.5
282.819	234.5
283.051	248.5
283.282	234.5
283.513	239.5
283.745	255.5
283.976	235.5
284.207	259.5
284.439	223.5
284.67	247.5
284.901	242.5
285.132	222.5
285.364	224.5
285.595	240.5
285.826	241.5
286.057	250.5
286.288	260.5
286.52	232.5
286.751	263.5
286.982	244.5
287.213	236.5
287.444	247.5
287.675	249.5
287.906	258.5
288.138	263.5
288.369	225.5
288.6	271.5
288.831	251.5
289.062	241.5
289.293	258.5
289.524	250.5
289.755	240.5
289.986	239.5
290.217	251.5
290.448	236.5
290.679	258.5
290.91	244.5
291.141	227.5
291.371	249.5
291.602	253.5
291.833	256.5
292.064	256.5
292.295	263.5
292.526	255.5
292.757	258.5
292.987	237.5
293.218	262.5
293.449	263.5
293.68	259.5
293.91	255.5
294.141	246.5
294.372	250.5
294.603	237.5
294.833	269.5
295.064	269.5
295.295	239.5
295.525	263.5
295.756	268.5
295.987	247.5
296.217	264.5
296.448	291.5
296.679	266.5
296.909	272.5
297.14	266.5
297.37	268.5
297.601	265.5
297.831	253.5
298.062	262.5
298.292	257.5
298.523	277.5
298.753	274.5
298.984	264.5
299.214	258.5
299.445	289.5
299.675	273.5
299.905	279.5
300.136	284.5
300.366	268.5
300.597	285.5
300.827	265.5
301.057	286.5
301.288	294.5
301.518	285.5
301.748	264.5
301.979	281.5
302.209	275.5
302.439	278.5
302.669	309.5
302.9	291.5
303.13	281.5
303.36	288.5
303.59	286.5
303.82	295.5
304.051	296.5
304.281	275.5
304.511	269.5
304.741	276.5
304.971	291.5
305.201	289.5
305.431	287.5
305.661	290.5
305.891	297.5
306.121	286.5
306.352	278.5
306.582	276.5
306.812	277.5
307.042	281.5
307.272	269.5
307.502	274.5
307.731	294.5
307.961	279.5
308.191	276.5
308.421	286.5
308.651	297.5
308.881	283.5
309.111	291.5
309.341	282.5
309.571	294.5
309.8	304.5
310.03	303.5
310.26	301.5
310.49	311.5
310.72	307.5
310.949	314.5
311.179	322.5
311.409	309.5
311.639	293.5
311.868	308.5
312.098	299.5
312.328	305.5
312.557	305.5
312.787	325.5
313.017	316.5
313.246	317.5
313.476	326.5
313.706	311.5
313.935	303.5
314.165	326.5
314.394	305.5
314.624	318.5
314.853	329.5
315.083	327.5
315.312	324.5
315.542	310.5
315.771	300.5
316.001	304.5
316.23	313.5
316.46	336.5
316.689	313.5
316.919	317.5
317.148	311.5
317.377	317.5
317.607	309.5
317.836	325.5
318.065	313.5
318.295	301.5
318.524	315.5
318.753	308.5
318.983	298.5
319.212	312.5
319.441	312.5
319.67	315.5
319.9	319.5
320.129	300.5
320.358	314.5
320.587	322.5
320.816	327.5
321.046	309.5
321.275	315.5
321.504	309.5
321.733	323.5
321.962	315.5
322.191	331.5
322.42	326.5
322.649	343.5
322.878	315.5
323.108	322.5
323.337	350.5
323.566	373.5
323.795	371.5
324.024	384.5
324.253	449.5
324.482	593.5
324.71	811.5
324.939	1096.5
325.168	927.5
325.397	543.5
325.626	407.5
325.855	369.5
326.084	383.5
326.313	379.5
326.542	380.5
326.77	396.5
326.999	467.5
327.228	581.5
327.457	743.5
327.686	829.5
327.914	590.5
328.143	419.5
328.372	431.5
328.6	409.5
328.829	385.5
329.058	383.5
329.287	413.5
329.515	389.5
329.744	363.5
329.972	396.5
330.201	393.5
330.43	426.5
330.658	420.5
330.887	423.5
331.115	419.5
331.344	391.5
331.572	377.5
331.801	407.5
332.03	383.5
332.258	388.5
332.486	376.5
332.715	379.5
332.943	380.5
333.172	394.5
333.4	404.5
333.629	420.5
333.857	421.5
334.085	406.5
334.314	416.5
334.542	428.5
334.771	443.5
334.999	399.5
335.227	407.5
335.455	392.5
335.684	385.5
335.912	398.5
336.14	370.5
336.369	375.5
336.597	395.5
336.825	394.5
337.053	369.5
337.281	364.5
337.51	381.5
337.738	382.5
337.966	364.5
338.194	383.5
338.422	342.5
338.65	351.5
338.878	377.5
339.106	339.5
339.334	361.5
339.562	345.5
339.79	354.5
340.018	356.5
340.246	337.5
340.474	351.5
340.702	327.5
340.93	357.5
341.158	345.5
341.386	356.5
341.614	359.5
341.842	328.5
342.07	349.5
342.298	350.5
342.526	353.5
342.754	343.5
342.981	323.5
343.209	353.5
343.437	340.5
343.665	353.5
343.893	364.5
344.12	375.5
344.348	383.5
344.576	376.5
344.804	377.5
345.031	362.5
345.259	363.5
345.487	351.5
345.714	353.5
345.942	328.5
346.17	333.5
346.397	328.5
346.625	343.5
346.853	351.5
347.08	335.5
347.308	338.5
347.535	331.5
347.763	330.5
347.99	336.5
348.218	336.5
348.445	343.5
348.673	337.5
348.9	329.5
349.128	322.5
349.355	326.5
349.583	337.5
349.81	323.5
350.037	337.5
350.265	322.5
350.492	318.5
350.72	307.5
350.947	341.5
351.174	311.5
351.402	319.5
351.629	324.5
351.856	314.5
352.083	345.5
352.311	337.5
352.538	340.5
352.765	326.5
352.992	316.5
353.22	339.5
353.447	347.5
353.674	329.5
353.901	319.5
354.128	301.5
354.355	326.5
354.583	327.5
354.81	310.5
355.037	325.5
355.264	316.5
355.491	321.5
355.718	320.5
355.945	331.5
356.172	332.5
356.399	333.5
356.626	322.5
356.853	326.5
357.08	295.5
357.307	298.5
357.534	321.5
357.761	319.5
357.988	322.5
358.215	335.5
358.441	308.5
358.668	305.5
358.895	305.5
359.122	326.5
359.349	313.5
359.576	334.5
359.802	330.5
360.029	341.5
360.256	346.5
360.483	326.5
360.709	340.5
360.936	337.5
361.163	321.5
361.39	336.5
361.616	330.5
361.843	338.5
362.07	317.5
362.296	321.5
362.523	337.5
362.749	338.5
362.976	311.5
363.203	322.5
363.429	319.5
363.656	321.5
363.882	312.5
364.109	321.5
364.335	324.5
364.562	319.5
364.788	315.5
365.015	313.5
365.241	330.5
365.468	331.5
365.694	326.5
365.92	307.5
366.147	322.5
366.373	331.5
366.599	313.5
366.826	312.5
367.052	314.5
367.278	305.5
367.505	331.5
367.731	318.5
367.957	319.5
368.184	331.5
368.41	319.5
368.636	334.5
368.862	328.5
369.089	334.5
369.315	344.5
369.541	323.5
369.767	325.5
369.993	328.5
370.219	313.5
370.445	303.5
370.672	307.5
370.898	316.5
371.124	319.5
371.35	320.5
371.576	324.5
371.802	336.5
372.028	337.5
372.254	333.5
372.48	327.5
372.706	343.5
372.932	337.5
373.158	326.5
373.384	340.5
373.61	330.5
373.835	325.5
374.061	309.5
374.287	349.5
374.513	335.5
374.739	333.5
374.965	331.5
375.191	336.5
375.416	329.5
375.642	352.5
375.868	322.5
376.094	333.5
376.319	344.5
376.545	319.5
376.771	333.5
376.997	330.5
377.222	354.5
377.448	325.5
377.674	319.5
377.899	307.5
378.125	344.5
378.35	322.5
378.576	321.5
378.802	312.5
379.027	313.5
379.253	320.5
379.478	326.5
379.704	316.5
379.929	325.5
380.155	339.5
380.38	311.5
380.606	322.5
380.831	320.5
381.057	335.5
381.282	338.5
381.507	307.5
381.733	336.5
381.958	337.5
382.184	347.5
382.409	332.5
382.634	333.5
382.86	338.5
383.085	329.5
383.31	351.5
383.535	336.5
383.761	341.5
383.986	339.5
384.211	349.5
384.436	337.5
384.662	359.5
384.887	326.5
385.112	365.5
385.337	349.5
385.562	377.5
385.787	367.5
386.013	372.5
386.238	367.5
386.463	350.5
386.688	369.5
386.913	360.5
387.138	373.5
387.363	375.5
387.588	377.5
387.813	381.5
388.038	370.5
388.263	372.5
388.488	351.5
388.713	367.5
388.938	386.5
389.163	364.5
389.387	377.5
389.612	367.5
389.837	377.5
390.062	354.5
390.287	361.5
390.512	353.5
390.736	369.5
390.961	384.5
391.186	373.5
391.411	383.5
391.636	369.5
391.86	401.5
392.085	388.5
392.31	387.5
392.534	401.5
392.759	385.5
392.984	362.5
393.208	353.5
393.433	369.5
393.658	362.5
393.882	380.5
394.107	371.5
394.331	364.5
394.556	362.5
394.78	375.5
395.005	369.5
395.229	379.5
395.454	384.5
395.678	394.5
395.903	417.5
396.127	410.5
396.352	387.5
396.576	379.5
396.801	369.5
397.025	392.5
397.249	407.5
397.474	411.5
397.698	377.5
397.922	412.5
398.147	394.5
398.371	407.5
398.595	416.5
398.82	429.5
399.044	459.5
399.268	475.5
399.492	485.5
399.717	556.5
399.941	549.5
400.165	539.5
400.389	519.5
400.613	462.5
400.837	465.5
401.062	436.5
401.286	440.5
401.51	422.5
401.734	442.5
401.958	435.5
402.182	423.5
402.406	432.5
402.63	445.5
402.854	432.5
403.078	437.5
403.302	446.5
403.526	473.5
403.75	458.5
403.974	445.5
404.198	459.5
404.422	463.5
404.645	483.5
404.869	463.5
405.093	472.5
405.317	521.5
405.541	500.5
405.765	481.5
405.988	468.5
406.212	448.5
406.436	474.5
406.66	467.5
406.883	480.5
407.107	489.5
407.331	536.5
407.555	561.5
407.778	569.5
408.002	517.5
408.226	503.5
408.449	503.5
408.673	481.5
408.896	490.5
409.12	501.5
409.344	497.5
409.567	450.5
409.791	456.5
410.014	443.5
410.238	452.5
410.461	459.5
410.685	467.5
410.908	447.5
411.132	476.5
411.355	480.5
411.578	447.5
411.802	449.5
412.025	465.5
412.249	439.5
412.472	468.5
412.695	481.5
412.919	467.5
413.142	436.5
413.365	435.5
413.589	422.5
413.812	428.5
414.035	447.5
414.258	431.5
414.482	424.5
414.705	433.5
414.928	420.5
415.151	421.5
415.374	415.5
415.597	388.5
415.821	423.5
416.044	423.5
416.267	398.5
416.49	417.5
416.713	418.5
416.936	417.5
417.159	412.5
417.382	443.5
417.605	419.5
417.828	435.5
418.051	445.5
418.274	450.5
418.497	419.5
418.72	428.5
418.943	438.5
419.166	431.5
419.389	455.5
419.611	443.5
419.834	441.5
420.057	449.5
420.28	434.5
420.503	421.5
420.726	441.5
420.948	420.5
421.171	451.5
421.394	461.5
421.617	429.5
421.839	432.5
422.062	426.5
422.285	427.5
422.507	479.5
422.73	503.5
422.953	513.5
423.175	465.5
423.398	447.5
423.621	447.5
423.843	441.5
424.066	474.5
424.288	440.5
424.511	468.5
424.733	489.5
424.956	519.5
425.178	518.5
425.401	500.5
425.623	531.5
425.846	463.5
426.068	443.5
426.291	433.5
426.513	431.5
426.735	439.5
426.958	474.5
427.18	490.5
427.402	573.5
427.625	611.5
427.847	505.5
428.069	485.5
428.292	469.5
428.514	426.5
428.736	409.5
428.958	423.5
429.181	371.5
429.403	394.5
429.625	415.5
429.847	428.5
430.069	434.5
430.292	441.5
430.514	426.5
430.736	404.5
430.958	410.5
431.18	420.5
431.402	407.5
431.624	395.5
431.846	388.5
432.068	396.5
432.29	397.5
432.512	393.5
432.734	386.5
432.956	383.5
433.178	410.5
433.4	409.5
433.622	407.5
433.844	395.5
434.066	387.5
434.287	407.5
434.509	416.5
434.731	436.5
434.953	423.5
435.175	407.5
435.397	449.5
435.618	431.5
435.84	437.5
436.062	495.5
436.284	523.5
436.505	461.5
436.727	440.5
436.949	416.5
437.17	408.5
437.392	412.5
437.614	426.5
437.835	427.5
438.057	451.5
438.278	511.5
438.5	528.5
438.721	555.5
438.943	524.5
439.165	444.5
439.386	439.5
439.608	423.5
439.829	417.5
440.05	412.5
440.272	439.5
440.493	437.5
440.715	411.5
440.936	420.5
441.158	408.5
441.379	405.5
441.6	417.5
441.822	449.5
442.043	464.5
442.264	521.5
442.486	537.5
442.707	459.5
442.928	454.5
443.149	458.5
443.371	472.5
443.592	484.5
443.813	541.5
444.034	569.5
444.255	529.5
444.476	473.5
444.698	485.5
444.919	479.5
445.14	584.5
445.361	514.5
445.582	471.5
445.803	506.5
446.024	530.5
446.245	550.5
446.466	498.5
446.687	452.5
446.908	440.5
447.129	410.5
447.35	405.5
447.571	410.5
447.792	380.5
448.013	367.5
448.234	413.5
448.455	410.5
448.675	505.5
448.896	555.5
449.117	472.5
449.338	477.5
449.559	522.5
449.779	547.5
450	461.5
450.221	418.5
450.442	385.5
450.662	393.5
450.883	397.5
451.104	393.5
451.324	384.5
451.545	385.5
451.766	371.5
451.986	358.5
452.207	359.5
452.428	375.5
452.648	367.5
452.869	356.5
453.089	370.5
453.31	359.5
453.53	360.5
453.751	359.5
453.971	370.5
454.192	377.5
454.412	362.5
454.633	354.5
454.853	364.5
455.073	352.5
455.294	368.5
455.514	401.5
455.734	405.5
455.955	339.5
456.175	360.5
456.395	337.5
456.616	345.5
456.836	349.5
457.056	346.5
457.276	339.5
457.497	368.5
457.717	332.5
457.937	365.5
458.157	366.5
458.377	364.5
458.598	372.5
458.818	381.5
459.038	428.5
459.258	457.5
459.478	423.5
459.698	404.5
459.918	392.5
460.138	426.5
460.358	404.5
460.578	436.5
460.798	421.5
461.018	434.5
461.238	446.5
461.458	411.5
461.678	421.5
461.898	434.5
462.118	430.5
462.338	444.5
462.558	450.5
462.777	466.5
462.997	475.5
463.217	502.5
463.437	503.5
463.657	476.5
463.876	457.5
464.096	477.5
464.316	485.5
464.536	459.5
464.755	467.5
464.975	461.5
465.195	455.5
465.414	449.5
465.634	449.5
465.854	404.5
466.073	411.5
466.293	405.5
466.512	383.5
466.732	375.5
466.951	373.5
467.171	393.5
467.391	371.5
467.61	385.5
467.829	392.5
468.049	392.5
468.268	374.5
468.488	368.5
468.707	376.5
468.927	371.5
469.146	356.5
469.365	383.5
469.585	389.5
469.804	376.5
470.023	380.5
470.243	379.5
470.462	391.5
470.681	401.5
470.901	411.5
471.12	413.5
471.339	413.5
471.558	392.5
471.777	386.5
471.997	379.5
472.216	367.5
472.435	407.5
472.654	407.5
472.873	376.5
473.092	376.5
473.311	370.5
473.53	378.5
473.749	393.5
473.968	415.5
474.187	461.5
474.406	461.5
474.625	397.5
474.844	392.5
475.063	372.5
475.282	381.5
475.501	378.5
475.72	375.5
475.939	378.5
476.158	372.5
476.377	389.5
476.596	373.5
476.814	388.5
477.033	398.5
477.252	380.5
477.471	403.5
477.69	419.5
477.908	431.5
478.127	428.5
478.346	446.5
478.564	424.5
478.783	429.5
479.002	443.5
479.22	440.5
479.439	454.5
479.658	464.5
479.876	439.5
480.095	458.5
480.313	471.5
480.532	479.5
480.751	471.5
480.969	485.5
481.188	480.5
481.406	522.5
481.624	460.5
481.843	444.5
482.061	430.5
482.28	454.5
482.498	440.5
482.717	442.5
482.935	425.5
483.153	427.5
483.372	423.5
483.59	442.5
483.808	450.5
484.027	437.5
484.245	423.5
484.463	447.5
484.681	439.5
484.9	447.5
485.118	433.5
485.336	434.5
485.554	439.5
485.772	433.5
485.99	433.5
486.209	443.5
486.427	456.5
486.645	455.5
486.863	469.5
487.081	428.5
487.299	460.5
487.517	435.5
487.735	483.5
487.953	475.5
488.171	453.5
488.389	460.5
488.607	449.5
488.825	447.5
489.043	452.5
489.261	479.5
489.479	454.5
489.696	456.5
489.914	495.5
490.132	496.5
490.35	490.5
490.568	496.5
490.786	500.5
491.003	481.5
491.221	502.5
491.439	513.5
491.657	496.5
491.874	513.5
492.092	529.5
492.31	552.5
492.527	543.5
492.745	541.5
492.963	536.5
493.18	516.5
493.398	543.5
493.615	532.5
493.833	546.5
494.05	545.5
494.268	535.5
494.485	549.5
494.703	559.5
494.92	556.5
495.138	537.5
495.355	532.5
495.573	541.5
495.79	525.5
496.008	528.5
496.225	559.5
496.442	551.5
496.66	544.5
496.877	562.5
497.094	551.5
497.312	580.5
497.529	559.5
497.746	586.5
497.963	578.5
498.181	603.5
498.398	593.5
498.615	644.5
498.832	640.5
499.049	683.5
499.267	702.5
499.484	741.5
499.701	788.5
499.918	832.5
500.135	884.5
500.352	931.5
500.569	939.5
500.786	997.5
501.003	927.5
501.22	897.5
501.437	827.5
501.654	810.5
501.871	758.5
502.088	723.5
502.305	671.5
502.522	659.5
502.739	646.5
502.956	625.5
503.172	573.5
503.389	584.5
503.606	580.5
503.823	556.5
504.04	551.5
504.256	557.5
504.473	591.5
504.69	587.5
504.907	567.5
505.123	564.5
505.34	531.5
505.557	524.5
505.773	540.5
505.99	530.5
506.207	524.5
506.423	512.5
506.64	493.5
506.856	492.5
507.073	492.5
507.289	480.5
507.506	469.5
507.722	501.5
507.939	485.5
508.155	476.5
508.372	459.5
508.588	465.5
508.805	464.5
509.021	474.5
509.238	481.5
509.454	471.5
509.67	483.5
509.887	461.5
510.103	455.5
510.319	450.5
510.536	497.5
510.752	705.5
510.968	619.5
511.184	471.5
511.401	475.5
511.617	429.5
511.833	448.5
512.049	458.5
512.265	434.5
512.481	452.5
512.698	455.5
512.914	434.5
513.13	438.5
513.346	426.5
513.562	420.5
513.778	437.5
513.994	465.5
514.21	444.5
514.426	457.5
514.642	496.5
514.858	467.5
515.074	499.5
515.29	554.5
515.506	730.5
515.721	618.5
515.937	526.5
516.153	505.5
516.369	479.5
516.585	469.5
516.801	485.5
517.016	500.5
517.232	502.5
517.448	496.5
517.664	517.5
517.879	537.5
518.095	519.5
518.311	502.5
518.527	503.5
518.742	471.5
518.958	453.5
519.173	445.5
519.389	452.5
519.605	447.5
519.82	438.5
520.036	440.5
