Data from 1969.PennyLincolnUp.Lamp.En5.5.200Scan.071719.P1._HRD10591_14-55-19-972.txt Node
Date: Thu Jul 18 14:55:19 EDT 2019
User: cochatt
Spectrometer: HR+D1059
Trigger mode: 1
Integration Time (sec): 1.000000E-1
Scans to average: 1
Electric dark correction enabled: true
Nonlinearity correction enabled: false
Boxcar width: 0
XAxis mode: Wavelengths
Number of Pixels in Spectrum: 2048
>>>>>Begin Spectral Data<<<<<
223.165	-15.19
223.4	-15.19
223.635	-15.19
223.869	-15.19
224.104	-13.19
224.338	-20.19
224.573	-15.19
224.808	-13.19
225.042	-4.19
225.277	8.81
225.511	-1.19
225.746	12.81
225.98	16.81
226.215	0.81
226.449	10.81
226.683	17.81
226.918	10.81
227.152	18.81
227.387	25.81
227.621	39.81
227.856	35.81
228.09	28.81
228.324	43.81
228.559	41.81
228.793	65.81
229.027	82.81
229.262	94.81
229.496	105.81
229.73	100.81
229.964	123.81
230.199	121.81
230.433	99.81
230.667	99.81
230.901	104.81
231.136	93.81
231.37	91.81
231.604	95.81
231.838	111.81
232.072	109.81
232.306	115.81
232.541	110.81
232.775	101.81
233.009	106.81
233.243	114.81
233.477	96.81
233.711	101.81
233.945	96.81
234.179	123.81
234.413	113.81
234.647	104.81
234.881	114.81
235.115	109.81
235.349	87.81
235.583	109.81
235.817	108.81
236.051	99.81
236.285	120.81
236.519	119.81
236.753	102.81
236.987	119.81
237.221	133.81
237.455	166.81
237.689	147.81
237.922	125.81
238.156	123.81
238.39	110.81
238.624	118.81
238.858	113.81
239.091	95.81
239.325	120.81
239.559	115.81
239.793	99.81
240.027	116.81
240.26	119.81
240.494	130.81
240.728	124.81
240.961	133.81
241.195	127.81
241.429	107.81
241.662	123.81
241.896	104.81
242.13	107.81
242.363	116.81
242.597	113.81
242.83	121.81
243.064	128.81
243.298	104.81
243.531	115.81
243.765	112.81
243.998	131.81
244.232	123.81
244.465	121.81
244.699	121.81
244.932	112.81
245.166	127.81
245.399	133.81
245.633	130.81
245.866	134.81
246.099	125.81
246.333	141.81
246.566	116.81
246.8	127.81
247.033	118.81
247.266	136.81
247.5	130.81
247.733	154.81
247.966	144.81
248.2	135.81
248.433	153.81
248.666	141.81
248.899	161.81
249.133	174.81
249.366	163.81
249.599	167.81
249.832	150.81
250.066	160.81
250.299	164.81
250.532	162.81
250.765	151.81
250.998	174.81
251.231	181.81
251.465	168.81
251.698	171.81
251.931	162.81
252.164	156.81
252.397	161.81
252.63	153.81
252.863	167.81
253.096	180.81
253.329	174.81
253.562	171.81
253.795	164.81
254.028	175.81
254.261	192.81
254.494	193.81
254.727	189.81
254.96	213.81
255.193	218.81
255.426	197.81
255.659	183.81
255.892	184.81
256.124	197.81
256.357	205.81
256.59	171.81
256.823	174.81
257.056	185.81
257.289	178.81
257.521	166.81
257.754	186.81
257.987	157.81
258.22	171.81
258.452	179.81
258.685	176.81
258.918	167.81
259.151	173.81
259.383	182.81
259.616	187.81
259.849	187.81
260.081	202.81
260.314	210.81
260.547	213.81
260.779	174.81
261.012	195.81
261.244	192.81
261.477	196.81
261.71	175.81
261.942	188.81
262.175	179.81
262.407	177.81
262.64	183.81
262.872	166.81
263.105	170.81
263.337	190.81
263.57	183.81
263.802	170.81
264.035	190.81
264.267	189.81
264.499	186.81
264.732	193.81
264.964	192.81
265.197	189.81
265.429	170.81
265.661	185.81
265.894	200.81
266.126	176.81
266.358	190.81
266.591	183.81
266.823	179.81
267.055	194.81
267.287	178.81
267.52	192.81
267.752	185.81
267.984	188.81
268.216	194.81
268.448	214.81
268.681	204.81
268.913	217.81
269.145	222.81
269.377	229.81
269.609	241.81
269.841	223.81
270.073	225.81
270.306	243.81
270.538	249.81
270.77	240.81
271.002	234.81
271.234	250.81
271.466	245.81
271.698	238.81
271.93	258.81
272.162	251.81
272.394	245.81
272.626	241.81
272.858	230.81
273.09	237.81
273.322	221.81
273.553	224.81
273.785	247.81
274.017	216.81
274.249	234.81
274.481	213.81
274.713	223.81
274.945	229.81
275.176	211.81
275.408	216.81
275.64	215.81
275.872	241.81
276.104	225.81
276.335	215.81
276.567	227.81
276.799	242.81
277.031	238.81
277.262	239.81
277.494	265.81
277.726	241.81
277.957	240.81
278.189	222.81
278.421	233.81
278.652	242.81
278.884	226.81
279.115	231.81
279.347	224.81
279.579	220.81
279.81	234.81
280.042	225.81
280.273	246.81
280.505	232.81
280.736	225.81
280.968	232.81
281.199	226.81
281.431	228.81
281.662	226.81
281.894	233.81
282.125	239.81
282.356	250.81
282.588	249.81
282.819	268.81
283.051	261.81
283.282	238.81
283.513	216.81
283.745	246.81
283.976	236.81
284.207	240.81
284.439	260.81
284.67	238.81
284.901	239.81
285.132	255.81
285.364	253.81
285.595	239.81
285.826	263.81
286.057	240.81
286.288	242.81
286.52	254.81
286.751	255.81
286.982	246.81
287.213	257.81
287.444	259.81
287.675	259.81
287.906	265.81
288.138	265.81
288.369	267.81
288.6	262.81
288.831	249.81
289.062	275.81
289.293	250.81
289.524	261.81
289.755	266.81
289.986	241.81
290.217	245.81
290.448	261.81
290.679	272.81
290.91	253.81
291.141	247.81
291.371	259.81
291.602	261.81
291.833	256.81
292.064	263.81
292.295	239.81
292.526	257.81
292.757	243.81
292.987	262.81
293.218	261.81
293.449	237.81
293.68	253.81
293.91	247.81
294.141	256.81
294.372	278.81
294.603	255.81
294.833	264.81
295.064	257.81
295.295	270.81
295.525	259.81
295.756	255.81
295.987	275.81
296.217	277.81
296.448	270.81
296.679	269.81
296.909	266.81
297.14	271.81
297.37	265.81
297.601	278.81
297.831	274.81
298.062	292.81
298.292	279.81
298.523	278.81
298.753	269.81
298.984	273.81
299.214	274.81
299.445	281.81
299.675	298.81
299.905	282.81
300.136	279.81
300.366	284.81
300.597	258.81
300.827	281.81
301.057	290.81
301.288	305.81
301.518	315.81
301.748	289.81
301.979	270.81
302.209	287.81
302.439	277.81
302.669	299.81
302.9	307.81
303.13	282.81
303.36	286.81
303.59	305.81
303.82	299.81
304.051	299.81
304.281	305.81
304.511	292.81
304.741	296.81
304.971	290.81
305.201	290.81
305.431	277.81
305.661	305.81
305.891	280.81
306.121	284.81
306.352	287.81
306.582	275.81
306.812	288.81
307.042	289.81
307.272	288.81
307.502	292.81
307.731	289.81
307.961	279.81
308.191	270.81
308.421	286.81
308.651	286.81
308.881	266.81
309.111	312.81
309.341	289.81
309.571	314.81
309.8	306.81
310.03	293.81
310.26	308.81
310.49	312.81
310.72	316.81
310.949	311.81
311.179	317.81
311.409	319.81
311.639	310.81
311.868	309.81
312.098	328.81
312.328	321.81
312.557	342.81
312.787	333.81
313.017	318.81
313.246	334.81
313.476	301.81
313.706	324.81
313.935	318.81
314.165	308.81
314.394	323.81
314.624	343.81
314.853	326.81
315.083	330.81
315.312	319.81
315.542	317.81
315.771	307.81
316.001	314.81
316.23	310.81
316.46	294.81
316.689	308.81
316.919	325.81
317.148	334.81
317.377	325.81
317.607	322.81
317.836	296.81
318.065	321.81
318.295	294.81
318.524	313.81
318.753	321.81
318.983	302.81
319.212	301.81
319.441	316.81
319.67	340.81
319.9	316.81
320.129	307.81
320.358	313.81
320.587	323.81
320.816	331.81
321.046	337.81
321.275	356.81
321.504	338.81
321.733	340.81
321.962	343.81
322.191	320.81
322.42	334.81
322.649	351.81
322.878	345.81
323.108	369.81
323.337	363.81
323.566	371.81
323.795	393.81
324.024	433.81
324.253	470.81
324.482	618.81
324.71	899.81
324.939	1178.81
325.168	973.81
325.397	571.81
325.626	432.81
325.855	385.81
326.084	378.81
326.313	373.81
326.542	386.81
326.77	413.81
326.999	433.81
327.228	580.81
327.457	815.81
327.686	935.81
327.914	648.81
328.143	456.81
328.372	442.81
328.6	426.81
328.829	401.81
329.058	427.81
329.287	422.81
329.515	420.81
329.744	404.81
329.972	399.81
330.201	421.81
330.43	435.81
330.658	429.81
330.887	433.81
331.115	431.81
331.344	399.81
331.572	388.81
331.801	390.81
332.03	401.81
332.258	397.81
332.486	401.81
332.715	393.81
332.943	386.81
333.172	407.81
333.4	401.81
333.629	419.81
333.857	422.81
334.085	419.81
334.314	445.81
334.542	462.81
334.771	470.81
334.999	425.81
335.227	410.81
335.455	414.81
335.684	400.81
335.912	407.81
336.14	408.81
336.369	395.81
336.597	391.81
336.825	372.81
337.053	381.81
337.281	381.81
337.51	399.81
337.738	387.81
337.966	378.81
338.194	373.81
338.422	385.81
338.65	382.81
338.878	381.81
339.106	386.81
339.334	374.81
339.562	365.81
339.79	360.81
340.018	360.81
340.246	361.81
340.474	369.81
340.702	368.81
340.93	366.81
341.158	383.81
341.386	367.81
341.614	363.81
341.842	364.81
342.07	357.81
342.298	350.81
342.526	368.81
342.754	346.81
342.981	354.81
343.209	342.81
343.437	354.81
343.665	371.81
343.893	400.81
344.12	405.81
344.348	383.81
344.576	371.81
344.804	393.81
345.031	365.81
345.259	364.81
345.487	356.81
345.714	360.81
345.942	351.81
346.17	340.81
346.397	334.81
346.625	346.81
346.853	349.81
347.08	329.81
347.308	340.81
347.535	338.81
347.763	355.81
347.99	351.81
348.218	353.81
348.445	342.81
348.673	350.81
348.9	352.81
349.128	331.81
349.355	329.81
349.583	320.81
349.81	322.81
350.037	347.81
350.265	338.81
350.492	340.81
350.72	334.81
350.947	347.81
351.174	361.81
351.402	346.81
351.629	352.81
351.856	335.81
352.083	337.81
352.311	346.81
352.538	350.81
352.765	329.81
352.992	354.81
353.22	330.81
353.447	342.81
353.674	341.81
353.901	328.81
354.128	321.81
354.355	330.81
354.583	329.81
354.81	319.81
355.037	323.81
355.264	306.81
355.491	330.81
355.718	327.81
355.945	332.81
356.172	323.81
356.399	322.81
356.626	325.81
356.853	320.81
357.08	322.81
357.307	329.81
357.534	331.81
357.761	322.81
357.988	340.81
358.215	325.81
358.441	303.81
358.668	307.81
358.895	322.81
359.122	339.81
359.349	352.81
359.576	342.81
359.802	356.81
360.029	376.81
360.256	362.81
360.483	352.81
360.709	339.81
360.936	332.81
361.163	358.81
361.39	330.81
361.616	324.81
361.843	341.81
362.07	327.81
362.296	330.81
362.523	348.81
362.749	328.81
362.976	332.81
363.203	336.81
363.429	321.81
363.656	336.81
363.882	345.81
364.109	335.81
364.335	319.81
364.562	338.81
364.788	310.81
365.015	317.81
365.241	331.81
365.468	350.81
365.694	344.81
365.92	336.81
366.147	301.81
366.373	323.81
366.599	345.81
366.826	326.81
367.052	334.81
367.278	330.81
367.505	321.81
367.731	319.81
367.957	327.81
368.184	351.81
368.41	327.81
368.636	338.81
368.862	345.81
369.089	335.81
369.315	331.81
369.541	328.81
369.767	323.81
369.993	314.81
370.219	329.81
370.445	340.81
370.672	336.81
370.898	332.81
371.124	332.81
371.35	326.81
371.576	318.81
371.802	345.81
372.028	335.81
372.254	329.81
372.48	323.81
372.706	341.81
372.932	376.81
373.158	356.81
373.384	342.81
373.61	336.81
373.835	335.81
374.061	347.81
374.287	327.81
374.513	349.81
374.739	342.81
374.965	359.81
375.191	350.81
375.416	346.81
375.642	349.81
375.868	358.81
376.094	346.81
376.319	345.81
376.545	333.81
376.771	334.81
376.997	354.81
377.222	344.81
377.448	335.81
377.674	335.81
377.899	319.81
378.125	310.81
378.35	332.81
378.576	313.81
378.802	310.81
379.027	336.81
379.253	333.81
379.478	329.81
379.704	324.81
379.929	338.81
380.155	319.81
380.38	323.81
380.606	332.81
380.831	319.81
381.057	331.81
381.282	343.81
381.507	328.81
381.733	333.81
381.958	335.81
382.184	331.81
382.409	330.81
382.634	346.81
382.86	330.81
383.085	349.81
383.31	351.81
383.535	358.81
383.761	343.81
383.986	360.81
384.211	362.81
384.436	376.81
384.662	372.81
384.887	365.81
385.112	371.81
385.337	363.81
385.562	370.81
385.787	365.81
386.013	399.81
386.238	389.81
386.463	380.81
386.688	374.81
386.913	380.81
387.138	383.81
387.363	369.81
387.588	389.81
387.813	371.81
388.038	379.81
388.263	382.81
388.488	352.81
388.713	365.81
388.938	369.81
389.163	372.81
389.387	384.81
389.612	382.81
389.837	369.81
390.062	374.81
390.287	386.81
390.512	369.81
390.736	365.81
390.961	377.81
391.186	385.81
391.411	366.81
391.636	369.81
391.86	379.81
392.085	397.81
392.31	394.81
392.534	388.81
392.759	398.81
392.984	376.81
393.208	377.81
393.433	379.81
393.658	368.81
393.882	375.81
394.107	383.81
394.331	387.81
394.556	378.81
394.78	382.81
395.005	377.81
395.229	395.81
395.454	390.81
395.678	395.81
395.903	410.81
396.127	411.81
396.352	392.81
396.576	400.81
396.801	393.81
397.025	382.81
397.249	384.81
397.474	408.81
397.698	387.81
397.922	415.81
398.147	419.81
398.371	418.81
398.595	426.81
398.82	431.81
399.044	464.81
399.268	471.81
399.492	501.81
399.717	565.81
399.941	558.81
400.165	541.81
400.389	514.81
400.613	493.81
400.837	470.81
401.062	439.81
401.286	469.81
401.51	441.81
401.734	454.81
401.958	437.81
402.182	439.81
402.406	460.81
402.63	453.81
402.854	466.81
403.078	464.81
403.302	471.81
403.526	476.81
403.75	462.81
403.974	450.81
404.198	450.81
404.422	481.81
404.645	494.81
404.869	500.81
405.093	494.81
405.317	514.81
405.541	517.81
405.765	502.81
405.988	471.81
406.212	484.81
406.436	479.81
406.66	489.81
406.883	495.81
407.107	539.81
407.331	543.81
407.555	582.81
407.778	556.81
408.002	544.81
408.226	522.81
408.449	522.81
408.673	482.81
408.896	510.81
409.12	541.81
409.344	513.81
409.567	449.81
409.791	439.81
410.014	455.81
410.238	454.81
410.461	446.81
410.685	451.81
410.908	467.81
411.132	471.81
411.355	489.81
411.578	480.81
411.802	446.81
412.025	453.81
412.249	463.81
412.472	450.81
412.695	478.81
412.919	477.81
413.142	444.81
413.365	441.81
413.589	432.81
413.812	427.81
414.035	430.81
414.258	443.81
414.482	437.81
414.705	417.81
414.928	442.81
415.151	451.81
415.374	457.81
415.597	438.81
415.821	422.81
416.044	423.81
416.267	406.81
416.49	415.81
416.713	435.81
416.936	430.81
417.159	434.81
417.382	429.81
417.605	430.81
417.828	437.81
418.051	448.81
418.274	439.81
418.497	441.81
418.72	432.81
418.943	433.81
419.166	429.81
419.389	471.81
419.611	465.81
419.834	471.81
420.057	459.81
420.28	437.81
420.503	439.81
420.726	443.81
420.948	455.81
421.171	468.81
421.394	490.81
421.617	451.81
421.839	449.81
422.062	458.81
422.285	438.81
422.507	466.81
422.73	512.81
422.953	509.81
423.175	455.81
423.398	441.81
423.621	468.81
423.843	487.81
424.066	489.81
424.288	482.81
424.511	486.81
424.733	501.81
424.956	545.81
425.178	536.81
425.401	527.81
425.623	531.81
425.846	451.81
426.068	445.81
426.291	456.81
426.513	451.81
426.735	440.81
426.958	507.81
427.18	528.81
427.402	579.81
427.625	617.81
427.847	568.81
428.069	520.81
428.292	464.81
428.514	433.81
428.736	416.81
428.958	416.81
429.181	410.81
429.403	414.81
429.625	421.81
429.847	452.81
430.069	455.81
430.292	464.81
430.514	423.81
430.736	418.81
430.958	390.81
431.18	413.81
431.402	416.81
431.624	394.81
431.846	387.81
432.068	416.81
432.29	415.81
432.512	421.81
432.734	392.81
432.956	399.81
433.178	423.81
433.4	411.81
433.622	420.81
433.844	425.81
434.066	401.81
434.287	411.81
434.509	430.81
434.731	435.81
434.953	440.81
435.175	459.81
435.397	458.81
435.618	460.81
435.84	486.81
436.062	506.81
436.284	534.81
436.505	453.81
436.727	434.81
436.949	423.81
437.17	431.81
437.392	421.81
437.614	409.81
437.835	436.81
438.057	494.81
438.278	538.81
438.5	537.81
438.721	587.81
438.943	520.81
439.165	450.81
439.386	443.81
439.608	432.81
439.829	447.81
440.05	447.81
440.272	467.81
440.493	450.81
440.715	437.81
440.936	439.81
441.158	446.81
441.379	431.81
441.6	459.81
441.822	435.81
442.043	490.81
442.264	519.81
442.486	544.81
442.707	496.81
442.928	460.81
443.149	446.81
443.371	481.81
443.592	494.81
443.813	555.81
444.034	585.81
444.255	512.81
444.476	466.81
444.698	498.81
444.919	504.81
445.14	595.81
445.361	500.81
445.582	495.81
445.803	513.81
446.024	566.81
446.245	555.81
446.466	543.81
446.687	445.81
446.908	433.81
447.129	443.81
447.35	416.81
447.571	410.81
447.792	417.81
448.013	406.81
448.234	407.81
448.455	450.81
448.675	522.81
448.896	561.81
449.117	497.81
449.338	486.81
449.559	527.81
449.779	589.81
450	484.81
450.221	433.81
450.442	401.81
450.662	401.81
450.883	406.81
451.104	397.81
451.324	399.81
451.545	380.81
451.766	398.81
451.986	379.81
452.207	380.81
452.428	365.81
452.648	367.81
452.869	386.81
453.089	363.81
453.31	373.81
453.53	370.81
453.751	359.81
453.971	390.81
454.192	357.81
454.412	365.81
454.633	362.81
454.853	356.81
455.073	362.81
455.294	388.81
455.514	411.81
455.734	395.81
455.955	362.81
456.175	362.81
456.395	331.81
456.616	342.81
456.836	341.81
457.056	330.81
457.276	342.81
457.497	371.81
457.717	365.81
457.937	360.81
458.157	367.81
458.377	379.81
458.598	389.81
458.818	416.81
459.038	467.81
459.258	472.81
459.478	415.81
459.698	393.81
459.918	413.81
460.138	424.81
460.358	427.81
460.578	416.81
460.798	450.81
461.018	425.81
461.238	415.81
461.458	445.81
461.678	423.81
461.898	453.81
462.118	433.81
462.338	438.81
462.558	466.81
462.777	475.81
462.997	482.81
463.217	530.81
463.437	506.81
463.657	502.81
463.876	498.81
464.096	453.81
464.316	469.81
464.536	474.81
464.755	452.81
464.975	467.81
465.195	480.81
465.414	509.81
465.634	465.81
465.854	419.81
466.073	417.81
466.293	392.81
466.512	402.81
466.732	387.81
466.951	374.81
467.171	374.81
467.391	388.81
467.61	387.81
467.829	401.81
468.049	409.81
468.268	399.81
468.488	374.81
468.707	382.81
468.927	374.81
469.146	389.81
469.365	393.81
469.585	385.81
469.804	395.81
470.023	413.81
470.243	403.81
470.462	404.81
470.681	411.81
470.901	399.81
471.12	408.81
471.339	401.81
471.558	398.81
471.777	398.81
471.997	410.81
472.216	385.81
472.435	433.81
472.654	409.81
472.873	397.81
473.092	374.81
473.311	377.81
473.53	401.81
473.749	393.81
473.968	420.81
474.187	471.81
474.406	477.81
474.625	417.81
474.844	383.81
475.063	376.81
475.282	386.81
475.501	367.81
475.72	402.81
475.939	385.81
476.158	387.81
476.377	409.81
476.596	407.81
476.814	410.81
477.033	422.81
477.252	417.81
477.471	418.81
477.69	422.81
477.908	423.81
478.127	435.81
478.346	441.81
478.564	425.81
478.783	438.81
479.002	430.81
479.22	475.81
479.439	479.81
479.658	467.81
479.876	473.81
480.095	468.81
480.313	469.81
480.532	489.81
480.751	485.81
480.969	477.81
481.188	506.81
481.406	539.81
481.624	476.81
481.843	451.81
482.061	478.81
482.28	442.81
482.498	444.81
482.717	441.81
482.935	448.81
483.153	441.81
483.372	437.81
483.59	474.81
483.808	457.81
484.027	438.81
484.245	439.81
484.463	454.81
484.681	457.81
484.9	434.81
485.118	426.81
485.336	464.81
485.554	465.81
485.772	468.81
485.99	458.81
486.209	470.81
486.427	457.81
486.645	471.81
486.863	477.81
487.081	473.81
487.299	457.81
487.517	447.81
487.735	478.81
487.953	468.81
488.171	479.81
488.389	467.81
488.607	473.81
488.825	486.81
489.043	476.81
489.261	478.81
489.479	494.81
489.696	496.81
489.914	472.81
490.132	477.81
490.35	491.81
490.568	484.81
490.786	518.81
491.003	531.81
491.221	527.81
491.439	542.81
491.657	541.81
491.874	510.81
492.092	559.81
492.31	560.81
492.527	555.81
492.745	553.81
492.963	542.81
493.18	568.81
493.398	576.81
493.615	584.81
493.833	551.81
494.05	552.81
494.268	574.81
494.485	571.81
494.703	551.81
494.92	552.81
495.138	548.81
495.355	552.81
495.573	560.81
495.79	578.81
496.008	550.81
496.225	555.81
496.442	561.81
496.66	574.81
496.877	577.81
497.094	573.81
497.312	564.81
497.529	567.81
497.746	606.81
497.963	610.81
498.181	623.81
498.398	625.81
498.615	646.81
498.832	662.81
499.049	698.81
499.267	693.81
499.484	774.81
499.701	803.81
499.918	854.81
500.135	897.81
500.352	981.81
500.569	1015.81
500.786	997.81
501.003	971.81
501.22	908.81
501.437	869.81
501.654	834.81
501.871	765.81
502.088	755.81
