Data from 1969.PennyLincolnUp.Lamp.En5.5.200Scan.071719.P1._HRD10591_14-54-53-972.txt Node
Date: Thu Jul 18 14:54:53 EDT 2019
User: cochatt
Spectrometer: HR+D1059
Trigger mode: 1
Integration Time (sec): 1.000000E-1
Scans to average: 1
Electric dark correction enabled: true
Nonlinearity correction enabled: false
Boxcar width: 0
XAxis mode: Wavelengths
Number of Pixels in Spectrum: 2048
>>>>>Begin Spectral Data<<<<<
223.165	-15.62
223.4	-15.62
223.635	-15.62
223.869	-11.62
224.104	-15.62
224.338	-22.62
224.573	-12.62
224.808	-16.62
225.042	-20.62
225.277	-2.62
225.511	7.38
225.746	6.38
225.98	15.38
226.215	7.38
226.449	11.38
226.683	25.38
226.918	15.38
227.152	29.38
227.387	28.38
227.621	35.38
227.856	38.38
228.09	49.38
228.324	49.38
228.559	44.38
228.793	58.38
229.027	81.38
229.262	77.38
229.496	85.38
229.73	91.38
229.964	114.38
230.199	120.38
230.433	93.38
230.667	85.38
230.901	97.38
231.136	95.38
231.37	108.38
231.604	92.38
231.838	107.38
232.072	104.38
232.306	92.38
232.541	108.38
232.775	89.38
233.009	116.38
233.243	108.38
233.477	90.38
233.711	98.38
233.945	114.38
234.179	120.38
234.413	104.38
234.647	120.38
234.881	112.38
235.115	99.38
235.349	108.38
235.583	115.38
235.817	107.38
236.051	108.38
236.285	115.38
236.519	106.38
236.753	117.38
236.987	121.38
237.221	145.38
237.455	167.38
237.689	129.38
237.922	113.38
238.156	119.38
238.39	116.38
238.624	113.38
238.858	113.38
239.091	106.38
239.325	94.38
239.559	127.38
239.793	113.38
240.027	132.38
240.26	121.38
240.494	113.38
240.728	135.38
240.961	124.38
241.195	121.38
241.429	121.38
241.662	130.38
241.896	124.38
242.13	117.38
242.363	125.38
242.597	112.38
242.83	121.38
243.064	113.38
243.298	118.38
243.531	120.38
243.765	135.38
243.998	136.38
244.232	114.38
244.465	111.38
244.699	117.38
244.932	123.38
245.166	128.38
245.399	120.38
245.633	133.38
245.866	129.38
246.099	112.38
246.333	139.38
246.566	139.38
246.8	133.38
247.033	135.38
247.266	136.38
247.5	141.38
247.733	150.38
247.966	160.38
248.2	158.38
248.433	153.38
248.666	142.38
248.899	155.38
249.133	145.38
249.366	167.38
249.599	154.38
249.832	153.38
250.066	163.38
250.299	152.38
250.532	151.38
250.765	162.38
250.998	167.38
251.231	177.38
251.465	177.38
251.698	167.38
251.931	178.38
252.164	169.38
252.397	159.38
252.63	172.38
252.863	183.38
253.096	171.38
253.329	188.38
253.562	188.38
253.795	176.38
254.028	163.38
254.261	176.38
254.494	185.38
254.727	200.38
254.96	214.38
255.193	221.38
255.426	183.38
255.659	184.38
255.892	193.38
256.124	179.38
256.357	191.38
256.59	187.38
256.823	182.38
257.056	169.38
257.289	189.38
257.521	187.38
257.754	164.38
257.987	172.38
258.22	176.38
258.452	187.38
258.685	172.38
258.918	177.38
259.151	153.38
259.383	179.38
259.616	177.38
259.849	185.38
260.081	193.38
260.314	199.38
260.547	193.38
260.779	183.38
261.012	192.38
261.244	201.38
261.477	182.38
261.71	194.38
261.942	184.38
262.175	169.38
262.407	191.38
262.64	171.38
262.872	177.38
263.105	177.38
263.337	179.38
263.57	185.38
263.802	171.38
264.035	178.38
264.267	173.38
264.499	182.38
264.732	183.38
264.964	173.38
265.197	191.38
265.429	183.38
265.661	185.38
265.894	192.38
266.126	187.38
266.358	168.38
266.591	195.38
266.823	198.38
267.055	182.38
267.287	173.38
267.52	214.38
267.752	201.38
267.984	196.38
268.216	193.38
268.448	186.38
268.681	202.38
268.913	215.38
269.145	212.38
269.377	215.38
269.609	218.38
269.841	218.38
270.073	222.38
270.306	227.38
270.538	251.38
270.77	244.38
271.002	234.38
271.234	234.38
271.466	228.38
271.698	231.38
271.93	247.38
272.162	247.38
272.394	235.38
272.626	243.38
272.858	207.38
273.09	223.38
273.322	222.38
273.553	234.38
273.785	226.38
274.017	225.38
274.249	234.38
274.481	224.38
274.713	208.38
274.945	218.38
275.176	229.38
275.408	221.38
275.64	226.38
275.872	205.38
276.104	241.38
276.335	228.38
276.567	239.38
276.799	247.38
277.031	255.38
277.262	258.38
277.494	266.38
277.726	232.38
277.957	246.38
278.189	229.38
278.421	230.38
278.652	242.38
278.884	240.38
279.115	223.38
279.347	237.38
279.579	218.38
279.81	214.38
280.042	242.38
280.273	219.38
280.505	218.38
280.736	235.38
280.968	226.38
281.199	234.38
281.431	218.38
281.662	233.38
281.894	220.38
282.125	226.38
282.356	239.38
282.588	257.38
282.819	264.38
283.051	233.38
283.282	233.38
283.513	243.38
283.745	242.38
283.976	237.38
284.207	219.38
284.439	246.38
284.67	243.38
284.901	255.38
285.132	239.38
285.364	247.38
285.595	250.38
285.826	227.38
286.057	231.38
286.288	263.38
286.52	233.38
286.751	250.38
286.982	238.38
287.213	259.38
287.444	250.38
287.675	261.38
287.906	270.38
288.138	258.38
288.369	270.38
288.6	273.38
288.831	279.38
289.062	264.38
289.293	249.38
289.524	257.38
289.755	245.38
289.986	258.38
290.217	246.38
290.448	262.38
290.679	260.38
290.91	264.38
291.141	252.38
291.371	255.38
291.602	262.38
291.833	244.38
292.064	253.38
292.295	236.38
292.526	247.38
292.757	260.38
292.987	248.38
293.218	263.38
293.449	267.38
293.68	261.38
293.91	269.38
294.141	267.38
294.372	252.38
294.603	244.38
294.833	257.38
295.064	246.38
295.295	260.38
295.525	263.38
295.756	261.38
295.987	275.38
296.217	261.38
296.448	274.38
296.679	263.38
296.909	263.38
297.14	257.38
297.37	276.38
297.601	263.38
297.831	282.38
298.062	263.38
298.292	264.38
298.523	261.38
298.753	283.38
298.984	275.38
299.214	265.38
299.445	258.38
299.675	284.38
299.905	285.38
300.136	288.38
300.366	283.38
300.597	286.38
300.827	289.38
301.057	295.38
301.288	292.38
301.518	285.38
301.748	284.38
301.979	288.38
302.209	274.38
302.439	325.38
302.669	299.38
302.9	285.38
303.13	295.38
303.36	284.38
303.59	295.38
303.82	284.38
304.051	299.38
304.281	274.38
304.511	284.38
304.741	296.38
304.971	294.38
305.201	302.38
305.431	306.38
305.661	290.38
305.891	287.38
306.121	300.38
306.352	289.38
306.582	271.38
306.812	280.38
307.042	269.38
307.272	289.38
307.502	295.38
307.731	293.38
307.961	295.38
308.191	295.38
308.421	311.38
308.651	296.38
308.881	305.38
309.111	303.38
309.341	295.38
309.571	294.38
309.8	304.38
310.03	299.38
310.26	304.38
310.49	320.38
310.72	321.38
310.949	303.38
311.179	310.38
311.409	303.38
311.639	327.38
311.868	322.38
312.098	307.38
312.328	320.38
312.557	334.38
312.787	326.38
313.017	312.38
313.246	336.38
313.476	322.38
313.706	310.38
313.935	337.38
314.165	325.38
314.394	329.38
314.624	330.38
314.853	320.38
315.083	337.38
315.312	308.38
315.542	341.38
315.771	317.38
316.001	314.38
316.23	325.38
316.46	307.38
316.689	320.38
316.919	328.38
317.148	330.38
317.377	330.38
317.607	322.38
317.836	313.38
318.065	314.38
318.295	298.38
318.524	287.38
318.753	320.38
318.983	298.38
319.212	294.38
319.441	297.38
319.67	319.38
319.9	315.38
320.129	320.38
320.358	325.38
320.587	312.38
320.816	345.38
321.046	327.38
321.275	328.38
321.504	322.38
321.733	324.38
321.962	352.38
322.191	331.38
322.42	337.38
322.649	333.38
322.878	346.38
323.108	335.38
323.337	338.38
323.566	356.38
323.795	367.38
324.024	403.38
324.253	453.38
324.482	598.38
324.71	863.38
324.939	1097.38
325.168	928.38
325.397	519.38
325.626	415.38
325.855	364.38
326.084	352.38
326.313	383.38
326.542	371.38
326.77	387.38
326.999	458.38
327.228	588.38
327.457	770.38
327.686	879.38
327.914	601.38
328.143	461.38
328.372	420.38
328.6	409.38
328.829	409.38
329.058	409.38
329.287	410.38
329.515	384.38
329.744	389.38
329.972	384.38
330.201	393.38
330.43	416.38
330.658	435.38
330.887	453.38
331.115	443.38
331.344	385.38
331.572	394.38
331.801	375.38
332.03	374.38
332.258	376.38
332.486	360.38
332.715	391.38
332.943	408.38
333.172	394.38
333.4	398.38
333.629	405.38
333.857	435.38
334.085	409.38
334.314	439.38
334.542	436.38
334.771	455.38
334.999	418.38
335.227	409.38
335.455	394.38
335.684	396.38
335.912	390.38
336.14	376.38
336.369	391.38
336.597	379.38
336.825	379.38
337.053	372.38
337.281	375.38
337.51	391.38
337.738	374.38
337.966	376.38
338.194	383.38
338.422	361.38
338.65	351.38
338.878	332.38
339.106	355.38
339.334	342.38
339.562	374.38
339.79	356.38
340.018	344.38
340.246	362.38
340.474	361.38
340.702	372.38
340.93	375.38
341.158	356.38
341.386	351.38
341.614	363.38
341.842	360.38
342.07	363.38
342.298	343.38
342.526	361.38
342.754	349.38
342.981	338.38
343.209	338.38
343.437	368.38
343.665	356.38
343.893	374.38
344.12	387.38
344.348	396.38
344.576	399.38
344.804	375.38
345.031	383.38
345.259	361.38
345.487	351.38
345.714	351.38
345.942	337.38
346.17	344.38
346.397	355.38
346.625	364.38
346.853	327.38
347.08	360.38
347.308	335.38
347.535	333.38
347.763	328.38
347.99	350.38
348.218	347.38
348.445	343.38
348.673	345.38
348.9	344.38
349.128	341.38
349.355	329.38
349.583	323.38
349.81	339.38
350.037	347.38
350.265	331.38
350.492	335.38
350.72	325.38
350.947	333.38
351.174	323.38
351.402	337.38
351.629	348.38
351.856	328.38
352.083	345.38
352.311	333.38
352.538	343.38
352.765	320.38
352.992	324.38
353.22	330.38
353.447	330.38
353.674	346.38
353.901	325.38
354.128	310.38
354.355	321.38
354.583	326.38
354.81	316.38
355.037	311.38
355.264	309.38
355.491	306.38
355.718	323.38
355.945	325.38
356.172	319.38
356.399	337.38
356.626	309.38
356.853	327.38
357.08	333.38
357.307	320.38
357.534	324.38
357.761	312.38
357.988	327.38
358.215	311.38
358.441	302.38
358.668	316.38
358.895	324.38
359.122	313.38
359.349	316.38
359.576	328.38
359.802	342.38
360.029	361.38
360.256	356.38
360.483	367.38
360.709	323.38
360.936	352.38
361.163	338.38
361.39	335.38
361.616	336.38
361.843	320.38
362.07	343.38
362.296	337.38
362.523	304.38
362.749	327.38
362.976	333.38
363.203	331.38
363.429	321.38
363.656	328.38
363.882	325.38
364.109	324.38
364.335	340.38
364.562	321.38
364.788	313.38
365.015	335.38
365.241	341.38
365.468	321.38
365.694	330.38
365.92	338.38
366.147	321.38
366.373	307.38
366.599	325.38
366.826	333.38
367.052	298.38
367.278	331.38
367.505	309.38
367.731	332.38
367.957	325.38
368.184	317.38
368.41	336.38
368.636	337.38
368.862	339.38
369.089	324.38
369.315	317.38
369.541	319.38
369.767	317.38
369.993	333.38
370.219	323.38
370.445	330.38
370.672	329.38
370.898	330.38
371.124	330.38
371.35	320.38
371.576	336.38
371.802	337.38
372.028	340.38
372.254	312.38
372.48	347.38
372.706	346.38
372.932	343.38
373.158	343.38
373.384	334.38
373.61	329.38
373.835	323.38
374.061	343.38
374.287	358.38
374.513	349.38
374.739	351.38
374.965	344.38
375.191	366.38
375.416	347.38
375.642	349.38
375.868	351.38
376.094	350.38
376.319	355.38
376.545	333.38
376.771	338.38
376.997	339.38
377.222	337.38
377.448	324.38
377.674	331.38
377.899	312.38
378.125	350.38
378.35	338.38
378.576	325.38
378.802	324.38
379.027	322.38
379.253	331.38
379.478	328.38
379.704	338.38
379.929	334.38
380.155	316.38
380.38	322.38
380.606	328.38
380.831	332.38
381.057	313.38
381.282	304.38
381.507	317.38
381.733	335.38
381.958	330.38
382.184	335.38
382.409	325.38
382.634	349.38
382.86	342.38
383.085	355.38
383.31	344.38
383.535	345.38
383.761	356.38
383.986	369.38
384.211	369.38
384.436	357.38
384.662	358.38
384.887	362.38
385.112	363.38
385.337	379.38
385.562	367.38
385.787	364.38
386.013	383.38
386.238	373.38
386.463	377.38
386.688	390.38
386.913	357.38
387.138	379.38
387.363	363.38
387.588	375.38
387.813	362.38
388.038	371.38
388.263	387.38
388.488	376.38
388.713	380.38
388.938	376.38
389.163	374.38
389.387	364.38
389.612	359.38
389.837	387.38
390.062	363.38
390.287	369.38
390.512	359.38
390.736	365.38
390.961	358.38
391.186	392.38
391.411	389.38
391.636	393.38
391.86	384.38
392.085	393.38
392.31	401.38
392.534	391.38
392.759	377.38
392.984	383.38
393.208	371.38
393.433	380.38
393.658	374.38
393.882	376.38
394.107	376.38
394.331	380.38
394.556	368.38
394.78	379.38
395.005	360.38
395.229	383.38
395.454	399.38
395.678	392.38
395.903	422.38
396.127	418.38
396.352	417.38
396.576	385.38
396.801	390.38
397.025	385.38
397.249	408.38
397.474	400.38
397.698	417.38
397.922	424.38
398.147	413.38
398.371	400.38
398.595	426.38
398.82	413.38
399.044	464.38
399.268	472.38
399.492	521.38
399.717	559.38
399.941	565.38
400.165	530.38
400.389	525.38
400.613	483.38
400.837	446.38
401.062	447.38
401.286	440.38
401.51	458.38
401.734	422.38
401.958	457.38
402.182	434.38
402.406	456.38
402.63	459.38
402.854	439.38
403.078	450.38
403.302	443.38
403.526	443.38
403.75	452.38
403.974	455.38
404.198	454.38
404.422	449.38
404.645	471.38
404.869	459.38
405.093	502.38
405.317	501.38
405.541	487.38
405.765	476.38
405.988	466.38
406.212	457.38
406.436	481.38
406.66	513.38
406.883	505.38
407.107	530.38
407.331	549.38
407.555	560.38
407.778	555.38
408.002	524.38
408.226	508.38
408.449	483.38
408.673	471.38
408.896	473.38
409.12	524.38
409.344	490.38
409.567	453.38
409.791	456.38
410.014	468.38
410.238	451.38
410.461	443.38
410.685	459.38
410.908	459.38
411.132	466.38
411.355	483.38
411.578	458.38
411.802	452.38
412.025	437.38
412.249	445.38
412.472	458.38
412.695	491.38
412.919	464.38
413.142	449.38
413.365	426.38
413.589	441.38
413.812	442.38
414.035	437.38
414.258	447.38
414.482	421.38
414.705	445.38
414.928	442.38
415.151	416.38
415.374	426.38
415.597	422.38
415.821	419.38
416.044	433.38
416.267	443.38
416.49	405.38
416.713	430.38
416.936	437.38
417.159	433.38
417.382	400.38
417.605	418.38
417.828	430.38
418.051	433.38
418.274	448.38
418.497	413.38
418.72	412.38
418.943	425.38
419.166	456.38
419.389	464.38
419.611	467.38
419.834	467.38
420.057	475.38
420.28	462.38
420.503	435.38
420.726	441.38
420.948	462.38
421.171	450.38
421.394	479.38
421.617	444.38
421.839	431.38
422.062	447.38
422.285	435.38
422.507	472.38
422.73	504.38
422.953	490.38
423.175	445.38
423.398	474.38
423.621	459.38
423.843	493.38
424.066	488.38
424.288	456.38
424.511	450.38
424.733	488.38
424.956	539.38
425.178	513.38
425.401	525.38
425.623	532.38
425.846	445.38
426.068	428.38
426.291	426.38
426.513	446.38
426.735	455.38
426.958	459.38
427.18	531.38
427.402	566.38
427.625	599.38
427.847	532.38
428.069	485.38
428.292	441.38
428.514	422.38
428.736	395.38
428.958	428.38
429.181	411.38
429.403	408.38
429.625	422.38
429.847	424.38
430.069	448.38
430.292	475.38
430.514	428.38
430.736	398.38
430.958	415.38
431.18	378.38
431.402	405.38
431.624	390.38
431.846	393.38
432.068	398.38
432.29	392.38
432.512	408.38
432.734	397.38
432.956	388.38
433.178	420.38
433.4	404.38
433.622	401.38
433.844	403.38
434.066	393.38
434.287	412.38
434.509	405.38
434.731	418.38
434.953	424.38
435.175	435.38
435.397	441.38
435.618	467.38
435.84	450.38
436.062	478.38
436.284	519.38
436.505	445.38
436.727	420.38
436.949	430.38
437.17	409.38
437.392	398.38
437.614	409.38
437.835	425.38
438.057	479.38
438.278	518.38
438.5	534.38
438.721	570.38
438.943	547.38
439.165	428.38
439.386	410.38
439.608	442.38
439.829	424.38
440.05	443.38
440.272	446.38
440.493	443.38
440.715	416.38
440.936	424.38
441.158	426.38
441.379	439.38
441.6	449.38
441.822	467.38
442.043	463.38
442.264	507.38
442.486	523.38
442.707	474.38
442.928	441.38
443.149	440.38
443.371	490.38
443.592	499.38
443.813	547.38
444.034	584.38
444.255	505.38
444.476	461.38
444.698	481.38
444.919	498.38
445.14	568.38
445.361	489.38
445.582	492.38
445.803	488.38
446.024	545.38
446.245	553.38
446.466	520.38
446.687	463.38
446.908	437.38
447.129	415.38
447.35	403.38
447.571	416.38
447.792	385.38
448.013	408.38
448.234	437.38
448.455	437.38
448.675	505.38
448.896	557.38
449.117	490.38
449.338	472.38
449.559	530.38
449.779	574.38
450	465.38
450.221	426.38
450.442	404.38
450.662	383.38
450.883	392.38
451.104	409.38
451.324	380.38
451.545	384.38
451.766	374.38
451.986	368.38
452.207	364.38
452.428	371.38
452.648	367.38
452.869	393.38
453.089	375.38
453.31	383.38
453.53	359.38
453.751	374.38
453.971	372.38
454.192	368.38
454.412	368.38
454.633	367.38
454.853	353.38
455.073	348.38
455.294	383.38
455.514	411.38
455.734	386.38
455.955	358.38
456.175	353.38
456.395	346.38
456.616	359.38
456.836	345.38
457.056	338.38
457.276	332.38
457.497	353.38
457.717	343.38
457.937	351.38
458.157	354.38
458.377	364.38
458.598	399.38
458.818	420.38
459.038	442.38
459.258	460.38
459.478	421.38
459.698	401.38
459.918	401.38
460.138	408.38
460.358	457.38
460.578	433.38
460.798	433.38
461.018	433.38
461.238	434.38
461.458	415.38
461.678	427.38
461.898	420.38
462.118	434.38
462.338	453.38
462.558	457.38
462.777	437.38
462.997	468.38
463.217	489.38
463.437	495.38
463.657	468.38
463.876	479.38
464.096	488.38
464.316	456.38
464.536	485.38
464.755	453.38
464.975	441.38
465.195	463.38
465.414	479.38
465.634	444.38
465.854	424.38
466.073	421.38
466.293	407.38
466.512	393.38
466.732	385.38
466.951	379.38
467.171	398.38
467.391	383.38
467.61	387.38
467.829	384.38
468.049	364.38
468.268	375.38
468.488	352.38
468.707	373.38
468.927	379.38
469.146	368.38
469.365	367.38
469.585	385.38
469.804	389.38
470.023	408.38
470.243	389.38
470.462	398.38
470.681	410.38
470.901	413.38
471.12	419.38
471.339	388.38
471.558	397.38
471.777	389.38
471.997	399.38
472.216	392.38
472.435	406.38
472.654	409.38
472.873	398.38
473.092	386.38
473.311	376.38
473.53	394.38
473.749	395.38
473.968	419.38
474.187	427.38
474.406	458.38
474.625	405.38
474.844	369.38
475.063	387.38
475.282	389.38
475.501	378.38
475.72	385.38
475.939	406.38
476.158	389.38
476.377	390.38
476.596	403.38
476.814	412.38
477.033	404.38
477.252	430.38
477.471	388.38
477.69	407.38
477.908	443.38
478.127	443.38
478.346	429.38
478.564	431.38
478.783	443.38
479.002	455.38
479.22	437.38
479.439	455.38
479.658	473.38
479.876	437.38
480.095	483.38
480.313	483.38
480.532	496.38
480.751	489.38
480.969	482.38
481.188	523.38
481.406	536.38
481.624	460.38
481.843	447.38
482.061	449.38
482.28	446.38
482.498	436.38
482.717	428.38
482.935	435.38
483.153	430.38
483.372	433.38
483.59	430.38
483.808	438.38
484.027	435.38
484.245	456.38
484.463	439.38
484.681	438.38
484.9	449.38
485.118	456.38
485.336	472.38
485.554	448.38
485.772	448.38
485.99	456.38
486.209	450.38
486.427	457.38
486.645	445.38
486.863	459.38
487.081	473.38
487.299	476.38
487.517	455.38
487.735	467.38
487.953	480.38
488.171	459.38
488.389	451.38
488.607	479.38
488.825	456.38
489.043	461.38
489.261	474.38
489.479	461.38
489.696	467.38
489.914	457.38
490.132	499.38
490.35	499.38
490.568	501.38
490.786	496.38
491.003	480.38
491.221	516.38
491.439	527.38
491.657	534.38
491.874	528.38
492.092	551.38
492.31	523.38
492.527	539.38
492.745	532.38
492.963	550.38
493.18	547.38
493.398	538.38
493.615	556.38
493.833	560.38
494.05	529.38
494.268	548.38
494.485	560.38
494.703	556.38
494.92	543.38
495.138	540.38
495.355	539.38
495.573	549.38
495.79	554.38
496.008	563.38
496.225	540.38
496.442	525.38
496.66	557.38
496.877	557.38
497.094	555.38
497.312	582.38
497.529	565.38
497.746	609.38
497.963	576.38
498.181	598.38
498.398	616.38
498.615	650.38
498.832	659.38
499.049	711.38
499.267	700.38
499.484	767.38
499.701	783.38
499.918	833.38
500.135	939.38
500.352	982.38
500.569	962.38
500.786	975.38
501.003	945.38
501.22	873.38
501.437	851.38
501.654	825.38
501.871	742.38
502.088	723.38
