Data from 1969.PennyLincolnUp.Lamp.En5.5.200Scan.071719.P1._HRD10591_14-56-34-972.txt Node
Date: Thu Jul 18 14:56:34 EDT 2019
User: cochatt
Spectrometer: HR+D1059
Trigger mode: 1
Integration Time (sec): 1.000000E-1
Scans to average: 1
Electric dark correction enabled: true
Nonlinearity correction enabled: false
Boxcar width: 0
XAxis mode: Wavelengths
Number of Pixels in Spectrum: 2048
>>>>>Begin Spectral Data<<<<<
223.165	-6.75
223.4	-6.75
223.635	-6.75
223.869	-17.75
224.104	-21.75
224.338	-2.75
224.573	-11.75
224.808	-13.75
225.042	3.25
225.277	0.25
225.511	-5.75
225.746	-11.75
225.98	-9.75
226.215	9.25
226.449	17.25
226.683	21.25
226.918	27.25
227.152	23.25
227.387	33.25
227.621	37.25
227.856	55.25
228.09	38.25
228.324	54.25
228.559	56.25
228.793	88.25
229.027	83.25
229.262	83.25
229.496	90.25
229.73	112.25
229.964	122.25
230.199	103.25
230.433	85.25
230.667	95.25
230.901	118.25
231.136	97.25
231.37	115.25
231.604	95.25
231.838	104.25
232.072	113.25
232.306	97.25
232.541	99.25
232.775	103.25
233.009	106.25
233.243	103.25
233.477	119.25
233.711	115.25
233.945	106.25
234.179	113.25
234.413	113.25
234.647	113.25
234.881	111.25
235.115	92.25
235.349	121.25
235.583	109.25
235.817	107.25
236.051	108.25
236.285	117.25
236.519	101.25
236.753	120.25
236.987	123.25
237.221	147.25
237.455	175.25
237.689	142.25
237.922	135.25
238.156	119.25
238.39	120.25
238.624	116.25
238.858	109.25
239.091	101.25
239.325	115.25
239.559	100.25
239.793	120.25
240.027	122.25
240.26	126.25
240.494	133.25
240.728	137.25
240.961	117.25
241.195	127.25
241.429	119.25
241.662	117.25
241.896	135.25
242.13	129.25
242.363	118.25
242.597	118.25
242.83	127.25
243.064	126.25
243.298	125.25
243.531	120.25
243.765	126.25
243.998	123.25
244.232	132.25
244.465	132.25
244.699	131.25
244.932	133.25
245.166	123.25
245.399	125.25
245.633	137.25
245.866	110.25
246.099	140.25
246.333	132.25
246.566	131.25
246.8	135.25
247.033	130.25
247.266	153.25
247.5	135.25
247.733	147.25
247.966	145.25
248.2	159.25
248.433	145.25
248.666	148.25
248.899	154.25
249.133	160.25
249.366	169.25
249.599	154.25
249.832	170.25
250.066	167.25
250.299	164.25
250.532	167.25
250.765	158.25
250.998	181.25
251.231	181.25
251.465	193.25
251.698	162.25
251.931	163.25
252.164	162.25
252.397	167.25
252.63	167.25
252.863	171.25
253.096	200.25
253.329	203.25
253.562	186.25
253.795	178.25
254.028	183.25
254.261	195.25
254.494	186.25
254.727	193.25
254.96	236.25
255.193	212.25
255.426	199.25
255.659	194.25
255.892	199.25
256.124	187.25
256.357	211.25
256.59	191.25
256.823	182.25
257.056	186.25
257.289	181.25
257.521	181.25
257.754	178.25
257.987	171.25
258.22	182.25
258.452	178.25
258.685	188.25
258.918	165.25
259.151	190.25
259.383	194.25
259.616	184.25
259.849	188.25
260.081	208.25
260.314	211.25
260.547	199.25
260.779	179.25
261.012	224.25
261.244	202.25
261.477	186.25
261.71	189.25
261.942	199.25
262.175	194.25
262.407	203.25
262.64	195.25
262.872	182.25
263.105	199.25
263.337	186.25
263.57	196.25
263.802	201.25
264.035	182.25
264.267	193.25
264.499	185.25
264.732	189.25
264.964	180.25
265.197	190.25
265.429	195.25
265.661	187.25
265.894	197.25
266.126	181.25
266.358	184.25
266.591	187.25
266.823	188.25
267.055	202.25
267.287	198.25
267.52	205.25
267.752	199.25
267.984	214.25
268.216	204.25
268.448	205.25
268.681	215.25
268.913	214.25
269.145	227.25
269.377	231.25
269.609	251.25
269.841	231.25
270.073	243.25
270.306	248.25
270.538	276.25
270.77	253.25
271.002	256.25
271.234	237.25
271.466	230.25
271.698	266.25
271.93	249.25
272.162	245.25
272.394	262.25
272.626	264.25
272.858	247.25
273.09	234.25
273.322	233.25
273.553	224.25
273.785	231.25
274.017	215.25
274.249	223.25
274.481	234.25
274.713	241.25
274.945	233.25
275.176	239.25
275.408	229.25
275.64	213.25
275.872	211.25
276.104	227.25
276.335	234.25
276.567	238.25
276.799	232.25
277.031	266.25
277.262	277.25
277.494	264.25
277.726	238.25
277.957	241.25
278.189	254.25
278.421	235.25
278.652	235.25
278.884	230.25
279.115	236.25
279.347	240.25
279.579	236.25
279.81	239.25
280.042	220.25
280.273	245.25
280.505	240.25
280.736	250.25
280.968	232.25
281.199	246.25
281.431	257.25
281.662	234.25
281.894	267.25
282.125	244.25
282.356	241.25
282.588	251.25
282.819	263.25
283.051	254.25
283.282	252.25
283.513	233.25
283.745	252.25
283.976	246.25
284.207	262.25
284.439	247.25
284.67	267.25
284.901	257.25
285.132	246.25
285.364	244.25
285.595	246.25
285.826	254.25
286.057	235.25
286.288	255.25
286.52	259.25
286.751	263.25
286.982	250.25
287.213	273.25
287.444	276.25
287.675	265.25
287.906	253.25
288.138	258.25
288.369	266.25
288.6	281.25
288.831	273.25
289.062	269.25
289.293	260.25
289.524	262.25
289.755	244.25
289.986	261.25
290.217	263.25
290.448	263.25
290.679	269.25
290.91	257.25
291.141	282.25
291.371	266.25
291.602	260.25
291.833	270.25
292.064	253.25
292.295	259.25
292.526	275.25
292.757	284.25
292.987	267.25
293.218	259.25
293.449	269.25
293.68	275.25
293.91	260.25
294.141	263.25
294.372	255.25
294.603	265.25
294.833	274.25
295.064	275.25
295.295	279.25
295.525	268.25
295.756	277.25
295.987	286.25
296.217	283.25
296.448	285.25
296.679	276.25
296.909	287.25
297.14	263.25
297.37	263.25
297.601	281.25
297.831	270.25
298.062	271.25
298.292	275.25
298.523	294.25
298.753	278.25
298.984	274.25
299.214	289.25
299.445	265.25
299.675	286.25
299.905	279.25
300.136	290.25
300.366	290.25
300.597	277.25
300.827	305.25
301.057	289.25
301.288	300.25
301.518	279.25
301.748	291.25
301.979	301.25
302.209	297.25
302.439	306.25
302.669	295.25
302.9	300.25
303.13	278.25
303.36	297.25
303.59	298.25
303.82	287.25
304.051	315.25
304.281	289.25
304.511	294.25
304.741	301.25
304.971	288.25
305.201	309.25
305.431	302.25
305.661	289.25
305.891	310.25
306.121	295.25
306.352	297.25
306.582	297.25
306.812	298.25
307.042	301.25
307.272	305.25
307.502	321.25
307.731	296.25
307.961	296.25
308.191	306.25
308.421	300.25
308.651	324.25
308.881	287.25
309.111	297.25
309.341	303.25
309.571	298.25
309.8	320.25
310.03	322.25
310.26	320.25
310.49	321.25
310.72	335.25
310.949	315.25
311.179	346.25
311.409	311.25
311.639	337.25
311.868	323.25
312.098	311.25
312.328	334.25
312.557	333.25
312.787	335.25
313.017	351.25
313.246	322.25
313.476	307.25
313.706	324.25
313.935	334.25
314.165	340.25
314.394	339.25
314.624	336.25
314.853	329.25
315.083	327.25
315.312	330.25
315.542	316.25
315.771	313.25
316.001	332.25
316.23	320.25
316.46	307.25
316.689	320.25
316.919	317.25
317.148	325.25
317.377	338.25
317.607	330.25
317.836	335.25
318.065	344.25
318.295	315.25
318.524	314.25
318.753	329.25
318.983	341.25
319.212	335.25
319.441	359.25
319.67	332.25
319.9	316.25
320.129	324.25
320.358	327.25
320.587	334.25
320.816	348.25
321.046	345.25
321.275	332.25
321.504	336.25
321.733	360.25
321.962	340.25
322.191	358.25
322.42	340.25
322.649	355.25
322.878	369.25
323.108	374.25
323.337	391.25
323.566	398.25
323.795	417.25
324.024	437.25
324.253	503.25
324.482	654.25
324.71	927.25
324.939	1223.25
325.168	1050.25
325.397	593.25
325.626	443.25
325.855	401.25
326.084	404.25
326.313	395.25
326.542	387.25
326.77	415.25
326.999	482.25
327.228	607.25
327.457	832.25
327.686	961.25
327.914	657.25
328.143	476.25
328.372	460.25
328.6	454.25
328.829	437.25
329.058	433.25
329.287	444.25
329.515	435.25
329.744	433.25
329.972	429.25
330.201	425.25
330.43	457.25
330.658	455.25
330.887	465.25
331.115	442.25
331.344	398.25
331.572	395.25
331.801	387.25
332.03	402.25
332.258	396.25
332.486	398.25
332.715	402.25
332.943	409.25
333.172	414.25
333.4	422.25
333.629	437.25
333.857	451.25
334.085	427.25
334.314	450.25
334.542	464.25
334.771	482.25
334.999	441.25
335.227	430.25
335.455	412.25
335.684	412.25
335.912	402.25
336.14	391.25
336.369	402.25
336.597	383.25
336.825	387.25
337.053	393.25
337.281	379.25
337.51	366.25
337.738	376.25
337.966	399.25
338.194	388.25
338.422	366.25
338.65	362.25
338.878	381.25
339.106	383.25
339.334	357.25
339.562	379.25
339.79	369.25
340.018	359.25
340.246	364.25
340.474	365.25
340.702	369.25
340.93	369.25
341.158	375.25
341.386	365.25
341.614	362.25
341.842	394.25
342.07	349.25
342.298	365.25
342.526	331.25
342.754	358.25
342.981	375.25
343.209	359.25
343.437	381.25
343.665	379.25
343.893	395.25
344.12	405.25
344.348	400.25
344.576	361.25
344.804	377.25
345.031	387.25
345.259	386.25
345.487	372.25
345.714	389.25
345.942	359.25
346.17	359.25
346.397	353.25
346.625	355.25
346.853	334.25
347.08	352.25
347.308	340.25
347.535	348.25
347.763	341.25
347.99	349.25
348.218	361.25
348.445	337.25
348.673	344.25
348.9	356.25
349.128	339.25
349.355	354.25
349.583	349.25
349.81	345.25
350.037	345.25
350.265	345.25
350.492	342.25
350.72	337.25
350.947	360.25
351.174	353.25
351.402	356.25
351.629	353.25
351.856	345.25
352.083	358.25
352.311	345.25
352.538	350.25
352.765	369.25
352.992	342.25
353.22	341.25
353.447	342.25
353.674	339.25
353.901	317.25
354.128	328.25
354.355	317.25
354.583	332.25
354.81	337.25
355.037	324.25
355.264	335.25
355.491	329.25
355.718	350.25
355.945	339.25
356.172	319.25
356.399	322.25
356.626	321.25
356.853	336.25
357.08	323.25
357.307	340.25
357.534	330.25
357.761	312.25
357.988	333.25
358.215	329.25
358.441	334.25
358.668	334.25
358.895	341.25
359.122	339.25
359.349	357.25
359.576	342.25
359.802	337.25
360.029	371.25
360.256	357.25
360.483	343.25
360.709	343.25
360.936	341.25
361.163	352.25
361.39	346.25
361.616	326.25
361.843	328.25
362.07	327.25
362.296	351.25
362.523	349.25
362.749	338.25
362.976	332.25
363.203	333.25
363.429	346.25
363.656	362.25
363.882	341.25
364.109	319.25
364.335	351.25
364.562	326.25
364.788	340.25
365.015	342.25
365.241	328.25
365.468	319.25
365.694	326.25
365.92	349.25
366.147	346.25
366.373	318.25
366.599	329.25
366.826	314.25
367.052	307.25
367.278	308.25
367.505	316.25
367.731	333.25
367.957	316.25
368.184	329.25
368.41	344.25
368.636	359.25
368.862	339.25
369.089	347.25
369.315	340.25
369.541	337.25
369.767	343.25
369.993	372.25
370.219	339.25
370.445	341.25
370.672	333.25
370.898	321.25
371.124	329.25
371.35	333.25
371.576	343.25
371.802	350.25
372.028	340.25
372.254	339.25
372.48	347.25
372.706	357.25
372.932	346.25
373.158	356.25
373.384	347.25
373.61	363.25
373.835	352.25
374.061	334.25
374.287	339.25
374.513	355.25
374.739	353.25
374.965	363.25
375.191	351.25
375.416	366.25
375.642	360.25
375.868	339.25
376.094	360.25
376.319	342.25
376.545	338.25
376.771	365.25
376.997	355.25
377.222	342.25
377.448	360.25
377.674	336.25
377.899	350.25
378.125	332.25
378.35	341.25
378.576	337.25
378.802	339.25
379.027	345.25
379.253	334.25
379.478	340.25
379.704	339.25
379.929	340.25
380.155	331.25
380.38	345.25
380.606	336.25
380.831	331.25
381.057	342.25
381.282	353.25
381.507	349.25
381.733	350.25
381.958	350.25
382.184	354.25
382.409	347.25
382.634	339.25
382.86	351.25
383.085	354.25
383.31	359.25
383.535	376.25
383.761	360.25
383.986	360.25
384.211	377.25
384.436	362.25
384.662	385.25
384.887	378.25
385.112	369.25
385.337	357.25
385.562	383.25
385.787	399.25
386.013	394.25
386.238	356.25
386.463	391.25
386.688	401.25
386.913	378.25
387.138	392.25
387.363	379.25
387.588	390.25
387.813	407.25
388.038	386.25
388.263	357.25
388.488	379.25
388.713	363.25
388.938	361.25
389.163	402.25
389.387	361.25
389.612	377.25
389.837	373.25
390.062	381.25
390.287	358.25
390.512	360.25
390.736	375.25
390.961	372.25
391.186	378.25
391.411	383.25
391.636	393.25
391.86	399.25
392.085	405.25
392.31	402.25
392.534	403.25
392.759	383.25
392.984	395.25
393.208	385.25
393.433	404.25
393.658	391.25
393.882	389.25
394.107	395.25
394.331	398.25
394.556	385.25
394.78	387.25
395.005	387.25
395.229	397.25
395.454	395.25
395.678	410.25
395.903	390.25
396.127	406.25
396.352	413.25
396.576	400.25
396.801	397.25
397.025	382.25
397.249	399.25
397.474	397.25
397.698	406.25
397.922	412.25
398.147	413.25
398.371	431.25
398.595	434.25
398.82	453.25
399.044	451.25
399.268	480.25
399.492	525.25
399.717	569.25
399.941	568.25
400.165	546.25
400.389	531.25
400.613	501.25
400.837	470.25
401.062	440.25
401.286	445.25
401.51	448.25
401.734	454.25
401.958	446.25
402.182	461.25
402.406	437.25
402.63	464.25
402.854	458.25
403.078	443.25
403.302	464.25
403.526	497.25
403.75	469.25
403.974	483.25
404.198	487.25
404.422	482.25
404.645	483.25
404.869	479.25
405.093	516.25
405.317	502.25
405.541	528.25
405.765	492.25
405.988	456.25
406.212	488.25
406.436	501.25
406.66	502.25
406.883	501.25
407.107	511.25
407.331	538.25
407.555	574.25
407.778	590.25
408.002	553.25
408.226	516.25
408.449	483.25
408.673	491.25
408.896	487.25
409.12	526.25
409.344	488.25
409.567	464.25
409.791	460.25
410.014	452.25
410.238	465.25
410.461	459.25
410.685	465.25
410.908	464.25
411.132	493.25
411.355	485.25
411.578	470.25
411.802	465.25
412.025	433.25
412.249	462.25
412.472	470.25
412.695	494.25
412.919	496.25
413.142	454.25
413.365	441.25
413.589	448.25
413.812	426.25
414.035	456.25
414.258	446.25
414.482	431.25
414.705	437.25
414.928	447.25
415.151	449.25
415.374	430.25
415.597	429.25
415.821	425.25
416.044	427.25
416.267	429.25
416.49	434.25
416.713	427.25
416.936	415.25
417.159	441.25
417.382	438.25
417.605	428.25
417.828	436.25
418.051	459.25
418.274	460.25
418.497	435.25
418.72	447.25
418.943	451.25
419.166	469.25
419.389	471.25
419.611	454.25
419.834	469.25
420.057	473.25
420.28	462.25
420.503	457.25
420.726	464.25
420.948	483.25
421.171	482.25
421.394	486.25
421.617	442.25
421.839	434.25
422.062	468.25
422.285	446.25
422.507	484.25
422.73	525.25
422.953	507.25
423.175	457.25
423.398	453.25
423.621	455.25
423.843	492.25
424.066	491.25
424.288	478.25
424.511	481.25
424.733	520.25
424.956	553.25
425.178	530.25
425.401	537.25
425.623	524.25
425.846	463.25
426.068	466.25
426.291	471.25
426.513	446.25
426.735	484.25
426.958	471.25
427.18	519.25
427.402	609.25
427.625	643.25
427.847	552.25
428.069	521.25
428.292	473.25
428.514	430.25
428.736	430.25
428.958	420.25
429.181	421.25
429.403	405.25
429.625	437.25
429.847	435.25
430.069	493.25
430.292	462.25
430.514	410.25
430.736	420.25
430.958	424.25
431.18	394.25
431.402	394.25
431.624	397.25
431.846	397.25
432.068	409.25
432.29	399.25
432.512	414.25
432.734	426.25
432.956	416.25
433.178	410.25
433.4	432.25
433.622	399.25
433.844	411.25
434.066	409.25
434.287	421.25
434.509	418.25
434.731	434.25
434.953	439.25
435.175	415.25
435.397	476.25
435.618	462.25
435.84	502.25
436.062	516.25
436.284	571.25
436.505	466.25
436.727	429.25
436.949	421.25
437.17	421.25
437.392	422.25
437.614	417.25
437.835	431.25
438.057	489.25
438.278	543.25
438.5	531.25
438.721	605.25
438.943	571.25
439.165	475.25
439.386	448.25
439.608	445.25
439.829	454.25
440.05	437.25
440.272	486.25
440.493	468.25
440.715	440.25
440.936	452.25
441.158	446.25
441.379	435.25
441.6	461.25
441.822	467.25
442.043	484.25
442.264	535.25
442.486	574.25
442.707	483.25
442.928	481.25
443.149	476.25
443.371	493.25
443.592	518.25
443.813	586.25
444.034	601.25
444.255	510.25
444.476	486.25
444.698	486.25
444.919	498.25
445.14	569.25
445.361	527.25
445.582	534.25
445.803	539.25
446.024	595.25
446.245	573.25
446.466	511.25
446.687	440.25
446.908	452.25
447.129	441.25
447.35	418.25
447.571	398.25
447.792	410.25
448.013	424.25
448.234	430.25
448.455	463.25
448.675	498.25
448.896	571.25
449.117	495.25
449.338	467.25
449.559	577.25
449.779	593.25
450	501.25
450.221	442.25
450.442	417.25
450.662	428.25
450.883	418.25
451.104	403.25
451.324	413.25
451.545	401.25
451.766	388.25
451.986	375.25
452.207	367.25
452.428	378.25
452.648	395.25
452.869	375.25
453.089	384.25
453.31	392.25
453.53	386.25
453.751	374.25
453.971	368.25
454.192	379.25
454.412	358.25
454.633	368.25
454.853	387.25
455.073	375.25
455.294	382.25
455.514	414.25
455.734	403.25
455.955	377.25
456.175	339.25
456.395	356.25
456.616	350.25
456.836	361.25
457.056	346.25
457.276	356.25
457.497	365.25
457.717	347.25
457.937	369.25
458.157	370.25
458.377	375.25
458.598	382.25
458.818	423.25
459.038	475.25
459.258	452.25
459.478	441.25
459.698	408.25
459.918	417.25
460.138	414.25
460.358	417.25
460.578	440.25
460.798	439.25
461.018	427.25
461.238	437.25
461.458	428.25
461.678	427.25
461.898	430.25
462.118	447.25
462.338	460.25
462.558	438.25
462.777	454.25
462.997	465.25
463.217	515.25
463.437	525.25
463.657	498.25
463.876	475.25
464.096	485.25
464.316	476.25
464.536	483.25
464.755	474.25
464.975	458.25
465.195	481.25
465.414	524.25
465.634	445.25
465.854	432.25
466.073	440.25
466.293	418.25
466.512	381.25
466.732	359.25
466.951	393.25
467.171	385.25
467.391	395.25
467.61	427.25
467.829	407.25
468.049	417.25
468.268	417.25
468.488	398.25
468.707	389.25
468.927	383.25
469.146	359.25
469.365	389.25
469.585	389.25
469.804	398.25
470.023	403.25
470.243	396.25
470.462	409.25
470.681	431.25
470.901	422.25
471.12	403.25
471.339	416.25
471.558	385.25
471.777	387.25
471.997	400.25
472.216	386.25
472.435	412.25
472.654	426.25
472.873	395.25
473.092	384.25
473.311	392.25
473.53	384.25
473.749	383.25
473.968	433.25
474.187	481.25
474.406	473.25
474.625	425.25
474.844	389.25
475.063	375.25
475.282	403.25
475.501	389.25
475.72	406.25
475.939	398.25
476.158	419.25
476.377	421.25
476.596	413.25
476.814	418.25
477.033	422.25
477.252	425.25
477.471	414.25
477.69	430.25
477.908	438.25
478.127	419.25
478.346	446.25
478.564	443.25
478.783	468.25
479.002	457.25
479.22	460.25
479.439	473.25
479.658	471.25
479.876	481.25
480.095	471.25
480.313	528.25
480.532	499.25
480.751	517.25
480.969	497.25
481.188	524.25
481.406	551.25
481.624	480.25
481.843	459.25
482.061	467.25
482.28	448.25
482.498	450.25
482.717	456.25
482.935	429.25
483.153	461.25
483.372	444.25
483.59	441.25
483.808	439.25
484.027	448.25
484.245	427.25
484.463	442.25
484.681	453.25
484.9	469.25
485.118	454.25
485.336	444.25
485.554	491.25
485.772	468.25
485.99	469.25
486.209	468.25
486.427	463.25
486.645	460.25
486.863	465.25
487.081	472.25
487.299	476.25
487.517	475.25
487.735	487.25
487.953	475.25
488.171	489.25
488.389	485.25
488.607	505.25
488.825	485.25
489.043	483.25
489.261	483.25
489.479	486.25
489.696	492.25
489.914	503.25
490.132	510.25
490.35	492.25
490.568	517.25
490.786	518.25
491.003	508.25
491.221	540.25
491.439	538.25
491.657	535.25
491.874	553.25
492.092	557.25
492.31	540.25
492.527	573.25
492.745	549.25
492.963	546.25
493.18	565.25
493.398	563.25
493.615	571.25
493.833	563.25
494.05	589.25
494.268	573.25
494.485	550.25
494.703	572.25
494.92	566.25
495.138	555.25
495.355	572.25
495.573	591.25
495.79	563.25
496.008	574.25
496.225	567.25
496.442	575.25
496.66	580.25
496.877	565.25
497.094	580.25
497.312	591.25
497.529	631.25
497.746	594.25
497.963	591.25
498.181	634.25
498.398	643.25
498.615	638.25
498.832	672.25
499.049	691.25
499.267	723.25
499.484	775.25
499.701	826.25
499.918	883.25
500.135	917.25
500.352	969.25
500.569	1012.25
500.786	989.25
501.003	955.25
501.22	924.25
501.437	856.25
501.654	825.25
501.871	783.25
502.088	742.25
