Data from 1969.PennyLincolnUp.Lamp.En5.5.200Scan.071719.P1._HRD10591_14-53-48-972.txt Node
Date: Thu Jul 18 14:53:48 EDT 2019
User: cochatt
Spectrometer: HR+D1059
Trigger mode: 1
Integration Time (sec): 1.000000E-1
Scans to average: 1
Electric dark correction enabled: true
Nonlinearity correction enabled: false
Boxcar width: 0
XAxis mode: Wavelengths
Number of Pixels in Spectrum: 2048
>>>>>Begin Spectral Data<<<<<
223.165	-18.31
223.4	-18.31
223.635	-18.31
223.869	-10.31
224.104	-19.31
224.338	-9.31
224.573	-19.31
224.808	-11.31
225.042	-11.31
225.277	9.69
225.511	3.69
225.746	6.69
225.98	14.69
226.215	10.69
226.449	15.69
226.683	14.69
226.918	11.69
227.152	11.69
227.387	21.69
227.621	38.69
227.856	44.69
228.09	35.69
228.324	56.69
228.559	46.69
228.793	67.69
229.027	87.69
229.262	97.69
229.496	89.69
229.73	107.69
229.964	114.69
230.199	91.69
230.433	122.69
230.667	102.69
230.901	92.69
231.136	93.69
231.37	94.69
231.604	93.69
231.838	98.69
232.072	102.69
232.306	105.69
232.541	108.69
232.775	108.69
233.009	115.69
233.243	93.69
233.477	93.69
233.711	95.69
233.945	115.69
234.179	103.69
234.413	102.69
234.647	94.69
234.881	88.69
235.115	112.69
235.349	89.69
235.583	103.69
235.817	101.69
236.051	102.69
236.285	108.69
236.519	110.69
236.753	103.69
236.987	118.69
237.221	127.69
237.455	132.69
237.689	112.69
237.922	109.69
238.156	93.69
238.39	110.69
238.624	86.69
238.858	111.69
239.091	108.69
239.325	103.69
239.559	113.69
239.793	117.69
240.027	114.69
240.26	117.69
240.494	108.69
240.728	124.69
240.961	127.69
241.195	107.69
241.429	114.69
241.662	115.69
241.896	118.69
242.13	109.69
242.363	107.69
242.597	109.69
242.83	123.69
243.064	105.69
243.298	122.69
243.531	109.69
243.765	113.69
243.998	113.69
244.232	126.69
244.465	112.69
244.699	125.69
244.932	122.69
245.166	131.69
245.399	126.69
245.633	116.69
245.866	121.69
246.099	126.69
246.333	118.69
246.566	118.69
246.8	121.69
247.033	122.69
247.266	141.69
247.5	117.69
247.733	132.69
247.966	140.69
248.2	138.69
248.433	123.69
248.666	135.69
248.899	148.69
249.133	146.69
249.366	137.69
249.599	149.69
249.832	147.69
250.066	142.69
250.299	128.69
250.532	151.69
250.765	157.69
250.998	157.69
251.231	167.69
251.465	165.69
251.698	152.69
251.931	163.69
252.164	135.69
252.397	157.69
252.63	162.69
252.863	158.69
253.096	163.69
253.329	177.69
253.562	154.69
253.795	169.69
254.028	169.69
254.261	149.69
254.494	151.69
254.727	178.69
254.96	186.69
255.193	180.69
255.426	171.69
255.659	155.69
255.892	149.69
256.124	162.69
256.357	158.69
256.59	162.69
256.823	157.69
257.056	153.69
257.289	149.69
257.521	159.69
257.754	154.69
257.987	157.69
258.22	163.69
258.452	143.69
258.685	155.69
258.918	158.69
259.151	169.69
259.383	167.69
259.616	157.69
259.849	172.69
260.081	178.69
260.314	199.69
260.547	194.69
260.779	160.69
261.012	165.69
261.244	172.69
261.477	173.69
261.71	158.69
261.942	175.69
262.175	163.69
262.407	153.69
262.64	150.69
262.872	152.69
263.105	179.69
263.337	158.69
263.57	145.69
263.802	171.69
264.035	154.69
264.267	172.69
264.499	183.69
264.732	178.69
264.964	184.69
265.197	180.69
265.429	183.69
265.661	167.69
265.894	178.69
266.126	164.69
266.358	175.69
266.591	155.69
266.823	182.69
267.055	189.69
267.287	188.69
267.52	190.69
267.752	181.69
267.984	173.69
268.216	181.69
268.448	187.69
268.681	188.69
268.913	176.69
269.145	203.69
269.377	189.69
269.609	196.69
269.841	198.69
270.073	204.69
270.306	194.69
270.538	206.69
270.77	206.69
271.002	205.69
271.234	206.69
271.466	215.69
271.698	192.69
271.93	199.69
272.162	217.69
272.394	203.69
272.626	214.69
272.858	204.69
273.09	217.69
273.322	188.69
273.553	215.69
273.785	201.69
274.017	202.69
274.249	208.69
274.481	192.69
274.713	197.69
274.945	201.69
275.176	203.69
275.408	192.69
275.64	204.69
275.872	211.69
276.104	202.69
276.335	185.69
276.567	207.69
276.799	208.69
277.031	207.69
277.262	228.69
277.494	234.69
277.726	210.69
277.957	213.69
278.189	201.69
278.421	208.69
278.652	204.69
278.884	209.69
279.115	213.69
279.347	209.69
279.579	197.69
279.81	207.69
280.042	197.69
280.273	213.69
280.505	212.69
280.736	193.69
280.968	217.69
281.199	210.69
281.431	213.69
281.662	222.69
281.894	226.69
282.125	215.69
282.356	220.69
282.588	225.69
282.819	234.69
283.051	208.69
283.282	205.69
283.513	222.69
283.745	233.69
283.976	221.69
284.207	210.69
284.439	214.69
284.67	232.69
284.901	236.69
285.132	217.69
285.364	237.69
285.595	226.69
285.826	232.69
286.057	225.69
286.288	212.69
286.52	228.69
286.751	210.69
286.982	220.69
287.213	227.69
287.444	238.69
287.675	243.69
287.906	241.69
288.138	245.69
288.369	240.69
288.6	232.69
288.831	246.69
289.062	241.69
289.293	218.69
289.524	222.69
289.755	225.69
289.986	229.69
290.217	234.69
290.448	250.69
290.679	245.69
290.91	236.69
291.141	251.69
291.371	232.69
291.602	216.69
291.833	231.69
292.064	249.69
292.295	231.69
292.526	238.69
292.757	234.69
292.987	221.69
293.218	253.69
293.449	240.69
293.68	234.69
293.91	244.69
294.141	222.69
294.372	243.69
294.603	222.69
294.833	233.69
295.064	223.69
295.295	252.69
295.525	228.69
295.756	250.69
295.987	261.69
296.217	233.69
296.448	241.69
296.679	231.69
296.909	255.69
297.14	267.69
297.37	255.69
297.601	244.69
297.831	259.69
298.062	237.69
298.292	266.69
298.523	249.69
298.753	255.69
298.984	242.69
299.214	250.69
299.445	252.69
299.675	255.69
299.905	255.69
300.136	250.69
300.366	247.69
300.597	264.69
300.827	260.69
301.057	246.69
301.288	250.69
301.518	273.69
301.748	259.69
301.979	264.69
302.209	269.69
302.439	265.69
302.669	265.69
302.9	274.69
303.13	259.69
303.36	282.69
303.59	274.69
303.82	266.69
304.051	261.69
304.281	267.69
304.511	279.69
304.741	265.69
304.971	265.69
305.201	259.69
305.431	266.69
305.661	273.69
305.891	278.69
306.121	259.69
306.352	270.69
306.582	268.69
306.812	269.69
307.042	283.69
307.272	267.69
307.502	256.69
307.731	263.69
307.961	244.69
308.191	263.69
308.421	255.69
308.651	271.69
308.881	276.69
309.111	253.69
309.341	254.69
309.571	250.69
309.8	259.69
310.03	271.69
310.26	284.69
310.49	270.69
310.72	278.69
310.949	278.69
311.179	275.69
311.409	283.69
311.639	282.69
311.868	277.69
312.098	272.69
312.328	285.69
312.557	290.69
312.787	291.69
313.017	299.69
313.246	297.69
313.476	279.69
313.706	295.69
313.935	297.69
314.165	277.69
314.394	287.69
314.624	287.69
314.853	287.69
315.083	294.69
315.312	285.69
315.542	295.69
315.771	286.69
316.001	295.69
316.23	295.69
316.46	292.69
316.689	277.69
316.919	299.69
317.148	289.69
317.377	303.69
317.607	296.69
317.836	277.69
318.065	292.69
318.295	279.69
318.524	295.69
318.753	298.69
318.983	285.69
319.212	278.69
319.441	285.69
319.67	297.69
319.9	279.69
320.129	303.69
320.358	275.69
320.587	265.69
320.816	287.69
321.046	293.69
321.275	286.69
321.504	295.69
321.733	302.69
321.962	297.69
322.191	311.69
322.42	317.69
322.649	311.69
322.878	312.69
323.108	307.69
323.337	328.69
323.566	315.69
323.795	321.69
324.024	342.69
324.253	341.69
324.482	447.69
324.71	614.69
324.939	771.69
325.168	686.69
325.397	410.69
325.626	342.69
325.855	333.69
326.084	323.69
326.313	298.69
326.542	313.69
326.77	351.69
326.999	365.69
327.228	443.69
327.457	554.69
327.686	621.69
327.914	449.69
328.143	375.69
328.372	347.69
328.6	337.69
328.829	358.69
329.058	353.69
329.287	355.69
329.515	339.69
329.744	326.69
329.972	331.69
330.201	331.69
330.43	357.69
330.658	369.69
330.887	348.69
331.115	357.69
331.344	338.69
331.572	345.69
331.801	343.69
332.03	343.69
332.258	354.69
332.486	350.69
332.715	336.69
332.943	350.69
333.172	355.69
333.4	365.69
333.629	385.69
333.857	377.69
334.085	366.69
334.314	380.69
334.542	397.69
334.771	365.69
334.999	347.69
335.227	370.69
335.455	355.69
335.684	341.69
335.912	355.69
336.14	356.69
336.369	357.69
336.597	346.69
336.825	345.69
337.053	344.69
337.281	326.69
337.51	335.69
337.738	332.69
337.966	343.69
338.194	351.69
338.422	331.69
338.65	326.69
338.878	343.69
339.106	316.69
339.334	328.69
339.562	300.69
339.79	321.69
340.018	309.69
340.246	320.69
340.474	326.69
340.702	325.69
340.93	315.69
341.158	333.69
341.386	309.69
341.614	323.69
341.842	318.69
342.07	323.69
342.298	314.69
342.526	335.69
342.754	315.69
342.981	307.69
343.209	310.69
343.437	330.69
343.665	328.69
343.893	359.69
344.12	359.69
344.348	337.69
344.576	328.69
344.804	329.69
345.031	321.69
345.259	317.69
345.487	309.69
345.714	314.69
345.942	313.69
346.17	302.69
346.397	318.69
346.625	287.69
346.853	303.69
347.08	301.69
347.308	325.69
347.535	324.69
347.763	321.69
347.99	315.69
348.218	302.69
348.445	333.69
348.673	316.69
348.9	311.69
349.128	319.69
349.355	296.69
349.583	300.69
349.81	311.69
350.037	294.69
350.265	315.69
350.492	322.69
350.72	299.69
350.947	301.69
351.174	290.69
351.402	307.69
351.629	291.69
351.856	295.69
352.083	290.69
352.311	315.69
352.538	300.69
352.765	309.69
352.992	303.69
353.22	319.69
353.447	301.69
353.674	299.69
353.901	300.69
354.128	281.69
354.355	306.69
354.583	290.69
354.81	302.69
355.037	293.69
355.264	283.69
355.491	300.69
355.718	298.69
355.945	295.69
356.172	278.69
356.399	290.69
356.626	282.69
356.853	294.69
357.08	279.69
357.307	289.69
357.534	301.69
357.761	292.69
357.988	304.69
358.215	290.69
358.441	292.69
358.668	302.69
358.895	305.69
359.122	311.69
359.349	309.69
359.576	289.69
359.802	298.69
360.029	317.69
360.256	322.69
360.483	316.69
360.709	316.69
360.936	299.69
361.163	309.69
361.39	299.69
361.616	309.69
361.843	302.69
362.07	305.69
362.296	283.69
362.523	295.69
362.749	307.69
362.976	307.69
363.203	283.69
363.429	302.69
363.656	293.69
363.882	302.69
364.109	306.69
364.335	309.69
364.562	299.69
364.788	297.69
365.015	296.69
365.241	308.69
365.468	296.69
365.694	306.69
365.92	290.69
366.147	289.69
366.373	303.69
366.599	287.69
366.826	285.69
367.052	306.69
367.278	292.69
367.505	288.69
367.731	294.69
367.957	284.69
368.184	294.69
368.41	299.69
368.636	294.69
368.862	298.69
369.089	316.69
369.315	294.69
369.541	305.69
369.767	302.69
369.993	283.69
370.219	294.69
370.445	300.69
370.672	320.69
370.898	300.69
371.124	299.69
371.35	305.69
371.576	306.69
371.802	296.69
372.028	290.69
372.254	319.69
372.48	312.69
372.706	293.69
372.932	316.69
373.158	311.69
373.384	326.69
373.61	310.69
373.835	320.69
374.061	314.69
374.287	316.69
374.513	318.69
374.739	346.69
374.965	336.69
375.191	321.69
375.416	313.69
375.642	317.69
375.868	311.69
376.094	318.69
376.319	314.69
376.545	294.69
376.771	322.69
376.997	307.69
377.222	313.69
377.448	314.69
377.674	298.69
377.899	321.69
378.125	322.69
378.35	324.69
378.576	309.69
378.802	311.69
379.027	311.69
379.253	297.69
379.478	317.69
379.704	318.69
379.929	309.69
380.155	305.69
380.38	297.69
380.606	316.69
380.831	312.69
381.057	317.69
381.282	300.69
381.507	312.69
381.733	321.69
381.958	322.69
382.184	312.69
382.409	313.69
382.634	325.69
382.86	323.69
383.085	310.69
383.31	335.69
383.535	331.69
383.761	337.69
383.986	338.69
384.211	337.69
384.436	342.69
384.662	353.69
384.887	353.69
385.112	346.69
385.337	354.69
385.562	348.69
385.787	354.69
386.013	347.69
386.238	364.69
386.463	348.69
386.688	358.69
386.913	344.69
387.138	344.69
387.363	359.69
387.588	343.69
387.813	357.69
388.038	351.69
388.263	348.69
388.488	366.69
388.713	363.69
388.938	337.69
389.163	356.69
389.387	335.69
389.612	331.69
389.837	335.69
390.062	323.69
390.287	349.69
390.512	349.69
390.736	329.69
390.961	357.69
391.186	350.69
391.411	375.69
391.636	354.69
391.86	363.69
392.085	366.69
392.31	374.69
392.534	377.69
392.759	366.69
392.984	369.69
393.208	344.69
393.433	339.69
393.658	362.69
393.882	350.69
394.107	357.69
394.331	341.69
394.556	362.69
394.78	350.69
395.005	359.69
395.229	359.69
395.454	355.69
395.678	379.69
395.903	367.69
396.127	381.69
396.352	376.69
396.576	380.69
396.801	383.69
397.025	353.69
397.249	378.69
397.474	365.69
397.698	373.69
397.922	379.69
398.147	377.69
398.371	399.69
398.595	413.69
398.82	375.69
399.044	424.69
399.268	433.69
399.492	474.69
399.717	528.69
399.941	531.69
400.165	514.69
400.389	473.69
400.613	438.69
400.837	435.69
401.062	422.69
401.286	413.69
401.51	407.69
401.734	399.69
401.958	405.69
402.182	413.69
402.406	414.69
402.63	422.69
402.854	416.69
403.078	421.69
403.302	428.69
403.526	429.69
403.75	452.69
403.974	443.69
404.198	445.69
404.422	449.69
404.645	447.69
404.869	445.69
405.093	451.69
405.317	461.69
405.541	462.69
405.765	441.69
405.988	435.69
406.212	460.69
406.436	442.69
406.66	465.69
406.883	442.69
407.107	450.69
407.331	484.69
407.555	519.69
407.778	517.69
408.002	487.69
408.226	468.69
408.449	467.69
408.673	467.69
408.896	449.69
409.12	472.69
409.344	442.69
409.567	417.69
409.791	430.69
410.014	403.69
410.238	410.69
410.461	420.69
410.685	421.69
410.908	447.69
411.132	456.69
411.355	437.69
411.578	424.69
411.802	408.69
412.025	392.69
412.249	389.69
412.472	425.69
412.695	442.69
412.919	426.69
413.142	421.69
413.365	410.69
413.589	393.69
413.812	394.69
414.035	411.69
414.258	407.69
414.482	404.69
414.705	420.69
414.928	404.69
415.151	411.69
415.374	405.69
415.597	386.69
415.821	391.69
416.044	381.69
416.267	417.69
416.49	394.69
416.713	387.69
416.936	390.69
417.159	385.69
417.382	382.69
417.605	391.69
417.828	401.69
418.051	392.69
418.274	393.69
418.497	398.69
418.72	423.69
418.943	418.69
419.166	425.69
419.389	444.69
419.611	433.69
419.834	416.69
420.057	409.69
420.28	411.69
420.503	409.69
420.726	413.69
420.948	406.69
421.171	429.69
421.394	461.69
421.617	407.69
421.839	389.69
422.062	400.69
422.285	419.69
422.507	460.69
422.73	460.69
422.953	466.69
423.175	432.69
423.398	417.69
423.621	411.69
423.843	450.69
424.066	422.69
424.288	423.69
424.511	434.69
424.733	449.69
424.956	481.69
425.178	458.69
425.401	455.69
425.623	451.69
425.846	427.69
426.068	395.69
426.291	397.69
426.513	387.69
426.735	389.69
426.958	438.69
427.18	466.69
427.402	509.69
427.625	522.69
427.847	476.69
428.069	433.69
428.292	387.69
428.514	394.69
428.736	374.69
428.958	375.69
429.181	368.69
429.403	357.69
429.625	351.69
429.847	395.69
430.069	423.69
430.292	401.69
430.514	389.69
430.736	371.69
430.958	376.69
431.18	372.69
431.402	387.69
431.624	365.69
431.846	381.69
432.068	377.69
432.29	391.69
432.512	366.69
432.734	379.69
432.956	373.69
433.178	385.69
433.4	368.69
433.622	381.69
433.844	382.69
434.066	379.69
434.287	379.69
434.509	386.69
434.731	389.69
434.953	405.69
435.175	396.69
435.397	417.69
435.618	403.69
435.84	414.69
436.062	437.69
436.284	473.69
436.505	418.69
436.727	397.69
436.949	392.69
437.17	383.69
437.392	391.69
437.614	385.69
437.835	387.69
438.057	408.69
438.278	457.69
438.5	450.69
438.721	494.69
438.943	470.69
439.165	415.69
439.386	398.69
439.608	405.69
439.829	396.69
440.05	397.69
440.272	395.69
440.493	400.69
440.715	391.69
440.936	406.69
441.158	406.69
441.379	402.69
441.6	394.69
441.822	434.69
442.043	411.69
442.264	475.69
442.486	474.69
442.707	442.69
442.928	408.69
443.149	413.69
443.371	422.69
443.592	431.69
443.813	490.69
444.034	490.69
444.255	447.69
444.476	439.69
444.698	444.69
444.919	462.69
445.14	542.69
445.361	475.69
445.582	452.69
445.803	471.69
446.024	484.69
446.245	499.69
446.466	475.69
446.687	421.69
446.908	411.69
447.129	404.69
447.35	378.69
447.571	371.69
447.792	365.69
448.013	373.69
448.234	375.69
448.455	400.69
448.675	458.69
448.896	497.69
449.117	437.69
449.338	400.69
449.559	447.69
449.779	490.69
450	425.69
450.221	387.69
450.442	378.69
450.662	382.69
450.883	350.69
451.104	387.69
451.324	371.69
451.545	358.69
451.766	352.69
451.986	341.69
452.207	334.69
452.428	343.69
452.648	340.69
452.869	337.69
453.089	353.69
453.31	341.69
453.53	323.69
453.751	342.69
453.971	349.69
454.192	347.69
454.412	346.69
454.633	342.69
454.853	333.69
455.073	325.69
455.294	358.69
455.514	373.69
455.734	369.69
455.955	316.69
456.175	325.69
456.395	346.69
456.616	330.69
456.836	334.69
457.056	312.69
457.276	306.69
457.497	330.69
457.717	325.69
457.937	339.69
458.157	340.69
458.377	347.69
458.598	345.69
458.818	372.69
459.038	401.69
459.258	399.69
459.478	395.69
459.698	381.69
459.918	379.69
460.138	390.69
460.358	387.69
460.578	409.69
460.798	402.69
461.018	382.69
461.238	410.69
461.458	408.69
461.678	381.69
461.898	392.69
462.118	408.69
462.338	433.69
462.558	416.69
462.777	435.69
462.997	455.69
463.217	479.69
463.437	471.69
463.657	461.69
463.876	444.69
464.096	439.69
464.316	460.69
464.536	443.69
464.755	427.69
464.975	420.69
465.195	421.69
465.414	424.69
465.634	404.69
465.854	375.69
466.073	385.69
466.293	367.69
466.512	365.69
466.732	384.69
466.951	379.69
467.171	352.69
467.391	355.69
467.61	350.69
467.829	358.69
468.049	360.69
468.268	365.69
468.488	328.69
468.707	337.69
468.927	364.69
469.146	365.69
469.365	349.69
469.585	372.69
469.804	375.69
470.023	365.69
470.243	385.69
470.462	379.69
470.681	364.69
470.901	370.69
471.12	366.69
471.339	375.69
471.558	389.69
471.777	379.69
471.997	358.69
472.216	364.69
472.435	358.69
472.654	366.69
472.873	364.69
473.092	356.69
473.311	354.69
473.53	362.69
473.749	345.69
473.968	361.69
474.187	413.69
474.406	398.69
474.625	375.69
474.844	343.69
475.063	357.69
475.282	344.69
475.501	351.69
475.72	376.69
475.939	358.69
476.158	362.69
476.377	386.69
476.596	359.69
476.814	385.69
477.033	373.69
477.252	374.69
477.471	412.69
477.69	402.69
477.908	409.69
478.127	421.69
478.346	409.69
478.564	402.69
478.783	401.69
479.002	433.69
479.22	414.69
479.439	427.69
479.658	404.69
479.876	432.69
480.095	440.69
480.313	429.69
480.532	467.69
480.751	456.69
480.969	472.69
481.188	427.69
481.406	453.69
481.624	425.69
481.843	422.69
482.061	439.69
482.28	403.69
482.498	409.69
482.717	396.69
482.935	403.69
483.153	401.69
483.372	403.69
483.59	417.69
483.808	419.69
484.027	402.69
484.245	402.69
484.463	406.69
484.681	437.69
484.9	435.69
485.118	420.69
485.336	434.69
485.554	435.69
485.772	401.69
485.99	408.69
486.209	422.69
486.427	442.69
486.645	449.69
486.863	438.69
487.081	433.69
487.299	429.69
487.517	422.69
487.735	429.69
487.953	463.69
488.171	450.69
488.389	456.69
488.607	447.69
488.825	428.69
489.043	447.69
489.261	427.69
489.479	438.69
489.696	435.69
489.914	428.69
490.132	441.69
490.35	445.69
490.568	473.69
490.786	441.69
491.003	474.69
491.221	457.69
491.439	475.69
491.657	459.69
491.874	494.69
492.092	471.69
492.31	478.69
492.527	482.69
492.745	511.69
492.963	506.69
493.18	472.69
493.398	487.69
493.615	491.69
493.833	490.69
494.05	509.69
494.268	487.69
494.485	509.69
494.703	495.69
494.92	494.69
495.138	491.69
495.355	493.69
495.573	503.69
495.79	510.69
496.008	499.69
496.225	487.69
496.442	515.69
496.66	500.69
496.877	489.69
497.094	517.69
497.312	532.69
497.529	529.69
497.746	533.69
497.963	543.69
498.181	564.69
498.398	579.69
498.615	586.69
498.832	613.69
499.049	659.69
499.267	694.69
499.484	695.69
499.701	747.69
499.918	784.69
500.135	867.69
500.352	899.69
500.569	945.69
500.786	953.69
501.003	888.69
501.22	850.69
501.437	789.69
501.654	728.69
501.871	681.69
502.088	675.69
502.305	639.69
