Data from 1969.PennyLincolnUp.Lamp.En5.5.200Scan.071719.P1._HRD10591_14-55-28-973.txt Node
Date: Thu Jul 18 14:55:28 EDT 2019
User: cochatt
Spectrometer: HR+D1059
Trigger mode: 1
Integration Time (sec): 1.000000E-1
Scans to average: 1
Electric dark correction enabled: true
Nonlinearity correction enabled: false
Boxcar width: 0
XAxis mode: Wavelengths
Number of Pixels in Spectrum: 2048
>>>>>Begin Spectral Data<<<<<
223.165	-17.88
223.4	-17.88
223.635	-17.88
223.869	-14.88
224.104	-16.88
224.338	-1.88
224.573	-2.88
224.808	-2.88
225.042	-20.88
225.277	-0.88
225.511	-4.88
225.746	3.12
225.98	-3.88
226.215	8.12
226.449	20.12
226.683	22.12
226.918	11.12
227.152	23.12
227.387	41.12
227.621	39.12
227.856	46.12
228.09	55.12
228.324	38.12
228.559	50.12
228.793	65.12
229.027	93.12
229.262	107.12
229.496	106.12
229.73	110.12
229.964	131.12
230.199	115.12
230.433	104.12
230.667	107.12
230.901	112.12
231.136	120.12
231.37	110.12
231.604	103.12
231.838	87.12
232.072	99.12
232.306	104.12
232.541	95.12
232.775	99.12
233.009	113.12
233.243	110.12
233.477	103.12
233.711	108.12
233.945	112.12
234.179	125.12
234.413	92.12
234.647	103.12
234.881	105.12
235.115	97.12
235.349	109.12
235.583	104.12
235.817	121.12
236.051	110.12
236.285	124.12
236.519	111.12
236.753	130.12
236.987	121.12
237.221	151.12
237.455	174.12
237.689	144.12
237.922	129.12
238.156	128.12
238.39	121.12
238.624	128.12
238.858	127.12
239.091	103.12
239.325	114.12
239.559	126.12
239.793	116.12
240.027	121.12
240.26	134.12
240.494	146.12
240.728	139.12
240.961	131.12
241.195	131.12
241.429	121.12
241.662	113.12
241.896	131.12
242.13	120.12
242.363	131.12
242.597	112.12
242.83	131.12
243.064	122.12
243.298	139.12
243.531	132.12
243.765	119.12
243.998	125.12
244.232	119.12
244.465	134.12
244.699	138.12
244.932	125.12
245.166	131.12
245.399	139.12
245.633	139.12
245.866	128.12
246.099	148.12
246.333	141.12
246.566	140.12
246.8	143.12
247.033	137.12
247.266	130.12
247.5	149.12
247.733	151.12
247.966	153.12
248.2	155.12
248.433	146.12
248.666	146.12
248.899	151.12
249.133	176.12
249.366	168.12
249.599	148.12
249.832	156.12
250.066	175.12
250.299	165.12
250.532	174.12
250.765	177.12
250.998	168.12
251.231	193.12
251.465	185.12
251.698	167.12
251.931	191.12
252.164	176.12
252.397	178.12
252.63	164.12
252.863	168.12
253.096	187.12
253.329	191.12
253.562	188.12
253.795	204.12
254.028	204.12
254.261	196.12
254.494	203.12
254.727	219.12
254.96	224.12
255.193	216.12
255.426	187.12
255.659	194.12
255.892	197.12
256.124	211.12
256.357	196.12
256.59	185.12
256.823	178.12
257.056	195.12
257.289	185.12
257.521	194.12
257.754	171.12
257.987	199.12
258.22	194.12
258.452	183.12
258.685	192.12
258.918	170.12
259.151	197.12
259.383	193.12
259.616	204.12
259.849	187.12
260.081	213.12
260.314	210.12
260.547	211.12
260.779	214.12
261.012	196.12
261.244	205.12
261.477	198.12
261.71	190.12
261.942	193.12
262.175	190.12
262.407	186.12
262.64	196.12
262.872	174.12
263.105	186.12
263.337	192.12
263.57	194.12
263.802	195.12
264.035	192.12
264.267	206.12
264.499	205.12
264.732	203.12
264.964	193.12
265.197	191.12
265.429	208.12
265.661	191.12
265.894	180.12
266.126	195.12
266.358	189.12
266.591	196.12
266.823	203.12
267.055	205.12
267.287	198.12
267.52	189.12
267.752	206.12
267.984	211.12
268.216	200.12
268.448	200.12
268.681	203.12
268.913	212.12
269.145	222.12
269.377	231.12
269.609	239.12
269.841	226.12
270.073	219.12
270.306	231.12
270.538	247.12
270.77	267.12
271.002	251.12
271.234	232.12
271.466	240.12
271.698	281.12
271.93	256.12
272.162	242.12
272.394	257.12
272.626	265.12
272.858	239.12
273.09	234.12
273.322	243.12
273.553	224.12
273.785	235.12
274.017	208.12
274.249	226.12
274.481	219.12
274.713	226.12
274.945	243.12
275.176	234.12
275.408	243.12
275.64	217.12
275.872	218.12
276.104	216.12
276.335	232.12
276.567	242.12
276.799	241.12
277.031	254.12
277.262	259.12
277.494	264.12
277.726	265.12
277.957	248.12
278.189	237.12
278.421	227.12
278.652	236.12
278.884	232.12
279.115	236.12
279.347	233.12
279.579	228.12
279.81	231.12
280.042	239.12
280.273	242.12
280.505	225.12
280.736	232.12
280.968	244.12
281.199	244.12
281.431	234.12
281.662	241.12
281.894	260.12
282.125	240.12
282.356	265.12
282.588	274.12
282.819	274.12
283.051	259.12
283.282	239.12
283.513	241.12
283.745	264.12
283.976	256.12
284.207	248.12
284.439	265.12
284.67	263.12
284.901	248.12
285.132	263.12
285.364	262.12
285.595	252.12
285.826	231.12
286.057	265.12
286.288	249.12
286.52	267.12
286.751	245.12
286.982	261.12
287.213	262.12
287.444	261.12
287.675	258.12
287.906	249.12
288.138	267.12
288.369	274.12
288.6	267.12
288.831	271.12
289.062	264.12
289.293	280.12
289.524	272.12
289.755	239.12
289.986	272.12
290.217	280.12
290.448	260.12
290.679	253.12
290.91	248.12
291.141	240.12
291.371	273.12
291.602	252.12
291.833	276.12
292.064	270.12
292.295	269.12
292.526	265.12
292.757	251.12
292.987	277.12
293.218	263.12
293.449	267.12
293.68	263.12
293.91	265.12
294.141	267.12
294.372	264.12
294.603	271.12
294.833	260.12
295.064	269.12
295.295	283.12
295.525	275.12
295.756	263.12
295.987	271.12
296.217	290.12
296.448	302.12
296.679	280.12
296.909	276.12
297.14	277.12
297.37	262.12
297.601	285.12
297.831	279.12
298.062	269.12
298.292	290.12
298.523	276.12
298.753	306.12
298.984	280.12
299.214	270.12
299.445	267.12
299.675	275.12
299.905	289.12
300.136	281.12
300.366	274.12
300.597	282.12
300.827	288.12
301.057	319.12
301.288	296.12
301.518	289.12
301.748	276.12
301.979	288.12
302.209	291.12
302.439	294.12
302.669	318.12
302.9	297.12
303.13	311.12
303.36	290.12
303.59	313.12
303.82	299.12
304.051	312.12
304.281	301.12
304.511	315.12
304.741	300.12
304.971	305.12
305.201	304.12
305.431	300.12
305.661	286.12
305.891	292.12
306.121	289.12
306.352	294.12
306.582	290.12
306.812	309.12
307.042	292.12
307.272	296.12
307.502	287.12
307.731	280.12
307.961	300.12
308.191	297.12
308.421	300.12
308.651	322.12
308.881	306.12
309.111	294.12
309.341	270.12
309.571	303.12
309.8	308.12
310.03	321.12
310.26	311.12
310.49	313.12
310.72	323.12
310.949	340.12
311.179	328.12
311.409	319.12
311.639	332.12
311.868	317.12
312.098	309.12
312.328	337.12
312.557	337.12
312.787	317.12
313.017	325.12
313.246	325.12
313.476	329.12
313.706	309.12
313.935	315.12
314.165	325.12
314.394	322.12
314.624	355.12
314.853	322.12
315.083	335.12
315.312	338.12
315.542	317.12
315.771	327.12
316.001	333.12
316.23	323.12
316.46	333.12
316.689	348.12
316.919	310.12
317.148	333.12
317.377	298.12
317.607	335.12
317.836	322.12
318.065	335.12
318.295	324.12
318.524	317.12
318.753	313.12
318.983	331.12
319.212	325.12
319.441	306.12
319.67	296.12
319.9	322.12
320.129	309.12
320.358	347.12
320.587	321.12
320.816	333.12
321.046	345.12
321.275	340.12
321.504	358.12
321.733	324.12
321.962	327.12
322.191	335.12
322.42	333.12
322.649	350.12
322.878	365.12
323.108	373.12
323.337	359.12
323.566	380.12
323.795	372.12
324.024	404.12
324.253	469.12
324.482	592.12
324.71	896.12
324.939	1114.12
325.168	956.12
325.397	533.12
325.626	429.12
325.855	409.12
326.084	403.12
326.313	380.12
326.542	389.12
326.77	434.12
326.999	454.12
327.228	569.12
327.457	788.12
327.686	886.12
327.914	638.12
328.143	475.12
328.372	439.12
328.6	435.12
328.829	419.12
329.058	428.12
329.287	423.12
329.515	415.12
329.744	383.12
329.972	399.12
330.201	440.12
330.43	425.12
330.658	441.12
330.887	453.12
331.115	441.12
331.344	413.12
331.572	409.12
331.801	395.12
332.03	405.12
332.258	388.12
332.486	387.12
332.715	395.12
332.943	394.12
333.172	427.12
333.4	416.12
333.629	414.12
333.857	420.12
334.085	422.12
334.314	437.12
334.542	461.12
334.771	472.12
334.999	429.12
335.227	391.12
335.455	402.12
335.684	396.12
335.912	386.12
336.14	385.12
336.369	381.12
336.597	405.12
336.825	403.12
337.053	385.12
337.281	396.12
337.51	379.12
337.738	363.12
337.966	363.12
338.194	388.12
338.422	381.12
338.65	380.12
338.878	381.12
339.106	368.12
339.334	347.12
339.562	364.12
339.79	367.12
340.018	371.12
340.246	380.12
340.474	365.12
340.702	381.12
340.93	361.12
341.158	361.12
341.386	357.12
341.614	392.12
341.842	355.12
342.07	358.12
342.298	356.12
342.526	374.12
342.754	351.12
342.981	369.12
343.209	371.12
343.437	378.12
343.665	385.12
343.893	395.12
344.12	417.12
344.348	394.12
344.576	361.12
344.804	383.12
345.031	382.12
345.259	367.12
345.487	370.12
345.714	365.12
345.942	362.12
346.17	363.12
346.397	353.12
346.625	348.12
346.853	327.12
347.08	354.12
347.308	345.12
347.535	345.12
347.763	353.12
347.99	353.12
348.218	353.12
348.445	362.12
348.673	345.12
348.9	352.12
349.128	347.12
349.355	346.12
349.583	331.12
349.81	345.12
350.037	338.12
350.265	360.12
350.492	347.12
350.72	345.12
350.947	338.12
351.174	331.12
351.402	353.12
351.629	339.12
351.856	346.12
352.083	354.12
352.311	347.12
352.538	345.12
352.765	344.12
352.992	338.12
353.22	354.12
353.447	328.12
353.674	326.12
353.901	331.12
354.128	340.12
354.355	341.12
354.583	325.12
354.81	338.12
355.037	341.12
355.264	341.12
355.491	341.12
355.718	319.12
355.945	335.12
356.172	324.12
356.399	327.12
356.626	319.12
356.853	345.12
357.08	330.12
357.307	327.12
357.534	331.12
357.761	331.12
357.988	350.12
358.215	331.12
358.441	338.12
358.668	328.12
358.895	347.12
359.122	338.12
359.349	345.12
359.576	349.12
359.802	348.12
360.029	364.12
360.256	371.12
360.483	345.12
360.709	348.12
360.936	357.12
361.163	343.12
361.39	353.12
361.616	337.12
361.843	349.12
362.07	341.12
362.296	345.12
362.523	339.12
362.749	348.12
362.976	346.12
363.203	352.12
363.429	333.12
363.656	347.12
363.882	330.12
364.109	323.12
364.335	325.12
364.562	337.12
364.788	316.12
365.015	322.12
365.241	333.12
365.468	331.12
365.694	336.12
365.92	333.12
366.147	334.12
366.373	335.12
366.599	340.12
366.826	321.12
367.052	336.12
367.278	323.12
367.505	330.12
367.731	329.12
367.957	317.12
368.184	319.12
368.41	353.12
368.636	370.12
368.862	344.12
369.089	327.12
369.315	320.12
369.541	338.12
369.767	348.12
369.993	324.12
370.219	315.12
370.445	333.12
370.672	335.12
370.898	332.12
371.124	335.12
371.35	340.12
371.576	332.12
371.802	338.12
372.028	336.12
372.254	347.12
372.48	333.12
372.706	336.12
372.932	319.12
373.158	352.12
373.384	351.12
373.61	332.12
373.835	350.12
374.061	326.12
374.287	356.12
374.513	341.12
374.739	353.12
374.965	362.12
375.191	349.12
375.416	360.12
375.642	347.12
375.868	362.12
376.094	353.12
376.319	356.12
376.545	350.12
376.771	334.12
376.997	325.12
377.222	332.12
377.448	341.12
377.674	332.12
377.899	341.12
378.125	347.12
378.35	339.12
378.576	337.12
378.802	332.12
379.027	338.12
379.253	339.12
379.478	328.12
379.704	349.12
379.929	327.12
380.155	307.12
380.38	318.12
380.606	341.12
380.831	321.12
381.057	352.12
381.282	328.12
381.507	344.12
381.733	364.12
381.958	334.12
382.184	328.12
382.409	344.12
382.634	354.12
382.86	345.12
383.085	359.12
383.31	344.12
383.535	361.12
383.761	367.12
383.986	360.12
384.211	367.12
384.436	369.12
384.662	363.12
384.887	373.12
385.112	375.12
385.337	381.12
385.562	383.12
385.787	382.12
386.013	387.12
386.238	367.12
386.463	375.12
386.688	387.12
386.913	387.12
387.138	365.12
387.363	368.12
387.588	361.12
387.813	359.12
388.038	367.12
388.263	370.12
388.488	372.12
388.713	380.12
388.938	386.12
389.163	360.12
389.387	395.12
389.612	356.12
389.837	370.12
390.062	367.12
390.287	362.12
390.512	379.12
390.736	377.12
390.961	372.12
391.186	385.12
391.411	384.12
391.636	384.12
391.86	385.12
392.085	399.12
392.31	402.12
392.534	397.12
392.759	405.12
392.984	413.12
393.208	414.12
393.433	404.12
393.658	391.12
393.882	388.12
394.107	393.12
394.331	378.12
394.556	393.12
394.78	369.12
395.005	387.12
395.229	395.12
395.454	403.12
395.678	412.12
395.903	396.12
396.127	401.12
396.352	411.12
396.576	408.12
396.801	391.12
397.025	391.12
397.249	410.12
397.474	417.12
397.698	412.12
397.922	408.12
398.147	397.12
398.371	423.12
398.595	419.12
398.82	443.12
399.044	447.12
399.268	481.12
399.492	536.12
399.717	574.12
399.941	580.12
400.165	563.12
400.389	525.12
400.613	478.12
400.837	463.12
401.062	455.12
401.286	457.12
401.51	440.12
401.734	446.12
401.958	445.12
402.182	441.12
402.406	461.12
402.63	455.12
402.854	460.12
403.078	444.12
403.302	471.12
403.526	465.12
403.75	462.12
403.974	445.12
404.198	465.12
404.422	469.12
404.645	484.12
404.869	466.12
405.093	481.12
405.317	500.12
405.541	527.12
405.765	482.12
405.988	464.12
406.212	460.12
406.436	492.12
406.66	491.12
406.883	485.12
407.107	512.12
407.331	540.12
407.555	568.12
407.778	563.12
408.002	542.12
408.226	500.12
408.449	494.12
408.673	489.12
408.896	504.12
409.12	508.12
409.344	497.12
409.567	460.12
409.791	471.12
410.014	475.12
410.238	481.12
410.461	451.12
410.685	455.12
410.908	473.12
411.132	491.12
411.355	479.12
411.578	459.12
411.802	465.12
412.025	453.12
412.249	453.12
412.472	472.12
412.695	486.12
412.919	478.12
413.142	459.12
413.365	450.12
413.589	451.12
413.812	427.12
414.035	421.12
414.258	428.12
414.482	430.12
414.705	430.12
414.928	435.12
415.151	437.12
415.374	447.12
415.597	436.12
415.821	423.12
416.044	446.12
416.267	431.12
416.49	410.12
416.713	438.12
416.936	449.12
417.159	417.12
417.382	417.12
417.605	433.12
417.828	425.12
418.051	440.12
418.274	447.12
418.497	427.12
418.72	445.12
418.943	426.12
419.166	453.12
419.389	494.12
419.611	471.12
419.834	448.12
420.057	468.12
420.28	463.12
420.503	432.12
420.726	446.12
420.948	456.12
421.171	477.12
421.394	473.12
421.617	443.12
421.839	429.12
422.062	441.12
422.285	462.12
422.507	478.12
422.73	526.12
422.953	511.12
423.175	472.12
423.398	460.12
423.621	450.12
423.843	466.12
424.066	477.12
424.288	481.12
424.511	467.12
424.733	492.12
424.956	524.12
425.178	532.12
425.401	535.12
425.623	521.12
425.846	480.12
426.068	455.12
426.291	462.12
426.513	453.12
426.735	443.12
426.958	477.12
427.18	503.12
427.402	579.12
427.625	624.12
427.847	555.12
428.069	491.12
428.292	473.12
428.514	435.12
428.736	417.12
428.958	432.12
429.181	408.12
429.403	424.12
429.625	412.12
429.847	441.12
430.069	482.12
430.292	483.12
430.514	430.12
430.736	399.12
430.958	417.12
431.18	406.12
431.402	404.12
431.624	401.12
431.846	397.12
432.068	400.12
432.29	415.12
432.512	409.12
432.734	417.12
432.956	420.12
433.178	419.12
433.4	405.12
433.622	419.12
433.844	411.12
434.066	396.12
434.287	391.12
434.509	427.12
434.731	433.12
434.953	437.12
435.175	436.12
435.397	441.12
435.618	458.12
435.84	461.12
436.062	503.12
436.284	526.12
436.505	485.12
436.727	455.12
436.949	414.12
437.17	413.12
437.392	424.12
437.614	428.12
437.835	420.12
438.057	483.12
438.278	516.12
438.5	536.12
438.721	550.12
438.943	552.12
439.165	485.12
439.386	437.12
439.608	451.12
439.829	443.12
440.05	441.12
440.272	458.12
440.493	445.12
440.715	435.12
440.936	425.12
441.158	455.12
441.379	448.12
441.6	471.12
441.822	466.12
442.043	477.12
442.264	523.12
442.486	545.12
442.707	488.12
442.928	472.12
443.149	453.12
443.371	477.12
443.592	472.12
443.813	553.12
444.034	580.12
444.255	509.12
444.476	482.12
444.698	491.12
444.919	492.12
445.14	609.12
445.361	544.12
445.582	489.12
445.803	525.12
446.024	570.12
446.245	556.12
446.466	482.12
446.687	453.12
446.908	436.12
447.129	420.12
447.35	422.12
447.571	417.12
447.792	406.12
448.013	410.12
448.234	424.12
448.455	447.12
448.675	521.12
448.896	546.12
449.117	483.12
449.338	493.12
449.559	544.12
449.779	589.12
450	488.12
450.221	424.12
450.442	414.12
450.662	416.12
450.883	408.12
451.104	403.12
451.324	399.12
451.545	392.12
451.766	368.12
451.986	375.12
452.207	387.12
452.428	371.12
452.648	368.12
452.869	368.12
453.089	379.12
453.31	400.12
453.53	370.12
453.751	383.12
453.971	382.12
454.192	393.12
454.412	369.12
454.633	379.12
454.853	365.12
455.073	377.12
455.294	395.12
455.514	416.12
455.734	416.12
455.955	379.12
456.175	365.12
456.395	361.12
456.616	350.12
456.836	362.12
457.056	347.12
457.276	348.12
457.497	339.12
457.717	356.12
457.937	362.12
458.157	353.12
458.377	363.12
458.598	367.12
458.818	401.12
459.038	474.12
459.258	486.12
459.478	423.12
459.698	424.12
459.918	418.12
460.138	405.12
460.358	419.12
460.578	429.12
460.798	443.12
461.018	432.12
461.238	425.12
461.458	428.12
461.678	405.12
461.898	439.12
462.118	447.12
462.338	456.12
462.558	485.12
462.777	451.12
462.997	494.12
463.217	508.12
463.437	512.12
463.657	476.12
463.876	473.12
464.096	477.12
464.316	477.12
464.536	493.12
464.755	471.12
464.975	469.12
465.195	485.12
465.414	517.12
465.634	447.12
465.854	426.12
466.073	426.12
466.293	400.12
466.512	384.12
466.732	387.12
466.951	392.12
467.171	386.12
467.391	400.12
467.61	387.12
467.829	411.12
468.049	399.12
468.268	385.12
468.488	391.12
468.707	370.12
468.927	383.12
469.146	395.12
469.365	393.12
469.585	383.12
469.804	395.12
470.023	402.12
470.243	406.12
470.462	402.12
470.681	422.12
470.901	409.12
471.12	394.12
471.339	409.12
471.558	391.12
471.777	391.12
471.997	399.12
472.216	389.12
472.435	409.12
472.654	400.12
472.873	399.12
473.092	394.12
473.311	400.12
473.53	388.12
473.749	385.12
473.968	415.12
474.187	453.12
474.406	461.12
474.625	423.12
474.844	389.12
475.063	380.12
475.282	391.12
475.501	392.12
475.72	398.12
475.939	391.12
476.158	388.12
476.377	383.12
476.596	395.12
476.814	410.12
477.033	426.12
477.252	409.12
477.471	425.12
477.69	432.12
477.908	413.12
478.127	439.12
478.346	447.12
478.564	461.12
478.783	444.12
479.002	460.12
479.22	458.12
479.439	470.12
479.658	466.12
479.876	462.12
480.095	484.12
480.313	506.12
480.532	489.12
480.751	476.12
480.969	481.12
481.188	509.12
481.406	538.12
481.624	491.12
481.843	447.12
482.061	457.12
482.28	445.12
482.498	447.12
482.717	421.12
482.935	462.12
483.153	421.12
483.372	471.12
483.59	457.12
483.808	437.12
484.027	446.12
484.245	443.12
484.463	442.12
484.681	476.12
484.9	441.12
485.118	453.12
485.336	453.12
485.554	467.12
485.772	468.12
485.99	458.12
486.209	463.12
486.427	472.12
486.645	487.12
486.863	462.12
487.081	470.12
487.299	459.12
487.517	478.12
487.735	476.12
487.953	473.12
488.171	474.12
488.389	491.12
488.607	447.12
488.825	457.12
489.043	481.12
489.261	492.12
489.479	477.12
489.696	492.12
489.914	460.12
490.132	504.12
490.35	500.12
490.568	482.12
490.786	486.12
491.003	525.12
491.221	533.12
491.439	534.12
491.657	525.12
491.874	534.12
492.092	551.12
492.31	532.12
492.527	542.12
492.745	545.12
492.963	567.12
493.18	533.12
493.398	538.12
493.615	567.12
493.833	552.12
494.05	555.12
494.268	558.12
494.485	559.12
494.703	571.12
494.92	558.12
495.138	552.12
495.355	562.12
495.573	544.12
495.79	575.12
496.008	560.12
496.225	541.12
496.442	569.12
496.66	567.12
496.877	559.12
497.094	555.12
497.312	575.12
497.529	573.12
497.746	603.12
497.963	591.12
498.181	632.12
498.398	645.12
498.615	642.12
498.832	663.12
499.049	721.12
499.267	722.12
499.484	749.12
499.701	787.12
499.918	852.12
500.135	931.12
500.352	991.12
500.569	971.12
500.786	996.12
501.003	978.12
501.22	910.12
501.437	839.12
501.654	819.12
501.871	795.12
502.088	729.12
