Data from 1969.PennyLincolnUp.Lamp.En5.5.200Scan.071719.P1._HRD10591_14-55-33-974.txt Node
Date: Thu Jul 18 14:55:33 EDT 2019
User: cochatt
Spectrometer: HR+D1059
Trigger mode: 1
Integration Time (sec): 1.000000E-1
Scans to average: 1
Electric dark correction enabled: true
Nonlinearity correction enabled: false
Boxcar width: 0
XAxis mode: Wavelengths
Number of Pixels in Spectrum: 2048
>>>>>Begin Spectral Data<<<<<
223.165	-20.19
223.4	-20.19
223.635	-20.19
223.869	-22.19
224.104	-12.19
224.338	-14.19
224.573	-6.19
224.808	-14.19
225.042	2.81
225.277	-4.19
225.511	-17.19
225.746	7.81
225.98	7.81
226.215	10.81
226.449	9.81
226.683	15.81
226.918	21.81
227.152	33.81
227.387	23.81
227.621	38.81
227.856	36.81
228.09	42.81
228.324	52.81
228.559	59.81
228.793	64.81
229.027	70.81
229.262	79.81
229.496	102.81
229.73	97.81
229.964	116.81
230.199	108.81
230.433	94.81
230.667	89.81
230.901	98.81
231.136	94.81
231.37	106.81
231.604	102.81
231.838	114.81
232.072	110.81
232.306	94.81
232.541	104.81
232.775	86.81
233.009	104.81
233.243	101.81
233.477	99.81
233.711	97.81
233.945	104.81
234.179	110.81
234.413	118.81
234.647	105.81
234.881	112.81
235.115	108.81
235.349	107.81
235.583	112.81
235.817	100.81
236.051	98.81
236.285	97.81
236.519	109.81
236.753	105.81
236.987	107.81
237.221	147.81
237.455	171.81
237.689	138.81
237.922	114.81
238.156	122.81
238.39	92.81
238.624	108.81
238.858	108.81
239.091	107.81
239.325	106.81
239.559	118.81
239.793	115.81
240.027	119.81
240.26	119.81
240.494	133.81
240.728	132.81
240.961	130.81
241.195	129.81
241.429	116.81
241.662	112.81
241.896	116.81
242.13	106.81
242.363	120.81
242.597	116.81
242.83	116.81
243.064	108.81
243.298	131.81
243.531	123.81
243.765	115.81
243.998	135.81
244.232	123.81
244.465	131.81
244.699	126.81
244.932	124.81
245.166	118.81
245.399	123.81
245.633	116.81
245.866	134.81
246.099	123.81
246.333	131.81
246.566	122.81
246.8	142.81
247.033	138.81
247.266	135.81
247.5	151.81
247.733	150.81
247.966	160.81
248.2	154.81
248.433	148.81
248.666	154.81
248.899	162.81
249.133	162.81
249.366	167.81
249.599	151.81
249.832	156.81
250.066	154.81
250.299	151.81
250.532	160.81
250.765	154.81
250.998	172.81
251.231	194.81
251.465	168.81
251.698	162.81
251.931	155.81
252.164	153.81
252.397	174.81
252.63	166.81
252.863	161.81
253.096	178.81
253.329	166.81
253.562	181.81
253.795	183.81
254.028	179.81
254.261	190.81
254.494	192.81
254.727	199.81
254.96	217.81
255.193	199.81
255.426	206.81
255.659	176.81
255.892	181.81
256.124	199.81
256.357	195.81
256.59	186.81
256.823	181.81
257.056	171.81
257.289	164.81
257.521	170.81
257.754	177.81
257.987	183.81
258.22	182.81
258.452	163.81
258.685	170.81
258.918	183.81
259.151	170.81
259.383	176.81
259.616	184.81
259.849	175.81
260.081	202.81
260.314	224.81
260.547	195.81
260.779	194.81
261.012	208.81
261.244	181.81
261.477	185.81
261.71	193.81
261.942	184.81
262.175	196.81
262.407	190.81
262.64	174.81
262.872	179.81
263.105	190.81
263.337	174.81
263.57	172.81
263.802	180.81
264.035	181.81
264.267	203.81
264.499	194.81
264.732	172.81
264.964	173.81
265.197	196.81
265.429	201.81
265.661	171.81
265.894	174.81
266.126	176.81
266.358	200.81
266.591	180.81
266.823	185.81
267.055	200.81
267.287	193.81
267.52	187.81
267.752	180.81
267.984	172.81
268.216	202.81
268.448	188.81
268.681	200.81
268.913	213.81
269.145	218.81
269.377	210.81
269.609	220.81
269.841	244.81
270.073	217.81
270.306	240.81
270.538	254.81
270.77	240.81
271.002	235.81
271.234	224.81
271.466	251.81
271.698	223.81
271.93	256.81
272.162	266.81
272.394	241.81
272.626	233.81
272.858	228.81
273.09	204.81
273.322	229.81
273.553	220.81
273.785	225.81
274.017	223.81
274.249	220.81
274.481	228.81
274.713	218.81
274.945	227.81
275.176	218.81
275.408	208.81
275.64	229.81
275.872	226.81
276.104	219.81
276.335	227.81
276.567	224.81
276.799	239.81
277.031	250.81
277.262	254.81
277.494	255.81
277.726	221.81
277.957	242.81
278.189	237.81
278.421	238.81
278.652	242.81
278.884	233.81
279.115	224.81
279.347	220.81
279.579	237.81
279.81	222.81
280.042	242.81
280.273	214.81
280.505	228.81
280.736	238.81
280.968	226.81
281.199	235.81
281.431	243.81
281.662	226.81
281.894	226.81
282.125	241.81
282.356	234.81
282.588	270.81
282.819	253.81
283.051	242.81
283.282	225.81
283.513	241.81
283.745	255.81
283.976	246.81
284.207	253.81
284.439	255.81
284.67	250.81
284.901	232.81
285.132	242.81
285.364	240.81
285.595	225.81
285.826	231.81
286.057	254.81
286.288	236.81
286.52	247.81
286.751	264.81
286.982	236.81
287.213	243.81
287.444	259.81
287.675	257.81
287.906	267.81
288.138	268.81
288.369	262.81
288.6	251.81
288.831	244.81
289.062	262.81
289.293	259.81
289.524	271.81
289.755	249.81
289.986	242.81
290.217	248.81
290.448	233.81
290.679	266.81
290.91	262.81
291.141	254.81
291.371	259.81
291.602	265.81
291.833	211.81
292.064	249.81
292.295	255.81
292.526	249.81
292.757	252.81
292.987	249.81
293.218	250.81
293.449	270.81
293.68	254.81
293.91	248.81
294.141	246.81
294.372	250.81
294.603	250.81
294.833	246.81
295.064	270.81
295.295	262.81
295.525	257.81
295.756	278.81
295.987	248.81
296.217	288.81
296.448	283.81
296.679	272.81
296.909	273.81
297.14	256.81
297.37	267.81
297.601	261.81
297.831	276.81
298.062	258.81
298.292	271.81
298.523	288.81
298.753	276.81
298.984	276.81
299.214	287.81
299.445	272.81
299.675	271.81
299.905	272.81
300.136	268.81
300.366	265.81
300.597	279.81
300.827	272.81
301.057	275.81
301.288	296.81
301.518	280.81
301.748	295.81
301.979	290.81
302.209	293.81
302.439	282.81
302.669	307.81
302.9	287.81
303.13	291.81
303.36	284.81
303.59	279.81
303.82	295.81
304.051	285.81
304.281	280.81
304.511	297.81
304.741	291.81
304.971	294.81
305.201	281.81
305.431	271.81
305.661	294.81
305.891	286.81
306.121	282.81
306.352	299.81
306.582	295.81
306.812	288.81
307.042	306.81
307.272	267.81
307.502	280.81
307.731	297.81
307.961	302.81
308.191	284.81
308.421	302.81
308.651	307.81
308.881	277.81
309.111	269.81
309.341	286.81
309.571	294.81
309.8	295.81
310.03	307.81
310.26	309.81
310.49	290.81
310.72	295.81
310.949	315.81
311.179	322.81
311.409	328.81
311.639	303.81
311.868	316.81
312.098	322.81
312.328	321.81
312.557	336.81
312.787	363.81
313.017	337.81
313.246	332.81
313.476	325.81
313.706	333.81
313.935	321.81
314.165	328.81
314.394	323.81
314.624	327.81
314.853	330.81
315.083	322.81
315.312	319.81
315.542	332.81
315.771	306.81
316.001	307.81
316.23	314.81
316.46	319.81
316.689	318.81
316.919	312.81
317.148	291.81
317.377	321.81
317.607	338.81
317.836	313.81
318.065	319.81
318.295	318.81
318.524	301.81
318.753	306.81
318.983	331.81
319.212	303.81
319.441	319.81
319.67	321.81
319.9	314.81
320.129	305.81
320.358	299.81
320.587	316.81
320.816	320.81
321.046	340.81
321.275	311.81
321.504	308.81
321.733	322.81
321.962	329.81
322.191	331.81
322.42	328.81
322.649	338.81
322.878	355.81
323.108	360.81
323.337	361.81
323.566	368.81
323.795	374.81
324.024	382.81
324.253	444.81
324.482	614.81
324.71	838.81
324.939	1135.81
325.168	934.81
325.397	534.81
325.626	419.81
325.855	384.81
326.084	370.81
326.313	371.81
326.542	394.81
326.77	398.81
326.999	438.81
327.228	564.81
327.457	776.81
327.686	850.81
327.914	626.81
328.143	482.81
328.372	425.81
328.6	410.81
328.829	405.81
329.058	412.81
329.287	411.81
329.515	408.81
329.744	385.81
329.972	382.81
330.201	386.81
330.43	432.81
330.658	415.81
330.887	439.81
331.115	416.81
331.344	375.81
331.572	385.81
331.801	397.81
332.03	395.81
332.258	377.81
332.486	388.81
332.715	347.81
332.943	392.81
333.172	392.81
333.4	403.81
333.629	420.81
333.857	413.81
334.085	420.81
334.314	435.81
334.542	439.81
334.771	453.81
334.999	423.81
335.227	399.81
335.455	406.81
335.684	384.81
335.912	406.81
336.14	376.81
336.369	393.81
336.597	375.81
336.825	410.81
337.053	383.81
337.281	380.81
337.51	368.81
337.738	377.81
337.966	359.81
338.194	386.81
338.422	380.81
338.65	368.81
338.878	360.81
339.106	367.81
339.334	363.81
339.562	346.81
339.79	344.81
340.018	342.81
340.246	359.81
340.474	352.81
340.702	336.81
340.93	353.81
341.158	348.81
341.386	362.81
341.614	360.81
341.842	359.81
342.07	353.81
342.298	343.81
342.526	350.81
342.754	335.81
342.981	351.81
343.209	348.81
343.437	368.81
343.665	376.81
343.893	383.81
344.12	390.81
344.348	376.81
344.576	383.81
344.804	360.81
345.031	378.81
345.259	361.81
345.487	358.81
345.714	343.81
345.942	344.81
346.17	346.81
346.397	341.81
346.625	328.81
346.853	340.81
347.08	353.81
347.308	319.81
347.535	339.81
347.763	351.81
347.99	342.81
348.218	343.81
348.445	338.81
348.673	329.81
348.9	343.81
349.128	340.81
349.355	320.81
349.583	332.81
349.81	321.81
350.037	351.81
350.265	331.81
350.492	325.81
350.72	343.81
350.947	331.81
351.174	329.81
351.402	339.81
351.629	320.81
351.856	330.81
352.083	322.81
352.311	345.81
352.538	355.81
352.765	345.81
352.992	329.81
353.22	340.81
353.447	322.81
353.674	317.81
353.901	326.81
354.128	324.81
354.355	325.81
354.583	329.81
354.81	319.81
355.037	326.81
355.264	320.81
355.491	333.81
355.718	313.81
355.945	331.81
356.172	318.81
356.399	303.81
356.626	329.81
356.853	311.81
357.08	328.81
357.307	313.81
357.534	302.81
357.761	316.81
357.988	317.81
358.215	325.81
358.441	313.81
358.668	314.81
358.895	315.81
359.122	335.81
359.349	318.81
359.576	335.81
359.802	367.81
360.029	355.81
360.256	358.81
360.483	360.81
360.709	337.81
360.936	324.81
361.163	346.81
361.39	339.81
361.616	327.81
361.843	325.81
362.07	353.81
362.296	333.81
362.523	342.81
362.749	321.81
362.976	348.81
363.203	322.81
363.429	335.81
363.656	332.81
363.882	343.81
364.109	306.81
364.335	322.81
364.562	337.81
364.788	337.81
365.015	325.81
365.241	327.81
365.468	334.81
365.694	327.81
365.92	315.81
366.147	315.81
366.373	325.81
366.599	303.81
366.826	325.81
367.052	329.81
367.278	301.81
367.505	337.81
367.731	337.81
367.957	325.81
368.184	328.81
368.41	345.81
368.636	297.81
368.862	337.81
369.089	319.81
369.315	328.81
369.541	326.81
369.767	324.81
369.993	328.81
370.219	338.81
370.445	326.81
370.672	322.81
370.898	314.81
371.124	321.81
371.35	304.81
371.576	324.81
371.802	321.81
372.028	332.81
372.254	335.81
372.48	329.81
372.706	334.81
372.932	340.81
373.158	339.81
373.384	343.81
373.61	331.81
373.835	323.81
374.061	339.81
374.287	319.81
374.513	336.81
374.739	329.81
374.965	361.81
375.191	357.81
375.416	349.81
375.642	328.81
375.868	357.81
376.094	327.81
376.319	342.81
376.545	335.81
376.771	346.81
376.997	332.81
377.222	345.81
377.448	331.81
377.674	324.81
377.899	336.81
378.125	311.81
378.35	300.81
378.576	325.81
378.802	323.81
379.027	325.81
379.253	335.81
379.478	309.81
379.704	323.81
379.929	320.81
380.155	314.81
380.38	334.81
380.606	331.81
380.831	314.81
381.057	324.81
381.282	324.81
381.507	324.81
381.733	341.81
381.958	328.81
382.184	346.81
382.409	330.81
382.634	339.81
382.86	337.81
383.085	350.81
383.31	346.81
383.535	338.81
383.761	356.81
383.986	358.81
384.211	361.81
384.436	367.81
384.662	345.81
384.887	347.81
385.112	359.81
385.337	368.81
385.562	378.81
385.787	384.81
386.013	372.81
386.238	384.81
386.463	376.81
386.688	357.81
386.913	368.81
387.138	341.81
387.363	373.81
387.588	366.81
387.813	375.81
388.038	371.81
388.263	366.81
388.488	370.81
388.713	352.81
388.938	382.81
389.163	358.81
389.387	357.81
389.612	330.81
389.837	371.81
390.062	356.81
390.287	370.81
390.512	350.81
390.736	355.81
390.961	337.81
391.186	371.81
391.411	377.81
391.636	377.81
391.86	409.81
392.085	379.81
392.31	389.81
392.534	371.81
392.759	366.81
392.984	367.81
393.208	379.81
393.433	375.81
393.658	391.81
393.882	384.81
394.107	369.81
394.331	367.81
394.556	377.81
394.78	362.81
395.005	390.81
395.229	378.81
395.454	387.81
395.678	380.81
395.903	384.81
396.127	392.81
396.352	396.81
396.576	391.81
396.801	393.81
397.025	388.81
397.249	393.81
397.474	394.81
397.698	393.81
397.922	419.81
398.147	394.81
398.371	413.81
398.595	396.81
398.82	441.81
399.044	447.81
399.268	486.81
399.492	492.81
399.717	564.81
399.941	553.81
400.165	548.81
400.389	528.81
400.613	471.81
400.837	440.81
401.062	452.81
401.286	432.81
401.51	410.81
401.734	443.81
401.958	438.81
402.182	426.81
402.406	459.81
402.63	449.81
402.854	438.81
403.078	450.81
403.302	430.81
403.526	467.81
403.75	463.81
403.974	458.81
404.198	474.81
404.422	471.81
404.645	457.81
404.869	463.81
405.093	496.81
405.317	508.81
405.541	532.81
405.765	496.81
405.988	477.81
406.212	452.81
406.436	478.81
406.66	485.81
406.883	468.81
407.107	504.81
407.331	528.81
407.555	570.81
407.778	567.81
408.002	530.81
408.226	501.81
408.449	495.81
408.673	490.81
408.896	484.81
409.12	494.81
409.344	480.81
409.567	466.81
409.791	450.81
410.014	472.81
410.238	467.81
410.461	464.81
410.685	470.81
410.908	444.81
411.132	474.81
411.355	475.81
411.578	442.81
411.802	434.81
412.025	450.81
412.249	440.81
412.472	464.81
412.695	478.81
412.919	463.81
413.142	458.81
413.365	440.81
413.589	452.81
413.812	428.81
414.035	416.81
414.258	425.81
414.482	411.81
414.705	439.81
414.928	424.81
415.151	422.81
415.374	438.81
415.597	409.81
415.821	417.81
416.044	433.81
416.267	427.81
416.49	426.81
416.713	439.81
416.936	415.81
417.159	435.81
417.382	415.81
417.605	426.81
417.828	406.81
418.051	448.81
418.274	426.81
418.497	429.81
418.72	440.81
418.943	440.81
419.166	434.81
419.389	467.81
419.611	459.81
419.834	456.81
420.057	453.81
420.28	448.81
420.503	442.81
420.726	434.81
420.948	446.81
421.171	458.81
421.394	508.81
421.617	451.81
421.839	428.81
422.062	420.81
422.285	445.81
422.507	468.81
422.73	510.81
422.953	504.81
423.175	453.81
423.398	443.81
423.621	437.81
423.843	452.81
424.066	453.81
424.288	476.81
424.511	458.81
424.733	495.81
424.956	551.81
425.178	528.81
425.401	532.81
425.623	522.81
425.846	462.81
426.068	422.81
426.291	432.81
426.513	424.81
426.735	459.81
426.958	480.81
427.18	519.81
427.402	585.81
427.625	607.81
427.847	552.81
428.069	494.81
428.292	447.81
428.514	429.81
428.736	433.81
428.958	417.81
429.181	415.81
429.403	396.81
429.625	410.81
429.847	433.81
430.069	446.81
430.292	439.81
430.514	419.81
430.736	390.81
430.958	384.81
431.18	406.81
431.402	399.81
431.624	405.81
431.846	402.81
432.068	387.81
432.29	388.81
432.512	411.81
432.734	403.81
432.956	408.81
433.178	404.81
433.4	401.81
433.622	410.81
433.844	394.81
434.066	396.81
434.287	396.81
434.509	433.81
434.731	414.81
434.953	436.81
435.175	440.81
435.397	460.81
435.618	451.81
435.84	460.81
436.062	508.81
436.284	535.81
436.505	442.81
436.727	442.81
436.949	403.81
437.17	406.81
437.392	392.81
437.614	418.81
437.835	406.81
438.057	465.81
438.278	498.81
438.5	530.81
438.721	553.81
438.943	540.81
439.165	447.81
439.386	430.81
439.608	437.81
439.829	413.81
440.05	438.81
440.272	450.81
440.493	454.81
440.715	407.81
440.936	400.81
441.158	403.81
441.379	432.81
441.6	432.81
441.822	444.81
442.043	482.81
442.264	510.81
442.486	536.81
442.707	483.81
442.928	442.81
443.149	446.81
443.371	488.81
443.592	487.81
443.813	554.81
444.034	569.81
444.255	517.81
444.476	492.81
444.698	490.81
444.919	481.81
445.14	617.81
445.361	529.81
445.582	471.81
445.803	490.81
446.024	542.81
446.245	554.81
446.466	492.81
446.687	452.81
446.908	425.81
447.129	412.81
447.35	400.81
447.571	383.81
447.792	385.81
448.013	404.81
448.234	403.81
448.455	439.81
448.675	493.81
448.896	546.81
449.117	485.81
449.338	479.81
449.559	507.81
449.779	590.81
450	481.81
450.221	423.81
450.442	402.81
450.662	386.81
450.883	410.81
451.104	386.81
451.324	388.81
451.545	388.81
451.766	379.81
451.986	383.81
452.207	364.81
452.428	382.81
452.648	374.81
452.869	374.81
453.089	362.81
453.31	371.81
453.53	376.81
453.751	378.81
453.971	351.81
454.192	374.81
454.412	361.81
454.633	360.81
454.853	364.81
455.073	353.81
455.294	376.81
455.514	384.81
455.734	393.81
455.955	365.81
456.175	345.81
456.395	347.81
456.616	351.81
456.836	322.81
457.056	346.81
457.276	340.81
457.497	344.81
457.717	326.81
457.937	351.81
458.157	368.81
458.377	364.81
458.598	378.81
458.818	404.81
459.038	435.81
459.258	451.81
459.478	438.81
459.698	395.81
459.918	390.81
460.138	422.81
460.358	421.81
460.578	414.81
460.798	415.81
461.018	426.81
461.238	422.81
461.458	414.81
461.678	429.81
461.898	437.81
462.118	442.81
462.338	437.81
462.558	434.81
462.777	468.81
462.997	498.81
463.217	493.81
463.437	509.81
463.657	471.81
463.876	478.81
464.096	472.81
464.316	433.81
464.536	462.81
464.755	450.81
464.975	464.81
465.195	482.81
465.414	480.81
465.634	430.81
465.854	426.81
466.073	418.81
466.293	394.81
466.512	391.81
466.732	368.81
466.951	377.81
467.171	371.81
467.391	371.81
467.61	381.81
467.829	394.81
468.049	394.81
468.268	362.81
468.488	374.81
468.707	369.81
468.927	360.81
469.146	374.81
469.365	370.81
469.585	375.81
469.804	373.81
470.023	384.81
470.243	379.81
470.462	380.81
470.681	392.81
470.901	395.81
471.12	384.81
471.339	402.81
471.558	395.81
471.777	401.81
471.997	378.81
472.216	397.81
472.435	386.81
472.654	356.81
472.873	392.81
473.092	380.81
473.311	370.81
473.53	370.81
473.749	400.81
473.968	415.81
474.187	441.81
474.406	464.81
474.625	423.81
474.844	375.81
475.063	372.81
475.282	374.81
475.501	366.81
475.72	373.81
475.939	390.81
476.158	390.81
476.377	372.81
476.596	388.81
476.814	387.81
477.033	399.81
477.252	418.81
477.471	408.81
477.69	423.81
477.908	409.81
478.127	407.81
478.346	430.81
478.564	441.81
478.783	427.81
479.002	417.81
479.22	440.81
479.439	460.81
479.658	480.81
479.876	469.81
480.095	459.81
480.313	491.81
480.532	479.81
480.751	469.81
480.969	481.81
481.188	516.81
481.406	528.81
481.624	477.81
481.843	460.81
482.061	462.81
482.28	454.81
482.498	420.81
482.717	434.81
482.935	434.81
483.153	440.81
483.372	442.81
483.59	431.81
483.808	440.81
484.027	434.81
484.245	434.81
484.463	437.81
484.681	447.81
484.9	442.81
485.118	427.81
485.336	451.81
485.554	446.81
485.772	463.81
485.99	466.81
486.209	455.81
486.427	459.81
486.645	464.81
486.863	487.81
487.081	499.81
487.299	462.81
487.517	475.81
487.735	468.81
487.953	476.81
488.171	473.81
488.389	448.81
488.607	469.81
488.825	457.81
489.043	473.81
489.261	481.81
489.479	473.81
489.696	485.81
489.914	479.81
490.132	480.81
490.35	487.81
490.568	489.81
490.786	512.81
491.003	518.81
491.221	524.81
491.439	523.81
491.657	533.81
491.874	520.81
492.092	521.81
492.31	534.81
492.527	539.81
492.745	522.81
492.963	550.81
493.18	548.81
493.398	543.81
493.615	540.81
493.833	571.81
494.05	525.81
494.268	546.81
494.485	547.81
494.703	557.81
494.92	551.81
495.138	540.81
495.355	548.81
495.573	555.81
495.79	526.81
496.008	550.81
496.225	558.81
496.442	548.81
496.66	544.81
496.877	566.81
497.094	562.81
497.312	577.81
497.529	568.81
497.746	585.81
497.963	582.81
498.181	603.81
498.398	628.81
498.615	647.81
498.832	652.81
499.049	670.81
499.267	703.81
499.484	745.81
499.701	812.81
499.918	850.81
500.135	918.81
500.352	978.81
500.569	985.81
500.786	966.81
501.003	959.81
501.22	907.81
501.437	823.81
501.654	795.81
501.871	775.81
502.088	711.81
