Data from 1969.PennyLincolnUp.Lamp.En5.5.200Scan.071719.P1._HRD10591_14-54-07-971.txt Node
Date: Thu Jul 18 14:54:07 EDT 2019
User: cochatt
Spectrometer: HR+D1059
Trigger mode: 1
Integration Time (sec): 1.000000E-1
Scans to average: 1
Electric dark correction enabled: true
Nonlinearity correction enabled: false
Boxcar width: 0
XAxis mode: Wavelengths
Number of Pixels in Spectrum: 2048
>>>>>Begin Spectral Data<<<<<
223.165	-3.81
223.4	-3.81
223.635	-3.81
223.869	-23.81
224.104	-21.81
224.338	-14.81
224.573	-11.81
224.808	-15.81
225.042	-5.81
225.277	-7.81
225.511	-5.81
225.746	2.19
225.98	-9.81
226.215	21.19
226.449	18.19
226.683	19.19
226.918	36.19
227.152	24.19
227.387	21.19
227.621	37.19
227.856	56.19
228.09	43.19
228.324	58.19
228.559	65.19
228.793	77.19
229.027	71.19
229.262	77.19
229.496	91.19
229.73	121.19
229.964	115.19
230.199	102.19
230.433	92.19
230.667	99.19
230.901	98.19
231.136	103.19
231.37	97.19
231.604	101.19
231.838	97.19
232.072	103.19
232.306	110.19
232.541	107.19
232.775	118.19
233.009	108.19
233.243	107.19
233.477	98.19
233.711	106.19
233.945	107.19
234.179	104.19
234.413	100.19
234.647	110.19
234.881	102.19
235.115	106.19
235.349	111.19
235.583	92.19
235.817	126.19
236.051	104.19
236.285	110.19
236.519	112.19
236.753	116.19
236.987	131.19
237.221	136.19
237.455	151.19
237.689	136.19
237.922	106.19
238.156	113.19
238.39	116.19
238.624	97.19
238.858	105.19
239.091	128.19
239.325	119.19
239.559	108.19
239.793	114.19
240.027	120.19
240.26	126.19
240.494	128.19
240.728	122.19
240.961	122.19
241.195	131.19
241.429	120.19
241.662	115.19
241.896	98.19
242.13	126.19
242.363	118.19
242.597	119.19
242.83	119.19
243.064	121.19
243.298	124.19
243.531	124.19
243.765	123.19
243.998	127.19
244.232	115.19
244.465	128.19
244.699	140.19
244.932	130.19
245.166	122.19
245.399	129.19
245.633	128.19
245.866	124.19
246.099	124.19
246.333	118.19
246.566	127.19
246.8	126.19
247.033	118.19
247.266	128.19
247.5	116.19
247.733	138.19
247.966	141.19
248.2	147.19
248.433	127.19
248.666	155.19
248.899	136.19
249.133	153.19
249.366	175.19
249.599	149.19
249.832	146.19
250.066	148.19
250.299	158.19
250.532	160.19
250.765	157.19
250.998	183.19
251.231	167.19
251.465	166.19
251.698	157.19
251.931	154.19
252.164	154.19
252.397	165.19
252.63	161.19
252.863	166.19
253.096	166.19
253.329	183.19
253.562	178.19
253.795	165.19
254.028	171.19
254.261	166.19
254.494	169.19
254.727	190.19
254.96	209.19
255.193	193.19
255.426	183.19
255.659	173.19
255.892	180.19
256.124	180.19
256.357	159.19
256.59	176.19
256.823	173.19
257.056	179.19
257.289	164.19
257.521	175.19
257.754	173.19
257.987	182.19
258.22	171.19
258.452	172.19
258.685	184.19
258.918	159.19
259.151	149.19
259.383	163.19
259.616	180.19
259.849	178.19
260.081	174.19
260.314	179.19
260.547	183.19
260.779	209.19
261.012	172.19
261.244	153.19
261.477	178.19
261.71	150.19
261.942	176.19
262.175	190.19
262.407	164.19
262.64	166.19
262.872	173.19
263.105	160.19
263.337	182.19
263.57	179.19
263.802	184.19
264.035	169.19
264.267	165.19
264.499	189.19
264.732	182.19
264.964	182.19
265.197	199.19
265.429	188.19
265.661	193.19
265.894	179.19
266.126	183.19
266.358	178.19
266.591	181.19
266.823	184.19
267.055	172.19
267.287	203.19
267.52	184.19
267.752	181.19
267.984	196.19
268.216	180.19
268.448	179.19
268.681	187.19
268.913	200.19
269.145	205.19
269.377	196.19
269.609	194.19
269.841	216.19
270.073	210.19
270.306	202.19
270.538	229.19
270.77	235.19
271.002	227.19
271.234	222.19
271.466	220.19
271.698	235.19
271.93	237.19
272.162	240.19
272.394	226.19
272.626	215.19
272.858	218.19
273.09	217.19
273.322	213.19
273.553	206.19
273.785	221.19
274.017	214.19
274.249	203.19
274.481	220.19
274.713	211.19
274.945	216.19
275.176	215.19
275.408	215.19
275.64	234.19
275.872	220.19
276.104	215.19
276.335	175.19
276.567	203.19
276.799	211.19
277.031	238.19
277.262	242.19
277.494	232.19
277.726	218.19
277.957	210.19
278.189	217.19
278.421	211.19
278.652	218.19
278.884	225.19
279.115	218.19
279.347	223.19
279.579	213.19
279.81	216.19
280.042	216.19
280.273	218.19
280.505	227.19
280.736	222.19
280.968	230.19
281.199	223.19
281.431	221.19
281.662	222.19
281.894	227.19
282.125	242.19
282.356	242.19
282.588	238.19
282.819	243.19
283.051	225.19
283.282	218.19
283.513	237.19
283.745	219.19
283.976	219.19
284.207	228.19
284.439	226.19
284.67	250.19
284.901	246.19
285.132	231.19
285.364	239.19
285.595	231.19
285.826	215.19
286.057	230.19
286.288	236.19
286.52	247.19
286.751	232.19
286.982	231.19
287.213	233.19
287.444	245.19
287.675	247.19
287.906	244.19
288.138	252.19
288.369	239.19
288.6	258.19
288.831	247.19
289.062	228.19
289.293	246.19
289.524	247.19
289.755	236.19
289.986	239.19
290.217	230.19
290.448	257.19
290.679	258.19
290.91	245.19
291.141	220.19
291.371	235.19
291.602	237.19
291.833	234.19
292.064	240.19
292.295	233.19
292.526	242.19
292.757	246.19
292.987	248.19
293.218	251.19
293.449	250.19
293.68	221.19
293.91	234.19
294.141	260.19
294.372	262.19
294.603	255.19
294.833	226.19
295.064	248.19
295.295	245.19
295.525	235.19
295.756	266.19
295.987	259.19
296.217	242.19
296.448	263.19
296.679	270.19
296.909	268.19
297.14	273.19
297.37	270.19
297.601	267.19
297.831	267.19
298.062	262.19
298.292	256.19
298.523	268.19
298.753	242.19
298.984	254.19
299.214	277.19
299.445	274.19
299.675	268.19
299.905	255.19
300.136	267.19
300.366	259.19
300.597	264.19
300.827	265.19
301.057	278.19
301.288	284.19
301.518	274.19
301.748	276.19
301.979	284.19
302.209	290.19
302.439	280.19
302.669	269.19
302.9	289.19
303.13	272.19
303.36	284.19
303.59	283.19
303.82	268.19
304.051	256.19
304.281	282.19
304.511	271.19
304.741	282.19
304.971	282.19
305.201	283.19
305.431	282.19
305.661	264.19
305.891	262.19
306.121	275.19
306.352	286.19
306.582	267.19
306.812	268.19
307.042	273.19
307.272	283.19
307.502	268.19
307.731	279.19
307.961	271.19
308.191	273.19
308.421	276.19
308.651	277.19
308.881	284.19
309.111	284.19
309.341	279.19
309.571	286.19
309.8	270.19
310.03	286.19
310.26	283.19
310.49	317.19
310.72	294.19
310.949	289.19
311.179	290.19
311.409	303.19
311.639	292.19
311.868	305.19
312.098	289.19
312.328	285.19
312.557	308.19
312.787	295.19
313.017	313.19
313.246	312.19
313.476	272.19
313.706	302.19
313.935	294.19
314.165	305.19
314.394	320.19
314.624	310.19
314.853	312.19
315.083	294.19
315.312	270.19
315.542	293.19
315.771	321.19
316.001	303.19
316.23	305.19
316.46	282.19
316.689	307.19
316.919	309.19
317.148	304.19
317.377	297.19
317.607	306.19
317.836	295.19
318.065	294.19
318.295	300.19
318.524	303.19
318.753	286.19
318.983	310.19
319.212	287.19
319.441	304.19
319.67	292.19
319.9	297.19
320.129	309.19
320.358	289.19
320.587	302.19
320.816	302.19
321.046	331.19
321.275	297.19
321.504	320.19
321.733	300.19
321.962	329.19
322.191	316.19
322.42	335.19
322.649	321.19
322.878	316.19
323.108	334.19
323.337	339.19
323.566	353.19
323.795	348.19
324.024	381.19
324.253	397.19
324.482	522.19
324.71	728.19
324.939	934.19
325.168	781.19
325.397	478.19
325.626	380.19
325.855	359.19
326.084	336.19
326.313	335.19
326.542	332.19
326.77	370.19
326.999	400.19
327.228	500.19
327.457	653.19
327.686	721.19
327.914	542.19
328.143	414.19
328.372	399.19
328.6	374.19
328.829	362.19
329.058	356.19
329.287	359.19
329.515	363.19
329.744	366.19
329.972	345.19
330.201	353.19
330.43	372.19
330.658	390.19
330.887	392.19
331.115	399.19
331.344	373.19
331.572	367.19
331.801	374.19
332.03	364.19
332.258	367.19
332.486	377.19
332.715	365.19
332.943	363.19
333.172	364.19
333.4	360.19
333.629	372.19
333.857	390.19
334.085	406.19
334.314	377.19
334.542	427.19
334.771	415.19
334.999	381.19
335.227	376.19
335.455	375.19
335.684	358.19
335.912	368.19
336.14	350.19
336.369	370.19
336.597	359.19
336.825	364.19
337.053	374.19
337.281	354.19
337.51	344.19
337.738	351.19
337.966	350.19
338.194	348.19
338.422	321.19
338.65	345.19
338.878	338.19
339.106	344.19
339.334	347.19
339.562	340.19
339.79	335.19
340.018	337.19
340.246	316.19
340.474	331.19
340.702	331.19
340.93	349.19
341.158	335.19
341.386	321.19
341.614	334.19
341.842	336.19
342.07	331.19
342.298	311.19
342.526	342.19
342.754	338.19
342.981	324.19
343.209	345.19
343.437	360.19
343.665	342.19
343.893	364.19
344.12	377.19
344.348	363.19
344.576	344.19
344.804	353.19
345.031	344.19
345.259	346.19
345.487	324.19
345.714	333.19
345.942	318.19
346.17	330.19
346.397	341.19
346.625	306.19
346.853	335.19
347.08	317.19
347.308	316.19
347.535	320.19
347.763	309.19
347.99	308.19
348.218	328.19
348.445	323.19
348.673	304.19
348.9	319.19
349.128	324.19
349.355	304.19
349.583	322.19
349.81	314.19
350.037	326.19
350.265	293.19
350.492	307.19
350.72	315.19
350.947	313.19
351.174	321.19
351.402	316.19
351.629	314.19
351.856	328.19
352.083	318.19
352.311	327.19
352.538	310.19
352.765	301.19
352.992	319.19
353.22	306.19
353.447	309.19
353.674	308.19
353.901	310.19
354.128	316.19
354.355	307.19
354.583	308.19
354.81	315.19
355.037	315.19
355.264	303.19
355.491	307.19
355.718	303.19
355.945	312.19
356.172	319.19
356.399	307.19
356.626	316.19
356.853	323.19
357.08	317.19
357.307	299.19
357.534	296.19
357.761	310.19
357.988	313.19
358.215	306.19
358.441	297.19
358.668	300.19
358.895	299.19
359.122	311.19
359.349	298.19
359.576	312.19
359.802	330.19
360.029	327.19
360.256	327.19
360.483	334.19
360.709	328.19
360.936	331.19
361.163	325.19
361.39	306.19
361.616	309.19
361.843	328.19
362.07	329.19
362.296	313.19
362.523	302.19
362.749	292.19
362.976	308.19
363.203	282.19
363.429	291.19
363.656	294.19
363.882	310.19
364.109	307.19
364.335	296.19
364.562	323.19
364.788	310.19
365.015	312.19
365.241	315.19
365.468	316.19
365.694	310.19
365.92	302.19
366.147	308.19
366.373	311.19
366.599	304.19
366.826	314.19
367.052	302.19
367.278	299.19
367.505	292.19
367.731	303.19
367.957	294.19
368.184	321.19
368.41	316.19
368.636	325.19
368.862	335.19
369.089	317.19
369.315	308.19
369.541	303.19
369.767	308.19
369.993	313.19
370.219	303.19
370.445	291.19
370.672	314.19
370.898	312.19
371.124	314.19
371.35	304.19
371.576	333.19
371.802	327.19
372.028	328.19
372.254	315.19
372.48	332.19
372.706	308.19
372.932	327.19
373.158	320.19
373.384	324.19
373.61	328.19
373.835	327.19
374.061	317.19
374.287	332.19
374.513	332.19
374.739	315.19
374.965	322.19
375.191	328.19
375.416	339.19
375.642	334.19
375.868	330.19
376.094	292.19
376.319	312.19
376.545	326.19
376.771	333.19
376.997	308.19
377.222	322.19
377.448	324.19
377.674	322.19
377.899	303.19
378.125	294.19
378.35	317.19
378.576	312.19
378.802	325.19
379.027	309.19
379.253	324.19
379.478	304.19
379.704	297.19
379.929	308.19
380.155	327.19
380.38	321.19
380.606	319.19
380.831	300.19
381.057	325.19
381.282	334.19
381.507	306.19
381.733	329.19
381.958	316.19
382.184	317.19
382.409	310.19
382.634	319.19
382.86	333.19
383.085	331.19
383.31	316.19
383.535	331.19
383.761	325.19
383.986	333.19
384.211	340.19
384.436	348.19
384.662	360.19
384.887	346.19
385.112	332.19
385.337	366.19
385.562	340.19
385.787	343.19
386.013	370.19
386.238	369.19
386.463	363.19
386.688	364.19
386.913	376.19
387.138	357.19
387.363	345.19
387.588	346.19
387.813	354.19
388.038	323.19
388.263	332.19
388.488	366.19
388.713	348.19
388.938	365.19
389.163	348.19
389.387	355.19
389.612	362.19
389.837	340.19
390.062	335.19
390.287	350.19
390.512	331.19
390.736	336.19
390.961	358.19
391.186	362.19
391.411	355.19
391.636	364.19
391.86	359.19
392.085	371.19
392.31	382.19
392.534	379.19
392.759	363.19
392.984	363.19
393.208	363.19
393.433	359.19
393.658	342.19
393.882	352.19
394.107	358.19
394.331	358.19
394.556	351.19
394.78	374.19
395.005	363.19
395.229	382.19
395.454	368.19
395.678	393.19
395.903	374.19
396.127	358.19
396.352	378.19
396.576	370.19
396.801	364.19
397.025	372.19
397.249	388.19
397.474	380.19
397.698	382.19
397.922	384.19
398.147	374.19
398.371	405.19
398.595	404.19
398.82	396.19
399.044	414.19
399.268	442.19
399.492	489.19
399.717	531.19
399.941	526.19
400.165	516.19
400.389	509.19
400.613	462.19
400.837	423.19
401.062	400.19
401.286	411.19
401.51	400.19
401.734	401.19
401.958	410.19
402.182	421.19
402.406	434.19
402.63	431.19
402.854	426.19
403.078	410.19
403.302	431.19
403.526	459.19
403.75	450.19
403.974	444.19
404.198	453.19
404.422	468.19
404.645	454.19
404.869	437.19
405.093	461.19
405.317	487.19
405.541	493.19
405.765	446.19
405.988	434.19
406.212	464.19
406.436	469.19
406.66	469.19
406.883	456.19
407.107	495.19
407.331	492.19
407.555	541.19
407.778	513.19
408.002	503.19
408.226	490.19
408.449	463.19
408.673	451.19
408.896	462.19
409.12	477.19
409.344	450.19
409.567	432.19
409.791	420.19
410.014	429.19
410.238	429.19
410.461	428.19
410.685	411.19
410.908	430.19
411.132	457.19
411.355	474.19
411.578	443.19
411.802	413.19
412.025	435.19
412.249	443.19
412.472	445.19
412.695	450.19
412.919	467.19
413.142	420.19
413.365	420.19
413.589	401.19
413.812	402.19
414.035	403.19
414.258	400.19
414.482	391.19
414.705	399.19
414.928	406.19
415.151	410.19
415.374	414.19
415.597	401.19
415.821	410.19
416.044	400.19
416.267	388.19
416.49	390.19
416.713	394.19
416.936	409.19
417.159	380.19
417.382	390.19
417.605	381.19
417.828	406.19
418.051	419.19
418.274	416.19
418.497	404.19
418.72	390.19
418.943	423.19
419.166	420.19
419.389	408.19
419.611	426.19
419.834	408.19
420.057	442.19
420.28	424.19
420.503	399.19
420.726	419.19
420.948	427.19
421.171	413.19
421.394	448.19
421.617	412.19
421.839	409.19
422.062	425.19
422.285	416.19
422.507	444.19
422.73	469.19
422.953	465.19
423.175	429.19
423.398	427.19
423.621	415.19
423.843	436.19
424.066	432.19
424.288	433.19
424.511	450.19
424.733	458.19
424.956	514.19
425.178	487.19
425.401	491.19
425.623	473.19
425.846	418.19
426.068	431.19
426.291	415.19
426.513	407.19
426.735	404.19
426.958	424.19
427.18	457.19
427.402	536.19
427.625	558.19
427.847	507.19
428.069	452.19
428.292	412.19
428.514	396.19
428.736	386.19
428.958	404.19
429.181	364.19
429.403	382.19
429.625	380.19
429.847	387.19
430.069	436.19
430.292	419.19
430.514	395.19
430.736	396.19
430.958	389.19
431.18	377.19
431.402	367.19
431.624	372.19
431.846	380.19
432.068	376.19
432.29	395.19
432.512	374.19
432.734	390.19
432.956	373.19
433.178	390.19
433.4	384.19
433.622	384.19
433.844	375.19
434.066	379.19
434.287	388.19
434.509	398.19
434.731	408.19
434.953	403.19
435.175	430.19
435.397	429.19
435.618	413.19
435.84	419.19
436.062	469.19
436.284	486.19
436.505	408.19
436.727	401.19
436.949	390.19
437.17	378.19
437.392	384.19
437.614	381.19
437.835	391.19
438.057	441.19
438.278	490.19
438.5	492.19
438.721	523.19
438.943	494.19
439.165	418.19
439.386	405.19
439.608	428.19
439.829	402.19
440.05	404.19
440.272	440.19
440.493	416.19
440.715	386.19
440.936	385.19
441.158	384.19
441.379	393.19
441.6	385.19
441.822	413.19
442.043	451.19
442.264	479.19
442.486	499.19
442.707	440.19
442.928	446.19
443.149	444.19
443.371	445.19
443.592	483.19
443.813	524.19
444.034	541.19
444.255	483.19
444.476	448.19
444.698	455.19
444.919	482.19
445.14	565.19
445.361	484.19
445.582	456.19
445.803	465.19
446.024	513.19
446.245	514.19
446.466	451.19
446.687	456.19
446.908	430.19
447.129	374.19
447.35	391.19
447.571	380.19
447.792	384.19
448.013	361.19
448.234	388.19
448.455	398.19
448.675	461.19
448.896	499.19
449.117	432.19
449.338	418.19
449.559	488.19
449.779	539.19
450	424.19
450.221	382.19
450.442	383.19
450.662	359.19
450.883	379.19
451.104	375.19
451.324	360.19
451.545	377.19
451.766	346.19
451.986	365.19
452.207	343.19
452.428	360.19
452.648	355.19
452.869	365.19
453.089	337.19
453.31	345.19
453.53	344.19
453.751	347.19
453.971	347.19
454.192	360.19
454.412	347.19
454.633	348.19
454.853	344.19
455.073	346.19
455.294	356.19
455.514	389.19
455.734	382.19
455.955	341.19
456.175	332.19
456.395	341.19
456.616	324.19
456.836	359.19
457.056	338.19
457.276	322.19
457.497	347.19
457.717	338.19
457.937	310.19
458.157	340.19
458.377	336.19
458.598	339.19
458.818	390.19
459.038	421.19
459.258	424.19
459.478	398.19
459.698	379.19
459.918	382.19
460.138	392.19
460.358	384.19
460.578	409.19
460.798	443.19
461.018	418.19
461.238	424.19
461.458	404.19
461.678	392.19
461.898	421.19
462.118	395.19
462.338	403.19
462.558	441.19
462.777	436.19
462.997	469.19
463.217	476.19
463.437	490.19
463.657	470.19
463.876	460.19
464.096	424.19
464.316	432.19
464.536	461.19
464.755	430.19
464.975	444.19
465.195	427.19
465.414	456.19
465.634	427.19
465.854	387.19
466.073	380.19
466.293	383.19
466.512	378.19
466.732	364.19
466.951	382.19
467.171	376.19
467.391	374.19
467.61	367.19
467.829	360.19
468.049	353.19
468.268	368.19
468.488	359.19
468.707	343.19
468.927	362.19
469.146	350.19
469.365	359.19
469.585	364.19
469.804	377.19
470.023	379.19
470.243	372.19
470.462	393.19
470.681	388.19
470.901	371.19
471.12	366.19
471.339	380.19
471.558	378.19
471.777	379.19
471.997	375.19
472.216	364.19
472.435	388.19
472.654	398.19
472.873	381.19
473.092	354.19
473.311	347.19
473.53	354.19
473.749	383.19
473.968	396.19
474.187	448.19
474.406	413.19
474.625	397.19
474.844	374.19
475.063	369.19
475.282	371.19
475.501	367.19
475.72	358.19
475.939	364.19
476.158	363.19
476.377	351.19
476.596	381.19
476.814	359.19
477.033	380.19
477.252	376.19
477.471	382.19
477.69	395.19
477.908	396.19
478.127	406.19
478.346	408.19
478.564	423.19
478.783	431.19
479.002	429.19
479.22	415.19
479.439	427.19
479.658	400.19
479.876	427.19
480.095	445.19
480.313	424.19
480.532	460.19
480.751	445.19
480.969	451.19
481.188	468.19
481.406	471.19
481.624	423.19
481.843	421.19
482.061	419.19
482.28	419.19
482.498	394.19
482.717	424.19
482.935	421.19
483.153	393.19
483.372	414.19
483.59	413.19
483.808	433.19
484.027	438.19
484.245	397.19
484.463	412.19
484.681	407.19
484.9	436.19
485.118	426.19
485.336	430.19
485.554	421.19
485.772	414.19
485.99	396.19
486.209	438.19
486.427	422.19
486.645	450.19
486.863	462.19
487.081	441.19
487.299	436.19
487.517	417.19
487.735	450.19
487.953	458.19
488.171	448.19
488.389	459.19
488.607	429.19
488.825	425.19
489.043	433.19
489.261	474.19
489.479	448.19
489.696	436.19
489.914	470.19
490.132	441.19
490.35	436.19
490.568	447.19
490.786	462.19
491.003	471.19
491.221	468.19
491.439	492.19
491.657	484.19
491.874	512.19
492.092	488.19
492.31	485.19
492.527	495.19
492.745	500.19
492.963	493.19
493.18	500.19
493.398	522.19
493.615	495.19
493.833	504.19
494.05	507.19
494.268	522.19
494.485	486.19
494.703	521.19
494.92	498.19
495.138	515.19
495.355	537.19
495.573	525.19
495.79	521.19
496.008	524.19
496.225	523.19
496.442	504.19
496.66	499.19
496.877	490.19
497.094	506.19
497.312	537.19
497.529	516.19
497.746	554.19
497.963	559.19
498.181	570.19
498.398	592.19
498.615	605.19
498.832	611.19
499.049	623.19
499.267	640.19
499.484	691.19
499.701	752.19
499.918	821.19
500.135	837.19
500.352	923.19
500.569	939.19
500.786	934.19
501.003	873.19
501.22	848.19
501.437	785.19
501.654	742.19
501.871	708.19
502.088	680.19
