Data from 1969.PennyLincolnUp.Lamp.En5.5.200Scan.071719.P1._HRD10591_14-54-03-971.txt Node
Date: Thu Jul 18 14:54:03 EDT 2019
User: cochatt
Spectrometer: HR+D1059
Trigger mode: 1
Integration Time (sec): 1.000000E-1
Scans to average: 1
Electric dark correction enabled: true
Nonlinearity correction enabled: false
Boxcar width: 0
XAxis mode: Wavelengths
Number of Pixels in Spectrum: 2048
>>>>>Begin Spectral Data<<<<<
223.165	-16.88
223.4	-16.88
223.635	-16.88
223.869	-19.88
224.104	-14.88
224.338	-12.88
224.573	-21.88
224.808	-23.88
225.042	-2.88
225.277	4.12
225.511	8.12
225.746	1.12
225.98	10.12
226.215	19.12
226.449	11.12
226.683	14.12
226.918	25.12
227.152	20.12
227.387	22.12
227.621	28.12
227.856	37.12
228.09	37.12
228.324	51.12
228.559	63.12
228.793	64.12
229.027	74.12
229.262	88.12
229.496	84.12
229.73	98.12
229.964	108.12
230.199	87.12
230.433	92.12
230.667	86.12
230.901	108.12
231.136	97.12
231.37	111.12
231.604	97.12
231.838	90.12
232.072	92.12
232.306	97.12
232.541	98.12
232.775	98.12
233.009	101.12
233.243	91.12
233.477	111.12
233.711	99.12
233.945	97.12
234.179	101.12
234.413	101.12
234.647	107.12
234.881	108.12
235.115	102.12
235.349	106.12
235.583	112.12
235.817	106.12
236.051	105.12
236.285	99.12
236.519	106.12
236.753	103.12
236.987	123.12
237.221	133.12
237.455	157.12
237.689	124.12
237.922	107.12
238.156	107.12
238.39	116.12
238.624	103.12
238.858	111.12
239.091	103.12
239.325	108.12
239.559	105.12
239.793	107.12
240.027	104.12
240.26	114.12
240.494	125.12
240.728	122.12
240.961	116.12
241.195	90.12
241.429	115.12
241.662	111.12
241.896	115.12
242.13	117.12
242.363	116.12
242.597	120.12
242.83	114.12
243.064	121.12
243.298	113.12
243.531	120.12
243.765	129.12
243.998	123.12
244.232	123.12
244.465	126.12
244.699	120.12
244.932	127.12
245.166	107.12
245.399	131.12
245.633	141.12
245.866	128.12
246.099	129.12
246.333	114.12
246.566	122.12
246.8	134.12
247.033	128.12
247.266	122.12
247.5	129.12
247.733	129.12
247.966	127.12
248.2	132.12
248.433	141.12
248.666	150.12
248.899	148.12
249.133	164.12
249.366	171.12
249.599	146.12
249.832	158.12
250.066	143.12
250.299	162.12
250.532	159.12
250.765	156.12
250.998	179.12
251.231	175.12
251.465	163.12
251.698	147.12
251.931	155.12
252.164	167.12
252.397	139.12
252.63	152.12
252.863	157.12
253.096	167.12
253.329	176.12
253.562	186.12
253.795	165.12
254.028	170.12
254.261	169.12
254.494	169.12
254.727	178.12
254.96	191.12
255.193	197.12
255.426	187.12
255.659	175.12
255.892	172.12
256.124	162.12
256.357	184.12
256.59	165.12
256.823	175.12
257.056	159.12
257.289	183.12
257.521	156.12
257.754	181.12
257.987	158.12
258.22	180.12
258.452	155.12
258.685	155.12
258.918	157.12
259.151	163.12
259.383	185.12
259.616	175.12
259.849	182.12
260.081	177.12
260.314	199.12
260.547	189.12
260.779	188.12
261.012	191.12
261.244	183.12
261.477	189.12
261.71	176.12
261.942	159.12
262.175	201.12
262.407	191.12
262.64	176.12
262.872	165.12
263.105	173.12
263.337	167.12
263.57	164.12
263.802	178.12
264.035	172.12
264.267	172.12
264.499	177.12
264.732	173.12
264.964	177.12
265.197	165.12
265.429	169.12
265.661	189.12
265.894	174.12
266.126	165.12
266.358	165.12
266.591	170.12
266.823	174.12
267.055	184.12
267.287	175.12
267.52	192.12
267.752	177.12
267.984	188.12
268.216	203.12
268.448	195.12
268.681	203.12
268.913	195.12
269.145	191.12
269.377	214.12
269.609	204.12
269.841	193.12
270.073	208.12
270.306	236.12
270.538	230.12
270.77	216.12
271.002	219.12
271.234	208.12
271.466	236.12
271.698	230.12
271.93	216.12
272.162	243.12
272.394	229.12
272.626	235.12
272.858	204.12
273.09	215.12
273.322	213.12
273.553	195.12
273.785	214.12
274.017	222.12
274.249	218.12
274.481	215.12
274.713	201.12
274.945	225.12
275.176	204.12
275.408	217.12
275.64	210.12
275.872	220.12
276.104	227.12
276.335	219.12
276.567	202.12
276.799	234.12
277.031	241.12
277.262	228.12
277.494	236.12
277.726	228.12
277.957	224.12
278.189	219.12
278.421	226.12
278.652	224.12
278.884	225.12
279.115	227.12
279.347	220.12
279.579	202.12
279.81	215.12
280.042	226.12
280.273	221.12
280.505	218.12
280.736	234.12
280.968	221.12
281.199	227.12
281.431	218.12
281.662	236.12
281.894	234.12
282.125	222.12
282.356	218.12
282.588	230.12
282.819	237.12
283.051	216.12
283.282	220.12
283.513	233.12
283.745	249.12
283.976	216.12
284.207	210.12
284.439	229.12
284.67	234.12
284.901	216.12
285.132	218.12
285.364	229.12
285.595	235.12
285.826	234.12
286.057	239.12
286.288	236.12
286.52	222.12
286.751	233.12
286.982	234.12
287.213	222.12
287.444	220.12
287.675	214.12
287.906	241.12
288.138	234.12
288.369	251.12
288.6	256.12
288.831	251.12
289.062	242.12
289.293	240.12
289.524	260.12
289.755	241.12
289.986	246.12
290.217	233.12
290.448	241.12
290.679	240.12
290.91	236.12
291.141	230.12
291.371	239.12
291.602	242.12
291.833	242.12
292.064	231.12
292.295	257.12
292.526	264.12
292.757	241.12
292.987	243.12
293.218	241.12
293.449	243.12
293.68	245.12
293.91	241.12
294.141	238.12
294.372	257.12
294.603	250.12
294.833	241.12
295.064	260.12
295.295	243.12
295.525	244.12
295.756	241.12
295.987	233.12
296.217	245.12
296.448	264.12
296.679	252.12
296.909	259.12
297.14	263.12
297.37	260.12
297.601	266.12
297.831	264.12
298.062	250.12
298.292	277.12
298.523	265.12
298.753	246.12
298.984	255.12
299.214	252.12
299.445	263.12
299.675	244.12
299.905	246.12
300.136	244.12
300.366	245.12
300.597	272.12
300.827	257.12
301.057	253.12
301.288	269.12
301.518	287.12
301.748	272.12
301.979	283.12
302.209	277.12
302.439	253.12
302.669	259.12
302.9	259.12
303.13	277.12
303.36	277.12
303.59	284.12
303.82	287.12
304.051	263.12
304.281	285.12
304.511	277.12
304.741	288.12
304.971	244.12
305.201	270.12
305.431	269.12
305.661	278.12
305.891	282.12
306.121	267.12
306.352	282.12
306.582	270.12
306.812	270.12
307.042	287.12
307.272	259.12
307.502	270.12
307.731	262.12
307.961	264.12
308.191	262.12
308.421	261.12
308.651	283.12
308.881	269.12
309.111	271.12
309.341	273.12
309.571	274.12
309.8	293.12
310.03	292.12
310.26	269.12
310.49	296.12
310.72	300.12
310.949	293.12
311.179	303.12
311.409	294.12
311.639	289.12
311.868	276.12
312.098	287.12
312.328	299.12
312.557	291.12
312.787	310.12
313.017	305.12
313.246	283.12
313.476	309.12
313.706	295.12
313.935	288.12
314.165	294.12
314.394	295.12
314.624	307.12
314.853	285.12
315.083	296.12
315.312	311.12
315.542	308.12
315.771	303.12
316.001	305.12
316.23	294.12
316.46	287.12
316.689	304.12
316.919	303.12
317.148	291.12
317.377	300.12
317.607	285.12
317.836	299.12
318.065	291.12
318.295	298.12
318.524	296.12
318.753	289.12
318.983	303.12
319.212	304.12
319.441	295.12
319.67	309.12
319.9	300.12
320.129	292.12
320.358	283.12
320.587	295.12
320.816	305.12
321.046	288.12
321.275	315.12
321.504	317.12
321.733	311.12
321.962	278.12
322.191	310.12
322.42	306.12
322.649	316.12
322.878	327.12
323.108	308.12
323.337	320.12
323.566	340.12
323.795	363.12
324.024	355.12
324.253	402.12
324.482	508.12
324.71	723.12
324.939	947.12
325.168	822.12
325.397	462.12
325.626	364.12
325.855	363.12
326.084	338.12
326.313	346.12
326.542	336.12
326.77	372.12
326.999	412.12
327.228	489.12
327.457	667.12
327.686	730.12
327.914	552.12
328.143	399.12
328.372	369.12
328.6	371.12
328.829	348.12
329.058	367.12
329.287	373.12
329.515	358.12
329.744	351.12
329.972	361.12
330.201	343.12
330.43	385.12
330.658	377.12
330.887	396.12
331.115	385.12
331.344	353.12
331.572	343.12
331.801	367.12
332.03	364.12
332.258	359.12
332.486	367.12
332.715	362.12
332.943	369.12
333.172	365.12
333.4	388.12
333.629	387.12
333.857	389.12
334.085	395.12
334.314	398.12
334.542	410.12
334.771	407.12
334.999	386.12
335.227	380.12
335.455	364.12
335.684	369.12
335.912	360.12
336.14	371.12
336.369	347.12
336.597	356.12
336.825	358.12
337.053	354.12
337.281	339.12
337.51	337.12
337.738	337.12
337.966	332.12
338.194	359.12
338.422	354.12
338.65	336.12
338.878	338.12
339.106	336.12
339.334	338.12
339.562	316.12
339.79	331.12
340.018	324.12
340.246	332.12
340.474	334.12
340.702	345.12
340.93	330.12
341.158	325.12
341.386	328.12
341.614	335.12
341.842	335.12
342.07	352.12
342.298	345.12
342.526	322.12
342.754	329.12
342.981	329.12
343.209	338.12
343.437	354.12
343.665	351.12
343.893	361.12
344.12	373.12
344.348	362.12
344.576	347.12
344.804	329.12
345.031	337.12
345.259	360.12
345.487	347.12
345.714	325.12
345.942	324.12
346.17	312.12
346.397	315.12
346.625	328.12
346.853	329.12
347.08	320.12
347.308	325.12
347.535	328.12
347.763	327.12
347.99	323.12
348.218	332.12
348.445	308.12
348.673	304.12
348.9	321.12
349.128	305.12
349.355	320.12
349.583	307.12
349.81	297.12
350.037	289.12
350.265	325.12
350.492	289.12
350.72	319.12
350.947	316.12
351.174	317.12
351.402	331.12
351.629	313.12
351.856	300.12
352.083	281.12
352.311	299.12
352.538	318.12
352.765	320.12
352.992	321.12
353.22	310.12
353.447	323.12
353.674	305.12
353.901	315.12
354.128	281.12
354.355	283.12
354.583	300.12
354.81	300.12
355.037	295.12
355.264	303.12
355.491	300.12
355.718	302.12
355.945	307.12
356.172	291.12
356.399	301.12
356.626	303.12
356.853	307.12
357.08	306.12
357.307	323.12
357.534	296.12
357.761	294.12
357.988	298.12
358.215	304.12
358.441	291.12
358.668	312.12
358.895	316.12
359.122	307.12
359.349	309.12
359.576	295.12
359.802	303.12
360.029	323.12
360.256	334.12
360.483	325.12
360.709	319.12
360.936	322.12
361.163	313.12
361.39	299.12
361.616	300.12
361.843	303.12
362.07	301.12
362.296	311.12
362.523	323.12
362.749	290.12
362.976	322.12
363.203	308.12
363.429	315.12
363.656	290.12
363.882	325.12
364.109	305.12
364.335	308.12
364.562	296.12
364.788	301.12
365.015	306.12
365.241	318.12
365.468	295.12
365.694	340.12
365.92	305.12
366.147	291.12
366.373	297.12
366.599	290.12
366.826	298.12
367.052	280.12
367.278	283.12
367.505	312.12
367.731	286.12
367.957	309.12
368.184	311.12
368.41	309.12
368.636	314.12
368.862	309.12
369.089	315.12
369.315	318.12
369.541	311.12
369.767	323.12
369.993	307.12
370.219	303.12
370.445	300.12
370.672	296.12
370.898	306.12
371.124	298.12
371.35	299.12
371.576	304.12
371.802	300.12
372.028	293.12
372.254	316.12
372.48	327.12
372.706	301.12
372.932	313.12
373.158	316.12
373.384	316.12
373.61	308.12
373.835	321.12
374.061	310.12
374.287	321.12
374.513	326.12
374.739	320.12
374.965	326.12
375.191	327.12
375.416	337.12
375.642	325.12
375.868	325.12
376.094	320.12
376.319	320.12
376.545	308.12
376.771	327.12
376.997	317.12
377.222	312.12
377.448	312.12
377.674	304.12
377.899	316.12
378.125	318.12
378.35	318.12
378.576	303.12
378.802	324.12
379.027	316.12
379.253	316.12
379.478	304.12
379.704	306.12
379.929	304.12
380.155	321.12
380.38	297.12
380.606	294.12
380.831	321.12
381.057	329.12
381.282	300.12
381.507	311.12
381.733	335.12
381.958	324.12
382.184	321.12
382.409	297.12
382.634	328.12
382.86	314.12
383.085	335.12
383.31	311.12
383.535	325.12
383.761	339.12
383.986	336.12
384.211	354.12
384.436	327.12
384.662	327.12
384.887	351.12
385.112	349.12
385.337	335.12
385.562	339.12
385.787	354.12
386.013	342.12
386.238	361.12
386.463	374.12
386.688	339.12
386.913	348.12
387.138	329.12
387.363	329.12
387.588	350.12
387.813	344.12
388.038	346.12
388.263	363.12
388.488	351.12
388.713	364.12
388.938	347.12
389.163	355.12
389.387	339.12
389.612	355.12
389.837	333.12
390.062	352.12
390.287	341.12
390.512	344.12
390.736	364.12
390.961	353.12
391.186	362.12
391.411	363.12
391.636	354.12
391.86	369.12
392.085	389.12
392.31	384.12
392.534	376.12
392.759	359.12
392.984	352.12
393.208	353.12
393.433	351.12
393.658	371.12
393.882	361.12
394.107	365.12
394.331	371.12
394.556	364.12
394.78	350.12
395.005	361.12
395.229	361.12
395.454	351.12
395.678	373.12
395.903	385.12
396.127	386.12
396.352	393.12
396.576	353.12
396.801	366.12
397.025	375.12
397.249	375.12
397.474	367.12
397.698	383.12
397.922	373.12
398.147	390.12
398.371	392.12
398.595	396.12
398.82	411.12
399.044	432.12
399.268	438.12
399.492	490.12
399.717	531.12
399.941	527.12
400.165	503.12
400.389	474.12
400.613	453.12
400.837	433.12
401.062	412.12
401.286	425.12
401.51	397.12
401.734	413.12
401.958	416.12
402.182	411.12
402.406	424.12
402.63	433.12
402.854	427.12
403.078	393.12
403.302	408.12
403.526	448.12
403.75	438.12
403.974	435.12
404.198	433.12
404.422	447.12
404.645	450.12
404.869	426.12
405.093	443.12
405.317	484.12
405.541	479.12
405.765	458.12
405.988	460.12
406.212	423.12
406.436	449.12
406.66	461.12
406.883	468.12
407.107	475.12
407.331	508.12
407.555	519.12
407.778	509.12
408.002	484.12
408.226	489.12
408.449	456.12
408.673	456.12
408.896	466.12
409.12	476.12
409.344	481.12
409.567	454.12
409.791	444.12
410.014	407.12
410.238	431.12
410.461	402.12
410.685	401.12
410.908	425.12
411.132	447.12
411.355	453.12
411.578	450.12
411.802	450.12
412.025	422.12
412.249	410.12
412.472	412.12
412.695	437.12
412.919	435.12
413.142	414.12
413.365	417.12
413.589	427.12
413.812	416.12
414.035	394.12
414.258	393.12
414.482	408.12
414.705	402.12
414.928	398.12
415.151	395.12
415.374	413.12
415.597	391.12
415.821	389.12
416.044	407.12
416.267	385.12
416.49	396.12
416.713	404.12
416.936	383.12
417.159	382.12
417.382	405.12
417.605	401.12
417.828	409.12
418.051	417.12
418.274	422.12
418.497	390.12
418.72	420.12
418.943	399.12
419.166	391.12
419.389	428.12
419.611	423.12
419.834	418.12
420.057	426.12
420.28	437.12
420.503	418.12
420.726	413.12
420.948	423.12
421.171	451.12
421.394	447.12
421.617	419.12
421.839	397.12
422.062	419.12
422.285	399.12
422.507	425.12
422.73	472.12
422.953	457.12
423.175	450.12
423.398	431.12
423.621	443.12
423.843	450.12
424.066	439.12
424.288	423.12
424.511	435.12
424.733	472.12
424.956	501.12
425.178	486.12
425.401	501.12
425.623	490.12
425.846	411.12
426.068	409.12
426.291	410.12
426.513	409.12
426.735	427.12
426.958	437.12
427.18	481.12
427.402	547.12
427.625	575.12
427.847	493.12
428.069	463.12
428.292	423.12
428.514	411.12
428.736	389.12
428.958	388.12
429.181	362.12
429.403	377.12
429.625	367.12
429.847	380.12
430.069	426.12
430.292	435.12
430.514	393.12
430.736	390.12
430.958	384.12
431.18	370.12
431.402	374.12
431.624	362.12
431.846	375.12
432.068	374.12
432.29	374.12
432.512	388.12
432.734	381.12
432.956	370.12
433.178	380.12
433.4	370.12
433.622	379.12
433.844	390.12
434.066	385.12
434.287	377.12
434.509	397.12
434.731	395.12
434.953	390.12
435.175	419.12
435.397	420.12
435.618	413.12
435.84	448.12
436.062	467.12
436.284	482.12
436.505	434.12
436.727	398.12
436.949	408.12
437.17	386.12
437.392	377.12
437.614	395.12
437.835	408.12
438.057	448.12
438.278	481.12
438.5	481.12
438.721	538.12
438.943	517.12
439.165	421.12
439.386	377.12
439.608	406.12
439.829	393.12
440.05	401.12
440.272	409.12
440.493	436.12
440.715	402.12
440.936	394.12
441.158	387.12
441.379	421.12
441.6	418.12
441.822	442.12
442.043	435.12
442.264	465.12
442.486	507.12
442.707	455.12
442.928	435.12
443.149	435.12
443.371	455.12
443.592	467.12
443.813	507.12
444.034	537.12
444.255	468.12
444.476	459.12
444.698	466.12
444.919	465.12
445.14	573.12
445.361	505.12
445.582	435.12
445.803	465.12
446.024	503.12
446.245	491.12
446.466	456.12
446.687	417.12
446.908	411.12
447.129	379.12
447.35	390.12
447.571	373.12
447.792	389.12
448.013	388.12
448.234	375.12
448.455	411.12
448.675	454.12
448.896	511.12
449.117	426.12
449.338	431.12
449.559	473.12
449.779	527.12
450	443.12
450.221	406.12
450.442	379.12
450.662	368.12
450.883	378.12
451.104	372.12
451.324	349.12
451.545	343.12
451.766	355.12
451.986	329.12
452.207	336.12
452.428	352.12
452.648	331.12
452.869	339.12
453.089	341.12
453.31	356.12
453.53	348.12
453.751	359.12
453.971	354.12
454.192	352.12
454.412	322.12
454.633	332.12
454.853	317.12
455.073	331.12
455.294	346.12
455.514	374.12
455.734	383.12
455.955	328.12
456.175	328.12
456.395	306.12
456.616	325.12
456.836	311.12
457.056	311.12
457.276	315.12
457.497	363.12
457.717	328.12
457.937	334.12
458.157	331.12
458.377	332.12
458.598	351.12
458.818	381.12
459.038	425.12
459.258	424.12
459.478	386.12
459.698	375.12
459.918	397.12
460.138	391.12
460.358	436.12
460.578	395.12
460.798	387.12
461.018	419.12
461.238	405.12
461.458	397.12
461.678	408.12
461.898	411.12
462.118	420.12
462.338	416.12
462.558	425.12
462.777	444.12
462.997	447.12
463.217	489.12
463.437	476.12
463.657	469.12
463.876	463.12
464.096	424.12
464.316	454.12
464.536	432.12
464.755	446.12
464.975	431.12
465.195	439.12
465.414	450.12
465.634	405.12
465.854	379.12
466.073	400.12
466.293	373.12
466.512	362.12
466.732	358.12
466.951	371.12
467.171	375.12
467.391	374.12
467.61	371.12
467.829	372.12
468.049	361.12
468.268	365.12
468.488	356.12
468.707	326.12
468.927	352.12
469.146	383.12
469.365	371.12
469.585	386.12
469.804	361.12
470.023	385.12
470.243	379.12
470.462	372.12
470.681	381.12
470.901	395.12
471.12	364.12
471.339	370.12
471.558	387.12
471.777	369.12
471.997	369.12
472.216	368.12
472.435	378.12
472.654	364.12
472.873	361.12
473.092	359.12
473.311	363.12
473.53	364.12
473.749	371.12
473.968	375.12
474.187	406.12
474.406	436.12
474.625	377.12
474.844	387.12
475.063	347.12
475.282	358.12
475.501	369.12
475.72	381.12
475.939	381.12
476.158	374.12
476.377	361.12
476.596	373.12
476.814	371.12
477.033	374.12
477.252	360.12
477.471	405.12
477.69	420.12
477.908	375.12
478.127	407.12
478.346	391.12
478.564	413.12
478.783	396.12
479.002	423.12
479.22	417.12
479.439	439.12
479.658	415.12
479.876	437.12
480.095	435.12
480.313	444.12
480.532	468.12
480.751	464.12
480.969	459.12
481.188	488.12
481.406	478.12
481.624	427.12
481.843	418.12
482.061	421.12
482.28	404.12
482.498	402.12
482.717	419.12
482.935	417.12
483.153	403.12
483.372	425.12
483.59	420.12
483.808	419.12
484.027	417.12
484.245	434.12
484.463	419.12
484.681	435.12
484.9	423.12
485.118	410.12
485.336	409.12
485.554	428.12
485.772	427.12
485.99	435.12
486.209	440.12
486.427	416.12
486.645	435.12
486.863	435.12
487.081	432.12
487.299	435.12
487.517	439.12
487.735	421.12
487.953	440.12
488.171	428.12
488.389	449.12
488.607	435.12
488.825	455.12
489.043	419.12
489.261	444.12
489.479	429.12
489.696	452.12
489.914	457.12
490.132	435.12
490.35	436.12
490.568	477.12
490.786	466.12
491.003	470.12
491.221	467.12
491.439	462.12
491.657	474.12
491.874	496.12
492.092	503.12
492.31	497.12
492.527	498.12
492.745	519.12
492.963	500.12
493.18	496.12
493.398	503.12
493.615	503.12
493.833	501.12
494.05	516.12
494.268	531.12
494.485	519.12
494.703	513.12
494.92	499.12
495.138	527.12
495.355	524.12
495.573	490.12
495.79	489.12
496.008	523.12
496.225	504.12
496.442	511.12
496.66	533.12
496.877	511.12
497.094	515.12
497.312	539.12
497.529	533.12
497.746	554.12
497.963	553.12
498.181	565.12
498.398	573.12
498.615	599.12
498.832	624.12
499.049	648.12
499.267	701.12
499.484	698.12
499.701	776.12
499.918	777.12
500.135	867.12
500.352	942.12
500.569	929.12
500.786	953.12
501.003	882.12
501.22	842.12
501.437	778.12
501.654	730.12
501.871	741.12
502.088	666.12
502.305	620.12
