Data from 1969.PennyLincolnUp.Lamp.En5.5.200Scan.071719.P1._HRD10591_14-54-21-972.txt Node
Date: Thu Jul 18 14:54:21 EDT 2019
User: cochatt
Spectrometer: HR+D1059
Trigger mode: 1
Integration Time (sec): 1.000000E-1
Scans to average: 1
Electric dark correction enabled: true
Nonlinearity correction enabled: false
Boxcar width: 0
XAxis mode: Wavelengths
Number of Pixels in Spectrum: 2048
>>>>>Begin Spectral Data<<<<<
223.165	-23.56
223.4	-23.56
223.635	-23.56
223.869	-21.56
224.104	-11.56
224.338	-9.56
224.573	-11.56
224.808	-18.56
225.042	-19.56
225.277	-3.56
225.511	-3.56
225.746	4.44
225.98	-0.56
226.215	15.44
226.449	15.44
226.683	25.44
226.918	33.44
227.152	29.44
227.387	43.44
227.621	45.44
227.856	42.44
228.09	42.44
228.324	43.44
228.559	44.44
228.793	72.44
229.027	83.44
229.262	73.44
229.496	105.44
229.73	96.44
229.964	114.44
230.199	91.44
230.433	98.44
230.667	93.44
230.901	99.44
231.136	95.44
231.37	90.44
231.604	95.44
231.838	100.44
232.072	118.44
232.306	105.44
232.541	84.44
232.775	109.44
233.009	104.44
233.243	117.44
233.477	124.44
233.711	116.44
233.945	117.44
234.179	105.44
234.413	98.44
234.647	103.44
234.881	110.44
235.115	101.44
235.349	100.44
235.583	107.44
235.817	99.44
236.051	95.44
236.285	99.44
236.519	98.44
236.753	111.44
236.987	124.44
237.221	134.44
237.455	161.44
237.689	137.44
237.922	114.44
238.156	111.44
238.39	114.44
238.624	121.44
238.858	124.44
239.091	110.44
239.325	98.44
239.559	108.44
239.793	95.44
240.027	104.44
240.26	126.44
240.494	121.44
240.728	124.44
240.961	124.44
241.195	122.44
241.429	117.44
241.662	120.44
241.896	120.44
242.13	109.44
242.363	115.44
242.597	120.44
242.83	113.44
243.064	128.44
243.298	126.44
243.531	118.44
243.765	117.44
243.998	131.44
244.232	123.44
244.465	128.44
244.699	122.44
244.932	140.44
245.166	135.44
245.399	122.44
245.633	117.44
245.866	144.44
246.099	120.44
246.333	142.44
246.566	132.44
246.8	137.44
247.033	130.44
247.266	132.44
247.5	135.44
247.733	138.44
247.966	131.44
248.2	152.44
248.433	143.44
248.666	146.44
248.899	154.44
249.133	155.44
249.366	152.44
249.599	156.44
249.832	160.44
250.066	145.44
250.299	157.44
250.532	152.44
250.765	159.44
250.998	185.44
251.231	188.44
251.465	158.44
251.698	157.44
251.931	149.44
252.164	155.44
252.397	153.44
252.63	158.44
252.863	159.44
253.096	184.44
253.329	161.44
253.562	168.44
253.795	161.44
254.028	178.44
254.261	172.44
254.494	180.44
254.727	194.44
254.96	203.44
255.193	205.44
255.426	172.44
255.659	170.44
255.892	178.44
256.124	176.44
256.357	203.44
256.59	197.44
256.823	170.44
257.056	183.44
257.289	180.44
257.521	176.44
257.754	160.44
257.987	175.44
258.22	181.44
258.452	152.44
258.685	173.44
258.918	184.44
259.151	178.44
259.383	168.44
259.616	178.44
259.849	172.44
260.081	182.44
260.314	217.44
260.547	192.44
260.779	191.44
261.012	178.44
261.244	167.44
261.477	181.44
261.71	184.44
261.942	172.44
262.175	176.44
262.407	183.44
262.64	200.44
262.872	185.44
263.105	178.44
263.337	169.44
263.57	170.44
263.802	177.44
264.035	201.44
264.267	178.44
264.499	186.44
264.732	160.44
264.964	185.44
265.197	184.44
265.429	186.44
265.661	186.44
265.894	180.44
266.126	184.44
266.358	186.44
266.591	181.44
266.823	203.44
267.055	189.44
267.287	195.44
267.52	179.44
267.752	182.44
267.984	197.44
268.216	201.44
268.448	186.44
268.681	197.44
268.913	189.44
269.145	210.44
269.377	211.44
269.609	208.44
269.841	216.44
270.073	210.44
270.306	234.44
270.538	255.44
270.77	265.44
271.002	262.44
271.234	218.44
271.466	229.44
271.698	245.44
271.93	228.44
272.162	236.44
272.394	234.44
272.626	247.44
272.858	223.44
273.09	207.44
273.322	232.44
273.553	218.44
273.785	204.44
274.017	196.44
274.249	215.44
274.481	195.44
274.713	224.44
274.945	224.44
275.176	203.44
275.408	210.44
275.64	222.44
275.872	209.44
276.104	210.44
276.335	221.44
276.567	232.44
276.799	222.44
277.031	253.44
277.262	239.44
277.494	260.44
277.726	236.44
277.957	230.44
278.189	226.44
278.421	207.44
278.652	221.44
278.884	236.44
279.115	213.44
279.347	228.44
279.579	235.44
279.81	194.44
280.042	219.44
280.273	242.44
280.505	226.44
280.736	216.44
280.968	231.44
281.199	210.44
281.431	211.44
281.662	224.44
281.894	220.44
282.125	215.44
282.356	225.44
282.588	236.44
282.819	245.44
283.051	231.44
283.282	210.44
283.513	243.44
283.745	242.44
283.976	243.44
284.207	246.44
284.439	255.44
284.67	245.44
284.901	228.44
285.132	246.44
285.364	232.44
285.595	233.44
285.826	232.44
286.057	242.44
286.288	234.44
286.52	244.44
286.751	250.44
286.982	248.44
287.213	241.44
287.444	241.44
287.675	235.44
287.906	240.44
288.138	254.44
288.369	262.44
288.6	251.44
288.831	247.44
289.062	252.44
289.293	246.44
289.524	247.44
289.755	246.44
289.986	260.44
290.217	221.44
290.448	260.44
290.679	251.44
290.91	241.44
291.141	246.44
291.371	248.44
291.602	257.44
291.833	259.44
292.064	253.44
292.295	254.44
292.526	254.44
292.757	238.44
292.987	250.44
293.218	252.44
293.449	259.44
293.68	256.44
293.91	261.44
294.141	253.44
294.372	260.44
294.603	249.44
294.833	261.44
295.064	267.44
295.295	265.44
295.525	245.44
295.756	233.44
295.987	253.44
296.217	262.44
296.448	267.44
296.679	249.44
296.909	256.44
297.14	253.44
297.37	260.44
297.601	262.44
297.831	280.44
298.062	242.44
298.292	274.44
298.523	274.44
298.753	283.44
298.984	277.44
299.214	258.44
299.445	260.44
299.675	281.44
299.905	276.44
300.136	269.44
300.366	264.44
300.597	254.44
300.827	288.44
301.057	269.44
301.288	297.44
301.518	284.44
301.748	282.44
301.979	282.44
302.209	283.44
302.439	278.44
302.669	281.44
302.9	275.44
303.13	293.44
303.36	280.44
303.59	270.44
303.82	266.44
304.051	296.44
304.281	273.44
304.511	280.44
304.741	293.44
304.971	265.44
305.201	288.44
305.431	274.44
305.661	269.44
305.891	281.44
306.121	276.44
306.352	289.44
306.582	279.44
306.812	285.44
307.042	302.44
307.272	288.44
307.502	263.44
307.731	279.44
307.961	270.44
308.191	271.44
308.421	277.44
308.651	292.44
308.881	287.44
309.111	281.44
309.341	291.44
309.571	293.44
309.8	302.44
310.03	279.44
310.26	303.44
310.49	299.44
310.72	282.44
310.949	312.44
311.179	326.44
311.409	312.44
311.639	320.44
311.868	291.44
312.098	318.44
312.328	314.44
312.557	324.44
312.787	321.44
313.017	305.44
313.246	308.44
313.476	308.44
313.706	314.44
313.935	315.44
314.165	315.44
314.394	320.44
314.624	316.44
314.853	307.44
315.083	298.44
315.312	297.44
315.542	313.44
315.771	316.44
316.001	317.44
316.23	299.44
316.46	310.44
316.689	306.44
316.919	320.44
317.148	295.44
317.377	292.44
317.607	312.44
317.836	323.44
318.065	308.44
318.295	291.44
318.524	314.44
318.753	293.44
318.983	309.44
319.212	279.44
319.441	308.44
319.67	314.44
319.9	322.44
320.129	329.44
320.358	323.44
320.587	304.44
320.816	324.44
321.046	315.44
321.275	333.44
321.504	316.44
321.733	316.44
321.962	321.44
322.191	318.44
322.42	311.44
322.649	325.44
322.878	335.44
323.108	368.44
323.337	353.44
323.566	344.44
323.795	358.44
324.024	393.44
324.253	418.44
324.482	576.44
324.71	787.44
324.939	1034.44
325.168	882.44
325.397	506.44
325.626	409.44
325.855	347.44
326.084	354.44
326.313	365.44
326.542	363.44
326.77	383.44
326.999	445.44
327.228	529.44
327.457	726.44
327.686	805.44
327.914	582.44
328.143	441.44
328.372	421.44
328.6	392.44
328.829	364.44
329.058	399.44
329.287	408.44
329.515	387.44
329.744	380.44
329.972	369.44
330.201	372.44
330.43	413.44
330.658	406.44
330.887	411.44
331.115	419.44
331.344	378.44
331.572	386.44
331.801	363.44
332.03	368.44
332.258	370.44
332.486	368.44
332.715	362.44
332.943	365.44
333.172	378.44
333.4	390.44
333.629	407.44
333.857	405.44
334.085	412.44
334.314	406.44
334.542	447.44
334.771	448.44
334.999	393.44
335.227	371.44
335.455	396.44
335.684	377.44
335.912	364.44
336.14	356.44
336.369	360.44
336.597	373.44
336.825	372.44
337.053	367.44
337.281	364.44
337.51	368.44
337.738	365.44
337.966	348.44
338.194	365.44
338.422	369.44
338.65	355.44
338.878	340.44
339.106	342.44
339.334	352.44
339.562	346.44
339.79	334.44
340.018	332.44
340.246	359.44
340.474	342.44
340.702	351.44
340.93	339.44
341.158	348.44
341.386	352.44
341.614	334.44
341.842	359.44
342.07	321.44
342.298	327.44
342.526	329.44
342.754	331.44
342.981	349.44
343.209	332.44
343.437	364.44
343.665	362.44
343.893	385.44
344.12	371.44
344.348	363.44
344.576	356.44
344.804	341.44
345.031	349.44
345.259	342.44
345.487	338.44
345.714	341.44
345.942	335.44
346.17	346.44
346.397	334.44
346.625	316.44
346.853	318.44
347.08	311.44
347.308	319.44
347.535	333.44
347.763	318.44
347.99	325.44
348.218	324.44
348.445	343.44
348.673	335.44
348.9	338.44
349.128	331.44
349.355	336.44
349.583	289.44
349.81	316.44
350.037	330.44
350.265	320.44
350.492	316.44
350.72	314.44
350.947	327.44
351.174	321.44
351.402	320.44
351.629	338.44
351.856	311.44
352.083	344.44
352.311	350.44
352.538	340.44
352.765	349.44
352.992	352.44
353.22	321.44
353.447	312.44
353.674	308.44
353.901	321.44
354.128	304.44
354.355	322.44
354.583	321.44
354.81	305.44
355.037	306.44
355.264	316.44
355.491	309.44
355.718	305.44
355.945	314.44
356.172	301.44
356.399	311.44
356.626	323.44
356.853	316.44
357.08	291.44
357.307	312.44
357.534	332.44
357.761	314.44
357.988	310.44
358.215	301.44
358.441	306.44
358.668	310.44
358.895	318.44
359.122	320.44
359.349	321.44
359.576	312.44
359.802	325.44
360.029	348.44
360.256	341.44
360.483	330.44
360.709	312.44
360.936	333.44
361.163	325.44
361.39	324.44
361.616	333.44
361.843	346.44
362.07	312.44
362.296	311.44
362.523	305.44
362.749	320.44
362.976	321.44
363.203	326.44
363.429	311.44
363.656	315.44
363.882	320.44
364.109	290.44
364.335	309.44
364.562	315.44
364.788	306.44
365.015	308.44
365.241	310.44
365.468	311.44
365.694	308.44
365.92	318.44
366.147	320.44
366.373	310.44
366.599	315.44
366.826	313.44
367.052	301.44
367.278	321.44
367.505	334.44
367.731	314.44
367.957	323.44
368.184	306.44
368.41	317.44
368.636	325.44
368.862	320.44
369.089	309.44
369.315	309.44
369.541	322.44
369.767	318.44
369.993	301.44
370.219	322.44
370.445	313.44
370.672	309.44
370.898	306.44
371.124	316.44
371.35	318.44
371.576	322.44
371.802	335.44
372.028	321.44
372.254	326.44
372.48	332.44
372.706	324.44
372.932	337.44
373.158	323.44
373.384	317.44
373.61	333.44
373.835	342.44
374.061	309.44
374.287	314.44
374.513	330.44
374.739	350.44
374.965	341.44
375.191	356.44
375.416	332.44
375.642	344.44
375.868	343.44
376.094	332.44
376.319	328.44
376.545	314.44
376.771	321.44
376.997	344.44
377.222	334.44
377.448	332.44
377.674	325.44
377.899	318.44
378.125	318.44
378.35	309.44
378.576	322.44
378.802	326.44
379.027	333.44
379.253	312.44
379.478	330.44
379.704	317.44
379.929	321.44
380.155	318.44
380.38	320.44
380.606	333.44
380.831	316.44
381.057	335.44
381.282	339.44
381.507	331.44
381.733	327.44
381.958	332.44
382.184	338.44
382.409	331.44
382.634	326.44
382.86	308.44
383.085	340.44
383.31	322.44
383.535	332.44
383.761	352.44
383.986	351.44
384.211	348.44
384.436	363.44
384.662	355.44
384.887	350.44
385.112	355.44
385.337	353.44
385.562	358.44
385.787	361.44
386.013	363.44
386.238	363.44
386.463	370.44
386.688	360.44
386.913	379.44
387.138	364.44
387.363	359.44
387.588	358.44
387.813	378.44
388.038	358.44
388.263	325.44
388.488	365.44
388.713	364.44
388.938	337.44
389.163	370.44
389.387	350.44
389.612	356.44
389.837	357.44
390.062	374.44
390.287	351.44
390.512	355.44
390.736	357.44
390.961	375.44
391.186	378.44
391.411	382.44
391.636	391.44
391.86	381.44
392.085	363.44
392.31	372.44
392.534	368.44
392.759	381.44
392.984	373.44
393.208	356.44
393.433	374.44
393.658	370.44
393.882	357.44
394.107	358.44
394.331	363.44
394.556	364.44
394.78	374.44
395.005	384.44
395.229	380.44
395.454	355.44
395.678	388.44
395.903	358.44
396.127	374.44
396.352	395.44
396.576	370.44
396.801	356.44
397.025	389.44
397.249	376.44
397.474	379.44
397.698	372.44
397.922	397.44
398.147	404.44
398.371	417.44
398.595	410.44
398.82	409.44
399.044	397.44
399.268	455.44
399.492	506.44
399.717	518.44
399.941	530.44
400.165	537.44
400.389	502.44
400.613	471.44
400.837	440.44
401.062	429.44
401.286	429.44
401.51	419.44
401.734	424.44
401.958	409.44
402.182	426.44
402.406	441.44
402.63	456.44
402.854	424.44
403.078	441.44
403.302	439.44
403.526	443.44
403.75	441.44
403.974	445.44
404.198	434.44
404.422	474.44
404.645	473.44
404.869	442.44
405.093	472.44
405.317	469.44
405.541	486.44
405.765	474.44
405.988	477.44
406.212	465.44
406.436	477.44
406.66	462.44
406.883	482.44
407.107	497.44
407.331	502.44
407.555	554.44
407.778	550.44
408.002	523.44
408.226	477.44
408.449	482.44
408.673	483.44
408.896	478.44
409.12	498.44
409.344	485.44
409.567	448.44
409.791	437.44
410.014	441.44
410.238	427.44
410.461	441.44
410.685	441.44
410.908	420.44
411.132	448.44
411.355	457.44
411.578	465.44
411.802	430.44
412.025	437.44
412.249	440.44
412.472	453.44
412.695	446.44
412.919	440.44
413.142	443.44
413.365	423.44
413.589	416.44
413.812	414.44
414.035	410.44
414.258	391.44
414.482	416.44
414.705	424.44
414.928	417.44
415.151	417.44
415.374	411.44
415.597	424.44
415.821	399.44
416.044	397.44
416.267	393.44
416.49	410.44
416.713	410.44
416.936	395.44
417.159	408.44
417.382	424.44
417.605	408.44
417.828	413.44
418.051	416.44
418.274	406.44
418.497	406.44
418.72	431.44
418.943	398.44
419.166	436.44
419.389	444.44
419.611	446.44
419.834	441.44
420.057	439.44
420.28	430.44
420.503	413.44
420.726	423.44
420.948	429.44
421.171	440.44
421.394	457.44
421.617	413.44
421.839	428.44
422.062	431.44
422.285	438.44
422.507	455.44
422.73	480.44
422.953	473.44
423.175	440.44
423.398	432.44
423.621	452.44
423.843	457.44
424.066	455.44
424.288	439.44
424.511	460.44
424.733	482.44
424.956	512.44
425.178	530.44
425.401	505.44
425.623	493.44
425.846	445.44
426.068	439.44
426.291	422.44
426.513	434.44
426.735	448.44
426.958	453.44
427.18	486.44
427.402	541.44
427.625	588.44
427.847	500.44
428.069	461.44
428.292	428.44
428.514	410.44
428.736	392.44
428.958	369.44
429.181	405.44
429.403	393.44
429.625	385.44
429.847	427.44
430.069	432.44
430.292	426.44
430.514	398.44
430.736	395.44
430.958	420.44
431.18	376.44
431.402	375.44
431.624	378.44
431.846	382.44
432.068	363.44
432.29	397.44
432.512	390.44
432.734	406.44
432.956	390.44
433.178	387.44
433.4	397.44
433.622	395.44
433.844	391.44
434.066	385.44
434.287	387.44
434.509	398.44
434.731	410.44
434.953	418.44
435.175	429.44
435.397	434.44
435.618	417.44
435.84	456.44
436.062	475.44
436.284	530.44
436.505	443.44
436.727	402.44
436.949	411.44
437.17	404.44
437.392	403.44
437.614	389.44
437.835	412.44
438.057	445.44
438.278	500.44
438.5	488.44
438.721	536.44
438.943	503.44
439.165	444.44
439.386	421.44
439.608	413.44
439.829	409.44
440.05	416.44
440.272	458.44
440.493	440.44
440.715	422.44
440.936	408.44
441.158	406.44
441.379	386.44
441.6	433.44
441.822	434.44
442.043	462.44
442.264	492.44
442.486	505.44
442.707	472.44
442.928	437.44
443.149	410.44
443.371	461.44
443.592	484.44
443.813	543.44
444.034	543.44
444.255	475.44
444.476	448.44
444.698	456.44
444.919	453.44
445.14	570.44
445.361	514.44
445.582	474.44
445.803	484.44
446.024	540.44
446.245	538.44
446.466	473.44
446.687	423.44
446.908	439.44
447.129	405.44
447.35	407.44
447.571	408.44
447.792	378.44
448.013	393.44
448.234	413.44
448.455	429.44
448.675	457.44
448.896	533.44
449.117	458.44
449.338	448.44
449.559	492.44
449.779	542.44
450	471.44
450.221	410.44
450.442	388.44
450.662	378.44
450.883	378.44
451.104	389.44
451.324	379.44
451.545	353.44
451.766	362.44
451.986	349.44
452.207	350.44
452.428	352.44
452.648	370.44
452.869	352.44
453.089	370.44
453.31	353.44
453.53	347.44
453.751	356.44
453.971	357.44
454.192	371.44
454.412	386.44
454.633	355.44
454.853	343.44
455.073	340.44
455.294	369.44
455.514	406.44
455.734	391.44
455.955	340.44
456.175	332.44
456.395	331.44
456.616	344.44
456.836	360.44
457.056	339.44
457.276	339.44
457.497	327.44
457.717	345.44
457.937	340.44
458.157	349.44
458.377	337.44
458.598	355.44
458.818	396.44
459.038	441.44
459.258	454.44
459.478	422.44
459.698	375.44
459.918	380.44
460.138	395.44
460.358	404.44
460.578	416.44
460.798	423.44
461.018	418.44
461.238	413.44
461.458	390.44
461.678	413.44
461.898	416.44
462.118	412.44
462.338	421.44
462.558	444.44
462.777	430.44
462.997	504.44
463.217	517.44
463.437	480.44
463.657	464.44
463.876	470.44
464.096	450.44
464.316	459.44
464.536	470.44
464.755	446.44
464.975	458.44
465.195	473.44
465.414	472.44
465.634	435.44
465.854	393.44
466.073	398.44
466.293	377.44
466.512	370.44
466.732	394.44
466.951	381.44
467.171	372.44
467.391	380.44
467.61	382.44
467.829	385.44
468.049	381.44
468.268	365.44
468.488	352.44
468.707	364.44
468.927	381.44
469.146	357.44
469.365	378.44
469.585	354.44
469.804	380.44
470.023	394.44
470.243	368.44
470.462	385.44
470.681	402.44
470.901	389.44
471.12	372.44
471.339	371.44
471.558	416.44
471.777	400.44
471.997	367.44
472.216	376.44
472.435	391.44
472.654	355.44
472.873	357.44
473.092	373.44
473.311	377.44
473.53	387.44
473.749	370.44
473.968	405.44
474.187	428.44
474.406	428.44
474.625	369.44
474.844	377.44
475.063	369.44
475.282	377.44
475.501	366.44
475.72	384.44
475.939	372.44
476.158	363.44
476.377	384.44
476.596	395.44
476.814	368.44
477.033	388.44
477.252	378.44
477.471	402.44
477.69	388.44
477.908	397.44
478.127	422.44
478.346	405.44
478.564	438.44
478.783	426.44
479.002	437.44
479.22	439.44
479.439	452.44
479.658	424.44
479.876	448.44
480.095	452.44
480.313	471.44
480.532	462.44
480.751	473.44
480.969	457.44
481.188	486.44
481.406	503.44
481.624	456.44
481.843	426.44
482.061	436.44
482.28	436.44
482.498	429.44
482.717	409.44
482.935	424.44
483.153	434.44
483.372	434.44
483.59	405.44
483.808	417.44
484.027	404.44
484.245	422.44
484.463	422.44
484.681	441.44
484.9	426.44
485.118	448.44
485.336	424.44
485.554	417.44
485.772	453.44
485.99	436.44
486.209	443.44
486.427	446.44
486.645	454.44
486.863	462.44
487.081	455.44
487.299	444.44
487.517	437.44
487.735	450.44
487.953	457.44
488.171	473.44
488.389	452.44
488.607	448.44
488.825	452.44
489.043	462.44
489.261	458.44
489.479	473.44
489.696	445.44
489.914	470.44
490.132	460.44
490.35	446.44
490.568	468.44
490.786	492.44
491.003	462.44
491.221	480.44
491.439	518.44
491.657	484.44
491.874	486.44
492.092	521.44
492.31	491.44
492.527	539.44
492.745	515.44
492.963	535.44
493.18	516.44
493.398	520.44
493.615	534.44
493.833	520.44
494.05	535.44
494.268	533.44
494.485	521.44
494.703	524.44
494.92	542.44
495.138	514.44
495.355	537.44
495.573	527.44
495.79	522.44
496.008	518.44
496.225	513.44
496.442	531.44
496.66	540.44
496.877	534.44
497.094	539.44
497.312	566.44
497.529	574.44
497.746	574.44
497.963	588.44
498.181	570.44
498.398	586.44
498.615	610.44
498.832	647.44
499.049	648.44
499.267	689.44
499.484	739.44
499.701	760.44
499.918	799.44
500.135	858.44
500.352	931.44
500.569	936.44
500.786	948.44
501.003	908.44
501.22	851.44
501.437	813.44
501.654	780.44
501.871	733.44
502.088	682.44
502.305	644.44
