Data from 1969.PennyLincolnUp.Lamp.En5.5.200Scan.071719.P1._HRD10591_14-54-39-972.txt Node
Date: Thu Jul 18 14:54:39 EDT 2019
User: cochatt
Spectrometer: HR+D1059
Trigger mode: 1
Integration Time (sec): 1.000000E-1
Scans to average: 1
Electric dark correction enabled: true
Nonlinearity correction enabled: false
Boxcar width: 0
XAxis mode: Wavelengths
Number of Pixels in Spectrum: 2048
>>>>>Begin Spectral Data<<<<<
223.165	-20.19
223.4	-20.19
223.635	-20.19
223.869	-6.19
224.104	-16.19
224.338	-19.19
224.573	-16.19
224.808	-22.19
225.042	3.81
225.277	-10.19
225.511	-8.19
225.746	15.81
225.98	5.81
226.215	9.81
226.449	16.81
226.683	21.81
226.918	14.81
227.152	29.81
227.387	35.81
227.621	26.81
227.856	40.81
228.09	47.81
228.324	56.81
228.559	50.81
228.793	62.81
229.027	80.81
229.262	74.81
229.496	80.81
229.73	91.81
229.964	120.81
230.199	87.81
230.433	88.81
230.667	99.81
230.901	97.81
231.136	98.81
231.37	95.81
231.604	86.81
231.838	89.81
232.072	109.81
232.306	95.81
232.541	101.81
232.775	106.81
233.009	99.81
233.243	105.81
233.477	111.81
233.711	100.81
233.945	115.81
234.179	123.81
234.413	108.81
234.647	96.81
234.881	95.81
235.115	104.81
235.349	111.81
235.583	91.81
235.817	99.81
236.051	109.81
236.285	115.81
236.519	98.81
236.753	112.81
236.987	111.81
237.221	148.81
237.455	155.81
237.689	124.81
237.922	109.81
238.156	99.81
238.39	117.81
238.624	109.81
238.858	115.81
239.091	93.81
239.325	119.81
239.559	123.81
239.793	114.81
240.027	118.81
240.26	120.81
240.494	127.81
240.728	120.81
240.961	118.81
241.195	125.81
241.429	122.81
241.662	120.81
241.896	108.81
242.13	112.81
242.363	115.81
242.597	127.81
242.83	130.81
243.064	124.81
243.298	116.81
243.531	120.81
243.765	121.81
243.998	123.81
244.232	122.81
244.465	124.81
244.699	124.81
244.932	104.81
245.166	129.81
245.399	112.81
245.633	139.81
245.866	136.81
246.099	143.81
246.333	129.81
246.566	130.81
246.8	141.81
247.033	133.81
247.266	133.81
247.5	129.81
247.733	124.81
247.966	134.81
248.2	138.81
248.433	133.81
248.666	151.81
248.899	159.81
249.133	167.81
249.366	158.81
249.599	139.81
249.832	154.81
250.066	140.81
250.299	153.81
250.532	153.81
250.765	184.81
250.998	180.81
251.231	183.81
251.465	163.81
251.698	167.81
251.931	149.81
252.164	160.81
252.397	127.81
252.63	163.81
252.863	170.81
253.096	169.81
253.329	183.81
253.562	169.81
253.795	177.81
254.028	163.81
254.261	168.81
254.494	177.81
254.727	191.81
254.96	205.81
255.193	175.81
255.426	185.81
255.659	175.81
255.892	178.81
256.124	176.81
256.357	201.81
256.59	169.81
256.823	156.81
257.056	164.81
257.289	159.81
257.521	178.81
257.754	169.81
257.987	173.81
258.22	184.81
258.452	163.81
258.685	167.81
258.918	161.81
259.151	166.81
259.383	172.81
259.616	203.81
259.849	187.81
260.081	198.81
260.314	189.81
260.547	201.81
260.779	181.81
261.012	193.81
261.244	185.81
261.477	193.81
261.71	185.81
261.942	180.81
262.175	180.81
262.407	176.81
262.64	160.81
262.872	184.81
263.105	178.81
263.337	166.81
263.57	167.81
263.802	177.81
264.035	171.81
264.267	165.81
264.499	164.81
264.732	197.81
264.964	178.81
265.197	176.81
265.429	182.81
265.661	187.81
265.894	172.81
266.126	192.81
266.358	173.81
266.591	183.81
266.823	186.81
267.055	171.81
267.287	199.81
267.52	182.81
267.752	195.81
267.984	184.81
268.216	186.81
268.448	192.81
268.681	214.81
268.913	199.81
269.145	200.81
269.377	221.81
269.609	211.81
269.841	207.81
270.073	225.81
270.306	232.81
270.538	239.81
270.77	223.81
271.002	230.81
271.234	220.81
271.466	239.81
271.698	221.81
271.93	230.81
272.162	235.81
272.394	232.81
272.626	220.81
272.858	224.81
273.09	209.81
273.322	206.81
273.553	205.81
273.785	219.81
274.017	204.81
274.249	197.81
274.481	216.81
274.713	235.81
274.945	226.81
275.176	205.81
275.408	216.81
275.64	228.81
275.872	193.81
276.104	200.81
276.335	205.81
276.567	220.81
276.799	227.81
277.031	235.81
277.262	259.81
277.494	231.81
277.726	239.81
277.957	229.81
278.189	207.81
278.421	209.81
278.652	229.81
278.884	227.81
279.115	224.81
279.347	239.81
279.579	209.81
279.81	215.81
280.042	226.81
280.273	230.81
280.505	227.81
280.736	227.81
280.968	204.81
281.199	234.81
281.431	228.81
281.662	240.81
281.894	217.81
282.125	236.81
282.356	230.81
282.588	243.81
282.819	252.81
283.051	241.81
283.282	225.81
283.513	231.81
283.745	248.81
283.976	234.81
284.207	231.81
284.439	268.81
284.67	239.81
284.901	243.81
285.132	243.81
285.364	229.81
285.595	237.81
285.826	224.81
286.057	258.81
286.288	239.81
286.52	235.81
286.751	235.81
286.982	235.81
287.213	246.81
287.444	239.81
287.675	243.81
287.906	244.81
288.138	241.81
288.369	247.81
288.6	242.81
288.831	244.81
289.062	257.81
289.293	255.81
289.524	259.81
289.755	232.81
289.986	244.81
290.217	241.81
290.448	253.81
290.679	240.81
290.91	228.81
291.141	239.81
291.371	246.81
291.602	249.81
291.833	244.81
292.064	256.81
292.295	253.81
292.526	253.81
292.757	242.81
292.987	257.81
293.218	262.81
293.449	249.81
293.68	245.81
293.91	238.81
294.141	255.81
294.372	248.81
294.603	260.81
294.833	255.81
295.064	232.81
295.295	245.81
295.525	265.81
295.756	245.81
295.987	267.81
296.217	265.81
296.448	270.81
296.679	266.81
296.909	247.81
297.14	242.81
297.37	258.81
297.601	256.81
297.831	265.81
298.062	260.81
298.292	248.81
298.523	253.81
298.753	277.81
298.984	264.81
299.214	273.81
299.445	245.81
299.675	274.81
299.905	248.81
300.136	266.81
300.366	261.81
300.597	272.81
300.827	284.81
301.057	266.81
301.288	267.81
301.518	294.81
301.748	282.81
301.979	279.81
302.209	282.81
302.439	282.81
302.669	310.81
302.9	284.81
303.13	278.81
303.36	278.81
303.59	282.81
303.82	281.81
304.051	292.81
304.281	280.81
304.511	283.81
304.741	275.81
304.971	276.81
305.201	277.81
305.431	273.81
305.661	282.81
305.891	271.81
306.121	269.81
306.352	270.81
306.582	279.81
306.812	277.81
307.042	282.81
307.272	279.81
307.502	275.81
307.731	303.81
307.961	269.81
308.191	261.81
308.421	262.81
308.651	279.81
308.881	294.81
309.111	257.81
309.341	272.81
309.571	284.81
309.8	289.81
310.03	282.81
310.26	291.81
310.49	293.81
310.72	313.81
310.949	306.81
311.179	305.81
311.409	298.81
311.639	287.81
311.868	309.81
312.098	308.81
312.328	306.81
312.557	316.81
312.787	321.81
313.017	332.81
313.246	323.81
313.476	304.81
313.706	312.81
313.935	306.81
314.165	313.81
314.394	310.81
314.624	311.81
314.853	319.81
315.083	317.81
315.312	320.81
315.542	296.81
315.771	310.81
316.001	305.81
316.23	285.81
316.46	306.81
316.689	317.81
316.919	327.81
317.148	308.81
317.377	326.81
317.607	307.81
317.836	335.81
318.065	301.81
318.295	305.81
318.524	310.81
318.753	305.81
318.983	285.81
319.212	300.81
319.441	307.81
319.67	332.81
319.9	321.81
320.129	279.81
320.358	315.81
320.587	312.81
320.816	299.81
321.046	311.81
321.275	323.81
321.504	320.81
321.733	310.81
321.962	305.81
322.191	315.81
322.42	329.81
322.649	328.81
322.878	328.81
323.108	331.81
323.337	327.81
323.566	343.81
323.795	357.81
324.024	374.81
324.253	449.81
324.482	568.81
324.71	804.81
324.939	1075.81
325.168	879.81
325.397	505.81
325.626	415.81
325.855	383.81
326.084	371.81
326.313	370.81
326.542	366.81
326.77	384.81
326.999	420.81
327.228	533.81
327.457	737.81
327.686	806.81
327.914	586.81
328.143	438.81
328.372	421.81
328.6	391.81
328.829	397.81
329.058	392.81
329.287	407.81
329.515	384.81
329.744	385.81
329.972	381.81
330.201	380.81
330.43	383.81
330.658	393.81
330.887	405.81
331.115	409.81
331.344	380.81
331.572	382.81
331.801	377.81
332.03	389.81
332.258	383.81
332.486	367.81
332.715	376.81
332.943	363.81
333.172	379.81
333.4	373.81
333.629	413.81
333.857	398.81
334.085	413.81
334.314	433.81
334.542	443.81
334.771	463.81
334.999	397.81
335.227	385.81
335.455	385.81
335.684	374.81
335.912	377.81
336.14	365.81
336.369	367.81
336.597	377.81
336.825	368.81
337.053	357.81
337.281	359.81
337.51	350.81
337.738	354.81
337.966	360.81
338.194	361.81
338.422	368.81
338.65	350.81
338.878	344.81
339.106	343.81
339.334	360.81
339.562	356.81
339.79	346.81
340.018	347.81
340.246	336.81
340.474	359.81
340.702	352.81
340.93	356.81
341.158	332.81
341.386	327.81
341.614	346.81
341.842	337.81
342.07	332.81
342.298	361.81
342.526	341.81
342.754	344.81
342.981	340.81
343.209	334.81
343.437	337.81
343.665	349.81
343.893	376.81
344.12	379.81
344.348	377.81
344.576	360.81
344.804	336.81
345.031	346.81
345.259	336.81
345.487	339.81
345.714	340.81
345.942	334.81
346.17	348.81
346.397	333.81
346.625	343.81
346.853	335.81
347.08	339.81
347.308	342.81
347.535	350.81
347.763	320.81
347.99	329.81
348.218	326.81
348.445	324.81
348.673	352.81
348.9	327.81
349.128	340.81
349.355	332.81
349.583	311.81
349.81	327.81
350.037	344.81
350.265	333.81
350.492	319.81
350.72	325.81
350.947	324.81
351.174	333.81
351.402	331.81
351.629	333.81
351.856	319.81
352.083	336.81
352.311	325.81
352.538	323.81
352.765	312.81
352.992	325.81
353.22	337.81
353.447	324.81
353.674	314.81
353.901	308.81
354.128	306.81
354.355	304.81
354.583	301.81
354.81	318.81
355.037	313.81
355.264	314.81
355.491	297.81
355.718	311.81
355.945	323.81
356.172	328.81
356.399	313.81
356.626	320.81
356.853	323.81
357.08	331.81
357.307	306.81
357.534	291.81
357.761	307.81
357.988	315.81
358.215	301.81
358.441	318.81
358.668	300.81
358.895	308.81
359.122	308.81
359.349	309.81
359.576	310.81
359.802	329.81
360.029	342.81
360.256	361.81
360.483	336.81
360.709	331.81
360.936	342.81
361.163	327.81
361.39	315.81
361.616	313.81
361.843	307.81
362.07	324.81
362.296	328.81
362.523	330.81
362.749	295.81
362.976	328.81
363.203	315.81
363.429	336.81
363.656	320.81
363.882	316.81
364.109	305.81
364.335	307.81
364.562	304.81
364.788	316.81
365.015	304.81
365.241	328.81
365.468	320.81
365.694	309.81
365.92	319.81
366.147	314.81
366.373	325.81
366.599	310.81
366.826	310.81
367.052	312.81
367.278	307.81
367.505	319.81
367.731	297.81
367.957	292.81
368.184	311.81
368.41	323.81
368.636	321.81
368.862	330.81
369.089	325.81
369.315	303.81
369.541	313.81
369.767	317.81
369.993	326.81
370.219	323.81
370.445	335.81
370.672	318.81
370.898	317.81
371.124	304.81
371.35	331.81
371.576	309.81
371.802	325.81
372.028	319.81
372.254	313.81
372.48	324.81
372.706	320.81
372.932	320.81
373.158	332.81
373.384	332.81
373.61	326.81
373.835	320.81
374.061	314.81
374.287	312.81
374.513	352.81
374.739	334.81
374.965	330.81
375.191	348.81
375.416	352.81
375.642	333.81
375.868	319.81
376.094	334.81
376.319	340.81
376.545	310.81
376.771	324.81
376.997	321.81
377.222	330.81
377.448	321.81
377.674	316.81
377.899	331.81
378.125	325.81
378.35	318.81
378.576	325.81
378.802	316.81
379.027	319.81
379.253	317.81
379.478	306.81
379.704	328.81
379.929	319.81
380.155	324.81
380.38	305.81
380.606	323.81
380.831	307.81
381.057	313.81
381.282	321.81
381.507	323.81
381.733	315.81
381.958	324.81
382.184	319.81
382.409	324.81
382.634	341.81
382.86	320.81
383.085	333.81
383.31	374.81
383.535	334.81
383.761	339.81
383.986	351.81
384.211	338.81
384.436	351.81
384.662	371.81
384.887	357.81
385.112	361.81
385.337	347.81
385.562	353.81
385.787	361.81
386.013	361.81
386.238	370.81
386.463	371.81
386.688	368.81
386.913	343.81
387.138	349.81
387.363	344.81
387.588	327.81
387.813	355.81
388.038	370.81
388.263	360.81
388.488	371.81
388.713	361.81
388.938	364.81
389.163	362.81
389.387	347.81
389.612	359.81
389.837	366.81
390.062	348.81
390.287	335.81
390.512	346.81
390.736	345.81
390.961	356.81
391.186	370.81
391.411	369.81
391.636	376.81
391.86	365.81
392.085	385.81
392.31	369.81
392.534	381.81
392.759	385.81
392.984	375.81
393.208	376.81
393.433	375.81
393.658	356.81
393.882	348.81
394.107	370.81
394.331	377.81
394.556	375.81
394.78	363.81
395.005	372.81
395.229	354.81
395.454	365.81
395.678	385.81
395.903	395.81
396.127	386.81
396.352	399.81
396.576	381.81
396.801	381.81
397.025	391.81
397.249	387.81
397.474	393.81
397.698	397.81
397.922	402.81
398.147	392.81
398.371	393.81
398.595	415.81
398.82	417.81
399.044	445.81
399.268	474.81
399.492	498.81
399.717	548.81
399.941	537.81
400.165	538.81
400.389	478.81
400.613	469.81
400.837	455.81
401.062	418.81
401.286	416.81
401.51	414.81
401.734	402.81
401.958	408.81
402.182	413.81
402.406	433.81
402.63	434.81
402.854	434.81
403.078	432.81
403.302	449.81
403.526	455.81
403.75	470.81
403.974	441.81
404.198	434.81
404.422	450.81
404.645	446.81
404.869	461.81
405.093	473.81
405.317	489.81
405.541	493.81
405.765	443.81
405.988	457.81
406.212	477.81
406.436	460.81
406.66	512.81
406.883	481.81
407.107	487.81
407.331	506.81
407.555	548.81
407.778	535.81
408.002	522.81
408.226	481.81
408.449	476.81
408.673	479.81
408.896	484.81
409.12	486.81
409.344	481.81
409.567	445.81
409.791	449.81
410.014	427.81
410.238	442.81
410.461	444.81
410.685	420.81
410.908	448.81
411.132	458.81
411.355	459.81
411.578	418.81
411.802	435.81
412.025	413.81
412.249	441.81
412.472	460.81
412.695	471.81
412.919	438.81
413.142	420.81
413.365	425.81
413.589	423.81
413.812	432.81
414.035	402.81
414.258	408.81
414.482	409.81
414.705	421.81
414.928	419.81
415.151	407.81
415.374	373.81
415.597	415.81
415.821	412.81
416.044	424.81
416.267	404.81
416.49	403.81
416.713	420.81
416.936	401.81
417.159	416.81
417.382	416.81
417.605	409.81
417.828	428.81
418.051	435.81
418.274	431.81
418.497	415.81
418.72	413.81
418.943	408.81
419.166	425.81
419.389	451.81
419.611	450.81
419.834	424.81
420.057	432.81
420.28	437.81
420.503	423.81
420.726	425.81
420.948	438.81
421.171	463.81
421.394	452.81
421.617	415.81
421.839	413.81
422.062	416.81
422.285	428.81
422.507	467.81
422.73	491.81
422.953	480.81
423.175	464.81
423.398	445.81
423.621	458.81
423.843	460.81
424.066	448.81
424.288	448.81
424.511	468.81
424.733	481.81
424.956	518.81
425.178	513.81
425.401	501.81
425.623	513.81
425.846	456.81
426.068	426.81
426.291	409.81
426.513	429.81
426.735	425.81
426.958	467.81
427.18	517.81
427.402	555.81
427.625	563.81
427.847	533.81
428.069	469.81
428.292	413.81
428.514	411.81
428.736	399.81
428.958	415.81
429.181	406.81
429.403	383.81
429.625	388.81
429.847	398.81
430.069	449.81
430.292	452.81
430.514	420.81
430.736	401.81
430.958	381.81
431.18	397.81
431.402	382.81
431.624	384.81
431.846	377.81
432.068	384.81
432.29	394.81
432.512	376.81
432.734	378.81
432.956	389.81
433.178	390.81
433.4	382.81
433.622	393.81
433.844	395.81
434.066	415.81
434.287	385.81
434.509	393.81
434.731	408.81
434.953	422.81
435.175	424.81
435.397	442.81
435.618	440.81
435.84	447.81
436.062	480.81
436.284	518.81
436.505	452.81
436.727	413.81
436.949	405.81
437.17	376.81
437.392	393.81
437.614	405.81
437.835	418.81
438.057	437.81
438.278	507.81
438.5	503.81
438.721	544.81
438.943	531.81
439.165	423.81
439.386	428.81
439.608	423.81
439.829	410.81
440.05	441.81
440.272	443.81
440.493	435.81
440.715	433.81
440.936	409.81
441.158	419.81
441.379	401.81
441.6	427.81
441.822	420.81
442.043	451.81
442.264	513.81
442.486	508.81
442.707	481.81
442.928	447.81
443.149	426.81
443.371	456.81
443.592	465.81
443.813	520.81
444.034	551.81
444.255	475.81
444.476	473.81
444.698	476.81
444.919	479.81
445.14	582.81
445.361	512.81
445.582	465.81
445.803	503.81
446.024	525.81
446.245	536.81
446.466	486.81
446.687	436.81
446.908	413.81
447.129	387.81
447.35	401.81
447.571	409.81
447.792	388.81
448.013	391.81
448.234	383.81
448.455	418.81
448.675	491.81
448.896	534.81
449.117	482.81
449.338	441.81
449.559	483.81
449.779	549.81
450	471.81
450.221	397.81
450.442	381.81
450.662	378.81
450.883	383.81
451.104	386.81
451.324	402.81
451.545	383.81
451.766	377.81
451.986	359.81
452.207	358.81
452.428	349.81
452.648	357.81
452.869	379.81
453.089	358.81
453.31	367.81
453.53	351.81
453.751	351.81
453.971	355.81
454.192	351.81
454.412	357.81
454.633	346.81
454.853	336.81
455.073	351.81
455.294	371.81
455.514	394.81
455.734	377.81
455.955	354.81
456.175	345.81
456.395	348.81
456.616	342.81
456.836	335.81
457.056	345.81
457.276	345.81
457.497	332.81
457.717	320.81
457.937	351.81
458.157	354.81
458.377	356.81
458.598	369.81
458.818	400.81
459.038	425.81
459.258	452.81
459.478	390.81
459.698	391.81
459.918	395.81
460.138	401.81
460.358	420.81
460.578	401.81
460.798	424.81
461.018	426.81
461.238	406.81
461.458	429.81
461.678	413.81
461.898	412.81
462.118	415.81
462.338	434.81
462.558	439.81
462.777	434.81
462.997	461.81
463.217	493.81
463.437	484.81
463.657	456.81
463.876	468.81
464.096	466.81
464.316	458.81
464.536	461.81
464.755	442.81
464.975	429.81
465.195	461.81
465.414	473.81
465.634	420.81
465.854	400.81
466.073	388.81
466.293	388.81
466.512	376.81
466.732	368.81
466.951	383.81
467.171	396.81
467.391	377.81
467.61	376.81
467.829	379.81
468.049	366.81
468.268	375.81
468.488	357.81
468.707	362.81
468.927	366.81
469.146	369.81
469.365	355.81
469.585	363.81
469.804	363.81
470.023	363.81
470.243	367.81
470.462	373.81
470.681	401.81
470.901	400.81
471.12	374.81
471.339	377.81
471.558	371.81
471.777	354.81
471.997	364.81
472.216	378.81
472.435	404.81
472.654	372.81
472.873	373.81
473.092	351.81
473.311	373.81
473.53	369.81
473.749	359.81
473.968	405.81
474.187	435.81
474.406	428.81
474.625	396.81
474.844	366.81
475.063	381.81
475.282	372.81
475.501	373.81
475.72	394.81
475.939	379.81
476.158	360.81
476.377	365.81
476.596	393.81
476.814	381.81
477.033	383.81
477.252	381.81
477.471	391.81
477.69	399.81
477.908	404.81
478.127	407.81
478.346	426.81
478.564	420.81
478.783	412.81
479.002	446.81
479.22	435.81
479.439	457.81
479.658	453.81
479.876	442.81
480.095	458.81
480.313	480.81
480.532	467.81
480.751	452.81
480.969	467.81
481.188	485.81
481.406	523.81
481.624	466.81
481.843	441.81
482.061	441.81
482.28	419.81
482.498	426.81
482.717	420.81
482.935	416.81
483.153	421.81
483.372	412.81
483.59	429.81
483.808	403.81
484.027	411.81
484.245	422.81
484.463	439.81
484.681	443.81
484.9	447.81
485.118	429.81
485.336	426.81
485.554	432.81
485.772	427.81
485.99	435.81
486.209	435.81
486.427	436.81
486.645	444.81
486.863	439.81
487.081	437.81
487.299	448.81
487.517	450.81
487.735	439.81
487.953	462.81
488.171	487.81
488.389	439.81
488.607	442.81
488.825	449.81
489.043	449.81
489.261	455.81
489.479	446.81
489.696	460.81
489.914	459.81
490.132	462.81
490.35	482.81
490.568	467.81
490.786	457.81
491.003	497.81
491.221	469.81
491.439	488.81
491.657	529.81
491.874	517.81
492.092	500.81
492.31	517.81
492.527	544.81
492.745	512.81
492.963	535.81
493.18	529.81
493.398	519.81
493.615	542.81
493.833	529.81
494.05	544.81
494.268	537.81
494.485	527.81
494.703	530.81
494.92	531.81
495.138	499.81
495.355	536.81
495.573	540.81
495.79	518.81
496.008	511.81
496.225	514.81
496.442	528.81
496.66	545.81
496.877	525.81
497.094	554.81
497.312	543.81
497.529	547.81
497.746	573.81
497.963	565.81
498.181	601.81
498.398	600.81
498.615	608.81
498.832	652.81
499.049	643.81
499.267	721.81
499.484	748.81
499.701	755.81
499.918	819.81
500.135	874.81
500.352	937.81
500.569	930.81
500.786	973.81
501.003	917.81
501.22	881.81
501.437	823.81
501.654	753.81
501.871	713.81
502.088	699.81
502.305	658.81
