Data from 1969.PennyLincolnUp.Lamp.En5.5.200Scan.071719.P1._HRD10591_14-56-25-973.txt Node
Date: Thu Jul 18 14:56:25 EDT 2019
User: cochatt
Spectrometer: HR+D1059
Trigger mode: 1
Integration Time (sec): 1.000000E-1
Scans to average: 1
Electric dark correction enabled: true
Nonlinearity correction enabled: false
Boxcar width: 0
XAxis mode: Wavelengths
Number of Pixels in Spectrum: 2048
>>>>>Begin Spectral Data<<<<<
223.165	-16.25
223.4	-16.25
223.635	-16.25
223.869	-26.25
224.104	-21.25
224.338	-19.25
224.573	-5.25
224.808	-5.25
225.042	0.75
225.277	-10.25
225.511	-0.25
225.746	12.75
225.98	9.75
226.215	14.75
226.449	8.75
226.683	15.75
226.918	19.75
227.152	21.75
227.387	30.75
227.621	41.75
227.856	37.75
228.09	50.75
228.324	53.75
228.559	50.75
228.793	49.75
229.027	79.75
229.262	87.75
229.496	92.75
229.73	103.75
229.964	123.75
230.199	118.75
230.433	98.75
230.667	102.75
230.901	100.75
231.136	93.75
231.37	98.75
231.604	106.75
231.838	101.75
232.072	96.75
232.306	107.75
232.541	96.75
232.775	106.75
233.009	108.75
233.243	101.75
233.477	97.75
233.711	115.75
233.945	100.75
234.179	119.75
234.413	108.75
234.647	107.75
234.881	106.75
235.115	106.75
235.349	120.75
235.583	125.75
235.817	117.75
236.051	124.75
236.285	117.75
236.519	117.75
236.753	107.75
236.987	125.75
237.221	135.75
237.455	162.75
237.689	152.75
237.922	130.75
238.156	121.75
238.39	118.75
238.624	109.75
238.858	122.75
239.091	116.75
239.325	105.75
239.559	110.75
239.793	106.75
240.027	145.75
240.26	133.75
240.494	136.75
240.728	109.75
240.961	124.75
241.195	131.75
241.429	118.75
241.662	107.75
241.896	115.75
242.13	119.75
242.363	129.75
242.597	126.75
242.83	120.75
243.064	132.75
243.298	141.75
243.531	118.75
243.765	133.75
243.998	129.75
244.232	123.75
244.465	130.75
244.699	127.75
244.932	130.75
245.166	129.75
245.399	135.75
245.633	128.75
245.866	123.75
246.099	125.75
246.333	132.75
246.566	130.75
246.8	139.75
247.033	147.75
247.266	131.75
247.5	159.75
247.733	151.75
247.966	144.75
248.2	140.75
248.433	154.75
248.666	158.75
248.899	143.75
249.133	167.75
249.366	158.75
249.599	168.75
249.832	162.75
250.066	157.75
250.299	157.75
250.532	164.75
250.765	160.75
250.998	198.75
251.231	183.75
251.465	177.75
251.698	183.75
251.931	154.75
252.164	164.75
252.397	163.75
252.63	166.75
252.863	178.75
253.096	187.75
253.329	180.75
253.562	194.75
253.795	186.75
254.028	170.75
254.261	177.75
254.494	201.75
254.727	190.75
254.96	210.75
255.193	207.75
255.426	185.75
255.659	189.75
255.892	206.75
256.124	209.75
256.357	201.75
256.59	195.75
256.823	193.75
257.056	193.75
257.289	188.75
257.521	180.75
257.754	182.75
257.987	175.75
258.22	167.75
258.452	182.75
258.685	185.75
258.918	183.75
259.151	195.75
259.383	197.75
259.616	185.75
259.849	185.75
260.081	190.75
260.314	205.75
260.547	210.75
260.779	197.75
261.012	199.75
261.244	187.75
261.477	186.75
261.71	188.75
261.942	199.75
262.175	196.75
262.407	205.75
262.64	184.75
262.872	188.75
263.105	174.75
263.337	180.75
263.57	197.75
263.802	189.75
264.035	199.75
264.267	182.75
264.499	183.75
264.732	191.75
264.964	206.75
265.197	198.75
265.429	181.75
265.661	182.75
265.894	192.75
266.126	184.75
266.358	196.75
266.591	195.75
266.823	197.75
267.055	189.75
267.287	184.75
267.52	201.75
267.752	200.75
267.984	211.75
268.216	213.75
268.448	221.75
268.681	214.75
268.913	203.75
269.145	217.75
269.377	230.75
269.609	231.75
269.841	228.75
270.073	237.75
270.306	235.75
270.538	249.75
270.77	251.75
271.002	249.75
271.234	232.75
271.466	237.75
271.698	251.75
271.93	270.75
272.162	264.75
272.394	283.75
272.626	262.75
272.858	225.75
273.09	238.75
273.322	218.75
273.553	217.75
273.785	214.75
274.017	212.75
274.249	226.75
274.481	226.75
274.713	221.75
274.945	232.75
275.176	215.75
275.408	223.75
275.64	234.75
275.872	261.75
276.104	231.75
276.335	229.75
276.567	235.75
276.799	244.75
277.031	265.75
277.262	261.75
277.494	276.75
277.726	249.75
277.957	242.75
278.189	237.75
278.421	221.75
278.652	225.75
278.884	235.75
279.115	234.75
279.347	232.75
279.579	237.75
279.81	228.75
280.042	234.75
280.273	245.75
280.505	244.75
280.736	244.75
280.968	253.75
281.199	238.75
281.431	229.75
281.662	237.75
281.894	234.75
282.125	242.75
282.356	259.75
282.588	239.75
282.819	236.75
283.051	235.75
283.282	241.75
283.513	252.75
283.745	257.75
283.976	262.75
284.207	263.75
284.439	246.75
284.67	256.75
284.901	256.75
285.132	254.75
285.364	231.75
285.595	234.75
285.826	248.75
286.057	242.75
286.288	251.75
286.52	238.75
286.751	237.75
286.982	264.75
287.213	242.75
287.444	259.75
287.675	264.75
287.906	280.75
288.138	274.75
288.369	271.75
288.6	270.75
288.831	252.75
289.062	257.75
289.293	246.75
289.524	248.75
289.755	266.75
289.986	243.75
290.217	253.75
290.448	258.75
290.679	257.75
290.91	255.75
291.141	262.75
291.371	272.75
291.602	256.75
291.833	255.75
292.064	252.75
292.295	261.75
292.526	260.75
292.757	246.75
292.987	248.75
293.218	259.75
293.449	245.75
293.68	268.75
293.91	250.75
294.141	274.75
294.372	261.75
294.603	252.75
294.833	271.75
295.064	271.75
295.295	268.75
295.525	281.75
295.756	296.75
295.987	260.75
296.217	278.75
296.448	285.75
296.679	267.75
296.909	264.75
297.14	268.75
297.37	270.75
297.601	265.75
297.831	263.75
298.062	286.75
298.292	271.75
298.523	268.75
298.753	269.75
298.984	295.75
299.214	289.75
299.445	269.75
299.675	275.75
299.905	281.75
300.136	279.75
300.366	310.75
300.597	297.75
300.827	293.75
301.057	295.75
301.288	285.75
301.518	309.75
301.748	274.75
301.979	275.75
302.209	277.75
302.439	304.75
302.669	300.75
302.9	287.75
303.13	289.75
303.36	282.75
303.59	293.75
303.82	287.75
304.051	301.75
304.281	308.75
304.511	306.75
304.741	295.75
304.971	297.75
305.201	290.75
305.431	300.75
305.661	290.75
305.891	272.75
306.121	287.75
306.352	298.75
306.582	309.75
306.812	285.75
307.042	285.75
307.272	309.75
307.502	295.75
307.731	285.75
307.961	294.75
308.191	288.75
308.421	308.75
308.651	309.75
308.881	307.75
309.111	285.75
309.341	289.75
309.571	311.75
309.8	287.75
310.03	297.75
310.26	325.75
310.49	314.75
310.72	333.75
310.949	326.75
311.179	335.75
311.409	320.75
311.639	307.75
311.868	325.75
312.098	323.75
312.328	319.75
312.557	323.75
312.787	345.75
313.017	334.75
313.246	319.75
313.476	331.75
313.706	323.75
313.935	339.75
314.165	338.75
314.394	333.75
314.624	342.75
314.853	309.75
315.083	339.75
315.312	317.75
315.542	322.75
315.771	323.75
316.001	326.75
316.23	328.75
316.46	331.75
316.689	342.75
316.919	327.75
317.148	310.75
317.377	321.75
317.607	331.75
317.836	330.75
318.065	331.75
318.295	324.75
318.524	322.75
318.753	325.75
318.983	317.75
319.212	318.75
319.441	303.75
319.67	335.75
319.9	346.75
320.129	324.75
320.358	318.75
320.587	315.75
320.816	321.75
321.046	327.75
321.275	336.75
321.504	313.75
321.733	342.75
321.962	351.75
322.191	343.75
322.42	350.75
322.649	370.75
322.878	335.75
323.108	354.75
323.337	376.75
323.566	381.75
323.795	394.75
324.024	403.75
324.253	486.75
324.482	656.75
324.71	915.75
324.939	1212.75
325.168	1037.75
325.397	584.75
325.626	435.75
325.855	391.75
326.084	387.75
326.313	379.75
326.542	390.75
326.77	422.75
326.999	465.75
327.228	575.75
327.457	823.75
327.686	905.75
327.914	653.75
328.143	456.75
328.372	447.75
328.6	429.75
328.829	431.75
329.058	421.75
329.287	449.75
329.515	407.75
329.744	378.75
329.972	389.75
330.201	399.75
330.43	433.75
330.658	449.75
330.887	461.75
331.115	466.75
331.344	427.75
331.572	399.75
331.801	398.75
332.03	416.75
332.258	399.75
332.486	398.75
332.715	380.75
332.943	399.75
333.172	410.75
333.4	421.75
333.629	408.75
333.857	443.75
334.085	421.75
334.314	466.75
334.542	474.75
334.771	484.75
334.999	445.75
335.227	406.75
335.455	370.75
335.684	402.75
335.912	400.75
336.14	405.75
336.369	376.75
336.597	410.75
336.825	396.75
337.053	388.75
337.281	378.75
337.51	387.75
337.738	387.75
337.966	361.75
338.194	373.75
338.422	377.75
338.65	378.75
338.878	372.75
339.106	356.75
339.334	377.75
339.562	376.75
339.79	370.75
340.018	370.75
340.246	359.75
340.474	354.75
340.702	373.75
340.93	345.75
341.158	353.75
341.386	356.75
341.614	373.75
341.842	369.75
342.07	354.75
342.298	361.75
342.526	357.75
342.754	354.75
342.981	364.75
343.209	345.75
343.437	373.75
343.665	383.75
343.893	398.75
344.12	394.75
344.348	410.75
344.576	377.75
344.804	377.75
345.031	365.75
345.259	389.75
345.487	358.75
345.714	345.75
345.942	370.75
346.17	375.75
346.397	348.75
346.625	357.75
346.853	355.75
347.08	353.75
347.308	380.75
347.535	347.75
347.763	371.75
347.99	361.75
348.218	351.75
348.445	362.75
348.673	358.75
348.9	353.75
349.128	349.75
349.355	339.75
349.583	333.75
349.81	337.75
350.037	335.75
350.265	331.75
350.492	330.75
350.72	337.75
350.947	347.75
351.174	339.75
351.402	338.75
351.629	314.75
351.856	358.75
352.083	364.75
352.311	339.75
352.538	359.75
352.765	369.75
352.992	365.75
353.22	347.75
353.447	341.75
353.674	354.75
353.901	346.75
354.128	345.75
354.355	336.75
354.583	325.75
354.81	327.75
355.037	313.75
355.264	338.75
355.491	332.75
355.718	337.75
355.945	333.75
356.172	332.75
356.399	316.75
356.626	331.75
356.853	319.75
357.08	300.75
357.307	335.75
357.534	345.75
357.761	322.75
357.988	323.75
358.215	345.75
358.441	327.75
358.668	341.75
358.895	338.75
359.122	345.75
359.349	337.75
359.576	348.75
359.802	350.75
360.029	372.75
360.256	379.75
360.483	360.75
360.709	341.75
360.936	346.75
361.163	349.75
361.39	335.75
361.616	343.75
361.843	346.75
362.07	349.75
362.296	335.75
362.523	329.75
362.749	325.75
362.976	345.75
363.203	313.75
363.429	311.75
363.656	341.75
363.882	336.75
364.109	325.75
364.335	339.75
364.562	325.75
364.788	333.75
365.015	336.75
365.241	358.75
365.468	344.75
365.694	325.75
365.92	322.75
366.147	341.75
366.373	336.75
366.599	311.75
366.826	336.75
367.052	316.75
367.278	322.75
367.505	339.75
367.731	353.75
367.957	356.75
368.184	341.75
368.41	338.75
368.636	339.75
368.862	331.75
369.089	335.75
369.315	317.75
369.541	303.75
369.767	342.75
369.993	319.75
370.219	330.75
370.445	338.75
370.672	324.75
370.898	321.75
371.124	334.75
371.35	347.75
371.576	332.75
371.802	345.75
372.028	344.75
372.254	345.75
372.48	335.75
372.706	336.75
372.932	346.75
373.158	332.75
373.384	336.75
373.61	338.75
373.835	338.75
374.061	355.75
374.287	354.75
374.513	352.75
374.739	377.75
374.965	355.75
375.191	356.75
375.416	332.75
375.642	344.75
375.868	328.75
376.094	326.75
376.319	335.75
376.545	345.75
376.771	323.75
376.997	333.75
377.222	349.75
377.448	345.75
377.674	318.75
377.899	338.75
378.125	343.75
378.35	324.75
378.576	334.75
378.802	321.75
379.027	324.75
379.253	335.75
379.478	344.75
379.704	324.75
379.929	333.75
380.155	327.75
380.38	348.75
380.606	326.75
380.831	329.75
381.057	332.75
381.282	330.75
381.507	343.75
381.733	339.75
381.958	322.75
382.184	337.75
382.409	343.75
382.634	333.75
382.86	332.75
383.085	361.75
383.31	346.75
383.535	349.75
383.761	346.75
383.986	359.75
384.211	361.75
384.436	358.75
384.662	353.75
384.887	381.75
385.112	371.75
385.337	359.75
385.562	375.75
385.787	373.75
386.013	389.75
386.238	374.75
386.463	381.75
386.688	383.75
386.913	375.75
387.138	371.75
387.363	388.75
387.588	381.75
387.813	377.75
388.038	389.75
388.263	385.75
388.488	385.75
388.713	379.75
388.938	374.75
389.163	383.75
389.387	369.75
389.612	354.75
389.837	365.75
390.062	377.75
390.287	371.75
390.512	374.75
390.736	376.75
390.961	378.75
391.186	376.75
391.411	364.75
391.636	395.75
391.86	393.75
392.085	384.75
392.31	378.75
392.534	383.75
392.759	385.75
392.984	383.75
393.208	381.75
393.433	372.75
393.658	366.75
393.882	379.75
394.107	383.75
394.331	387.75
394.556	382.75
394.78	358.75
395.005	378.75
395.229	404.75
395.454	378.75
395.678	393.75
395.903	412.75
396.127	399.75
396.352	399.75
396.576	404.75
396.801	410.75
397.025	395.75
397.249	404.75
397.474	412.75
397.698	390.75
397.922	415.75
398.147	409.75
398.371	426.75
398.595	413.75
398.82	413.75
399.044	447.75
399.268	511.75
399.492	528.75
399.717	555.75
399.941	561.75
400.165	560.75
400.389	519.75
400.613	471.75
400.837	451.75
401.062	444.75
401.286	438.75
401.51	441.75
401.734	428.75
401.958	430.75
402.182	433.75
402.406	430.75
402.63	445.75
402.854	434.75
403.078	446.75
403.302	468.75
403.526	465.75
403.75	491.75
403.974	473.75
404.198	462.75
404.422	479.75
404.645	483.75
404.869	484.75
405.093	485.75
405.317	524.75
405.541	525.75
405.765	493.75
405.988	452.75
406.212	489.75
406.436	488.75
406.66	501.75
406.883	482.75
407.107	507.75
407.331	552.75
407.555	571.75
407.778	578.75
408.002	549.75
408.226	515.75
408.449	478.75
408.673	477.75
408.896	508.75
409.12	527.75
409.344	509.75
409.567	459.75
409.791	476.75
410.014	461.75
410.238	452.75
410.461	461.75
410.685	449.75
410.908	481.75
411.132	481.75
411.355	480.75
411.578	474.75
411.802	467.75
412.025	462.75
412.249	462.75
412.472	472.75
412.695	477.75
412.919	480.75
413.142	468.75
413.365	465.75
413.589	444.75
413.812	427.75
414.035	421.75
414.258	419.75
414.482	442.75
414.705	411.75
414.928	429.75
415.151	418.75
415.374	428.75
415.597	416.75
415.821	455.75
416.044	414.75
416.267	435.75
416.49	434.75
416.713	429.75
416.936	419.75
417.159	419.75
417.382	435.75
417.605	435.75
417.828	443.75
418.051	474.75
418.274	444.75
418.497	432.75
418.72	432.75
418.943	440.75
419.166	451.75
419.389	467.75
419.611	441.75
419.834	465.75
420.057	456.75
420.28	453.75
420.503	451.75
420.726	429.75
420.948	447.75
421.171	457.75
421.394	501.75
421.617	438.75
421.839	447.75
422.062	439.75
422.285	440.75
422.507	498.75
422.73	529.75
422.953	506.75
423.175	471.75
423.398	468.75
423.621	462.75
423.843	485.75
424.066	489.75
424.288	453.75
424.511	489.75
424.733	507.75
424.956	548.75
425.178	537.75
425.401	533.75
425.623	521.75
425.846	459.75
426.068	446.75
426.291	444.75
426.513	444.75
426.735	461.75
426.958	472.75
427.18	540.75
427.402	580.75
427.625	628.75
427.847	553.75
428.069	491.75
428.292	466.75
428.514	413.75
428.736	423.75
428.958	422.75
429.181	417.75
429.403	433.75
429.625	427.75
429.847	451.75
430.069	480.75
430.292	459.75
430.514	438.75
430.736	414.75
430.958	397.75
431.18	387.75
431.402	386.75
431.624	398.75
431.846	396.75
432.068	407.75
432.29	421.75
432.512	401.75
432.734	394.75
432.956	421.75
433.178	413.75
433.4	419.75
433.622	387.75
433.844	389.75
434.066	393.75
434.287	406.75
434.509	407.75
434.731	422.75
434.953	442.75
435.175	447.75
435.397	457.75
435.618	435.75
435.84	481.75
436.062	532.75
436.284	532.75
436.505	478.75
436.727	437.75
436.949	428.75
437.17	405.75
437.392	405.75
437.614	423.75
437.835	436.75
438.057	502.75
438.278	538.75
438.5	531.75
438.721	599.75
438.943	573.75
439.165	470.75
439.386	438.75
439.608	439.75
439.829	453.75
440.05	462.75
440.272	471.75
440.493	462.75
440.715	447.75
440.936	440.75
441.158	455.75
441.379	446.75
441.6	448.75
441.822	457.75
442.043	480.75
442.264	533.75
442.486	541.75
442.707	483.75
442.928	486.75
443.149	477.75
443.371	489.75
443.592	495.75
443.813	570.75
444.034	588.75
444.255	520.75
444.476	484.75
444.698	492.75
444.919	498.75
445.14	569.75
445.361	538.75
445.582	498.75
445.803	535.75
446.024	555.75
446.245	566.75
446.466	515.75
446.687	470.75
446.908	450.75
447.129	443.75
447.35	435.75
447.571	437.75
447.792	409.75
448.013	409.75
448.234	429.75
448.455	455.75
448.675	525.75
448.896	551.75
449.117	490.75
449.338	492.75
449.559	551.75
449.779	603.75
450	497.75
450.221	427.75
450.442	404.75
450.662	398.75
450.883	403.75
451.104	406.75
451.324	400.75
451.545	382.75
451.766	386.75
451.986	383.75
452.207	373.75
452.428	369.75
452.648	364.75
452.869	379.75
453.089	387.75
453.31	390.75
453.53	382.75
453.751	372.75
453.971	363.75
454.192	375.75
454.412	380.75
454.633	359.75
454.853	366.75
455.073	371.75
455.294	361.75
455.514	427.75
455.734	408.75
455.955	379.75
456.175	365.75
456.395	338.75
456.616	346.75
456.836	369.75
457.056	361.75
457.276	345.75
457.497	346.75
457.717	357.75
457.937	375.75
458.157	352.75
458.377	364.75
458.598	370.75
458.818	431.75
459.038	462.75
459.258	474.75
459.478	444.75
459.698	402.75
459.918	401.75
460.138	420.75
460.358	423.75
460.578	442.75
460.798	439.75
461.018	460.75
461.238	431.75
461.458	438.75
461.678	413.75
461.898	406.75
462.118	440.75
462.338	439.75
462.558	437.75
462.777	454.75
462.997	482.75
463.217	528.75
463.437	524.75
463.657	490.75
463.876	494.75
464.096	487.75
464.316	453.75
464.536	465.75
464.755	455.75
464.975	458.75
465.195	482.75
465.414	532.75
465.634	449.75
465.854	445.75
466.073	389.75
466.293	398.75
466.512	379.75
466.732	391.75
466.951	387.75
467.171	397.75
467.391	391.75
467.61	391.75
467.829	376.75
468.049	399.75
468.268	390.75
468.488	391.75
468.707	387.75
468.927	384.75
469.146	380.75
469.365	393.75
469.585	381.75
469.804	421.75
470.023	408.75
470.243	409.75
470.462	422.75
470.681	428.75
470.901	418.75
471.12	389.75
471.339	418.75
471.558	404.75
471.777	395.75
471.997	393.75
472.216	379.75
472.435	402.75
472.654	397.75
472.873	396.75
473.092	396.75
473.311	386.75
473.53	371.75
473.749	376.75
473.968	412.75
474.187	475.75
474.406	458.75
474.625	377.75
474.844	400.75
475.063	394.75
475.282	379.75
475.501	384.75
475.72	395.75
475.939	408.75
476.158	418.75
476.377	402.75
476.596	388.75
476.814	407.75
477.033	410.75
477.252	407.75
477.471	423.75
477.69	408.75
477.908	417.75
478.127	457.75
478.346	427.75
478.564	429.75
478.783	443.75
479.002	456.75
479.22	446.75
479.439	466.75
479.658	450.75
479.876	476.75
480.095	481.75
480.313	488.75
480.532	483.75
480.751	485.75
480.969	505.75
481.188	534.75
481.406	538.75
481.624	484.75
481.843	469.75
482.061	465.75
482.28	444.75
482.498	425.75
482.717	441.75
482.935	425.75
483.153	449.75
483.372	455.75
483.59	440.75
483.808	445.75
484.027	430.75
484.245	440.75
484.463	450.75
484.681	453.75
484.9	462.75
485.118	470.75
485.336	460.75
485.554	446.75
485.772	479.75
485.99	444.75
486.209	437.75
486.427	468.75
486.645	488.75
486.863	475.75
487.081	476.75
487.299	478.75
487.517	472.75
487.735	479.75
487.953	482.75
488.171	481.75
488.389	490.75
488.607	479.75
488.825	482.75
489.043	482.75
489.261	482.75
489.479	476.75
489.696	513.75
489.914	487.75
490.132	513.75
490.35	499.75
490.568	513.75
490.786	529.75
491.003	514.75
491.221	525.75
491.439	535.75
491.657	526.75
491.874	561.75
492.092	550.75
492.31	556.75
492.527	550.75
492.745	565.75
492.963	541.75
493.18	559.75
493.398	561.75
493.615	585.75
493.833	563.75
494.05	571.75
494.268	563.75
494.485	554.75
494.703	541.75
494.92	547.75
495.138	573.75
495.355	552.75
495.573	548.75
495.79	585.75
496.008	558.75
496.225	557.75
496.442	563.75
496.66	579.75
496.877	579.75
497.094	568.75
497.312	569.75
497.529	587.75
497.746	585.75
497.963	613.75
498.181	622.75
498.398	625.75
498.615	625.75
498.832	691.75
499.049	696.75
499.267	714.75
499.484	797.75
499.701	833.75
499.918	867.75
500.135	935.75
500.352	988.75
500.569	969.75
500.786	1011.75
501.003	967.75
501.22	926.75
501.437	845.75
501.654	799.75
501.871	795.75
502.088	725.75
