Data from 1969.PennyLincolnUp.Lamp.En5.5.200Scan.071719.P1._HRD10591_14-56-55-973.txt Node
Date: Thu Jul 18 14:56:55 EDT 2019
User: cochatt
Spectrometer: HR+D1059
Trigger mode: 1
Integration Time (sec): 1.000000E-1
Scans to average: 1
Electric dark correction enabled: true
Nonlinearity correction enabled: false
Boxcar width: 0
XAxis mode: Wavelengths
Number of Pixels in Spectrum: 2048
>>>>>Begin Spectral Data<<<<<
223.165	-16.56
223.4	-16.56
223.635	-16.56
223.869	-17.56
224.104	-18.56
224.338	-5.56
224.573	-20.56
224.808	-12.56
225.042	-11.56
225.277	-0.56
225.511	-1.56
225.746	-4.56
225.98	5.44
226.215	7.44
226.449	25.44
226.683	26.44
226.918	13.44
227.152	31.44
227.387	25.44
227.621	33.44
227.856	31.44
228.09	39.44
228.324	44.44
228.559	45.44
228.793	63.44
229.027	79.44
229.262	101.44
229.496	99.44
229.73	112.44
229.964	125.44
230.199	117.44
230.433	111.44
230.667	105.44
230.901	104.44
231.136	108.44
231.37	90.44
231.604	99.44
231.838	107.44
232.072	99.44
232.306	96.44
232.541	114.44
232.775	110.44
233.009	114.44
233.243	101.44
233.477	103.44
233.711	92.44
233.945	104.44
234.179	114.44
234.413	111.44
234.647	109.44
234.881	123.44
235.115	113.44
235.349	112.44
235.583	106.44
235.817	106.44
236.051	104.44
236.285	112.44
236.519	108.44
236.753	123.44
236.987	131.44
237.221	143.44
237.455	171.44
237.689	156.44
237.922	141.44
238.156	125.44
238.39	111.44
238.624	127.44
238.858	124.44
239.091	104.44
239.325	105.44
239.559	116.44
239.793	123.44
240.027	93.44
240.26	131.44
240.494	141.44
240.728	148.44
240.961	135.44
241.195	141.44
241.429	119.44
241.662	136.44
241.896	114.44
242.13	116.44
242.363	108.44
242.597	114.44
242.83	120.44
243.064	123.44
243.298	124.44
243.531	106.44
243.765	115.44
243.998	117.44
244.232	127.44
244.465	133.44
244.699	122.44
244.932	111.44
245.166	130.44
245.399	134.44
245.633	126.44
245.866	137.44
246.099	140.44
246.333	154.44
246.566	139.44
246.8	157.44
247.033	154.44
247.266	143.44
247.5	151.44
247.733	158.44
247.966	152.44
248.2	140.44
248.433	136.44
248.666	163.44
248.899	157.44
249.133	164.44
249.366	183.44
249.599	166.44
249.832	166.44
250.066	160.44
250.299	144.44
250.532	164.44
250.765	173.44
250.998	184.44
251.231	189.44
251.465	178.44
251.698	174.44
251.931	165.44
252.164	165.44
252.397	198.44
252.63	175.44
252.863	170.44
253.096	177.44
253.329	199.44
253.562	192.44
253.795	187.44
254.028	186.44
254.261	164.44
254.494	187.44
254.727	225.44
254.96	228.44
255.193	221.44
255.426	225.44
255.659	213.44
255.892	205.44
256.124	185.44
256.357	209.44
256.59	187.44
256.823	179.44
257.056	176.44
257.289	180.44
257.521	196.44
257.754	193.44
257.987	176.44
258.22	187.44
258.452	185.44
258.685	196.44
258.918	184.44
259.151	176.44
259.383	193.44
259.616	179.44
259.849	176.44
260.081	217.44
260.314	222.44
260.547	216.44
260.779	200.44
261.012	210.44
261.244	197.44
261.477	181.44
261.71	169.44
261.942	210.44
262.175	194.44
262.407	193.44
262.64	180.44
262.872	184.44
263.105	179.44
263.337	185.44
263.57	189.44
263.802	204.44
264.035	191.44
264.267	195.44
264.499	205.44
264.732	203.44
264.964	186.44
265.197	191.44
265.429	193.44
265.661	208.44
265.894	193.44
266.126	197.44
266.358	200.44
266.591	187.44
266.823	204.44
267.055	210.44
267.287	215.44
267.52	209.44
267.752	196.44
267.984	207.44
268.216	218.44
268.448	221.44
268.681	220.44
268.913	215.44
269.145	231.44
269.377	246.44
269.609	247.44
269.841	234.44
270.073	241.44
270.306	251.44
270.538	275.44
270.77	278.44
271.002	238.44
271.234	250.44
271.466	249.44
271.698	269.44
271.93	286.44
272.162	272.44
272.394	260.44
272.626	253.44
272.858	231.44
273.09	235.44
273.322	228.44
273.553	216.44
273.785	237.44
274.017	221.44
274.249	227.44
274.481	218.44
274.713	225.44
274.945	216.44
275.176	242.44
275.408	235.44
275.64	216.44
275.872	223.44
276.104	235.44
276.335	239.44
276.567	240.44
276.799	258.44
277.031	270.44
277.262	276.44
277.494	287.44
277.726	260.44
277.957	268.44
278.189	247.44
278.421	259.44
278.652	241.44
278.884	233.44
279.115	239.44
279.347	239.44
279.579	237.44
279.81	245.44
280.042	240.44
280.273	254.44
280.505	242.44
280.736	244.44
280.968	232.44
281.199	225.44
281.431	235.44
281.662	239.44
281.894	252.44
282.125	235.44
282.356	255.44
282.588	276.44
282.819	261.44
283.051	255.44
283.282	247.44
283.513	236.44
283.745	220.44
283.976	264.44
284.207	286.44
284.439	259.44
284.67	247.44
284.901	270.44
285.132	260.44
285.364	262.44
285.595	255.44
285.826	259.44
286.057	263.44
286.288	251.44
286.52	267.44
286.751	266.44
286.982	261.44
287.213	264.44
287.444	262.44
287.675	275.44
287.906	276.44
288.138	262.44
288.369	269.44
288.6	269.44
288.831	273.44
289.062	268.44
289.293	266.44
289.524	252.44
289.755	255.44
289.986	263.44
290.217	272.44
290.448	275.44
290.679	276.44
290.91	273.44
291.141	263.44
291.371	268.44
291.602	255.44
291.833	265.44
292.064	277.44
292.295	276.44
292.526	271.44
292.757	262.44
292.987	257.44
293.218	269.44
293.449	250.44
293.68	268.44
293.91	246.44
294.141	263.44
294.372	247.44
294.603	253.44
294.833	279.44
295.064	268.44
295.295	277.44
295.525	273.44
295.756	267.44
295.987	277.44
296.217	295.44
296.448	306.44
296.679	279.44
296.909	276.44
297.14	285.44
297.37	281.44
297.601	275.44
297.831	295.44
298.062	300.44
298.292	284.44
298.523	289.44
298.753	287.44
298.984	271.44
299.214	288.44
299.445	295.44
299.675	301.44
299.905	285.44
300.136	288.44
300.366	294.44
300.597	286.44
300.827	313.44
301.057	284.44
301.288	303.44
301.518	293.44
301.748	305.44
301.979	290.44
302.209	295.44
302.439	307.44
302.669	311.44
302.9	292.44
303.13	308.44
303.36	298.44
303.59	308.44
303.82	289.44
304.051	296.44
304.281	281.44
304.511	311.44
304.741	311.44
304.971	288.44
305.201	298.44
305.431	284.44
305.661	292.44
305.891	296.44
306.121	312.44
306.352	311.44
306.582	292.44
306.812	317.44
307.042	292.44
307.272	276.44
307.502	302.44
307.731	292.44
307.961	311.44
308.191	314.44
308.421	296.44
308.651	295.44
308.881	306.44
309.111	303.44
309.341	305.44
309.571	321.44
309.8	326.44
310.03	325.44
310.26	331.44
310.49	336.44
310.72	315.44
310.949	339.44
311.179	345.44
311.409	332.44
311.639	328.44
311.868	331.44
312.098	330.44
312.328	337.44
312.557	361.44
312.787	358.44
313.017	339.44
313.246	339.44
313.476	333.44
313.706	338.44
313.935	347.44
314.165	333.44
314.394	346.44
314.624	333.44
314.853	344.44
315.083	346.44
315.312	327.44
315.542	332.44
315.771	327.44
316.001	346.44
316.23	329.44
316.46	336.44
316.689	329.44
316.919	331.44
317.148	343.44
317.377	330.44
317.607	347.44
317.836	339.44
318.065	341.44
318.295	326.44
318.524	318.44
318.753	313.44
318.983	337.44
319.212	344.44
319.441	346.44
319.67	355.44
319.9	345.44
320.129	323.44
320.358	353.44
320.587	341.44
320.816	344.44
321.046	337.44
321.275	361.44
321.504	349.44
321.733	348.44
321.962	376.44
322.191	376.44
322.42	352.44
322.649	374.44
322.878	373.44
323.108	364.44
323.337	368.44
323.566	401.44
323.795	451.44
324.024	435.44
324.253	519.44
324.482	721.44
324.71	1001.44
324.939	1343.44
325.168	1114.44
325.397	614.44
325.626	454.44
325.855	398.44
326.084	410.44
326.313	393.44
326.542	406.44
326.77	431.44
326.999	493.44
327.228	632.44
327.457	891.44
327.686	1017.44
327.914	700.44
328.143	497.44
328.372	453.44
328.6	460.44
328.829	440.44
329.058	462.44
329.287	468.44
329.515	439.44
329.744	413.44
329.972	415.44
330.201	428.44
330.43	473.44
330.658	481.44
330.887	486.44
331.115	474.44
331.344	449.44
331.572	407.44
331.801	413.44
332.03	407.44
332.258	393.44
332.486	395.44
332.715	410.44
332.943	419.44
333.172	411.44
333.4	411.44
333.629	434.44
333.857	451.44
334.085	430.44
334.314	463.44
334.542	470.44
334.771	500.44
334.999	438.44
335.227	409.44
335.455	412.44
335.684	439.44
335.912	429.44
336.14	395.44
336.369	386.44
336.597	401.44
336.825	408.44
337.053	413.44
337.281	392.44
337.51	386.44
337.738	393.44
337.966	403.44
338.194	397.44
338.422	388.44
338.65	394.44
338.878	384.44
339.106	372.44
339.334	369.44
339.562	386.44
339.79	380.44
340.018	381.44
340.246	376.44
340.474	367.44
340.702	373.44
340.93	388.44
341.158	359.44
341.386	368.44
341.614	387.44
341.842	381.44
342.07	367.44
342.298	371.44
342.526	364.44
342.754	355.44
342.981	362.44
343.209	361.44
343.437	391.44
343.665	399.44
343.893	405.44
344.12	399.44
344.348	401.44
344.576	377.44
344.804	408.44
345.031	397.44
345.259	396.44
345.487	371.44
345.714	371.44
345.942	370.44
346.17	367.44
346.397	360.44
346.625	369.44
346.853	347.44
347.08	376.44
347.308	372.44
347.535	355.44
347.763	377.44
347.99	357.44
348.218	361.44
348.445	339.44
348.673	353.44
348.9	361.44
349.128	346.44
349.355	339.44
349.583	352.44
349.81	344.44
350.037	347.44
350.265	330.44
350.492	348.44
350.72	335.44
350.947	356.44
351.174	341.44
351.402	347.44
351.629	342.44
351.856	364.44
352.083	374.44
352.311	359.44
352.538	369.44
352.765	365.44
352.992	339.44
353.22	367.44
353.447	341.44
353.674	346.44
353.901	356.44
354.128	338.44
354.355	341.44
354.583	341.44
354.81	345.44
355.037	327.44
355.264	323.44
355.491	348.44
355.718	337.44
355.945	323.44
356.172	327.44
356.399	341.44
356.626	348.44
356.853	349.44
357.08	346.44
357.307	325.44
357.534	333.44
357.761	343.44
357.988	329.44
358.215	339.44
358.441	338.44
358.668	339.44
358.895	332.44
359.122	325.44
359.349	342.44
359.576	340.44
359.802	367.44
360.029	357.44
360.256	377.44
360.483	367.44
360.709	346.44
360.936	349.44
361.163	351.44
361.39	352.44
361.616	353.44
361.843	342.44
362.07	358.44
362.296	354.44
362.523	360.44
362.749	350.44
362.976	331.44
363.203	355.44
363.429	338.44
363.656	339.44
363.882	345.44
364.109	341.44
364.335	335.44
364.562	333.44
364.788	325.44
365.015	317.44
365.241	336.44
365.468	352.44
365.694	344.44
365.92	343.44
366.147	339.44
366.373	327.44
366.599	344.44
366.826	331.44
367.052	334.44
367.278	348.44
367.505	351.44
367.731	344.44
367.957	329.44
368.184	334.44
368.41	338.44
368.636	354.44
368.862	357.44
369.089	342.44
369.315	348.44
369.541	324.44
369.767	336.44
369.993	349.44
370.219	321.44
370.445	332.44
370.672	344.44
370.898	340.44
371.124	339.44
371.35	348.44
371.576	363.44
371.802	329.44
372.028	342.44
372.254	339.44
372.48	348.44
372.706	343.44
372.932	341.44
373.158	370.44
373.384	343.44
373.61	340.44
373.835	331.44
374.061	351.44
374.287	372.44
374.513	358.44
374.739	359.44
374.965	375.44
375.191	367.44
375.416	368.44
375.642	345.44
375.868	353.44
376.094	345.44
376.319	353.44
376.545	336.44
376.771	338.44
376.997	356.44
377.222	353.44
377.448	325.44
377.674	351.44
377.899	332.44
378.125	344.44
378.35	330.44
378.576	333.44
378.802	338.44
379.027	341.44
379.253	348.44
379.478	321.44
379.704	338.44
379.929	343.44
380.155	349.44
380.38	352.44
380.606	340.44
380.831	356.44
381.057	341.44
381.282	344.44
381.507	335.44
381.733	349.44
381.958	339.44
382.184	354.44
382.409	346.44
382.634	362.44
382.86	347.44
383.085	352.44
383.31	349.44
383.535	365.44
383.761	374.44
383.986	359.44
384.211	369.44
384.436	349.44
384.662	377.44
384.887	383.44
385.112	362.44
385.337	377.44
385.562	385.44
385.787	397.44
386.013	385.44
386.238	382.44
386.463	372.44
386.688	386.44
386.913	390.44
387.138	375.44
387.363	373.44
387.588	369.44
387.813	373.44
388.038	362.44
388.263	379.44
388.488	389.44
388.713	381.44
388.938	401.44
389.163	386.44
389.387	376.44
389.612	360.44
389.837	373.44
390.062	380.44
390.287	371.44
390.512	371.44
390.736	373.44
390.961	361.44
391.186	387.44
391.411	391.44
391.636	391.44
391.86	387.44
392.085	391.44
392.31	391.44
392.534	377.44
392.759	394.44
392.984	381.44
393.208	398.44
393.433	383.44
393.658	381.44
393.882	375.44
394.107	386.44
394.331	379.44
394.556	395.44
394.78	390.44
395.005	411.44
395.229	385.44
395.454	411.44
395.678	404.44
395.903	406.44
396.127	396.44
396.352	405.44
396.576	408.44
396.801	411.44
397.025	414.44
397.249	391.44
397.474	388.44
397.698	417.44
397.922	404.44
398.147	427.44
398.371	419.44
398.595	405.44
398.82	444.44
399.044	465.44
399.268	508.44
399.492	526.44
399.717	579.44
399.941	542.44
400.165	562.44
400.389	531.44
400.613	500.44
400.837	469.44
401.062	458.44
401.286	433.44
401.51	432.44
401.734	453.44
401.958	454.44
402.182	439.44
402.406	451.44
402.63	457.44
402.854	461.44
403.078	463.44
403.302	464.44
403.526	484.44
403.75	479.44
403.974	479.44
404.198	468.44
404.422	481.44
404.645	467.44
404.869	492.44
405.093	500.44
405.317	529.44
405.541	557.44
405.765	518.44
405.988	469.44
406.212	481.44
406.436	503.44
406.66	525.44
406.883	511.44
407.107	537.44
407.331	563.44
407.555	592.44
407.778	602.44
408.002	564.44
408.226	539.44
408.449	495.44
408.673	519.44
408.896	499.44
409.12	522.44
409.344	502.44
409.567	482.44
409.791	470.44
410.014	471.44
410.238	456.44
410.461	466.44
410.685	465.44
410.908	447.44
411.132	485.44
411.355	510.44
411.578	484.44
411.802	461.44
412.025	476.44
412.249	476.44
412.472	480.44
412.695	483.44
412.919	487.44
413.142	473.44
413.365	453.44
413.589	451.44
413.812	444.44
414.035	426.44
414.258	405.44
414.482	424.44
414.705	453.44
414.928	425.44
415.151	438.44
415.374	426.44
415.597	420.44
415.821	439.44
416.044	426.44
416.267	443.44
416.49	462.44
416.713	424.44
416.936	432.44
417.159	435.44
417.382	435.44
417.605	441.44
417.828	442.44
418.051	463.44
418.274	458.44
418.497	443.44
418.72	437.44
418.943	431.44
419.166	450.44
419.389	468.44
419.611	475.44
419.834	469.44
420.057	467.44
420.28	452.44
420.503	463.44
420.726	475.44
420.948	480.44
421.171	481.44
421.394	461.44
421.617	447.44
421.839	452.44
422.062	458.44
422.285	470.44
422.507	513.44
422.73	527.44
422.953	534.44
423.175	495.44
423.398	476.44
423.621	459.44
423.843	505.44
424.066	514.44
424.288	465.44
424.511	478.44
424.733	505.44
424.956	554.44
425.178	563.44
425.401	531.44
425.623	551.44
425.846	506.44
426.068	479.44
426.291	448.44
426.513	464.44
426.735	463.44
426.958	483.44
427.18	511.44
427.402	602.44
427.625	665.44
427.847	579.44
428.069	521.44
428.292	489.44
428.514	478.44
428.736	418.44
428.958	449.44
429.181	434.44
429.403	428.44
429.625	432.44
429.847	451.44
430.069	511.44
430.292	472.44
430.514	420.44
430.736	439.44
430.958	443.44
431.18	407.44
431.402	412.44
431.624	404.44
431.846	407.44
432.068	433.44
432.29	405.44
432.512	431.44
432.734	417.44
432.956	394.44
433.178	407.44
433.4	419.44
433.622	427.44
433.844	419.44
434.066	414.44
434.287	425.44
434.509	428.44
434.731	439.44
434.953	436.44
435.175	461.44
435.397	462.44
435.618	451.44
435.84	483.44
436.062	515.44
436.284	553.44
436.505	488.44
436.727	460.44
436.949	449.44
437.17	412.44
437.392	423.44
437.614	431.44
437.835	479.44
438.057	518.44
438.278	555.44
438.5	534.44
438.721	599.44
438.943	569.44
439.165	474.44
439.386	469.44
439.608	495.44
439.829	457.44
440.05	469.44
440.272	496.44
440.493	476.44
440.715	455.44
440.936	436.44
441.158	439.44
441.379	448.44
441.6	454.44
441.822	477.44
442.043	489.44
442.264	546.44
442.486	553.44
442.707	493.44
442.928	477.44
443.149	477.44
443.371	486.44
443.592	516.44
443.813	597.44
444.034	603.44
444.255	509.44
444.476	497.44
444.698	490.44
444.919	489.44
445.14	580.44
445.361	539.44
445.582	507.44
445.803	546.44
446.024	610.44
446.245	600.44
446.466	556.44
446.687	464.44
446.908	457.44
447.129	433.44
447.35	413.44
447.571	426.44
447.792	424.44
448.013	420.44
448.234	429.44
448.455	451.44
448.675	538.44
448.896	597.44
449.117	522.44
449.338	524.44
449.559	596.44
449.779	634.44
450	471.44
450.221	442.44
450.442	418.44
450.662	422.44
450.883	411.44
451.104	419.44
451.324	403.44
451.545	406.44
451.766	395.44
451.986	381.44
452.207	388.44
452.428	375.44
452.648	385.44
452.869	387.44
453.089	386.44
453.31	397.44
453.53	383.44
453.751	373.44
453.971	395.44
454.192	423.44
454.412	371.44
454.633	373.44
454.853	350.44
455.073	381.44
455.294	398.44
455.514	435.44
455.734	420.44
455.955	356.44
456.175	360.44
456.395	368.44
456.616	378.44
456.836	375.44
457.056	360.44
457.276	336.44
457.497	367.44
457.717	375.44
457.937	370.44
458.157	385.44
458.377	373.44
458.598	402.44
458.818	448.44
459.038	490.44
459.258	505.44
459.478	450.44
459.698	438.44
459.918	425.44
460.138	428.44
460.358	447.44
460.578	445.44
460.798	441.44
461.018	421.44
461.238	417.44
461.458	421.44
461.678	433.44
461.898	441.44
462.118	453.44
462.338	457.44
462.558	452.44
462.777	479.44
462.997	494.44
463.217	536.44
463.437	522.44
463.657	482.44
463.876	487.44
464.096	495.44
464.316	458.44
464.536	479.44
464.755	465.44
464.975	462.44
465.195	497.44
465.414	523.44
465.634	461.44
465.854	450.44
466.073	414.44
466.293	390.44
466.512	392.44
466.732	388.44
466.951	403.44
467.171	412.44
467.391	413.44
467.61	408.44
467.829	396.44
468.049	411.44
468.268	408.44
468.488	409.44
468.707	396.44
468.927	376.44
469.146	396.44
469.365	379.44
469.585	407.44
469.804	382.44
470.023	391.44
470.243	417.44
470.462	397.44
470.681	434.44
470.901	431.44
471.12	413.44
471.339	414.44
471.558	401.44
471.777	412.44
471.997	401.44
472.216	391.44
472.435	430.44
472.654	425.44
472.873	394.44
473.092	388.44
473.311	385.44
473.53	387.44
473.749	380.44
473.968	433.44
474.187	496.44
474.406	491.44
474.625	420.44
474.844	405.44
475.063	401.44
475.282	384.44
475.501	365.44
475.72	393.44
475.939	421.44
476.158	411.44
476.377	402.44
476.596	423.44
476.814	404.44
477.033	424.44
477.252	410.44
477.471	429.44
477.69	420.44
477.908	422.44
478.127	445.44
478.346	449.44
478.564	442.44
478.783	465.44
479.002	481.44
479.22	465.44
479.439	464.44
479.658	486.44
479.876	480.44
480.095	485.44
480.313	513.44
480.532	526.44
480.751	514.44
480.969	522.44
481.188	537.44
481.406	552.44
481.624	489.44
481.843	468.44
482.061	469.44
482.28	486.44
482.498	455.44
482.717	492.44
482.935	458.44
483.153	435.44
483.372	465.44
483.59	448.44
483.808	438.44
484.027	468.44
484.245	465.44
484.463	437.44
484.681	469.44
484.9	452.44
485.118	482.44
485.336	474.44
485.554	461.44
485.772	486.44
485.99	483.44
486.209	482.44
486.427	492.44
486.645	485.44
486.863	500.44
487.081	492.44
487.299	442.44
487.517	470.44
487.735	490.44
487.953	492.44
488.171	495.44
488.389	474.44
488.607	470.44
488.825	483.44
489.043	520.44
489.261	535.44
489.479	491.44
489.696	505.44
489.914	499.44
490.132	493.44
490.35	511.44
490.568	511.44
490.786	513.44
491.003	522.44
491.221	539.44
491.439	548.44
491.657	568.44
491.874	554.44
492.092	567.44
492.31	580.44
492.527	568.44
492.745	591.44
492.963	583.44
493.18	577.44
493.398	576.44
493.615	573.44
493.833	553.44
494.05	576.44
494.268	571.44
494.485	587.44
494.703	589.44
494.92	571.44
495.138	564.44
495.355	575.44
495.573	580.44
495.79	592.44
496.008	598.44
496.225	598.44
496.442	580.44
496.66	553.44
496.877	585.44
497.094	587.44
497.312	583.44
497.529	608.44
497.746	625.44
497.963	621.44
498.181	631.44
498.398	659.44
498.615	664.44
498.832	696.44
499.049	695.44
499.267	751.44
499.484	787.44
499.701	795.44
499.918	867.44
500.135	916.44
500.352	983.44
500.569	996.44
500.786	1021.44
501.003	994.44
501.22	915.44
501.437	894.44
501.654	848.44
501.871	807.44
502.088	744.44
