Data from 1969.PennyLincolnUp.Lamp.En5.5.200Scan.071719.P1._HRD10591_14-53-53-971.txt Node
Date: Thu Jul 18 14:53:53 EDT 2019
User: cochatt
Spectrometer: HR+D1059
Trigger mode: 1
Integration Time (sec): 1.000000E-1
Scans to average: 1
Electric dark correction enabled: true
Nonlinearity correction enabled: false
Boxcar width: 0
XAxis mode: Wavelengths
Number of Pixels in Spectrum: 2048
>>>>>Begin Spectral Data<<<<<
223.165	-27.62
223.4	-27.62
223.635	-27.62
223.869	-7.62
224.104	-11.62
224.338	-21.62
224.573	-24.62
224.808	-13.62
225.042	-12.62
225.277	3.38
225.511	-5.62
225.746	0.38
225.98	11.38
226.215	7.38
226.449	15.38
226.683	34.38
226.918	27.38
227.152	25.38
227.387	47.38
227.621	30.38
227.856	40.38
228.09	44.38
228.324	46.38
228.559	38.38
228.793	62.38
229.027	76.38
229.262	87.38
229.496	99.38
229.73	102.38
229.964	103.38
230.199	93.38
230.433	76.38
230.667	94.38
230.901	92.38
231.136	87.38
231.37	91.38
231.604	91.38
231.838	112.38
232.072	114.38
232.306	92.38
232.541	106.38
232.775	94.38
233.009	109.38
233.243	106.38
233.477	114.38
233.711	112.38
233.945	94.38
234.179	101.38
234.413	118.38
234.647	109.38
234.881	104.38
235.115	105.38
235.349	107.38
235.583	103.38
235.817	96.38
236.051	102.38
236.285	115.38
236.519	107.38
236.753	108.38
236.987	122.38
237.221	139.38
237.455	140.38
237.689	134.38
237.922	115.38
238.156	91.38
238.39	104.38
238.624	100.38
238.858	110.38
239.091	119.38
239.325	116.38
239.559	120.38
239.793	126.38
240.027	116.38
240.26	116.38
240.494	119.38
240.728	116.38
240.961	116.38
241.195	114.38
241.429	125.38
241.662	116.38
241.896	118.38
242.13	117.38
242.363	121.38
242.597	122.38
242.83	99.38
243.064	114.38
243.298	112.38
243.531	129.38
243.765	125.38
243.998	122.38
244.232	129.38
244.465	129.38
244.699	123.38
244.932	132.38
245.166	125.38
245.399	117.38
245.633	133.38
245.866	111.38
246.099	121.38
246.333	121.38
246.566	127.38
246.8	126.38
247.033	143.38
247.266	134.38
247.5	130.38
247.733	155.38
247.966	135.38
248.2	134.38
248.433	139.38
248.666	142.38
248.899	147.38
249.133	143.38
249.366	164.38
249.599	145.38
249.832	135.38
250.066	152.38
250.299	134.38
250.532	144.38
250.765	147.38
250.998	164.38
251.231	172.38
251.465	149.38
251.698	157.38
251.931	151.38
252.164	163.38
252.397	168.38
252.63	156.38
252.863	156.38
253.096	146.38
253.329	162.38
253.562	162.38
253.795	168.38
254.028	182.38
254.261	164.38
254.494	161.38
254.727	174.38
254.96	191.38
255.193	171.38
255.426	174.38
255.659	171.38
255.892	183.38
256.124	175.38
256.357	164.38
256.59	156.38
256.823	159.38
257.056	165.38
257.289	162.38
257.521	172.38
257.754	164.38
257.987	165.38
258.22	168.38
258.452	170.38
258.685	171.38
258.918	158.38
259.151	170.38
259.383	166.38
259.616	169.38
259.849	165.38
260.081	175.38
260.314	184.38
260.547	189.38
260.779	170.38
261.012	183.38
261.244	179.38
261.477	166.38
261.71	170.38
261.942	151.38
262.175	168.38
262.407	184.38
262.64	165.38
262.872	167.38
263.105	159.38
263.337	166.38
263.57	160.38
263.802	164.38
264.035	155.38
264.267	178.38
264.499	168.38
264.732	170.38
264.964	167.38
265.197	163.38
265.429	167.38
265.661	169.38
265.894	173.38
266.126	161.38
266.358	162.38
266.591	181.38
266.823	190.38
267.055	183.38
267.287	161.38
267.52	174.38
267.752	183.38
267.984	173.38
268.216	182.38
268.448	179.38
268.681	171.38
268.913	183.38
269.145	198.38
269.377	218.38
269.609	196.38
269.841	202.38
270.073	185.38
270.306	202.38
270.538	214.38
270.77	208.38
271.002	213.38
271.234	214.38
271.466	224.38
271.698	221.38
271.93	223.38
272.162	221.38
272.394	220.38
272.626	231.38
272.858	218.38
273.09	194.38
273.322	208.38
273.553	205.38
273.785	192.38
274.017	217.38
274.249	187.38
274.481	206.38
274.713	191.38
274.945	200.38
275.176	191.38
275.408	197.38
275.64	201.38
275.872	215.38
276.104	214.38
276.335	208.38
276.567	219.38
276.799	212.38
277.031	204.38
277.262	232.38
277.494	252.38
277.726	231.38
277.957	215.38
278.189	220.38
278.421	218.38
278.652	213.38
278.884	212.38
279.115	208.38
279.347	213.38
279.579	210.38
279.81	199.38
280.042	208.38
280.273	210.38
280.505	214.38
280.736	201.38
280.968	213.38
281.199	219.38
281.431	220.38
281.662	208.38
281.894	216.38
282.125	208.38
282.356	228.38
282.588	224.38
282.819	226.38
283.051	237.38
283.282	211.38
283.513	203.38
283.745	226.38
283.976	222.38
284.207	229.38
284.439	228.38
284.67	226.38
284.901	234.38
285.132	218.38
285.364	237.38
285.595	220.38
285.826	224.38
286.057	218.38
286.288	246.38
286.52	237.38
286.751	236.38
286.982	233.38
287.213	237.38
287.444	229.38
287.675	236.38
287.906	244.38
288.138	250.38
288.369	222.38
288.6	250.38
288.831	233.38
289.062	239.38
289.293	251.38
289.524	227.38
289.755	236.38
289.986	248.38
290.217	238.38
290.448	236.38
290.679	236.38
290.91	220.38
291.141	220.38
291.371	224.38
291.602	244.38
291.833	235.38
292.064	244.38
292.295	236.38
292.526	239.38
292.757	244.38
292.987	242.38
293.218	234.38
293.449	233.38
293.68	234.38
293.91	221.38
294.141	236.38
294.372	236.38
294.603	255.38
294.833	234.38
295.064	234.38
295.295	243.38
295.525	237.38
295.756	235.38
295.987	246.38
296.217	264.38
296.448	259.38
296.679	245.38
296.909	237.38
297.14	251.38
297.37	250.38
297.601	255.38
297.831	225.38
298.062	244.38
298.292	236.38
298.523	246.38
298.753	246.38
298.984	248.38
299.214	252.38
299.445	247.38
299.675	257.38
299.905	248.38
300.136	235.38
300.366	231.38
300.597	255.38
300.827	244.38
301.057	271.38
301.288	263.38
301.518	264.38
301.748	248.38
301.979	282.38
302.209	286.38
302.439	264.38
302.669	275.38
302.9	265.38
303.13	266.38
303.36	252.38
303.59	273.38
303.82	279.38
304.051	277.38
304.281	264.38
304.511	271.38
304.741	260.38
304.971	261.38
305.201	255.38
305.431	263.38
305.661	266.38
305.891	265.38
306.121	255.38
306.352	263.38
306.582	258.38
306.812	286.38
307.042	255.38
307.272	270.38
307.502	263.38
307.731	269.38
307.961	280.38
308.191	270.38
308.421	254.38
308.651	256.38
308.881	261.38
309.111	266.38
309.341	281.38
309.571	277.38
309.8	261.38
310.03	291.38
310.26	286.38
310.49	282.38
310.72	299.38
310.949	283.38
311.179	276.38
311.409	299.38
311.639	281.38
311.868	278.38
312.098	285.38
312.328	279.38
312.557	286.38
312.787	294.38
313.017	284.38
313.246	283.38
313.476	290.38
313.706	287.38
313.935	288.38
314.165	288.38
314.394	278.38
314.624	307.38
314.853	282.38
315.083	290.38
315.312	305.38
315.542	285.38
315.771	269.38
316.001	283.38
316.23	276.38
316.46	282.38
316.689	303.38
316.919	294.38
317.148	304.38
317.377	308.38
317.607	302.38
317.836	304.38
318.065	296.38
318.295	289.38
318.524	275.38
318.753	272.38
318.983	309.38
319.212	295.38
319.441	287.38
319.67	307.38
319.9	282.38
320.129	281.38
320.358	285.38
320.587	291.38
320.816	288.38
321.046	315.38
321.275	297.38
321.504	295.38
321.733	309.38
321.962	301.38
322.191	316.38
322.42	301.38
322.649	321.38
322.878	284.38
323.108	317.38
323.337	317.38
323.566	311.38
323.795	326.38
324.024	343.38
324.253	358.38
324.482	491.38
324.71	661.38
324.939	852.38
325.168	740.38
325.397	447.38
325.626	359.38
325.855	349.38
326.084	333.38
326.313	327.38
326.542	327.38
326.77	343.38
326.999	378.38
327.228	461.38
327.457	600.38
327.686	662.38
327.914	457.38
328.143	378.38
328.372	361.38
328.6	353.38
328.829	352.38
329.058	350.38
329.287	337.38
329.515	357.38
329.744	329.38
329.972	348.38
330.201	353.38
330.43	367.38
330.658	371.38
330.887	376.38
331.115	380.38
331.344	343.38
331.572	351.38
331.801	340.38
332.03	347.38
332.258	343.38
332.486	343.38
332.715	350.38
332.943	350.38
333.172	364.38
333.4	354.38
333.629	353.38
333.857	373.38
334.085	386.38
334.314	390.38
334.542	391.38
334.771	383.38
334.999	383.38
335.227	371.38
335.455	359.38
335.684	348.38
335.912	353.38
336.14	344.38
336.369	341.38
336.597	352.38
336.825	354.38
337.053	354.38
337.281	348.38
337.51	327.38
337.738	338.38
337.966	332.38
338.194	331.38
338.422	319.38
338.65	336.38
338.878	339.38
339.106	318.38
339.334	343.38
339.562	344.38
339.79	340.38
340.018	318.38
340.246	307.38
340.474	332.38
340.702	319.38
340.93	332.38
341.158	333.38
341.386	318.38
341.614	321.38
341.842	325.38
342.07	315.38
342.298	317.38
342.526	327.38
342.754	319.38
342.981	311.38
343.209	319.38
343.437	328.38
343.665	327.38
343.893	357.38
344.12	372.38
344.348	348.38
344.576	334.38
344.804	353.38
345.031	337.38
345.259	332.38
345.487	322.38
345.714	316.38
345.942	294.38
346.17	314.38
346.397	322.38
346.625	310.38
346.853	286.38
347.08	296.38
347.308	310.38
347.535	308.38
347.763	326.38
347.99	303.38
348.218	296.38
348.445	294.38
348.673	308.38
348.9	315.38
349.128	312.38
349.355	300.38
349.583	290.38
349.81	305.38
350.037	299.38
350.265	309.38
350.492	314.38
350.72	308.38
350.947	304.38
351.174	322.38
351.402	316.38
351.629	293.38
351.856	310.38
352.083	301.38
352.311	303.38
352.538	305.38
352.765	309.38
352.992	306.38
353.22	295.38
353.447	292.38
353.674	291.38
353.901	279.38
354.128	270.38
354.355	282.38
354.583	287.38
354.81	285.38
355.037	293.38
355.264	311.38
355.491	272.38
355.718	300.38
355.945	304.38
356.172	317.38
356.399	303.38
356.626	309.38
356.853	288.38
357.08	285.38
357.307	315.38
357.534	292.38
357.761	282.38
357.988	286.38
358.215	297.38
358.441	306.38
358.668	291.38
358.895	287.38
359.122	300.38
359.349	290.38
359.576	310.38
359.802	302.38
360.029	323.38
360.256	322.38
360.483	307.38
360.709	304.38
360.936	310.38
361.163	316.38
361.39	302.38
361.616	306.38
361.843	299.38
362.07	301.38
362.296	295.38
362.523	301.38
362.749	308.38
362.976	303.38
363.203	303.38
363.429	299.38
363.656	293.38
363.882	299.38
364.109	300.38
364.335	326.38
364.562	303.38
364.788	315.38
365.015	288.38
365.241	302.38
365.468	291.38
365.694	316.38
365.92	290.38
366.147	288.38
366.373	307.38
366.599	314.38
366.826	309.38
367.052	296.38
367.278	292.38
367.505	295.38
367.731	313.38
367.957	304.38
368.184	298.38
368.41	291.38
368.636	303.38
368.862	331.38
369.089	302.38
369.315	304.38
369.541	286.38
369.767	315.38
369.993	308.38
370.219	294.38
370.445	294.38
370.672	295.38
370.898	304.38
371.124	315.38
371.35	325.38
371.576	299.38
371.802	313.38
372.028	304.38
372.254	322.38
372.48	291.38
372.706	306.38
372.932	303.38
373.158	290.38
373.384	333.38
373.61	317.38
373.835	307.38
374.061	315.38
374.287	318.38
374.513	300.38
374.739	329.38
374.965	310.38
375.191	308.38
375.416	310.38
375.642	312.38
375.868	324.38
376.094	298.38
376.319	316.38
376.545	322.38
376.771	307.38
376.997	315.38
377.222	309.38
377.448	312.38
377.674	315.38
377.899	310.38
378.125	303.38
378.35	308.38
378.576	299.38
378.802	298.38
379.027	316.38
379.253	312.38
379.478	295.38
379.704	302.38
379.929	304.38
380.155	304.38
380.38	287.38
380.606	295.38
380.831	301.38
381.057	292.38
381.282	289.38
381.507	326.38
381.733	308.38
381.958	297.38
382.184	317.38
382.409	307.38
382.634	323.38
382.86	326.38
383.085	326.38
383.31	319.38
383.535	296.38
383.761	314.38
383.986	347.38
384.211	324.38
384.436	313.38
384.662	354.38
384.887	343.38
385.112	350.38
385.337	336.38
385.562	343.38
385.787	344.38
386.013	356.38
386.238	333.38
386.463	349.38
386.688	350.38
386.913	343.38
387.138	362.38
387.363	372.38
387.588	334.38
387.813	354.38
388.038	343.38
388.263	346.38
388.488	341.38
388.713	339.38
388.938	329.38
389.163	335.38
389.387	351.38
389.612	334.38
389.837	343.38
390.062	321.38
390.287	335.38
390.512	338.38
390.736	326.38
390.961	346.38
391.186	365.38
391.411	357.38
391.636	351.38
391.86	349.38
392.085	377.38
392.31	360.38
392.534	365.38
392.759	345.38
392.984	349.38
393.208	344.38
393.433	375.38
393.658	353.38
393.882	348.38
394.107	341.38
394.331	348.38
394.556	357.38
394.78	363.38
395.005	358.38
395.229	365.38
395.454	350.38
395.678	368.38
395.903	374.38
396.127	358.38
396.352	380.38
396.576	353.38
396.801	365.38
397.025	360.38
397.249	377.38
397.474	370.38
397.698	356.38
397.922	394.38
398.147	382.38
398.371	378.38
398.595	392.38
398.82	379.38
399.044	409.38
399.268	455.38
399.492	494.38
399.717	505.38
399.941	495.38
400.165	498.38
400.389	475.38
400.613	454.38
400.837	410.38
401.062	400.38
401.286	398.38
401.51	395.38
401.734	416.38
401.958	406.38
402.182	399.38
402.406	414.38
402.63	421.38
402.854	422.38
403.078	412.38
403.302	433.38
403.526	424.38
403.75	427.38
403.974	415.38
404.198	417.38
404.422	454.38
404.645	436.38
404.869	445.38
405.093	440.38
405.317	454.38
405.541	473.38
405.765	440.38
405.988	417.38
406.212	446.38
406.436	464.38
406.66	449.38
406.883	452.38
407.107	474.38
407.331	480.38
407.555	520.38
407.778	509.38
408.002	491.38
408.226	462.38
408.449	452.38
408.673	438.38
408.896	451.38
409.12	470.38
409.344	472.38
409.567	421.38
409.791	411.38
410.014	394.38
410.238	430.38
410.461	427.38
410.685	403.38
410.908	410.38
411.132	393.38
411.355	426.38
411.578	431.38
411.802	419.38
412.025	424.38
412.249	399.38
412.472	425.38
412.695	446.38
412.919	418.38
413.142	398.38
413.365	396.38
413.589	405.38
413.812	408.38
414.035	397.38
414.258	399.38
414.482	383.38
414.705	413.38
414.928	394.38
415.151	402.38
415.374	390.38
415.597	376.38
415.821	370.38
416.044	402.38
416.267	391.38
416.49	392.38
416.713	389.38
416.936	380.38
417.159	376.38
417.382	376.38
417.605	403.38
417.828	407.38
418.051	405.38
418.274	391.38
418.497	404.38
418.72	405.38
418.943	398.38
419.166	398.38
419.389	445.38
419.611	420.38
419.834	422.38
420.057	408.38
420.28	418.38
420.503	407.38
420.726	396.38
420.948	423.38
421.171	405.38
421.394	420.38
421.617	420.38
421.839	407.38
422.062	406.38
422.285	394.38
422.507	413.38
422.73	454.38
422.953	439.38
423.175	418.38
423.398	404.38
423.621	440.38
423.843	422.38
424.066	426.38
424.288	414.38
424.511	415.38
424.733	464.38
424.956	479.38
425.178	475.38
425.401	462.38
425.623	479.38
425.846	394.38
426.068	388.38
426.291	421.38
426.513	383.38
426.735	400.38
426.958	414.38
427.18	443.38
427.402	518.38
427.625	525.38
427.847	452.38
428.069	418.38
428.292	395.38
428.514	386.38
428.736	392.38
428.958	373.38
429.181	372.38
429.403	363.38
429.625	380.38
429.847	386.38
430.069	413.38
430.292	396.38
430.514	386.38
430.736	379.38
430.958	370.38
431.18	378.38
431.402	366.38
431.624	342.38
431.846	368.38
432.068	357.38
432.29	378.38
432.512	377.38
432.734	383.38
432.956	360.38
433.178	366.38
433.4	354.38
433.622	383.38
433.844	381.38
434.066	375.38
434.287	373.38
434.509	379.38
434.731	370.38
434.953	385.38
435.175	397.38
435.397	397.38
435.618	391.38
435.84	410.38
436.062	456.38
436.284	474.38
436.505	432.38
436.727	376.38
436.949	398.38
437.17	373.38
437.392	374.38
437.614	379.38
437.835	404.38
438.057	425.38
438.278	457.38
438.5	449.38
438.721	482.38
438.943	479.38
439.165	431.38
439.386	400.38
439.608	399.38
439.829	392.38
440.05	408.38
440.272	427.38
440.493	411.38
440.715	387.38
440.936	387.38
441.158	385.38
441.379	380.38
441.6	393.38
441.822	422.38
442.043	412.38
442.264	468.38
442.486	453.38
442.707	427.38
442.928	405.38
443.149	407.38
443.371	432.38
443.592	442.38
443.813	463.38
444.034	525.38
444.255	468.38
444.476	439.38
444.698	453.38
444.919	439.38
445.14	542.38
445.361	485.38
445.582	424.38
445.803	451.38
446.024	495.38
446.245	482.38
446.466	441.38
446.687	415.38
446.908	381.38
447.129	363.38
447.35	384.38
447.571	368.38
447.792	360.38
448.013	356.38
448.234	364.38
448.455	389.38
448.675	461.38
448.896	473.38
449.117	449.38
449.338	422.38
449.559	458.38
449.779	511.38
450	416.38
450.221	388.38
450.442	382.38
450.662	351.38
450.883	354.38
451.104	375.38
451.324	360.38
451.545	352.38
451.766	340.38
451.986	343.38
452.207	356.38
452.428	343.38
452.648	343.38
452.869	325.38
453.089	356.38
453.31	323.38
453.53	328.38
453.751	323.38
453.971	313.38
454.192	323.38
454.412	328.38
454.633	329.38
454.853	324.38
455.073	335.38
455.294	339.38
455.514	354.38
455.734	364.38
455.955	343.38
456.175	348.38
456.395	328.38
456.616	326.38
456.836	309.38
457.056	327.38
457.276	334.38
457.497	334.38
457.717	330.38
457.937	331.38
458.157	307.38
458.377	341.38
458.598	339.38
458.818	364.38
459.038	403.38
459.258	406.38
459.478	373.38
459.698	365.38
459.918	378.38
460.138	374.38
460.358	378.38
460.578	403.38
460.798	392.38
461.018	418.38
461.238	405.38
461.458	394.38
461.678	380.38
461.898	377.38
462.118	404.38
462.338	410.38
462.558	416.38
462.777	418.38
462.997	466.38
463.217	476.38
463.437	453.38
463.657	450.38
463.876	435.38
464.096	439.38
464.316	421.38
464.536	427.38
464.755	425.38
464.975	398.38
465.195	417.38
465.414	437.38
465.634	409.38
465.854	386.38
466.073	362.38
466.293	373.38
466.512	366.38
466.732	354.38
466.951	356.38
467.171	390.38
467.391	367.38
467.61	366.38
467.829	388.38
468.049	348.38
468.268	370.38
468.488	329.38
468.707	344.38
468.927	350.38
469.146	352.38
469.365	347.38
469.585	343.38
469.804	364.38
470.023	367.38
470.243	367.38
470.462	378.38
470.681	371.38
470.901	384.38
471.12	367.38
471.339	374.38
471.558	350.38
471.777	353.38
471.997	360.38
472.216	370.38
472.435	348.38
472.654	349.38
472.873	357.38
473.092	355.38
473.311	342.38
473.53	352.38
473.749	355.38
473.968	383.38
474.187	395.38
474.406	418.38
474.625	371.38
474.844	360.38
475.063	353.38
475.282	341.38
475.501	364.38
475.72	371.38
475.939	357.38
476.158	351.38
476.377	360.38
476.596	380.38
476.814	356.38
477.033	361.38
477.252	378.38
477.471	357.38
477.69	390.38
477.908	410.38
478.127	387.38
478.346	399.38
478.564	392.38
478.783	400.38
479.002	417.38
479.22	406.38
479.439	402.38
479.658	438.38
479.876	418.38
480.095	447.38
480.313	428.38
480.532	432.38
480.751	439.38
480.969	423.38
481.188	478.38
481.406	477.38
481.624	424.38
481.843	430.38
482.061	412.38
482.28	390.38
482.498	401.38
482.717	416.38
482.935	380.38
483.153	412.38
483.372	392.38
483.59	416.38
483.808	398.38
484.027	398.38
484.245	416.38
484.463	384.38
484.681	400.38
484.9	430.38
485.118	425.38
485.336	414.38
485.554	438.38
485.772	431.38
485.99	406.38
486.209	419.38
486.427	394.38
486.645	447.38
486.863	419.38
487.081	422.38
487.299	452.38
487.517	440.38
487.735	439.38
487.953	435.38
488.171	442.38
488.389	442.38
488.607	413.38
488.825	436.38
489.043	424.38
489.261	437.38
489.479	426.38
489.696	420.38
489.914	427.38
490.132	452.38
490.35	446.38
490.568	467.38
490.786	468.38
491.003	438.38
491.221	467.38
491.439	480.38
491.657	489.38
491.874	478.38
492.092	473.38
492.31	487.38
492.527	503.38
492.745	504.38
492.963	467.38
493.18	482.38
493.398	467.38
493.615	495.38
493.833	501.38
494.05	506.38
494.268	491.38
494.485	506.38
494.703	500.38
494.92	495.38
495.138	487.38
495.355	487.38
495.573	513.38
495.79	506.38
496.008	488.38
496.225	516.38
496.442	490.38
496.66	495.38
496.877	498.38
497.094	514.38
497.312	493.38
497.529	504.38
497.746	527.38
497.963	527.38
498.181	542.38
498.398	546.38
498.615	594.38
498.832	609.38
499.049	629.38
499.267	668.38
499.484	700.38
499.701	727.38
499.918	765.38
500.135	831.38
500.352	895.38
500.569	916.38
500.786	896.38
501.003	865.38
501.22	838.38
501.437	789.38
501.654	723.38
501.871	704.38
502.088	659.38
502.305	644.38
