Data from 1969.PennyLincolnUp.Lamp.En5.5.200Scan.071719.P1._HRD10591_14-56-26-972.txt Node
Date: Thu Jul 18 14:56:26 EDT 2019
User: cochatt
Spectrometer: HR+D1059
Trigger mode: 1
Integration Time (sec): 1.000000E-1
Scans to average: 1
Electric dark correction enabled: true
Nonlinearity correction enabled: false
Boxcar width: 0
XAxis mode: Wavelengths
Number of Pixels in Spectrum: 2048
>>>>>Begin Spectral Data<<<<<
223.165	-17.69
223.4	-17.69
223.635	-17.69
223.869	-2.69
224.104	-12.69
224.338	-11.69
224.573	-13.69
224.808	-19.69
225.042	-3.69
225.277	8.31
225.511	-5.69
225.746	7.31
225.98	10.31
226.215	3.31
226.449	17.31
226.683	6.31
226.918	20.31
227.152	14.31
227.387	18.31
227.621	37.31
227.856	40.31
228.09	51.31
228.324	60.31
228.559	42.31
228.793	56.31
229.027	91.31
229.262	85.31
229.496	116.31
229.73	118.31
229.964	130.31
230.199	87.31
230.433	98.31
230.667	108.31
230.901	102.31
231.136	100.31
231.37	102.31
231.604	102.31
231.838	103.31
232.072	110.31
232.306	103.31
232.541	109.31
232.775	95.31
233.009	112.31
233.243	112.31
233.477	104.31
233.711	100.31
233.945	102.31
234.179	100.31
234.413	106.31
234.647	122.31
234.881	108.31
235.115	96.31
235.349	102.31
235.583	119.31
235.817	108.31
236.051	110.31
236.285	105.31
236.519	109.31
236.753	128.31
236.987	111.31
237.221	141.31
237.455	198.31
237.689	152.31
237.922	120.31
238.156	120.31
238.39	110.31
238.624	126.31
238.858	114.31
239.091	101.31
239.325	133.31
239.559	127.31
239.793	127.31
240.027	109.31
240.26	130.31
240.494	112.31
240.728	159.31
240.961	136.31
241.195	136.31
241.429	127.31
241.662	126.31
241.896	127.31
242.13	127.31
242.363	105.31
242.597	125.31
242.83	118.31
243.064	137.31
243.298	116.31
243.531	130.31
243.765	136.31
243.998	116.31
244.232	126.31
244.465	126.31
244.699	126.31
244.932	123.31
245.166	126.31
245.399	130.31
245.633	126.31
245.866	128.31
246.099	139.31
246.333	136.31
246.566	138.31
246.8	140.31
247.033	125.31
247.266	139.31
247.5	149.31
247.733	155.31
247.966	151.31
248.2	153.31
248.433	137.31
248.666	158.31
248.899	145.31
249.133	144.31
249.366	174.31
249.599	146.31
249.832	153.31
250.066	154.31
250.299	173.31
250.532	177.31
250.765	181.31
250.998	206.31
251.231	193.31
251.465	183.31
251.698	178.31
251.931	163.31
252.164	169.31
252.397	159.31
252.63	162.31
252.863	182.31
253.096	173.31
253.329	202.31
253.562	191.31
253.795	199.31
254.028	182.31
254.261	162.31
254.494	189.31
254.727	223.31
254.96	218.31
255.193	197.31
255.426	198.31
255.659	183.31
255.892	203.31
256.124	211.31
256.357	194.31
256.59	186.31
256.823	187.31
257.056	199.31
257.289	170.31
257.521	188.31
257.754	168.31
257.987	172.31
258.22	182.31
258.452	172.31
258.685	170.31
258.918	182.31
259.151	196.31
259.383	192.31
259.616	192.31
259.849	198.31
260.081	206.31
260.314	199.31
260.547	200.31
260.779	218.31
261.012	208.31
261.244	183.31
261.477	191.31
261.71	189.31
261.942	195.31
262.175	173.31
262.407	184.31
262.64	175.31
262.872	179.31
263.105	185.31
263.337	185.31
263.57	182.31
263.802	172.31
264.035	178.31
264.267	183.31
264.499	166.31
264.732	190.31
264.964	191.31
265.197	186.31
265.429	192.31
265.661	190.31
265.894	195.31
266.126	191.31
266.358	188.31
266.591	190.31
266.823	209.31
267.055	195.31
267.287	195.31
267.52	203.31
267.752	196.31
267.984	214.31
268.216	202.31
268.448	217.31
268.681	208.31
268.913	229.31
269.145	238.31
269.377	229.31
269.609	238.31
269.841	235.31
270.073	233.31
270.306	258.31
270.538	268.31
270.77	275.31
271.002	258.31
271.234	239.31
271.466	247.31
271.698	258.31
271.93	253.31
272.162	263.31
272.394	250.31
272.626	244.31
272.858	236.31
273.09	239.31
273.322	253.31
273.553	238.31
273.785	232.31
274.017	234.31
274.249	218.31
274.481	224.31
274.713	227.31
274.945	248.31
275.176	231.31
275.408	246.31
275.64	217.31
275.872	226.31
276.104	238.31
276.335	215.31
276.567	223.31
276.799	239.31
277.031	242.31
277.262	264.31
277.494	251.31
277.726	260.31
277.957	248.31
278.189	245.31
278.421	237.31
278.652	239.31
278.884	246.31
279.115	234.31
279.347	247.31
279.579	233.31
279.81	244.31
280.042	239.31
280.273	236.31
280.505	224.31
280.736	244.31
280.968	258.31
281.199	245.31
281.431	262.31
281.662	243.31
281.894	246.31
282.125	235.31
282.356	246.31
282.588	263.31
282.819	254.31
283.051	255.31
283.282	256.31
283.513	242.31
283.745	248.31
283.976	232.31
284.207	262.31
284.439	264.31
284.67	258.31
284.901	225.31
285.132	254.31
285.364	244.31
285.595	261.31
285.826	250.31
286.057	260.31
286.288	268.31
286.52	251.31
286.751	254.31
286.982	252.31
287.213	243.31
287.444	250.31
287.675	242.31
287.906	258.31
288.138	252.31
288.369	270.31
288.6	257.31
288.831	269.31
289.062	258.31
289.293	254.31
289.524	282.31
289.755	255.31
289.986	237.31
290.217	268.31
290.448	279.31
290.679	254.31
290.91	264.31
291.141	237.31
291.371	266.31
291.602	267.31
291.833	276.31
292.064	263.31
292.295	252.31
292.526	272.31
292.757	254.31
292.987	278.31
293.218	275.31
293.449	270.31
293.68	276.31
293.91	252.31
294.141	249.31
294.372	248.31
294.603	274.31
294.833	257.31
295.064	260.31
295.295	263.31
295.525	293.31
295.756	270.31
295.987	278.31
296.217	301.31
296.448	265.31
296.679	268.31
296.909	267.31
297.14	278.31
297.37	270.31
297.601	273.31
297.831	258.31
298.062	264.31
298.292	277.31
298.523	280.31
298.753	288.31
298.984	273.31
299.214	281.31
299.445	291.31
299.675	296.31
299.905	280.31
300.136	295.31
300.366	288.31
300.597	286.31
300.827	271.31
301.057	286.31
301.288	284.31
301.518	296.31
301.748	292.31
301.979	321.31
302.209	306.31
302.439	295.31
302.669	285.31
302.9	293.31
303.13	296.31
303.36	291.31
303.59	286.31
303.82	296.31
304.051	335.31
304.281	280.31
304.511	293.31
304.741	294.31
304.971	314.31
305.201	290.31
305.431	300.31
305.661	306.31
305.891	289.31
306.121	282.31
306.352	298.31
306.582	301.31
306.812	287.31
307.042	287.31
307.272	272.31
307.502	282.31
307.731	298.31
307.961	318.31
308.191	293.31
308.421	297.31
308.651	290.31
308.881	290.31
309.111	302.31
309.341	307.31
309.571	300.31
309.8	327.31
310.03	322.31
310.26	325.31
310.49	320.31
310.72	333.31
310.949	328.31
311.179	320.31
311.409	331.31
311.639	325.31
311.868	317.31
312.098	320.31
312.328	322.31
312.557	317.31
312.787	331.31
313.017	342.31
313.246	327.31
313.476	345.31
313.706	324.31
313.935	327.31
314.165	343.31
314.394	334.31
314.624	349.31
314.853	339.31
315.083	330.31
315.312	338.31
315.542	323.31
315.771	326.31
316.001	314.31
316.23	319.31
316.46	325.31
316.689	321.31
316.919	338.31
317.148	336.31
317.377	319.31
317.607	339.31
317.836	327.31
318.065	316.31
318.295	317.31
318.524	328.31
318.753	322.31
318.983	315.31
319.212	320.31
319.441	320.31
319.67	314.31
319.9	328.31
320.129	334.31
320.358	322.31
320.587	329.31
320.816	322.31
321.046	340.31
321.275	328.31
321.504	316.31
321.733	350.31
321.962	342.31
322.191	358.31
322.42	346.31
322.649	348.31
322.878	371.31
323.108	367.31
323.337	386.31
323.566	384.31
323.795	404.31
324.024	438.31
324.253	479.31
324.482	636.31
324.71	924.31
324.939	1206.31
325.168	1013.31
325.397	547.31
325.626	443.31
325.855	408.31
326.084	388.31
326.313	388.31
326.542	400.31
326.77	418.31
326.999	492.31
327.228	613.31
327.457	845.31
327.686	928.31
327.914	639.31
328.143	484.31
328.372	455.31
328.6	428.31
328.829	416.31
329.058	444.31
329.287	430.31
329.515	405.31
329.744	407.31
329.972	391.31
330.201	407.31
330.43	438.31
330.658	464.31
330.887	449.31
331.115	443.31
331.344	402.31
331.572	394.31
331.801	395.31
332.03	389.31
332.258	399.31
332.486	387.31
332.715	412.31
332.943	415.31
333.172	411.31
333.4	408.31
333.629	435.31
333.857	459.31
334.085	432.31
334.314	444.31
334.542	468.31
334.771	470.31
334.999	443.31
335.227	410.31
335.455	400.31
335.684	402.31
335.912	412.31
336.14	397.31
336.369	406.31
336.597	386.31
336.825	394.31
337.053	390.31
337.281	372.31
337.51	381.31
337.738	375.31
337.966	366.31
338.194	374.31
338.422	373.31
338.65	367.31
338.878	357.31
339.106	358.31
339.334	368.31
339.562	376.31
339.79	333.31
340.018	365.31
340.246	360.31
340.474	373.31
340.702	365.31
340.93	368.31
341.158	365.31
341.386	371.31
341.614	366.31
341.842	357.31
342.07	375.31
342.298	362.31
342.526	354.31
342.754	361.31
342.981	342.31
343.209	346.31
343.437	376.31
343.665	376.31
343.893	392.31
344.12	391.31
344.348	407.31
344.576	384.31
344.804	393.31
345.031	363.31
345.259	392.31
345.487	390.31
345.714	367.31
345.942	353.31
346.17	352.31
346.397	349.31
346.625	328.31
346.853	370.31
347.08	350.31
347.308	352.31
347.535	336.31
347.763	344.31
347.99	363.31
348.218	352.31
348.445	359.31
348.673	351.31
348.9	347.31
349.128	348.31
349.355	332.31
349.583	350.31
349.81	348.31
350.037	356.31
350.265	343.31
350.492	349.31
350.72	338.31
350.947	329.31
351.174	351.31
351.402	340.31
351.629	342.31
351.856	352.31
352.083	352.31
352.311	370.31
352.538	365.31
352.765	355.31
352.992	339.31
353.22	346.31
353.447	337.31
353.674	342.31
353.901	335.31
354.128	349.31
354.355	295.31
354.583	331.31
354.81	322.31
355.037	330.31
355.264	332.31
355.491	317.31
355.718	328.31
355.945	330.31
356.172	340.31
356.399	324.31
356.626	333.31
356.853	344.31
357.08	304.31
357.307	322.31
357.534	322.31
357.761	335.31
357.988	316.31
358.215	307.31
358.441	303.31
358.668	334.31
358.895	333.31
359.122	331.31
359.349	333.31
359.576	342.31
359.802	340.31
360.029	364.31
360.256	370.31
360.483	365.31
360.709	359.31
360.936	363.31
361.163	348.31
361.39	348.31
361.616	349.31
361.843	338.31
362.07	335.31
362.296	316.31
362.523	344.31
362.749	327.31
362.976	335.31
363.203	330.31
363.429	344.31
363.656	331.31
363.882	323.31
364.109	347.31
364.335	329.31
364.562	310.31
364.788	317.31
365.015	341.31
365.241	342.31
365.468	328.31
365.694	314.31
365.92	338.31
366.147	327.31
366.373	334.31
366.599	326.31
366.826	339.31
367.052	326.31
367.278	348.31
367.505	316.31
367.731	342.31
367.957	332.31
368.184	318.31
368.41	333.31
368.636	359.31
368.862	343.31
369.089	334.31
369.315	324.31
369.541	352.31
369.767	326.31
369.993	326.31
370.219	334.31
370.445	320.31
370.672	332.31
370.898	328.31
371.124	329.31
371.35	357.31
371.576	336.31
371.802	333.31
372.028	346.31
372.254	332.31
372.48	332.31
372.706	351.31
372.932	336.31
373.158	357.31
373.384	346.31
373.61	342.31
373.835	363.31
374.061	338.31
374.287	350.31
374.513	355.31
374.739	349.31
374.965	336.31
375.191	348.31
375.416	357.31
375.642	346.31
375.868	352.31
376.094	336.31
376.319	340.31
376.545	341.31
376.771	333.31
376.997	336.31
377.222	343.31
377.448	318.31
377.674	332.31
377.899	339.31
378.125	340.31
378.35	330.31
378.576	339.31
378.802	336.31
379.027	347.31
379.253	339.31
379.478	346.31
379.704	343.31
379.929	344.31
380.155	326.31
380.38	323.31
380.606	330.31
380.831	337.31
381.057	336.31
381.282	338.31
381.507	334.31
381.733	330.31
381.958	333.31
382.184	343.31
382.409	345.31
382.634	349.31
382.86	334.31
383.085	355.31
383.31	362.31
383.535	380.31
383.761	347.31
383.986	359.31
384.211	388.31
384.436	354.31
384.662	376.31
384.887	376.31
385.112	383.31
385.337	363.31
385.562	370.31
385.787	357.31
386.013	389.31
386.238	398.31
386.463	377.31
386.688	381.31
386.913	355.31
387.138	379.31
387.363	364.31
387.588	350.31
387.813	369.31
388.038	360.31
388.263	396.31
388.488	378.31
388.713	393.31
388.938	346.31
389.163	362.31
389.387	362.31
389.612	366.31
389.837	359.31
390.062	366.31
390.287	378.31
390.512	372.31
390.736	376.31
390.961	365.31
391.186	365.31
391.411	382.31
391.636	376.31
391.86	384.31
392.085	403.31
392.31	395.31
392.534	395.31
392.759	401.31
392.984	395.31
393.208	381.31
393.433	397.31
393.658	376.31
393.882	380.31
394.107	379.31
394.331	383.31
394.556	401.31
394.78	382.31
395.005	401.31
395.229	384.31
395.454	380.31
395.678	400.31
395.903	393.31
396.127	417.31
396.352	398.31
396.576	418.31
396.801	394.31
397.025	378.31
397.249	401.31
397.474	391.31
397.698	404.31
397.922	400.31
398.147	395.31
398.371	410.31
398.595	419.31
398.82	460.31
399.044	444.31
399.268	461.31
399.492	514.31
399.717	551.31
399.941	572.31
400.165	544.31
400.389	516.31
400.613	494.31
400.837	442.31
401.062	446.31
401.286	448.31
401.51	422.31
401.734	436.31
401.958	453.31
402.182	454.31
402.406	451.31
402.63	461.31
402.854	449.31
403.078	456.31
403.302	461.31
403.526	483.31
403.75	468.31
403.974	472.31
404.198	476.31
404.422	482.31
404.645	469.31
404.869	473.31
405.093	471.31
405.317	513.31
405.541	534.31
405.765	483.31
405.988	470.31
406.212	500.31
406.436	494.31
406.66	495.31
406.883	515.31
407.107	519.31
407.331	540.31
407.555	580.31
407.778	594.31
408.002	555.31
408.226	505.31
408.449	489.31
408.673	503.31
408.896	493.31
409.12	516.31
409.344	508.31
409.567	468.31
409.791	474.31
410.014	447.31
410.238	448.31
410.461	452.31
410.685	466.31
410.908	476.31
411.132	485.31
411.355	477.31
411.578	494.31
411.802	439.31
412.025	472.31
412.249	466.31
412.472	464.31
412.695	488.31
412.919	487.31
413.142	482.31
413.365	431.31
413.589	443.31
413.812	432.31
414.035	449.31
414.258	440.31
414.482	452.31
414.705	434.31
414.928	407.31
415.151	431.31
415.374	431.31
415.597	439.31
415.821	430.31
416.044	419.31
416.267	440.31
416.49	432.31
416.713	420.31
416.936	427.31
417.159	438.31
417.382	432.31
417.605	419.31
417.828	469.31
418.051	448.31
418.274	468.31
418.497	443.31
418.72	447.31
418.943	430.31
419.166	468.31
419.389	491.31
419.611	456.31
419.834	475.31
420.057	456.31
420.28	471.31
420.503	429.31
420.726	440.31
420.948	450.31
421.171	468.31
421.394	497.31
421.617	455.31
421.839	448.31
422.062	448.31
422.285	446.31
422.507	489.31
422.73	528.31
422.953	510.31
423.175	466.31
423.398	455.31
423.621	463.31
423.843	474.31
424.066	482.31
424.288	480.31
424.511	480.31
424.733	502.31
424.956	560.31
425.178	505.31
425.401	530.31
425.623	529.31
425.846	476.31
426.068	461.31
426.291	438.31
426.513	447.31
426.735	457.31
426.958	466.31
427.18	524.31
427.402	584.31
427.625	620.31
427.847	541.31
428.069	495.31
428.292	477.31
428.514	442.31
428.736	418.31
428.958	412.31
429.181	406.31
429.403	409.31
429.625	424.31
429.847	454.31
430.069	470.31
430.292	471.31
430.514	417.31
430.736	424.31
430.958	407.31
431.18	419.31
431.402	418.31
431.624	392.31
431.846	400.31
432.068	393.31
432.29	409.31
432.512	404.31
432.734	397.31
432.956	423.31
433.178	393.31
433.4	386.31
433.622	408.31
433.844	425.31
434.066	392.31
434.287	420.31
434.509	422.31
434.731	423.31
434.953	424.31
435.175	440.31
435.397	472.31
435.618	449.31
435.84	486.31
436.062	515.31
436.284	532.31
436.505	462.31
436.727	443.31
436.949	425.31
437.17	417.31
437.392	404.31
437.614	430.31
437.835	431.31
438.057	488.31
438.278	523.31
438.5	553.31
438.721	587.31
438.943	566.31
439.165	471.31
439.386	445.31
439.608	456.31
439.829	438.31
440.05	454.31
440.272	466.31
440.493	466.31
440.715	442.31
440.936	439.31
441.158	440.31
441.379	438.31
441.6	455.31
441.822	468.31
442.043	495.31
442.264	544.31
442.486	549.31
442.707	506.31
442.928	469.31
443.149	478.31
443.371	483.31
443.592	508.31
443.813	575.31
444.034	575.31
444.255	490.31
444.476	475.31
444.698	472.31
444.919	490.31
445.14	564.31
445.361	529.31
445.582	486.31
445.803	526.31
446.024	581.31
446.245	562.31
446.466	509.31
446.687	436.31
446.908	433.31
447.129	422.31
447.35	416.31
447.571	410.31
447.792	405.31
448.013	398.31
448.234	438.31
448.455	442.31
448.675	533.31
448.896	554.31
449.117	508.31
449.338	474.31
449.559	551.31
449.779	570.31
450	496.31
450.221	441.31
450.442	406.31
450.662	406.31
450.883	409.31
451.104	428.31
451.324	401.31
451.545	390.31
451.766	370.31
451.986	379.31
452.207	383.31
452.428	376.31
452.648	381.31
452.869	381.31
453.089	381.31
453.31	377.31
453.53	376.31
453.751	393.31
453.971	388.31
454.192	370.31
454.412	367.31
454.633	375.31
454.853	384.31
455.073	374.31
455.294	395.31
455.514	415.31
455.734	407.31
455.955	375.31
456.175	346.31
456.395	358.31
456.616	353.31
456.836	359.31
457.056	337.31
457.276	349.31
457.497	359.31
457.717	349.31
457.937	364.31
458.157	359.31
458.377	363.31
458.598	380.31
458.818	404.31
459.038	465.31
459.258	464.31
459.478	430.31
459.698	421.31
459.918	427.31
460.138	419.31
460.358	421.31
460.578	426.31
460.798	439.31
461.018	452.31
461.238	418.31
461.458	435.31
461.678	421.31
461.898	423.31
462.118	430.31
462.338	452.31
462.558	438.31
462.777	464.31
462.997	492.31
463.217	498.31
463.437	535.31
463.657	467.31
463.876	467.31
464.096	476.31
464.316	461.31
464.536	479.31
464.755	480.31
464.975	453.31
465.195	482.31
465.414	515.31
465.634	458.31
465.854	442.31
466.073	418.31
466.293	393.31
466.512	390.31
466.732	393.31
466.951	399.31
467.171	412.31
467.391	405.31
467.61	389.31
467.829	401.31
468.049	394.31
468.268	412.31
468.488	388.31
468.707	374.31
468.927	387.31
469.146	392.31
469.365	397.31
469.585	382.31
469.804	401.31
470.023	402.31
470.243	395.31
470.462	404.31
470.681	412.31
470.901	414.31
471.12	419.31
471.339	394.31
471.558	396.31
471.777	364.31
471.997	373.31
472.216	398.31
472.435	412.31
472.654	396.31
472.873	374.31
473.092	386.31
473.311	380.31
473.53	401.31
473.749	377.31
473.968	419.31
474.187	475.31
474.406	480.31
474.625	418.31
474.844	398.31
475.063	397.31
475.282	394.31
475.501	390.31
475.72	394.31
475.939	392.31
476.158	411.31
476.377	400.31
476.596	411.31
476.814	415.31
477.033	409.31
477.252	421.31
477.471	409.31
477.69	442.31
477.908	422.31
478.127	439.31
478.346	429.31
478.564	462.31
478.783	462.31
479.002	463.31
479.22	464.31
479.439	449.31
479.658	472.31
479.876	471.31
480.095	476.31
480.313	486.31
480.532	508.31
480.751	498.31
480.969	490.31
481.188	548.31
481.406	536.31
481.624	473.31
481.843	475.31
482.061	444.31
482.28	465.31
482.498	438.31
482.717	422.31
482.935	451.31
483.153	442.31
483.372	435.31
483.59	457.31
483.808	448.31
484.027	451.31
484.245	452.31
484.463	443.31
484.681	467.31
484.9	481.31
485.118	462.31
485.336	453.31
485.554	438.31
485.772	462.31
485.99	468.31
486.209	491.31
486.427	460.31
486.645	471.31
486.863	473.31
487.081	454.31
487.299	468.31
487.517	448.31
487.735	487.31
487.953	466.31
488.171	470.31
488.389	453.31
488.607	483.31
488.825	472.31
489.043	487.31
489.261	474.31
489.479	474.31
489.696	504.31
489.914	480.31
490.132	493.31
490.35	490.31
490.568	501.31
490.786	526.31
491.003	542.31
491.221	518.31
491.439	535.31
491.657	537.31
491.874	534.31
492.092	554.31
492.31	553.31
492.527	552.31
492.745	573.31
492.963	557.31
493.18	538.31
493.398	553.31
493.615	567.31
493.833	578.31
494.05	552.31
494.268	578.31
494.485	558.31
494.703	542.31
494.92	556.31
495.138	576.31
495.355	567.31
495.573	577.31
495.79	587.31
496.008	583.31
496.225	551.31
496.442	555.31
496.66	556.31
496.877	580.31
497.094	598.31
497.312	559.31
497.529	598.31
497.746	601.31
497.963	594.31
498.181	626.31
498.398	644.31
498.615	652.31
498.832	667.31
499.049	665.31
499.267	730.31
499.484	790.31
499.701	845.31
499.918	834.31
500.135	918.31
500.352	986.31
500.569	994.31
500.786	999.31
501.003	977.31
501.22	897.31
501.437	860.31
501.654	799.31
501.871	760.31
502.088	701.31
