Data from 1969.PennyLincolnUp.Lamp.En5.5.200Scan.071719.P1._HRD10591_14-55-03-972.txt Node
Date: Thu Jul 18 14:55:03 EDT 2019
User: cochatt
Spectrometer: HR+D1059
Trigger mode: 1
Integration Time (sec): 1.000000E-1
Scans to average: 1
Electric dark correction enabled: true
Nonlinearity correction enabled: false
Boxcar width: 0
XAxis mode: Wavelengths
Number of Pixels in Spectrum: 2048
>>>>>Begin Spectral Data<<<<<
223.165	-1.19
223.4	-1.19
223.635	-1.19
223.869	-13.19
224.104	-18.19
224.338	-13.19
224.573	-19.19
224.808	-8.19
225.042	-18.19
225.277	-1.19
225.511	-8.19
225.746	10.81
225.98	10.81
226.215	9.81
226.449	24.81
226.683	15.81
226.918	16.81
227.152	11.81
227.387	31.81
227.621	33.81
227.856	54.81
228.09	47.81
228.324	56.81
228.559	66.81
228.793	62.81
229.027	86.81
229.262	91.81
229.496	75.81
229.73	108.81
229.964	112.81
230.199	121.81
230.433	108.81
230.667	113.81
230.901	108.81
231.136	100.81
231.37	100.81
231.604	103.81
231.838	102.81
232.072	112.81
232.306	109.81
232.541	120.81
232.775	124.81
233.009	104.81
233.243	102.81
233.477	102.81
233.711	97.81
233.945	108.81
234.179	106.81
234.413	104.81
234.647	94.81
234.881	98.81
235.115	123.81
235.349	110.81
235.583	114.81
235.817	108.81
236.051	89.81
236.285	104.81
236.519	125.81
236.753	119.81
236.987	124.81
237.221	146.81
237.455	160.81
237.689	140.81
237.922	124.81
238.156	112.81
238.39	117.81
238.624	124.81
238.858	118.81
239.091	113.81
239.325	123.81
239.559	119.81
239.793	136.81
240.027	122.81
240.26	127.81
240.494	128.81
240.728	126.81
240.961	135.81
241.195	124.81
241.429	122.81
241.662	147.81
241.896	124.81
242.13	133.81
242.363	124.81
242.597	105.81
242.83	123.81
243.064	123.81
243.298	118.81
243.531	134.81
243.765	116.81
243.998	110.81
244.232	147.81
244.465	116.81
244.699	128.81
244.932	128.81
245.166	131.81
245.399	141.81
245.633	136.81
245.866	135.81
246.099	118.81
246.333	138.81
246.566	130.81
246.8	137.81
247.033	121.81
247.266	145.81
247.5	144.81
247.733	153.81
247.966	146.81
248.2	151.81
248.433	144.81
248.666	161.81
248.899	163.81
249.133	182.81
249.366	172.81
249.599	154.81
249.832	163.81
250.066	150.81
250.299	155.81
250.532	155.81
250.765	173.81
250.998	181.81
251.231	183.81
251.465	173.81
251.698	173.81
251.931	168.81
252.164	150.81
252.397	167.81
252.63	170.81
252.863	166.81
253.096	172.81
253.329	173.81
253.562	175.81
253.795	175.81
254.028	197.81
254.261	183.81
254.494	170.81
254.727	188.81
254.96	208.81
255.193	185.81
255.426	177.81
255.659	185.81
255.892	189.81
256.124	170.81
256.357	184.81
256.59	176.81
256.823	173.81
257.056	169.81
257.289	194.81
257.521	172.81
257.754	185.81
257.987	185.81
258.22	175.81
258.452	169.81
258.685	180.81
258.918	169.81
259.151	194.81
259.383	180.81
259.616	189.81
259.849	190.81
260.081	186.81
260.314	183.81
260.547	209.81
260.779	190.81
261.012	181.81
261.244	181.81
261.477	171.81
261.71	188.81
261.942	188.81
262.175	193.81
262.407	188.81
262.64	176.81
262.872	196.81
263.105	176.81
263.337	178.81
263.57	207.81
263.802	173.81
264.035	184.81
264.267	184.81
264.499	198.81
264.732	194.81
264.964	187.81
265.197	191.81
265.429	175.81
265.661	164.81
265.894	200.81
266.126	169.81
266.358	173.81
266.591	200.81
266.823	191.81
267.055	198.81
267.287	224.81
267.52	204.81
267.752	199.81
267.984	188.81
268.216	197.81
268.448	190.81
268.681	189.81
268.913	205.81
269.145	215.81
269.377	223.81
269.609	215.81
269.841	229.81
270.073	217.81
270.306	236.81
270.538	234.81
270.77	244.81
271.002	222.81
271.234	224.81
271.466	244.81
271.698	240.81
271.93	244.81
272.162	261.81
272.394	260.81
272.626	249.81
272.858	207.81
273.09	232.81
273.322	237.81
273.553	211.81
273.785	235.81
274.017	231.81
274.249	221.81
274.481	209.81
274.713	227.81
274.945	219.81
275.176	224.81
275.408	219.81
275.64	232.81
275.872	222.81
276.104	219.81
276.335	230.81
276.567	248.81
276.799	239.81
277.031	233.81
277.262	270.81
277.494	277.81
277.726	236.81
277.957	240.81
278.189	228.81
278.421	226.81
278.652	235.81
278.884	223.81
279.115	233.81
279.347	236.81
279.579	228.81
279.81	211.81
280.042	205.81
280.273	231.81
280.505	231.81
280.736	237.81
280.968	239.81
281.199	227.81
281.431	244.81
281.662	226.81
281.894	236.81
282.125	233.81
282.356	232.81
282.588	248.81
282.819	235.81
283.051	250.81
283.282	224.81
283.513	248.81
283.745	248.81
283.976	241.81
284.207	239.81
284.439	237.81
284.67	248.81
284.901	229.81
285.132	232.81
285.364	233.81
285.595	232.81
285.826	248.81
286.057	243.81
286.288	246.81
286.52	256.81
286.751	240.81
286.982	250.81
287.213	250.81
287.444	250.81
287.675	264.81
287.906	273.81
288.138	263.81
288.369	282.81
288.6	263.81
288.831	256.81
289.062	255.81
289.293	258.81
289.524	260.81
289.755	264.81
289.986	255.81
290.217	275.81
290.448	244.81
290.679	247.81
290.91	247.81
291.141	250.81
291.371	265.81
291.602	269.81
291.833	271.81
292.064	248.81
292.295	259.81
292.526	233.81
292.757	261.81
292.987	255.81
293.218	250.81
293.449	254.81
293.68	264.81
293.91	255.81
294.141	258.81
294.372	262.81
294.603	249.81
294.833	264.81
295.064	254.81
295.295	264.81
295.525	238.81
295.756	262.81
295.987	276.81
296.217	273.81
296.448	302.81
296.679	272.81
296.909	278.81
297.14	252.81
297.37	273.81
297.601	283.81
297.831	293.81
298.062	277.81
298.292	265.81
298.523	281.81
298.753	292.81
298.984	286.81
299.214	272.81
299.445	270.81
299.675	285.81
299.905	264.81
300.136	272.81
300.366	268.81
300.597	275.81
300.827	295.81
301.057	303.81
301.288	304.81
301.518	291.81
301.748	305.81
301.979	291.81
302.209	296.81
302.439	305.81
302.669	283.81
302.9	296.81
303.13	280.81
303.36	277.81
303.59	297.81
303.82	310.81
304.051	301.81
304.281	272.81
304.511	295.81
304.741	281.81
304.971	294.81
305.201	278.81
305.431	282.81
305.661	290.81
305.891	308.81
306.121	269.81
306.352	278.81
306.582	305.81
306.812	294.81
307.042	298.81
307.272	292.81
307.502	296.81
307.731	281.81
307.961	270.81
308.191	305.81
308.421	291.81
308.651	286.81
308.881	310.81
309.111	293.81
309.341	281.81
309.571	305.81
309.8	288.81
310.03	312.81
310.26	315.81
310.49	300.81
310.72	294.81
310.949	302.81
311.179	323.81
311.409	296.81
311.639	316.81
311.868	285.81
312.098	310.81
312.328	319.81
312.557	338.81
312.787	316.81
313.017	338.81
313.246	321.81
313.476	318.81
313.706	316.81
313.935	332.81
314.165	356.81
314.394	319.81
314.624	308.81
314.853	324.81
315.083	331.81
315.312	315.81
315.542	298.81
315.771	312.81
316.001	301.81
316.23	325.81
316.46	312.81
316.689	329.81
316.919	312.81
317.148	316.81
317.377	323.81
317.607	305.81
317.836	311.81
318.065	300.81
318.295	321.81
318.524	317.81
318.753	305.81
318.983	318.81
319.212	319.81
319.441	334.81
319.67	333.81
319.9	312.81
320.129	305.81
320.358	308.81
320.587	335.81
320.816	306.81
321.046	341.81
321.275	324.81
321.504	314.81
321.733	313.81
321.962	311.81
322.191	337.81
322.42	315.81
322.649	348.81
322.878	346.81
323.108	333.81
323.337	348.81
323.566	354.81
323.795	359.81
324.024	388.81
324.253	447.81
324.482	600.81
324.71	852.81
324.939	1061.81
325.168	894.81
325.397	546.81
325.626	411.81
325.855	377.81
326.084	390.81
326.313	364.81
326.542	386.81
326.77	391.81
326.999	454.81
327.228	562.81
327.457	748.81
327.686	826.81
327.914	616.81
328.143	446.81
328.372	428.81
328.6	415.81
328.829	388.81
329.058	400.81
329.287	402.81
329.515	382.81
329.744	383.81
329.972	400.81
330.201	403.81
330.43	426.81
330.658	434.81
330.887	413.81
331.115	426.81
331.344	392.81
331.572	379.81
331.801	390.81
332.03	414.81
332.258	395.81
332.486	385.81
332.715	380.81
332.943	390.81
333.172	399.81
333.4	399.81
333.629	405.81
333.857	412.81
334.085	420.81
334.314	411.81
334.542	448.81
334.771	458.81
334.999	413.81
335.227	398.81
335.455	397.81
335.684	386.81
335.912	390.81
336.14	402.81
336.369	383.81
336.597	380.81
336.825	370.81
337.053	361.81
337.281	373.81
337.51	358.81
337.738	372.81
337.966	361.81
338.194	370.81
338.422	379.81
338.65	372.81
338.878	363.81
339.106	360.81
339.334	358.81
339.562	358.81
339.79	349.81
340.018	367.81
340.246	348.81
340.474	358.81
340.702	351.81
340.93	345.81
341.158	341.81
341.386	350.81
341.614	352.81
341.842	349.81
342.07	334.81
342.298	358.81
342.526	359.81
342.754	357.81
342.981	341.81
343.209	346.81
343.437	372.81
343.665	361.81
343.893	382.81
344.12	382.81
344.348	383.81
344.576	370.81
344.804	358.81
345.031	364.81
345.259	353.81
345.487	356.81
345.714	346.81
345.942	336.81
346.17	351.81
346.397	360.81
346.625	339.81
346.853	357.81
347.08	328.81
347.308	338.81
347.535	328.81
347.763	359.81
347.99	355.81
348.218	356.81
348.445	352.81
348.673	346.81
348.9	356.81
349.128	329.81
349.355	322.81
349.583	320.81
349.81	329.81
350.037	342.81
350.265	336.81
350.492	333.81
350.72	325.81
350.947	348.81
351.174	343.81
351.402	349.81
351.629	348.81
351.856	346.81
352.083	327.81
352.311	354.81
352.538	316.81
352.765	341.81
352.992	338.81
353.22	340.81
353.447	338.81
353.674	335.81
353.901	325.81
354.128	327.81
354.355	315.81
354.583	331.81
354.81	337.81
355.037	343.81
355.264	334.81
355.491	336.81
355.718	308.81
355.945	322.81
356.172	319.81
356.399	315.81
356.626	342.81
356.853	325.81
357.08	346.81
357.307	315.81
357.534	305.81
357.761	318.81
357.988	328.81
358.215	321.81
358.441	312.81
358.668	318.81
358.895	336.81
359.122	317.81
359.349	317.81
359.576	317.81
359.802	348.81
360.029	353.81
360.256	361.81
360.483	330.81
360.709	345.81
360.936	335.81
361.163	339.81
361.39	333.81
361.616	325.81
361.843	330.81
362.07	336.81
362.296	329.81
362.523	311.81
362.749	339.81
362.976	305.81
363.203	346.81
363.429	313.81
363.656	327.81
363.882	337.81
364.109	337.81
364.335	319.81
364.562	312.81
364.788	317.81
365.015	336.81
365.241	349.81
365.468	318.81
365.694	325.81
365.92	319.81
366.147	318.81
366.373	320.81
366.599	329.81
366.826	320.81
367.052	315.81
367.278	340.81
367.505	314.81
367.731	320.81
367.957	313.81
368.184	309.81
368.41	313.81
368.636	344.81
368.862	352.81
369.089	360.81
369.315	342.81
369.541	338.81
369.767	342.81
369.993	329.81
370.219	316.81
370.445	329.81
370.672	324.81
370.898	325.81
371.124	322.81
371.35	343.81
371.576	346.81
371.802	339.81
372.028	324.81
372.254	339.81
372.48	339.81
372.706	330.81
372.932	343.81
373.158	350.81
373.384	333.81
373.61	330.81
373.835	316.81
374.061	352.81
374.287	322.81
374.513	332.81
374.739	343.81
374.965	325.81
375.191	345.81
375.416	349.81
375.642	326.81
375.868	340.81
376.094	336.81
376.319	325.81
376.545	346.81
376.771	353.81
376.997	345.81
377.222	324.81
377.448	341.81
377.674	336.81
377.899	308.81
378.125	305.81
378.35	335.81
378.576	327.81
378.802	329.81
379.027	349.81
379.253	329.81
379.478	326.81
379.704	305.81
379.929	331.81
380.155	327.81
380.38	344.81
380.606	333.81
380.831	342.81
381.057	304.81
381.282	330.81
381.507	314.81
381.733	332.81
381.958	331.81
382.184	337.81
382.409	314.81
382.634	345.81
382.86	334.81
383.085	351.81
383.31	350.81
383.535	367.81
383.761	359.81
383.986	337.81
384.211	353.81
384.436	366.81
384.662	381.81
384.887	345.81
385.112	350.81
385.337	373.81
385.562	369.81
385.787	364.81
386.013	388.81
386.238	365.81
386.463	367.81
386.688	379.81
386.913	363.81
387.138	373.81
387.363	370.81
387.588	374.81
387.813	369.81
388.038	390.81
388.263	378.81
388.488	380.81
388.713	383.81
388.938	367.81
389.163	377.81
389.387	364.81
389.612	366.81
389.837	364.81
390.062	360.81
390.287	375.81
390.512	362.81
390.736	361.81
390.961	361.81
391.186	364.81
391.411	394.81
391.636	372.81
391.86	397.81
392.085	388.81
392.31	377.81
392.534	370.81
392.759	352.81
392.984	368.81
393.208	357.81
393.433	354.81
393.658	367.81
393.882	378.81
394.107	384.81
394.331	369.81
394.556	382.81
394.78	363.81
395.005	396.81
395.229	372.81
395.454	378.81
395.678	398.81
395.903	398.81
396.127	397.81
396.352	413.81
396.576	402.81
396.801	363.81
397.025	380.81
397.249	380.81
397.474	390.81
397.698	413.81
397.922	409.81
398.147	407.81
398.371	424.81
398.595	430.81
398.82	444.81
399.044	429.81
399.268	470.81
399.492	504.81
399.717	522.81
399.941	557.81
400.165	554.81
400.389	508.81
400.613	484.81
400.837	444.81
401.062	424.81
401.286	440.81
401.51	453.81
401.734	402.81
401.958	438.81
402.182	426.81
402.406	434.81
402.63	455.81
402.854	448.81
403.078	468.81
403.302	444.81
403.526	448.81
403.75	453.81
403.974	457.81
404.198	470.81
404.422	457.81
404.645	459.81
404.869	479.81
405.093	477.81
405.317	513.81
405.541	510.81
405.765	497.81
405.988	462.81
406.212	489.81
406.436	465.81
406.66	493.81
406.883	479.81
407.107	522.81
407.331	522.81
407.555	570.81
407.778	535.81
408.002	537.81
408.226	496.81
408.449	493.81
408.673	459.81
408.896	480.81
409.12	492.81
409.344	489.81
409.567	461.81
409.791	457.81
410.014	456.81
410.238	459.81
410.461	437.81
410.685	463.81
410.908	461.81
411.132	453.81
411.355	491.81
411.578	466.81
411.802	460.81
412.025	429.81
412.249	455.81
412.472	468.81
412.695	470.81
412.919	466.81
413.142	449.81
413.365	423.81
413.589	449.81
413.812	440.81
414.035	436.81
414.258	401.81
414.482	424.81
414.705	416.81
414.928	440.81
415.151	398.81
415.374	409.81
415.597	409.81
415.821	403.81
416.044	423.81
416.267	443.81
416.49	426.81
416.713	414.81
416.936	421.81
417.159	433.81
417.382	412.81
417.605	429.81
417.828	446.81
418.051	452.81
418.274	428.81
418.497	428.81
418.72	427.81
418.943	404.81
419.166	439.81
419.389	472.81
419.611	443.81
419.834	444.81
420.057	467.81
420.28	438.81
420.503	443.81
420.726	425.81
420.948	433.81
421.171	476.81
421.394	486.81
421.617	436.81
421.839	434.81
422.062	441.81
422.285	426.81
422.507	482.81
422.73	506.81
422.953	493.81
423.175	440.81
423.398	444.81
423.621	455.81
423.843	456.81
424.066	441.81
424.288	446.81
424.511	458.81
424.733	510.81
424.956	537.81
425.178	516.81
425.401	500.81
425.623	521.81
425.846	469.81
426.068	432.81
426.291	446.81
426.513	438.81
426.735	429.81
426.958	462.81
427.18	504.81
427.402	578.81
427.625	594.81
427.847	534.81
428.069	461.81
428.292	438.81
428.514	431.81
428.736	402.81
428.958	388.81
429.181	394.81
429.403	398.81
429.625	410.81
429.847	410.81
430.069	460.81
430.292	437.81
430.514	406.81
430.736	401.81
430.958	395.81
431.18	407.81
431.402	407.81
431.624	392.81
431.846	400.81
432.068	391.81
432.29	408.81
432.512	408.81
432.734	401.81
432.956	404.81
433.178	401.81
433.4	420.81
433.622	410.81
433.844	391.81
434.066	397.81
434.287	412.81
434.509	420.81
434.731	422.81
434.953	410.81
435.175	446.81
435.397	458.81
435.618	440.81
435.84	458.81
436.062	491.81
436.284	526.81
436.505	450.81
436.727	429.81
436.949	410.81
437.17	422.81
437.392	394.81
437.614	393.81
437.835	430.81
438.057	480.81
438.278	530.81
438.5	538.81
438.721	554.81
438.943	530.81
439.165	454.81
439.386	441.81
439.608	426.81
439.829	432.81
440.05	444.81
440.272	446.81
440.493	437.81
440.715	440.81
440.936	414.81
441.158	403.81
441.379	422.81
441.6	435.81
441.822	456.81
442.043	473.81
442.264	508.81
442.486	525.81
442.707	450.81
442.928	460.81
443.149	466.81
443.371	457.81
443.592	494.81
443.813	549.81
444.034	564.81
444.255	498.81
444.476	494.81
444.698	469.81
444.919	474.81
445.14	573.81
445.361	498.81
445.582	463.81
445.803	494.81
446.024	529.81
446.245	515.81
446.466	488.81
446.687	452.81
446.908	430.81
447.129	416.81
447.35	403.81
447.571	408.81
447.792	389.81
448.013	386.81
448.234	408.81
448.455	423.81
448.675	488.81
448.896	559.81
449.117	492.81
449.338	458.81
449.559	534.81
449.779	559.81
450	487.81
450.221	411.81
450.442	401.81
450.662	412.81
450.883	376.81
451.104	376.81
451.324	383.81
451.545	365.81
451.766	372.81
451.986	381.81
452.207	360.81
452.428	364.81
452.648	361.81
452.869	344.81
453.089	350.81
453.31	364.81
453.53	350.81
453.751	361.81
453.971	349.81
454.192	377.81
454.412	376.81
454.633	349.81
454.853	344.81
455.073	345.81
455.294	387.81
455.514	418.81
455.734	392.81
455.955	365.81
456.175	340.81
456.395	335.81
456.616	348.81
456.836	346.81
457.056	351.81
457.276	342.81
457.497	361.81
457.717	372.81
457.937	359.81
458.157	365.81
458.377	376.81
458.598	385.81
458.818	418.81
459.038	440.81
459.258	444.81
459.478	412.81
459.698	409.81
459.918	427.81
460.138	411.81
460.358	414.81
460.578	423.81
460.798	418.81
461.018	427.81
461.238	418.81
461.458	422.81
461.678	400.81
461.898	446.81
462.118	426.81
462.338	443.81
462.558	450.81
462.777	470.81
462.997	484.81
463.217	478.81
463.437	503.81
463.657	476.81
463.876	466.81
464.096	457.81
464.316	470.81
464.536	496.81
464.755	474.81
464.975	459.81
465.195	472.81
465.414	472.81
465.634	433.81
465.854	407.81
466.073	398.81
466.293	373.81
466.512	393.81
466.732	391.81
466.951	391.81
467.171	382.81
467.391	393.81
467.61	390.81
467.829	370.81
468.049	393.81
468.268	392.81
468.488	355.81
468.707	365.81
468.927	365.81
469.146	392.81
469.365	373.81
469.585	384.81
469.804	385.81
470.023	407.81
470.243	377.81
470.462	393.81
470.681	403.81
470.901	424.81
471.12	388.81
471.339	392.81
471.558	389.81
471.777	391.81
471.997	386.81
472.216	390.81
472.435	392.81
472.654	390.81
472.873	369.81
473.092	390.81
473.311	389.81
473.53	376.81
473.749	379.81
473.968	413.81
474.187	435.81
474.406	434.81
474.625	412.81
474.844	392.81
475.063	391.81
475.282	398.81
475.501	388.81
475.72	389.81
475.939	380.81
476.158	377.81
476.377	381.81
476.596	393.81
476.814	393.81
477.033	397.81
477.252	397.81
477.471	397.81
477.69	392.81
477.908	443.81
478.127	414.81
478.346	441.81
478.564	432.81
478.783	438.81
479.002	479.81
479.22	456.81
479.439	454.81
479.658	465.81
479.876	459.81
480.095	466.81
480.313	486.81
480.532	478.81
480.751	471.81
480.969	479.81
481.188	490.81
481.406	517.81
481.624	458.81
481.843	441.81
482.061	459.81
482.28	443.81
482.498	436.81
482.717	437.81
482.935	427.81
483.153	431.81
483.372	448.81
483.59	431.81
483.808	431.81
484.027	442.81
484.245	427.81
484.463	448.81
484.681	446.81
484.9	442.81
485.118	468.81
485.336	438.81
485.554	449.81
485.772	452.81
485.99	462.81
486.209	433.81
486.427	457.81
486.645	450.81
486.863	443.81
487.081	472.81
487.299	462.81
487.517	458.81
487.735	463.81
487.953	480.81
488.171	452.81
488.389	479.81
488.607	466.81
488.825	468.81
489.043	471.81
489.261	445.81
489.479	488.81
489.696	466.81
489.914	457.81
490.132	485.81
490.35	465.81
490.568	484.81
490.786	486.81
491.003	489.81
491.221	504.81
491.439	488.81
491.657	528.81
491.874	514.81
492.092	525.81
492.31	528.81
492.527	520.81
492.745	539.81
492.963	539.81
493.18	523.81
493.398	530.81
493.615	539.81
493.833	538.81
494.05	572.81
494.268	561.81
494.485	535.81
494.703	549.81
494.92	526.81
495.138	540.81
495.355	533.81
495.573	524.81
495.79	545.81
496.008	564.81
496.225	534.81
496.442	551.81
496.66	559.81
496.877	549.81
497.094	548.81
497.312	552.81
497.529	555.81
497.746	581.81
497.963	568.81
498.181	587.81
498.398	642.81
498.615	640.81
498.832	656.81
499.049	666.81
499.267	687.81
499.484	740.81
499.701	785.81
499.918	838.81
500.135	884.81
500.352	937.81
500.569	939.81
500.786	977.81
501.003	920.81
501.22	888.81
501.437	860.81
501.654	787.81
501.871	764.81
502.088	708.81
