Data from 1969.PennyLincolnUp.Lamp.En5.5.200Scan.071719.P1._HRD10591_14-56-19-973.txt Node
Date: Thu Jul 18 14:56:19 EDT 2019
User: cochatt
Spectrometer: HR+D1059
Trigger mode: 1
Integration Time (sec): 1.000000E-1
Scans to average: 1
Electric dark correction enabled: true
Nonlinearity correction enabled: false
Boxcar width: 0
XAxis mode: Wavelengths
Number of Pixels in Spectrum: 2048
>>>>>Begin Spectral Data<<<<<
223.165	-14.62
223.4	-14.62
223.635	-14.62
223.869	-20.62
224.104	-30.62
224.338	-24.62
224.573	-23.62
224.808	-7.62
225.042	-8.62
225.277	-17.62
225.511	-1.62
225.746	7.38
225.98	19.38
226.215	19.38
226.449	31.38
226.683	16.38
226.918	21.38
227.152	34.38
227.387	29.38
227.621	26.38
227.856	24.38
228.09	35.38
228.324	45.38
228.559	58.38
228.793	42.38
229.027	84.38
229.262	88.38
229.496	86.38
229.73	97.38
229.964	110.38
230.199	103.38
230.433	116.38
230.667	104.38
230.901	94.38
231.136	109.38
231.37	98.38
231.604	106.38
231.838	101.38
232.072	92.38
232.306	106.38
232.541	110.38
232.775	94.38
233.009	118.38
233.243	105.38
233.477	99.38
233.711	107.38
233.945	108.38
234.179	117.38
234.413	100.38
234.647	104.38
234.881	112.38
235.115	101.38
235.349	120.38
235.583	106.38
235.817	105.38
236.051	122.38
236.285	103.38
236.519	110.38
236.753	105.38
236.987	124.38
237.221	155.38
237.455	173.38
237.689	131.38
237.922	100.38
238.156	111.38
238.39	102.38
238.624	98.38
238.858	122.38
239.091	99.38
239.325	116.38
239.559	124.38
239.793	117.38
240.027	115.38
240.26	139.38
240.494	123.38
240.728	121.38
240.961	137.38
241.195	133.38
241.429	125.38
241.662	119.38
241.896	88.38
242.13	122.38
242.363	126.38
242.597	118.38
242.83	121.38
243.064	127.38
243.298	128.38
243.531	116.38
243.765	138.38
243.998	127.38
244.232	128.38
244.465	116.38
244.699	112.38
244.932	142.38
245.166	140.38
245.399	125.38
245.633	119.38
245.866	128.38
246.099	136.38
246.333	139.38
246.566	132.38
246.8	133.38
247.033	146.38
247.266	133.38
247.5	136.38
247.733	143.38
247.966	149.38
248.2	137.38
248.433	158.38
248.666	146.38
248.899	160.38
249.133	157.38
249.366	180.38
249.599	163.38
249.832	155.38
250.066	159.38
250.299	161.38
250.532	155.38
250.765	174.38
250.998	170.38
251.231	191.38
251.465	199.38
251.698	188.38
251.931	166.38
252.164	190.38
252.397	183.38
252.63	163.38
252.863	176.38
253.096	206.38
253.329	193.38
253.562	186.38
253.795	181.38
254.028	181.38
254.261	186.38
254.494	187.38
254.727	208.38
254.96	235.38
255.193	201.38
255.426	192.38
255.659	204.38
255.892	168.38
256.124	183.38
256.357	186.38
256.59	186.38
256.823	179.38
257.056	178.38
257.289	174.38
257.521	168.38
257.754	182.38
257.987	168.38
258.22	178.38
258.452	176.38
258.685	164.38
258.918	181.38
259.151	179.38
259.383	186.38
259.616	184.38
259.849	193.38
260.081	185.38
260.314	222.38
260.547	214.38
260.779	197.38
261.012	203.38
261.244	175.38
261.477	192.38
261.71	192.38
261.942	188.38
262.175	193.38
262.407	209.38
262.64	179.38
262.872	196.38
263.105	174.38
263.337	190.38
263.57	155.38
263.802	174.38
264.035	201.38
264.267	195.38
264.499	194.38
264.732	179.38
264.964	182.38
265.197	185.38
265.429	174.38
265.661	197.38
265.894	196.38
266.126	184.38
266.358	185.38
266.591	185.38
266.823	199.38
267.055	201.38
267.287	187.38
267.52	207.38
267.752	197.38
267.984	202.38
268.216	190.38
268.448	200.38
268.681	217.38
268.913	217.38
269.145	223.38
269.377	232.38
269.609	218.38
269.841	242.38
270.073	241.38
270.306	230.38
270.538	270.38
270.77	266.38
271.002	246.38
271.234	243.38
271.466	259.38
271.698	274.38
271.93	268.38
272.162	251.38
272.394	246.38
272.626	241.38
272.858	238.38
273.09	234.38
273.322	234.38
273.553	216.38
273.785	220.38
274.017	236.38
274.249	211.38
274.481	223.38
274.713	220.38
274.945	224.38
275.176	223.38
275.408	230.38
275.64	235.38
275.872	232.38
276.104	212.38
276.335	217.38
276.567	254.38
276.799	266.38
277.031	261.38
277.262	273.38
277.494	262.38
277.726	248.38
277.957	256.38
278.189	233.38
278.421	241.38
278.652	248.38
278.884	224.38
279.115	227.38
279.347	223.38
279.579	233.38
279.81	233.38
280.042	250.38
280.273	231.38
280.505	210.38
280.736	233.38
280.968	255.38
281.199	243.38
281.431	242.38
281.662	235.38
281.894	223.38
282.125	252.38
282.356	239.38
282.588	256.38
282.819	250.38
283.051	263.38
283.282	242.38
283.513	249.38
283.745	253.38
283.976	243.38
284.207	244.38
284.439	242.38
284.67	247.38
284.901	262.38
285.132	282.38
285.364	244.38
285.595	249.38
285.826	258.38
286.057	255.38
286.288	268.38
286.52	260.38
286.751	247.38
286.982	251.38
287.213	248.38
287.444	259.38
287.675	250.38
287.906	272.38
288.138	271.38
288.369	271.38
288.6	257.38
288.831	267.38
289.062	247.38
289.293	259.38
289.524	261.38
289.755	268.38
289.986	264.38
290.217	259.38
290.448	274.38
290.679	261.38
290.91	252.38
291.141	263.38
291.371	255.38
291.602	254.38
291.833	263.38
292.064	248.38
292.295	251.38
292.526	264.38
292.757	265.38
292.987	251.38
293.218	245.38
293.449	264.38
293.68	270.38
293.91	258.38
294.141	264.38
294.372	257.38
294.603	266.38
294.833	259.38
295.064	274.38
295.295	267.38
295.525	279.38
295.756	261.38
295.987	278.38
296.217	287.38
296.448	286.38
296.679	277.38
296.909	259.38
297.14	279.38
297.37	276.38
297.601	276.38
297.831	284.38
298.062	272.38
298.292	290.38
298.523	272.38
298.753	269.38
298.984	281.38
299.214	288.38
299.445	280.38
299.675	281.38
299.905	272.38
300.136	296.38
300.366	273.38
300.597	272.38
300.827	281.38
301.057	306.38
301.288	300.38
301.518	304.38
301.748	304.38
301.979	283.38
302.209	297.38
302.439	296.38
302.669	314.38
302.9	298.38
303.13	300.38
303.36	292.38
303.59	291.38
303.82	292.38
304.051	296.38
304.281	314.38
304.511	281.38
304.741	297.38
304.971	293.38
305.201	292.38
305.431	296.38
305.661	295.38
305.891	309.38
306.121	304.38
306.352	304.38
306.582	278.38
306.812	291.38
307.042	286.38
307.272	299.38
307.502	301.38
307.731	294.38
307.961	299.38
308.191	297.38
308.421	309.38
308.651	294.38
308.881	297.38
309.111	299.38
309.341	314.38
309.571	316.38
309.8	323.38
310.03	314.38
310.26	309.38
310.49	307.38
310.72	326.38
310.949	334.38
311.179	334.38
311.409	336.38
311.639	305.38
311.868	339.38
312.098	334.38
312.328	320.38
312.557	347.38
312.787	342.38
313.017	330.38
313.246	326.38
313.476	315.38
313.706	336.38
313.935	308.38
314.165	358.38
314.394	342.38
314.624	340.38
314.853	339.38
315.083	347.38
315.312	323.38
315.542	311.38
315.771	319.38
316.001	311.38
316.23	312.38
316.46	324.38
316.689	319.38
316.919	318.38
317.148	354.38
317.377	337.38
317.607	323.38
317.836	341.38
318.065	323.38
318.295	317.38
318.524	322.38
318.753	313.38
318.983	330.38
319.212	346.38
319.441	341.38
319.67	338.38
319.9	327.38
320.129	324.38
320.358	327.38
320.587	344.38
320.816	329.38
321.046	318.38
321.275	342.38
321.504	330.38
321.733	350.38
321.962	333.38
322.191	353.38
322.42	347.38
322.649	361.38
322.878	362.38
323.108	378.38
323.337	377.38
323.566	378.38
323.795	388.38
324.024	425.38
324.253	511.38
324.482	669.38
324.71	951.38
324.939	1268.38
325.168	1076.38
325.397	596.38
325.626	443.38
325.855	395.38
326.084	386.38
326.313	376.38
326.542	397.38
326.77	441.38
326.999	471.38
327.228	622.38
327.457	852.38
327.686	965.38
327.914	670.38
328.143	526.38
328.372	462.38
328.6	446.38
328.829	425.38
329.058	435.38
329.287	434.38
329.515	406.38
329.744	422.38
329.972	408.38
330.201	414.38
330.43	450.38
330.658	456.38
330.887	470.38
331.115	481.38
331.344	395.38
331.572	388.38
331.801	426.38
332.03	423.38
332.258	393.38
332.486	394.38
332.715	388.38
332.943	407.38
333.172	406.38
333.4	422.38
333.629	433.38
333.857	441.38
334.085	446.38
334.314	443.38
334.542	468.38
334.771	471.38
334.999	426.38
335.227	425.38
335.455	411.38
335.684	395.38
335.912	417.38
336.14	401.38
336.369	394.38
336.597	400.38
336.825	396.38
337.053	374.38
337.281	379.38
337.51	395.38
337.738	382.38
337.966	390.38
338.194	386.38
338.422	400.38
338.65	387.38
338.878	393.38
339.106	375.38
339.334	374.38
339.562	354.38
339.79	347.38
340.018	373.38
340.246	374.38
340.474	375.38
340.702	386.38
340.93	364.38
341.158	368.38
341.386	386.38
341.614	353.38
341.842	378.38
342.07	379.38
342.298	358.38
342.526	355.38
342.754	354.38
342.981	343.38
343.209	346.38
343.437	367.38
343.665	382.38
343.893	382.38
344.12	391.38
344.348	386.38
344.576	371.38
344.804	373.38
345.031	360.38
345.259	368.38
345.487	360.38
345.714	336.38
345.942	336.38
346.17	343.38
346.397	358.38
346.625	366.38
346.853	364.38
347.08	350.38
347.308	335.38
347.535	372.38
347.763	354.38
347.99	353.38
348.218	356.38
348.445	354.38
348.673	356.38
348.9	335.38
349.128	340.38
349.355	340.38
349.583	344.38
349.81	334.38
350.037	342.38
350.265	334.38
350.492	301.38
350.72	332.38
350.947	340.38
351.174	329.38
351.402	350.38
351.629	362.38
351.856	351.38
352.083	336.38
352.311	361.38
352.538	361.38
352.765	364.38
352.992	353.38
353.22	337.38
353.447	347.38
353.674	339.38
353.901	315.38
354.128	338.38
354.355	341.38
354.583	336.38
354.81	327.38
355.037	320.38
355.264	350.38
355.491	338.38
355.718	328.38
355.945	333.38
356.172	314.38
356.399	346.38
356.626	337.38
356.853	329.38
357.08	338.38
357.307	331.38
357.534	318.38
357.761	331.38
357.988	318.38
358.215	329.38
358.441	324.38
358.668	326.38
358.895	333.38
359.122	331.38
359.349	344.38
359.576	345.38
359.802	347.38
360.029	381.38
360.256	374.38
360.483	370.38
360.709	355.38
360.936	336.38
361.163	360.38
361.39	342.38
361.616	345.38
361.843	343.38
362.07	342.38
362.296	331.38
362.523	333.38
362.749	333.38
362.976	348.38
363.203	345.38
363.429	320.38
363.656	329.38
363.882	355.38
364.109	323.38
364.335	313.38
364.562	324.38
364.788	335.38
365.015	338.38
365.241	337.38
365.468	324.38
365.694	326.38
365.92	343.38
366.147	324.38
366.373	318.38
366.599	320.38
366.826	318.38
367.052	315.38
367.278	341.38
367.505	329.38
367.731	347.38
367.957	323.38
368.184	328.38
368.41	340.38
368.636	341.38
368.862	332.38
369.089	339.38
369.315	313.38
369.541	321.38
369.767	345.38
369.993	344.38
370.219	331.38
370.445	331.38
370.672	326.38
370.898	330.38
371.124	340.38
371.35	330.38
371.576	339.38
371.802	321.38
372.028	331.38
372.254	320.38
372.48	332.38
372.706	350.38
372.932	342.38
373.158	344.38
373.384	343.38
373.61	313.38
373.835	333.38
374.061	333.38
374.287	338.38
374.513	347.38
374.739	363.38
374.965	367.38
375.191	342.38
375.416	362.38
375.642	339.38
375.868	355.38
376.094	339.38
376.319	338.38
376.545	345.38
376.771	342.38
376.997	324.38
377.222	335.38
377.448	332.38
377.674	351.38
377.899	352.38
378.125	337.38
378.35	339.38
378.576	324.38
378.802	338.38
379.027	329.38
379.253	338.38
379.478	326.38
379.704	323.38
379.929	350.38
380.155	322.38
380.38	342.38
380.606	347.38
380.831	328.38
381.057	330.38
381.282	324.38
381.507	342.38
381.733	332.38
381.958	331.38
382.184	334.38
382.409	334.38
382.634	346.38
382.86	350.38
383.085	354.38
383.31	341.38
383.535	340.38
383.761	322.38
383.986	353.38
384.211	348.38
384.436	369.38
384.662	374.38
384.887	380.38
385.112	406.38
385.337	379.38
385.562	376.38
385.787	370.38
386.013	378.38
386.238	381.38
386.463	370.38
386.688	375.38
386.913	374.38
387.138	376.38
387.363	374.38
387.588	379.38
387.813	383.38
388.038	390.38
388.263	378.38
388.488	366.38
388.713	369.38
388.938	383.38
389.163	384.38
389.387	375.38
389.612	378.38
389.837	357.38
390.062	369.38
390.287	354.38
390.512	353.38
390.736	384.38
390.961	377.38
391.186	376.38
391.411	394.38
391.636	374.38
391.86	412.38
392.085	392.38
392.31	401.38
392.534	408.38
392.759	398.38
392.984	381.38
393.208	368.38
393.433	369.38
393.658	382.38
393.882	378.38
394.107	376.38
394.331	377.38
394.556	390.38
394.78	370.38
395.005	382.38
395.229	361.38
395.454	400.38
395.678	400.38
395.903	421.38
396.127	402.38
396.352	413.38
396.576	398.38
396.801	402.38
397.025	391.38
397.249	387.38
397.474	410.38
397.698	393.38
397.922	437.38
398.147	408.38
398.371	433.38
398.595	437.38
398.82	446.38
399.044	470.38
399.268	482.38
399.492	548.38
399.717	583.38
399.941	597.38
400.165	565.38
400.389	544.38
400.613	475.38
400.837	454.38
401.062	448.38
401.286	453.38
401.51	448.38
401.734	433.38
401.958	444.38
402.182	439.38
402.406	468.38
402.63	443.38
402.854	466.38
403.078	443.38
403.302	465.38
403.526	472.38
403.75	472.38
403.974	481.38
404.198	457.38
404.422	480.38
404.645	473.38
404.869	490.38
405.093	483.38
405.317	495.38
405.541	527.38
405.765	502.38
405.988	480.38
406.212	480.38
406.436	490.38
406.66	492.38
406.883	485.38
407.107	520.38
407.331	553.38
407.555	587.38
407.778	581.38
408.002	523.38
408.226	502.38
408.449	491.38
408.673	504.38
408.896	489.38
409.12	522.38
409.344	488.38
409.567	489.38
409.791	458.38
410.014	467.38
410.238	452.38
410.461	448.38
410.685	454.38
410.908	442.38
411.132	471.38
411.355	490.38
411.578	476.38
411.802	437.38
412.025	453.38
412.249	456.38
412.472	470.38
412.695	463.38
412.919	483.38
413.142	445.38
413.365	433.38
413.589	447.38
413.812	447.38
414.035	436.38
414.258	435.38
414.482	415.38
414.705	432.38
414.928	427.38
415.151	438.38
415.374	405.38
415.597	426.38
415.821	437.38
416.044	435.38
416.267	427.38
416.49	435.38
416.713	438.38
416.936	406.38
417.159	430.38
417.382	417.38
417.605	425.38
417.828	440.38
418.051	451.38
418.274	443.38
418.497	435.38
418.72	450.38
418.943	433.38
419.166	455.38
419.389	456.38
419.611	469.38
419.834	457.38
420.057	452.38
420.28	456.38
420.503	445.38
420.726	453.38
420.948	446.38
421.171	482.38
421.394	490.38
421.617	474.38
421.839	460.38
422.062	456.38
422.285	470.38
422.507	494.38
422.73	534.38
422.953	494.38
423.175	469.38
423.398	452.38
423.621	475.38
423.843	501.38
424.066	476.38
424.288	478.38
424.511	484.38
424.733	516.38
424.956	562.38
425.178	543.38
425.401	512.38
425.623	535.38
425.846	463.38
426.068	446.38
426.291	451.38
426.513	451.38
426.735	468.38
426.958	494.38
427.18	528.38
427.402	592.38
427.625	651.38
427.847	562.38
428.069	478.38
428.292	496.38
428.514	434.38
428.736	416.38
428.958	425.38
429.181	415.38
429.403	409.38
429.625	414.38
429.847	451.38
430.069	470.38
430.292	444.38
430.514	435.38
430.736	412.38
430.958	418.38
431.18	402.38
431.402	410.38
431.624	413.38
431.846	407.38
432.068	408.38
432.29	415.38
432.512	389.38
432.734	399.38
432.956	407.38
433.178	410.38
433.4	411.38
433.622	424.38
433.844	424.38
434.066	430.38
434.287	424.38
434.509	426.38
434.731	434.38
434.953	452.38
435.175	449.38
435.397	470.38
435.618	462.38
435.84	457.38
436.062	516.38
436.284	576.38
436.505	477.38
436.727	441.38
436.949	425.38
437.17	434.38
437.392	407.38
437.614	436.38
437.835	443.38
438.057	512.38
438.278	547.38
438.5	546.38
438.721	568.38
438.943	570.38
439.165	467.38
439.386	443.38
439.608	440.38
439.829	455.38
440.05	451.38
440.272	484.38
440.493	483.38
440.715	444.38
440.936	434.38
441.158	438.38
441.379	434.38
441.6	454.38
441.822	475.38
442.043	492.38
442.264	542.38
442.486	565.38
442.707	504.38
442.928	448.38
443.149	471.38
443.371	496.38
443.592	523.38
443.813	564.38
444.034	597.38
444.255	525.38
444.476	479.38
444.698	488.38
444.919	501.38
445.14	594.38
445.361	540.38
445.582	487.38
445.803	531.38
446.024	579.38
446.245	550.38
446.466	527.38
446.687	454.38
446.908	458.38
447.129	424.38
447.35	431.38
447.571	402.38
447.792	384.38
448.013	415.38
448.234	426.38
448.455	451.38
448.675	541.38
448.896	554.38
449.117	498.38
449.338	502.38
449.559	549.38
449.779	595.38
450	514.38
450.221	444.38
450.442	403.38
450.662	407.38
450.883	426.38
451.104	415.38
451.324	394.38
451.545	395.38
451.766	387.38
451.986	378.38
452.207	380.38
452.428	371.38
452.648	358.38
452.869	377.38
453.089	390.38
453.31	376.38
453.53	403.38
453.751	374.38
453.971	379.38
454.192	374.38
454.412	374.38
454.633	385.38
454.853	374.38
455.073	359.38
455.294	390.38
455.514	430.38
455.734	421.38
455.955	378.38
456.175	352.38
456.395	359.38
456.616	342.38
456.836	342.38
457.056	349.38
457.276	358.38
457.497	368.38
457.717	356.38
457.937	348.38
458.157	367.38
458.377	360.38
458.598	388.38
458.818	406.38
459.038	456.38
459.258	476.38
459.478	422.38
459.698	437.38
459.918	412.38
460.138	416.38
460.358	443.38
460.578	420.38
460.798	432.38
461.018	429.38
461.238	437.38
461.458	409.38
461.678	427.38
461.898	412.38
462.118	437.38
462.338	453.38
462.558	444.38
462.777	467.38
462.997	489.38
463.217	528.38
463.437	510.38
463.657	517.38
463.876	466.38
464.096	463.38
464.316	478.38
464.536	484.38
464.755	474.38
464.975	489.38
465.195	462.38
465.414	495.38
465.634	456.38
465.854	409.38
466.073	422.38
466.293	384.38
466.512	405.38
466.732	395.38
466.951	394.38
467.171	390.38
467.391	401.38
467.61	392.38
467.829	412.38
468.049	405.38
468.268	391.38
468.488	391.38
468.707	387.38
468.927	396.38
469.146	378.38
469.365	377.38
469.585	373.38
469.804	391.38
470.023	416.38
470.243	415.38
470.462	429.38
470.681	437.38
470.901	418.38
471.12	408.38
471.339	410.38
471.558	391.38
471.777	408.38
471.997	402.38
472.216	379.38
472.435	408.38
472.654	409.38
472.873	366.38
473.092	390.38
473.311	406.38
473.53	398.38
473.749	391.38
473.968	416.38
474.187	487.38
474.406	481.38
474.625	400.38
474.844	392.38
475.063	394.38
475.282	400.38
475.501	422.38
475.72	418.38
475.939	398.38
476.158	394.38
476.377	396.38
476.596	389.38
476.814	399.38
477.033	379.38
477.252	403.38
477.471	419.38
477.69	417.38
477.908	435.38
478.127	427.38
478.346	443.38
478.564	455.38
478.783	452.38
479.002	456.38
479.22	447.38
479.439	466.38
479.658	470.38
479.876	477.38
480.095	466.38
480.313	489.38
480.532	512.38
480.751	504.38
480.969	505.38
481.188	544.38
481.406	556.38
481.624	499.38
481.843	443.38
482.061	451.38
482.28	461.38
482.498	455.38
482.717	453.38
482.935	440.38
483.153	442.38
483.372	442.38
483.59	460.38
483.808	440.38
484.027	458.38
484.245	454.38
484.463	470.38
484.681	460.38
484.9	466.38
485.118	452.38
485.336	452.38
485.554	458.38
485.772	452.38
485.99	455.38
486.209	475.38
486.427	441.38
486.645	472.38
486.863	489.38
487.081	481.38
487.299	463.38
487.517	489.38
487.735	474.38
487.953	481.38
488.171	494.38
488.389	496.38
488.607	488.38
488.825	459.38
489.043	466.38
489.261	475.38
489.479	495.38
489.696	480.38
489.914	504.38
490.132	506.38
490.35	499.38
490.568	494.38
490.786	507.38
491.003	528.38
491.221	539.38
491.439	530.38
491.657	538.38
491.874	565.38
492.092	560.38
492.31	560.38
492.527	566.38
492.745	570.38
492.963	550.38
493.18	568.38
493.398	577.38
493.615	566.38
493.833	558.38
494.05	553.38
494.268	566.38
494.485	562.38
494.703	560.38
494.92	587.38
495.138	581.38
495.355	572.38
495.573	579.38
495.79	556.38
496.008	574.38
496.225	570.38
496.442	564.38
496.66	567.38
496.877	580.38
497.094	579.38
497.312	602.38
497.529	583.38
497.746	583.38
497.963	619.38
498.181	633.38
498.398	648.38
498.615	652.38
498.832	690.38
499.049	727.38
499.267	736.38
499.484	767.38
499.701	807.38
499.918	864.38
500.135	916.38
500.352	1006.38
500.569	1048.38
500.786	992.38
501.003	969.38
501.22	902.38
501.437	831.38
501.654	814.38
501.871	756.38
502.088	739.38
