Data from 1969.PennyLincolnUp.Lamp.En5.5.200Scan.071719.P1._HRD10591_14-56-38-973.txt Node
Date: Thu Jul 18 14:56:38 EDT 2019
User: cochatt
Spectrometer: HR+D1059
Trigger mode: 1
Integration Time (sec): 1.000000E-1
Scans to average: 1
Electric dark correction enabled: true
Nonlinearity correction enabled: false
Boxcar width: 0
XAxis mode: Wavelengths
Number of Pixels in Spectrum: 2048
>>>>>Begin Spectral Data<<<<<
223.165	-6.94
223.4	-6.94
223.635	-6.94
223.869	-21.94
224.104	-24.94
224.338	-25.94
224.573	-17.94
224.808	-16.94
225.042	-1.94
225.277	-1.94
225.511	0.06
225.746	-1.94
225.98	8.06
226.215	10.06
226.449	20.06
226.683	4.06
226.918	31.06
227.152	47.06
227.387	28.06
227.621	42.06
227.856	47.06
228.09	48.06
228.324	40.06
228.559	59.06
228.793	48.06
229.027	88.06
229.262	85.06
229.496	91.06
229.73	93.06
229.964	107.06
230.199	104.06
230.433	96.06
230.667	101.06
230.901	96.06
231.136	99.06
231.37	104.06
231.604	92.06
231.838	92.06
232.072	91.06
232.306	108.06
232.541	102.06
232.775	88.06
233.009	99.06
233.243	106.06
233.477	111.06
233.711	103.06
233.945	105.06
234.179	104.06
234.413	114.06
234.647	115.06
234.881	100.06
235.115	107.06
235.349	107.06
235.583	101.06
235.817	113.06
236.051	114.06
236.285	123.06
236.519	107.06
236.753	116.06
236.987	114.06
237.221	128.06
237.455	178.06
237.689	146.06
237.922	121.06
238.156	120.06
238.39	113.06
238.624	102.06
238.858	114.06
239.091	121.06
239.325	113.06
239.559	94.06
239.793	100.06
240.027	113.06
240.26	118.06
240.494	130.06
240.728	134.06
240.961	121.06
241.195	118.06
241.429	131.06
241.662	112.06
241.896	114.06
242.13	113.06
242.363	120.06
242.597	99.06
242.83	119.06
243.064	130.06
243.298	119.06
243.531	115.06
243.765	119.06
243.998	116.06
244.232	137.06
244.465	129.06
244.699	128.06
244.932	136.06
245.166	128.06
245.399	136.06
245.633	125.06
245.866	131.06
246.099	121.06
246.333	143.06
246.566	136.06
246.8	117.06
247.033	126.06
247.266	143.06
247.5	151.06
247.733	150.06
247.966	155.06
248.2	138.06
248.433	149.06
248.666	164.06
248.899	167.06
249.133	156.06
249.366	176.06
249.599	153.06
249.832	169.06
250.066	162.06
250.299	148.06
250.532	158.06
250.765	187.06
250.998	202.06
251.231	190.06
251.465	192.06
251.698	163.06
251.931	159.06
252.164	163.06
252.397	148.06
252.63	151.06
252.863	166.06
253.096	171.06
253.329	190.06
253.562	187.06
253.795	178.06
254.028	179.06
254.261	169.06
254.494	198.06
254.727	210.06
254.96	211.06
255.193	231.06
255.426	190.06
255.659	212.06
255.892	186.06
256.124	200.06
256.357	200.06
256.59	179.06
256.823	184.06
257.056	185.06
257.289	170.06
257.521	162.06
257.754	167.06
257.987	169.06
258.22	180.06
258.452	162.06
258.685	169.06
258.918	179.06
259.151	176.06
259.383	194.06
259.616	185.06
259.849	183.06
260.081	188.06
260.314	210.06
260.547	215.06
260.779	195.06
261.012	180.06
261.244	179.06
261.477	179.06
261.71	183.06
261.942	194.06
262.175	202.06
262.407	179.06
262.64	182.06
262.872	170.06
263.105	188.06
263.337	194.06
263.57	174.06
263.802	171.06
264.035	176.06
264.267	175.06
264.499	171.06
264.732	182.06
264.964	178.06
265.197	178.06
265.429	182.06
265.661	187.06
265.894	197.06
266.126	202.06
266.358	182.06
266.591	193.06
266.823	191.06
267.055	185.06
267.287	208.06
267.52	201.06
267.752	185.06
267.984	191.06
268.216	203.06
268.448	193.06
268.681	211.06
268.913	201.06
269.145	225.06
269.377	235.06
269.609	227.06
269.841	235.06
270.073	241.06
270.306	230.06
270.538	247.06
270.77	249.06
271.002	249.06
271.234	257.06
271.466	244.06
271.698	259.06
271.93	257.06
272.162	258.06
272.394	263.06
272.626	254.06
272.858	226.06
273.09	225.06
273.322	242.06
273.553	215.06
273.785	232.06
274.017	217.06
274.249	217.06
274.481	208.06
274.713	218.06
274.945	226.06
275.176	215.06
275.408	217.06
275.64	197.06
275.872	240.06
276.104	238.06
276.335	227.06
276.567	230.06
276.799	226.06
277.031	268.06
277.262	271.06
277.494	263.06
277.726	248.06
277.957	236.06
278.189	217.06
278.421	248.06
278.652	241.06
278.884	222.06
279.115	218.06
279.347	240.06
279.579	251.06
279.81	232.06
280.042	231.06
280.273	229.06
280.505	238.06
280.736	227.06
280.968	212.06
281.199	241.06
281.431	225.06
281.662	245.06
281.894	235.06
282.125	233.06
282.356	229.06
282.588	232.06
282.819	267.06
283.051	247.06
283.282	243.06
283.513	234.06
283.745	240.06
283.976	248.06
284.207	235.06
284.439	246.06
284.67	232.06
284.901	240.06
285.132	226.06
285.364	254.06
285.595	224.06
285.826	246.06
286.057	244.06
286.288	244.06
286.52	249.06
286.751	227.06
286.982	247.06
287.213	243.06
287.444	254.06
287.675	254.06
287.906	262.06
288.138	256.06
288.369	272.06
288.6	278.06
288.831	259.06
289.062	264.06
289.293	245.06
289.524	250.06
289.755	256.06
289.986	248.06
290.217	257.06
290.448	261.06
290.679	256.06
290.91	254.06
291.141	258.06
291.371	268.06
291.602	251.06
291.833	261.06
292.064	267.06
292.295	255.06
292.526	273.06
292.757	272.06
292.987	260.06
293.218	249.06
293.449	255.06
293.68	248.06
293.91	247.06
294.141	252.06
294.372	280.06
294.603	272.06
294.833	240.06
295.064	266.06
295.295	254.06
295.525	258.06
295.756	285.06
295.987	270.06
296.217	266.06
296.448	289.06
296.679	265.06
296.909	272.06
297.14	261.06
297.37	284.06
297.601	259.06
297.831	283.06
298.062	270.06
298.292	274.06
298.523	264.06
298.753	280.06
298.984	282.06
299.214	295.06
299.445	265.06
299.675	284.06
299.905	294.06
300.136	279.06
300.366	286.06
300.597	259.06
300.827	274.06
301.057	288.06
301.288	288.06
301.518	288.06
301.748	286.06
301.979	304.06
302.209	298.06
302.439	294.06
302.669	297.06
302.9	286.06
303.13	277.06
303.36	284.06
303.59	302.06
303.82	297.06
304.051	299.06
304.281	304.06
304.511	290.06
304.741	292.06
304.971	293.06
305.201	274.06
305.431	294.06
305.661	283.06
305.891	291.06
306.121	281.06
306.352	279.06
306.582	286.06
306.812	295.06
307.042	303.06
307.272	293.06
307.502	291.06
307.731	307.06
307.961	306.06
308.191	299.06
308.421	298.06
308.651	290.06
308.881	288.06
309.111	303.06
309.341	287.06
309.571	302.06
309.8	305.06
310.03	303.06
310.26	316.06
310.49	313.06
310.72	326.06
310.949	331.06
311.179	322.06
311.409	305.06
311.639	286.06
311.868	312.06
312.098	305.06
312.328	319.06
312.557	311.06
312.787	345.06
313.017	336.06
313.246	337.06
313.476	314.06
313.706	314.06
313.935	320.06
314.165	326.06
314.394	334.06
314.624	335.06
314.853	320.06
315.083	344.06
315.312	328.06
315.542	314.06
315.771	303.06
316.001	318.06
316.23	325.06
316.46	327.06
316.689	325.06
316.919	340.06
317.148	344.06
317.377	319.06
317.607	324.06
317.836	314.06
318.065	329.06
318.295	325.06
318.524	322.06
318.753	331.06
318.983	326.06
319.212	319.06
319.441	314.06
319.67	327.06
319.9	322.06
320.129	324.06
320.358	334.06
320.587	321.06
320.816	331.06
321.046	342.06
321.275	357.06
321.504	341.06
321.733	352.06
321.962	343.06
322.191	344.06
322.42	362.06
322.649	364.06
322.878	346.06
323.108	374.06
323.337	378.06
323.566	390.06
323.795	412.06
324.024	443.06
324.253	500.06
324.482	643.06
324.71	950.06
324.939	1250.06
325.168	1052.06
325.397	594.06
325.626	438.06
325.855	400.06
326.084	384.06
326.313	386.06
326.542	381.06
326.77	428.06
326.999	466.06
327.228	610.06
327.457	847.06
327.686	954.06
327.914	672.06
328.143	483.06
328.372	466.06
328.6	459.06
328.829	450.06
329.058	428.06
329.287	419.06
329.515	410.06
329.744	393.06
329.972	397.06
330.201	420.06
330.43	435.06
330.658	438.06
330.887	442.06
331.115	435.06
331.344	402.06
331.572	388.06
331.801	404.06
332.03	399.06
332.258	387.06
332.486	398.06
332.715	402.06
332.943	402.06
333.172	394.06
333.4	409.06
333.629	410.06
333.857	430.06
334.085	433.06
334.314	438.06
334.542	477.06
334.771	448.06
334.999	425.06
335.227	409.06
335.455	420.06
335.684	396.06
335.912	384.06
336.14	381.06
336.369	394.06
336.597	386.06
336.825	377.06
337.053	362.06
337.281	376.06
337.51	367.06
337.738	397.06
337.966	368.06
338.194	391.06
338.422	370.06
338.65	378.06
338.878	382.06
339.106	360.06
339.334	384.06
339.562	368.06
339.79	374.06
340.018	370.06
340.246	360.06
340.474	374.06
340.702	370.06
340.93	375.06
341.158	373.06
341.386	363.06
341.614	343.06
341.842	343.06
342.07	359.06
342.298	350.06
342.526	336.06
342.754	343.06
342.981	352.06
343.209	355.06
343.437	366.06
343.665	368.06
343.893	372.06
344.12	381.06
344.348	384.06
344.576	374.06
344.804	387.06
345.031	374.06
345.259	374.06
345.487	358.06
345.714	351.06
345.942	366.06
346.17	333.06
346.397	355.06
346.625	329.06
346.853	358.06
347.08	341.06
347.308	351.06
347.535	342.06
347.763	357.06
347.99	357.06
348.218	338.06
348.445	359.06
348.673	348.06
348.9	360.06
349.128	315.06
349.355	329.06
349.583	347.06
349.81	340.06
350.037	340.06
350.265	351.06
350.492	329.06
350.72	325.06
350.947	349.06
351.174	356.06
351.402	343.06
351.629	342.06
351.856	338.06
352.083	354.06
352.311	361.06
352.538	349.06
352.765	335.06
352.992	336.06
353.22	329.06
353.447	336.06
353.674	339.06
353.901	346.06
354.128	320.06
354.355	327.06
354.583	315.06
354.81	326.06
355.037	328.06
355.264	324.06
355.491	340.06
355.718	328.06
355.945	330.06
356.172	327.06
356.399	322.06
356.626	326.06
356.853	312.06
357.08	321.06
357.307	322.06
357.534	334.06
357.761	322.06
357.988	322.06
358.215	341.06
358.441	316.06
358.668	319.06
358.895	328.06
359.122	339.06
359.349	339.06
359.576	348.06
359.802	343.06
360.029	358.06
360.256	360.06
360.483	360.06
360.709	351.06
360.936	333.06
361.163	314.06
361.39	346.06
361.616	333.06
361.843	337.06
362.07	357.06
362.296	336.06
362.523	338.06
362.749	320.06
362.976	335.06
363.203	331.06
363.429	338.06
363.656	322.06
363.882	348.06
364.109	323.06
364.335	322.06
364.562	340.06
364.788	335.06
365.015	325.06
365.241	328.06
365.468	329.06
365.694	345.06
365.92	329.06
366.147	332.06
366.373	303.06
366.599	334.06
366.826	326.06
367.052	343.06
367.278	326.06
367.505	306.06
367.731	335.06
367.957	308.06
368.184	331.06
368.41	312.06
368.636	344.06
368.862	332.06
369.089	341.06
369.315	326.06
369.541	342.06
369.767	347.06
369.993	350.06
370.219	333.06
370.445	328.06
370.672	336.06
370.898	335.06
371.124	324.06
371.35	326.06
371.576	343.06
371.802	339.06
372.028	337.06
372.254	329.06
372.48	325.06
372.706	340.06
372.932	336.06
373.158	330.06
373.384	348.06
373.61	355.06
373.835	339.06
374.061	322.06
374.287	330.06
374.513	329.06
374.739	323.06
374.965	361.06
375.191	375.06
375.416	334.06
375.642	338.06
375.868	346.06
376.094	339.06
376.319	334.06
376.545	333.06
376.771	343.06
376.997	333.06
377.222	322.06
377.448	331.06
377.674	347.06
377.899	342.06
378.125	313.06
378.35	315.06
378.576	336.06
378.802	324.06
379.027	332.06
379.253	341.06
379.478	330.06
379.704	306.06
379.929	316.06
380.155	336.06
380.38	320.06
380.606	344.06
380.831	342.06
381.057	329.06
381.282	322.06
381.507	335.06
381.733	327.06
381.958	339.06
382.184	338.06
382.409	341.06
382.634	328.06
382.86	322.06
383.085	338.06
383.31	331.06
383.535	359.06
383.761	352.06
383.986	349.06
384.211	367.06
384.436	388.06
384.662	379.06
384.887	376.06
385.112	385.06
385.337	370.06
385.562	352.06
385.787	375.06
386.013	400.06
386.238	385.06
386.463	356.06
386.688	374.06
386.913	375.06
387.138	345.06
387.363	376.06
387.588	369.06
387.813	372.06
388.038	369.06
388.263	353.06
388.488	375.06
388.713	374.06
388.938	371.06
389.163	361.06
389.387	373.06
389.612	363.06
389.837	377.06
390.062	378.06
390.287	368.06
390.512	368.06
390.736	368.06
390.961	373.06
391.186	375.06
391.411	377.06
391.636	384.06
391.86	388.06
392.085	397.06
392.31	395.06
392.534	387.06
392.759	374.06
392.984	392.06
393.208	367.06
393.433	376.06
393.658	385.06
393.882	383.06
394.107	405.06
394.331	375.06
394.556	371.06
394.78	372.06
395.005	382.06
395.229	387.06
395.454	386.06
395.678	417.06
395.903	405.06
396.127	415.06
396.352	427.06
396.576	401.06
396.801	377.06
397.025	393.06
397.249	411.06
397.474	404.06
397.698	394.06
397.922	419.06
398.147	406.06
398.371	420.06
398.595	404.06
398.82	424.06
399.044	456.06
399.268	488.06
399.492	530.06
399.717	548.06
399.941	538.06
400.165	559.06
400.389	538.06
400.613	486.06
400.837	444.06
401.062	430.06
401.286	449.06
401.51	450.06
401.734	439.06
401.958	442.06
402.182	426.06
402.406	437.06
402.63	458.06
402.854	439.06
403.078	457.06
403.302	475.06
403.526	472.06
403.75	445.06
403.974	479.06
404.198	480.06
404.422	472.06
404.645	481.06
404.869	486.06
405.093	505.06
405.317	522.06
405.541	538.06
405.765	500.06
405.988	483.06
406.212	470.06
406.436	488.06
406.66	493.06
406.883	502.06
407.107	520.06
407.331	536.06
407.555	577.06
407.778	579.06
408.002	539.06
408.226	521.06
408.449	504.06
408.673	493.06
408.896	494.06
409.12	529.06
409.344	494.06
409.567	493.06
409.791	474.06
410.014	470.06
410.238	458.06
410.461	451.06
410.685	457.06
410.908	460.06
411.132	477.06
411.355	468.06
411.578	473.06
411.802	436.06
412.025	452.06
412.249	472.06
412.472	459.06
412.695	482.06
412.919	480.06
413.142	463.06
413.365	426.06
413.589	440.06
413.812	427.06
414.035	400.06
414.258	424.06
414.482	426.06
414.705	440.06
414.928	437.06
415.151	428.06
415.374	434.06
415.597	419.06
415.821	426.06
416.044	441.06
416.267	414.06
416.49	416.06
416.713	420.06
416.936	423.06
417.159	440.06
417.382	432.06
417.605	441.06
417.828	434.06
418.051	442.06
418.274	439.06
418.497	427.06
418.72	460.06
418.943	442.06
419.166	447.06
419.389	471.06
419.611	464.06
419.834	461.06
420.057	457.06
420.28	464.06
420.503	454.06
420.726	424.06
420.948	459.06
421.171	477.06
421.394	504.06
421.617	448.06
421.839	465.06
422.062	462.06
422.285	461.06
422.507	492.06
422.73	540.06
422.953	516.06
423.175	473.06
423.398	465.06
423.621	465.06
423.843	457.06
424.066	467.06
424.288	454.06
424.511	483.06
424.733	512.06
424.956	536.06
425.178	533.06
425.401	521.06
425.623	540.06
425.846	468.06
426.068	434.06
426.291	465.06
426.513	438.06
426.735	456.06
426.958	494.06
427.18	517.06
427.402	600.06
427.625	638.06
427.847	544.06
428.069	474.06
428.292	472.06
428.514	418.06
428.736	413.06
428.958	436.06
429.181	430.06
429.403	428.06
429.625	422.06
429.847	436.06
430.069	472.06
430.292	482.06
430.514	418.06
430.736	412.06
430.958	405.06
431.18	421.06
431.402	381.06
431.624	398.06
431.846	404.06
432.068	395.06
432.29	408.06
432.512	405.06
432.734	441.06
432.956	423.06
433.178	416.06
433.4	392.06
433.622	405.06
433.844	402.06
434.066	427.06
434.287	403.06
434.509	428.06
434.731	427.06
434.953	426.06
435.175	439.06
435.397	448.06
435.618	453.06
435.84	473.06
436.062	531.06
436.284	540.06
436.505	479.06
436.727	467.06
436.949	434.06
437.17	432.06
437.392	407.06
437.614	404.06
437.835	437.06
438.057	490.06
438.278	550.06
438.5	562.06
438.721	593.06
438.943	563.06
439.165	491.06
439.386	476.06
439.608	446.06
439.829	456.06
440.05	450.06
440.272	464.06
440.493	455.06
440.715	417.06
440.936	437.06
441.158	428.06
441.379	409.06
441.6	439.06
441.822	466.06
442.043	476.06
442.264	538.06
442.486	555.06
442.707	460.06
442.928	460.06
443.149	471.06
443.371	495.06
443.592	495.06
443.813	560.06
444.034	589.06
444.255	518.06
444.476	464.06
444.698	478.06
444.919	509.06
445.14	583.06
445.361	530.06
445.582	487.06
445.803	532.06
446.024	577.06
446.245	564.06
446.466	515.06
446.687	482.06
446.908	422.06
447.129	412.06
447.35	412.06
447.571	422.06
447.792	410.06
448.013	418.06
448.234	417.06
448.455	451.06
448.675	532.06
448.896	568.06
449.117	504.06
449.338	495.06
449.559	555.06
449.779	590.06
450	492.06
450.221	425.06
450.442	392.06
450.662	382.06
450.883	392.06
451.104	410.06
451.324	407.06
451.545	389.06
451.766	394.06
451.986	383.06
452.207	379.06
452.428	364.06
452.648	378.06
452.869	360.06
453.089	384.06
453.31	372.06
453.53	378.06
453.751	374.06
453.971	377.06
454.192	377.06
454.412	375.06
454.633	369.06
454.853	386.06
455.073	378.06
455.294	366.06
455.514	423.06
455.734	406.06
455.955	358.06
456.175	380.06
456.395	349.06
456.616	330.06
456.836	345.06
457.056	333.06
457.276	346.06
457.497	336.06
457.717	353.06
457.937	368.06
458.157	370.06
458.377	372.06
458.598	378.06
458.818	423.06
459.038	452.06
459.258	503.06
459.478	451.06
459.698	412.06
459.918	417.06
460.138	419.06
460.358	429.06
460.578	430.06
460.798	416.06
461.018	442.06
461.238	437.06
461.458	406.06
461.678	430.06
461.898	432.06
462.118	439.06
462.338	459.06
462.558	456.06
462.777	456.06
462.997	506.06
463.217	506.06
463.437	511.06
463.657	480.06
463.876	462.06
464.096	457.06
464.316	464.06
464.536	496.06
464.755	469.06
464.975	483.06
465.195	471.06
465.414	532.06
465.634	459.06
465.854	428.06
466.073	408.06
466.293	389.06
466.512	411.06
466.732	368.06
466.951	378.06
467.171	404.06
467.391	394.06
467.61	391.06
467.829	416.06
468.049	410.06
468.268	416.06
468.488	384.06
468.707	357.06
468.927	388.06
469.146	376.06
469.365	374.06
469.585	378.06
469.804	387.06
470.023	414.06
470.243	404.06
470.462	405.06
470.681	416.06
470.901	410.06
471.12	401.06
471.339	385.06
471.558	386.06
471.777	378.06
471.997	394.06
472.216	385.06
472.435	410.06
472.654	410.06
472.873	378.06
473.092	377.06
473.311	368.06
473.53	370.06
473.749	397.06
473.968	406.06
474.187	467.06
474.406	478.06
474.625	420.06
474.844	382.06
475.063	379.06
475.282	394.06
475.501	390.06
475.72	385.06
475.939	395.06
476.158	386.06
476.377	398.06
476.596	402.06
476.814	418.06
477.033	407.06
477.252	397.06
477.471	424.06
477.69	402.06
477.908	418.06
478.127	445.06
478.346	446.06
478.564	428.06
478.783	452.06
479.002	454.06
479.22	471.06
479.439	459.06
479.658	478.06
479.876	462.06
480.095	481.06
480.313	516.06
480.532	498.06
480.751	502.06
480.969	501.06
481.188	535.06
481.406	538.06
481.624	459.06
481.843	458.06
482.061	458.06
482.28	443.06
482.498	447.06
482.717	437.06
482.935	447.06
483.153	434.06
483.372	455.06
483.59	434.06
483.808	454.06
484.027	442.06
484.245	447.06
484.463	444.06
484.681	440.06
484.9	445.06
485.118	449.06
485.336	463.06
485.554	461.06
485.772	471.06
485.99	449.06
486.209	480.06
486.427	459.06
486.645	464.06
486.863	505.06
487.081	484.06
487.299	463.06
487.517	478.06
487.735	489.06
487.953	467.06
488.171	473.06
488.389	481.06
488.607	478.06
488.825	477.06
489.043	464.06
489.261	472.06
489.479	498.06
489.696	486.06
489.914	497.06
490.132	495.06
490.35	488.06
490.568	528.06
490.786	493.06
491.003	508.06
491.221	530.06
491.439	518.06
491.657	540.06
491.874	566.06
492.092	546.06
492.31	532.06
492.527	550.06
492.745	563.06
492.963	546.06
493.18	572.06
493.398	572.06
493.615	559.06
493.833	587.06
494.05	560.06
494.268	561.06
494.485	583.06
494.703	556.06
494.92	564.06
495.138	560.06
495.355	583.06
495.573	555.06
495.79	572.06
496.008	586.06
496.225	576.06
496.442	562.06
496.66	596.06
496.877	591.06
497.094	571.06
497.312	574.06
497.529	577.06
497.746	588.06
497.963	589.06
498.181	622.06
498.398	632.06
498.615	638.06
498.832	673.06
499.049	688.06
499.267	723.06
499.484	754.06
499.701	806.06
499.918	824.06
500.135	923.06
500.352	995.06
500.569	983.06
500.786	996.06
501.003	956.06
501.22	913.06
501.437	848.06
501.654	824.06
501.871	770.06
502.088	711.06
502.305	675.06
