Data from 1969.PennyLincolnUp.Lamp.En5.5.200Scan.071719.P1._HRD10591_14-54-49-972.txt Node
Date: Thu Jul 18 14:54:49 EDT 2019
User: cochatt
Spectrometer: HR+D1059
Trigger mode: 1
Integration Time (sec): 1.000000E-1
Scans to average: 1
Electric dark correction enabled: true
Nonlinearity correction enabled: false
Boxcar width: 0
XAxis mode: Wavelengths
Number of Pixels in Spectrum: 2048
>>>>>Begin Spectral Data<<<<<
223.165	-12.25
223.4	-12.25
223.635	-12.25
223.869	-3.25
224.104	-12.25
224.338	-16.25
224.573	-19.25
224.808	-23.25
225.042	-20.25
225.277	-14.25
225.511	0.75
225.746	7.75
225.98	8.75
226.215	12.75
226.449	17.75
226.683	23.75
226.918	17.75
227.152	31.75
227.387	32.75
227.621	36.75
227.856	47.75
228.09	49.75
228.324	45.75
228.559	46.75
228.793	58.75
229.027	80.75
229.262	83.75
229.496	103.75
229.73	91.75
229.964	113.75
230.199	96.75
230.433	102.75
230.667	93.75
230.901	99.75
231.136	93.75
231.37	91.75
231.604	108.75
231.838	105.75
232.072	98.75
232.306	104.75
232.541	113.75
232.775	103.75
233.009	104.75
233.243	98.75
233.477	104.75
233.711	105.75
233.945	90.75
234.179	98.75
234.413	104.75
234.647	107.75
234.881	106.75
235.115	118.75
235.349	111.75
235.583	119.75
235.817	105.75
236.051	117.75
236.285	105.75
236.519	119.75
236.753	104.75
236.987	116.75
237.221	151.75
237.455	176.75
237.689	142.75
237.922	120.75
238.156	109.75
238.39	113.75
238.624	118.75
238.858	120.75
239.091	125.75
239.325	115.75
239.559	101.75
239.793	106.75
240.027	113.75
240.26	116.75
240.494	142.75
240.728	116.75
240.961	128.75
241.195	123.75
241.429	110.75
241.662	107.75
241.896	112.75
242.13	111.75
242.363	119.75
242.597	116.75
242.83	126.75
243.064	129.75
243.298	125.75
243.531	131.75
243.765	120.75
243.998	132.75
244.232	116.75
244.465	112.75
244.699	104.75
244.932	131.75
245.166	129.75
245.399	130.75
245.633	131.75
245.866	124.75
246.099	132.75
246.333	123.75
246.566	140.75
246.8	147.75
247.033	147.75
247.266	137.75
247.5	119.75
247.733	126.75
247.966	149.75
248.2	145.75
248.433	137.75
248.666	151.75
248.899	160.75
249.133	163.75
249.366	158.75
249.599	147.75
249.832	152.75
250.066	163.75
250.299	156.75
250.532	156.75
250.765	179.75
250.998	181.75
251.231	165.75
251.465	145.75
251.698	165.75
251.931	165.75
252.164	160.75
252.397	176.75
252.63	173.75
252.863	161.75
253.096	168.75
253.329	183.75
253.562	167.75
253.795	179.75
254.028	185.75
254.261	186.75
254.494	167.75
254.727	193.75
254.96	209.75
255.193	205.75
255.426	196.75
255.659	193.75
255.892	192.75
256.124	188.75
256.357	173.75
256.59	181.75
256.823	184.75
257.056	184.75
257.289	174.75
257.521	180.75
257.754	168.75
257.987	175.75
258.22	185.75
258.452	166.75
258.685	177.75
258.918	158.75
259.151	195.75
259.383	186.75
259.616	190.75
259.849	185.75
260.081	208.75
260.314	211.75
260.547	216.75
260.779	203.75
261.012	173.75
261.244	186.75
261.477	172.75
261.71	173.75
261.942	169.75
262.175	196.75
262.407	181.75
262.64	166.75
262.872	191.75
263.105	179.75
263.337	194.75
263.57	174.75
263.802	198.75
264.035	180.75
264.267	178.75
264.499	171.75
264.732	185.75
264.964	175.75
265.197	172.75
265.429	185.75
265.661	175.75
265.894	194.75
266.126	186.75
266.358	194.75
266.591	198.75
266.823	195.75
267.055	193.75
267.287	201.75
267.52	190.75
267.752	209.75
267.984	204.75
268.216	181.75
268.448	181.75
268.681	204.75
268.913	203.75
269.145	202.75
269.377	219.75
269.609	223.75
269.841	216.75
270.073	231.75
270.306	228.75
270.538	240.75
270.77	260.75
271.002	238.75
271.234	227.75
271.466	227.75
271.698	241.75
271.93	236.75
272.162	248.75
272.394	233.75
272.626	246.75
272.858	214.75
273.09	219.75
273.322	232.75
273.553	212.75
273.785	217.75
274.017	224.75
274.249	218.75
274.481	217.75
274.713	227.75
274.945	239.75
275.176	208.75
275.408	215.75
275.64	228.75
275.872	215.75
276.104	221.75
276.335	232.75
276.567	220.75
276.799	236.75
277.031	239.75
277.262	246.75
277.494	251.75
277.726	236.75
277.957	267.75
278.189	236.75
278.421	241.75
278.652	236.75
278.884	220.75
279.115	220.75
279.347	222.75
279.579	229.75
279.81	240.75
280.042	219.75
280.273	220.75
280.505	232.75
280.736	221.75
280.968	233.75
281.199	232.75
281.431	234.75
281.662	234.75
281.894	238.75
282.125	220.75
282.356	245.75
282.588	235.75
282.819	244.75
283.051	222.75
283.282	235.75
283.513	236.75
283.745	242.75
283.976	247.75
284.207	245.75
284.439	254.75
284.67	232.75
284.901	239.75
285.132	245.75
285.364	245.75
285.595	247.75
285.826	260.75
286.057	244.75
286.288	247.75
286.52	250.75
286.751	236.75
286.982	246.75
287.213	243.75
287.444	258.75
287.675	254.75
287.906	267.75
288.138	271.75
288.369	266.75
288.6	251.75
288.831	252.75
289.062	277.75
289.293	265.75
289.524	263.75
289.755	255.75
289.986	267.75
290.217	267.75
290.448	259.75
290.679	259.75
290.91	259.75
291.141	243.75
291.371	256.75
291.602	245.75
291.833	256.75
292.064	252.75
292.295	259.75
292.526	247.75
292.757	273.75
292.987	253.75
293.218	233.75
293.449	247.75
293.68	266.75
293.91	250.75
294.141	272.75
294.372	259.75
294.603	252.75
294.833	260.75
295.064	273.75
295.295	243.75
295.525	258.75
295.756	263.75
295.987	272.75
296.217	283.75
296.448	263.75
296.679	261.75
296.909	257.75
297.14	266.75
297.37	277.75
297.601	257.75
297.831	264.75
298.062	259.75
298.292	279.75
298.523	294.75
298.753	272.75
298.984	266.75
299.214	258.75
299.445	271.75
299.675	271.75
299.905	274.75
300.136	279.75
300.366	268.75
300.597	269.75
300.827	267.75
301.057	291.75
301.288	300.75
301.518	289.75
301.748	261.75
301.979	280.75
302.209	291.75
302.439	287.75
302.669	293.75
302.9	295.75
303.13	289.75
303.36	280.75
303.59	290.75
303.82	303.75
304.051	311.75
304.281	283.75
304.511	291.75
304.741	296.75
304.971	291.75
305.201	288.75
305.431	311.75
305.661	274.75
305.891	300.75
306.121	270.75
306.352	287.75
306.582	286.75
306.812	286.75
307.042	294.75
307.272	295.75
307.502	286.75
307.731	307.75
307.961	286.75
308.191	272.75
308.421	266.75
308.651	303.75
308.881	291.75
309.111	289.75
309.341	275.75
309.571	292.75
309.8	289.75
310.03	288.75
310.26	298.75
310.49	312.75
310.72	305.75
310.949	322.75
311.179	320.75
311.409	303.75
311.639	327.75
311.868	314.75
312.098	308.75
312.328	327.75
312.557	316.75
312.787	335.75
313.017	307.75
313.246	310.75
313.476	314.75
313.706	311.75
313.935	305.75
314.165	341.75
314.394	332.75
314.624	316.75
314.853	313.75
315.083	311.75
315.312	331.75
315.542	309.75
315.771	308.75
316.001	311.75
316.23	344.75
316.46	307.75
316.689	292.75
316.919	314.75
317.148	325.75
317.377	315.75
317.607	313.75
317.836	321.75
318.065	311.75
318.295	314.75
318.524	329.75
318.753	341.75
318.983	321.75
319.212	319.75
319.441	325.75
319.67	303.75
319.9	316.75
320.129	341.75
320.358	327.75
320.587	321.75
320.816	329.75
321.046	336.75
321.275	329.75
321.504	330.75
321.733	322.75
321.962	345.75
322.191	338.75
322.42	332.75
322.649	329.75
322.878	363.75
323.108	345.75
323.337	357.75
323.566	377.75
323.795	369.75
324.024	420.75
324.253	468.75
324.482	604.75
324.71	836.75
324.939	1060.75
325.168	913.75
325.397	538.75
325.626	433.75
325.855	373.75
326.084	373.75
326.313	368.75
326.542	378.75
326.77	411.75
326.999	443.75
327.228	540.75
327.457	770.75
327.686	821.75
327.914	602.75
328.143	453.75
328.372	423.75
328.6	411.75
328.829	394.75
329.058	414.75
329.287	412.75
329.515	408.75
329.744	387.75
329.972	395.75
330.201	384.75
330.43	425.75
330.658	444.75
330.887	429.75
331.115	430.75
331.344	386.75
331.572	372.75
331.801	358.75
332.03	389.75
332.258	345.75
332.486	373.75
332.715	370.75
332.943	380.75
333.172	404.75
333.4	419.75
333.629	428.75
333.857	425.75
334.085	434.75
334.314	419.75
334.542	450.75
334.771	444.75
334.999	428.75
335.227	391.75
335.455	391.75
335.684	401.75
335.912	393.75
336.14	386.75
336.369	376.75
336.597	389.75
336.825	385.75
337.053	377.75
337.281	381.75
337.51	368.75
337.738	373.75
337.966	372.75
338.194	376.75
338.422	352.75
338.65	353.75
338.878	390.75
339.106	371.75
339.334	363.75
339.562	360.75
339.79	344.75
340.018	369.75
340.246	362.75
340.474	365.75
340.702	370.75
340.93	353.75
341.158	367.75
341.386	358.75
341.614	344.75
341.842	349.75
342.07	352.75
342.298	353.75
342.526	361.75
342.754	345.75
342.981	337.75
343.209	346.75
343.437	349.75
343.665	363.75
343.893	377.75
344.12	393.75
344.348	372.75
344.576	355.75
344.804	375.75
345.031	377.75
345.259	358.75
345.487	352.75
345.714	353.75
345.942	353.75
346.17	349.75
346.397	347.75
346.625	329.75
346.853	314.75
347.08	324.75
347.308	355.75
347.535	344.75
347.763	355.75
347.99	352.75
348.218	332.75
348.445	332.75
348.673	333.75
348.9	334.75
349.128	348.75
349.355	327.75
349.583	329.75
349.81	324.75
350.037	336.75
350.265	329.75
350.492	312.75
350.72	300.75
350.947	329.75
351.174	332.75
351.402	337.75
351.629	325.75
351.856	328.75
352.083	356.75
352.311	333.75
352.538	341.75
352.765	336.75
352.992	345.75
353.22	325.75
353.447	307.75
353.674	310.75
353.901	324.75
354.128	308.75
354.355	322.75
354.583	321.75
354.81	326.75
355.037	315.75
355.264	331.75
355.491	333.75
355.718	309.75
355.945	305.75
356.172	301.75
356.399	320.75
356.626	344.75
356.853	327.75
357.08	323.75
357.307	317.75
357.534	319.75
357.761	330.75
357.988	327.75
358.215	326.75
358.441	327.75
358.668	312.75
358.895	339.75
359.122	330.75
359.349	340.75
359.576	316.75
359.802	336.75
360.029	346.75
360.256	367.75
360.483	351.75
360.709	327.75
360.936	314.75
361.163	326.75
361.39	330.75
361.616	336.75
361.843	330.75
362.07	339.75
362.296	333.75
362.523	342.75
362.749	332.75
362.976	311.75
363.203	332.75
363.429	319.75
363.656	309.75
363.882	317.75
364.109	328.75
364.335	319.75
364.562	330.75
364.788	313.75
365.015	319.75
365.241	336.75
365.468	333.75
365.694	341.75
365.92	331.75
366.147	316.75
366.373	318.75
366.599	313.75
366.826	329.75
367.052	307.75
367.278	335.75
367.505	314.75
367.731	336.75
367.957	298.75
368.184	314.75
368.41	316.75
368.636	338.75
368.862	327.75
369.089	327.75
369.315	322.75
369.541	338.75
369.767	341.75
369.993	326.75
370.219	317.75
370.445	335.75
370.672	322.75
370.898	329.75
371.124	321.75
371.35	337.75
371.576	338.75
371.802	335.75
372.028	339.75
372.254	343.75
372.48	335.75
372.706	337.75
372.932	339.75
373.158	353.75
373.384	331.75
373.61	336.75
373.835	341.75
374.061	346.75
374.287	336.75
374.513	343.75
374.739	337.75
374.965	342.75
375.191	359.75
375.416	354.75
375.642	356.75
375.868	342.75
376.094	365.75
376.319	335.75
376.545	321.75
376.771	327.75
376.997	333.75
377.222	332.75
377.448	352.75
377.674	326.75
377.899	332.75
378.125	310.75
378.35	317.75
378.576	317.75
378.802	325.75
379.027	325.75
379.253	327.75
379.478	310.75
379.704	330.75
379.929	320.75
380.155	315.75
380.38	322.75
380.606	330.75
380.831	341.75
381.057	351.75
381.282	311.75
381.507	326.75
381.733	314.75
381.958	329.75
382.184	328.75
382.409	342.75
382.634	357.75
382.86	341.75
383.085	365.75
383.31	347.75
383.535	347.75
383.761	343.75
383.986	353.75
384.211	345.75
384.436	349.75
384.662	344.75
384.887	374.75
385.112	373.75
385.337	363.75
385.562	356.75
385.787	373.75
386.013	386.75
386.238	373.75
386.463	376.75
386.688	373.75
386.913	367.75
387.138	367.75
387.363	358.75
387.588	370.75
387.813	342.75
388.038	371.75
388.263	363.75
388.488	375.75
388.713	353.75
388.938	362.75
389.163	365.75
389.387	384.75
389.612	379.75
389.837	369.75
390.062	349.75
390.287	362.75
390.512	358.75
390.736	359.75
390.961	365.75
391.186	374.75
391.411	381.75
391.636	382.75
391.86	383.75
392.085	403.75
392.31	388.75
392.534	379.75
392.759	385.75
392.984	359.75
393.208	379.75
393.433	369.75
393.658	378.75
393.882	361.75
394.107	371.75
394.331	375.75
394.556	384.75
394.78	380.75
395.005	380.75
395.229	384.75
395.454	401.75
395.678	404.75
395.903	391.75
396.127	410.75
396.352	399.75
396.576	389.75
396.801	371.75
397.025	378.75
397.249	380.75
397.474	392.75
397.698	385.75
397.922	417.75
398.147	425.75
398.371	421.75
398.595	421.75
398.82	433.75
399.044	447.75
399.268	475.75
399.492	505.75
399.717	551.75
399.941	554.75
400.165	548.75
400.389	542.75
400.613	467.75
400.837	447.75
401.062	431.75
401.286	432.75
401.51	414.75
401.734	432.75
401.958	409.75
402.182	444.75
402.406	461.75
402.63	439.75
402.854	450.75
403.078	471.75
403.302	454.75
403.526	474.75
403.75	459.75
403.974	455.75
404.198	435.75
404.422	467.75
404.645	466.75
404.869	476.75
405.093	479.75
405.317	520.75
405.541	511.75
405.765	483.75
405.988	446.75
406.212	471.75
406.436	493.75
406.66	482.75
406.883	474.75
407.107	516.75
407.331	521.75
407.555	571.75
407.778	555.75
408.002	508.75
408.226	492.75
408.449	489.75
408.673	490.75
408.896	499.75
409.12	528.75
409.344	496.75
409.567	456.75
409.791	443.75
410.014	431.75
410.238	425.75
410.461	433.75
410.685	468.75
410.908	441.75
411.132	488.75
411.355	466.75
411.578	436.75
411.802	422.75
412.025	419.75
412.249	452.75
412.472	456.75
412.695	458.75
412.919	464.75
413.142	439.75
413.365	443.75
413.589	445.75
413.812	425.75
414.035	413.75
414.258	411.75
414.482	434.75
414.705	427.75
414.928	415.75
415.151	428.75
415.374	416.75
415.597	429.75
415.821	416.75
416.044	425.75
416.267	413.75
416.49	403.75
416.713	417.75
416.936	413.75
417.159	416.75
417.382	418.75
417.605	412.75
417.828	428.75
418.051	451.75
418.274	426.75
418.497	423.75
418.72	439.75
418.943	443.75
419.166	438.75
419.389	447.75
419.611	439.75
419.834	466.75
420.057	466.75
420.28	445.75
420.503	451.75
420.726	432.75
420.948	449.75
421.171	453.75
421.394	452.75
421.617	420.75
421.839	431.75
422.062	431.75
422.285	456.75
422.507	485.75
422.73	517.75
422.953	493.75
423.175	459.75
423.398	453.75
423.621	447.75
423.843	463.75
424.066	460.75
424.288	442.75
424.511	469.75
424.733	504.75
424.956	524.75
425.178	504.75
425.401	507.75
425.623	507.75
425.846	431.75
426.068	441.75
426.291	441.75
426.513	446.75
426.735	454.75
426.958	464.75
427.18	472.75
427.402	576.75
427.625	600.75
427.847	537.75
428.069	485.75
428.292	447.75
428.514	425.75
428.736	402.75
428.958	405.75
429.181	416.75
429.403	427.75
429.625	397.75
429.847	451.75
430.069	468.75
430.292	456.75
430.514	425.75
430.736	393.75
430.958	392.75
431.18	403.75
431.402	391.75
431.624	396.75
431.846	376.75
432.068	403.75
432.29	411.75
432.512	393.75
432.734	413.75
432.956	427.75
433.178	396.75
433.4	402.75
433.622	393.75
433.844	387.75
434.066	401.75
434.287	419.75
434.509	400.75
434.731	417.75
434.953	429.75
435.175	456.75
435.397	439.75
435.618	444.75
435.84	471.75
436.062	492.75
436.284	538.75
436.505	456.75
436.727	443.75
436.949	411.75
437.17	410.75
437.392	409.75
437.614	419.75
437.835	421.75
438.057	478.75
438.278	510.75
438.5	501.75
438.721	555.75
438.943	534.75
439.165	437.75
439.386	417.75
439.608	414.75
439.829	434.75
440.05	426.75
440.272	468.75
440.493	466.75
440.715	427.75
440.936	414.75
441.158	421.75
441.379	412.75
441.6	451.75
441.822	460.75
442.043	463.75
442.264	501.75
442.486	517.75
442.707	462.75
442.928	449.75
443.149	450.75
443.371	487.75
443.592	494.75
443.813	545.75
444.034	578.75
444.255	523.75
444.476	488.75
444.698	469.75
444.919	489.75
445.14	557.75
445.361	508.75
445.582	460.75
445.803	496.75
446.024	548.75
446.245	548.75
446.466	485.75
446.687	442.75
446.908	431.75
447.129	397.75
447.35	409.75
447.571	405.75
447.792	396.75
448.013	401.75
448.234	407.75
448.455	419.75
448.675	516.75
448.896	555.75
449.117	471.75
449.338	459.75
449.559	522.75
449.779	540.75
450	466.75
450.221	429.75
450.442	389.75
450.662	378.75
450.883	387.75
451.104	391.75
451.324	389.75
451.545	384.75
451.766	367.75
451.986	359.75
452.207	379.75
452.428	375.75
452.648	371.75
452.869	363.75
453.089	379.75
453.31	396.75
453.53	375.75
453.751	363.75
453.971	355.75
454.192	361.75
454.412	371.75
454.633	374.75
454.853	366.75
455.073	344.75
455.294	380.75
455.514	407.75
455.734	393.75
455.955	367.75
456.175	343.75
456.395	336.75
456.616	340.75
456.836	357.75
457.056	359.75
457.276	353.75
457.497	341.75
457.717	363.75
457.937	363.75
458.157	353.75
458.377	364.75
458.598	349.75
458.818	422.75
459.038	460.75
459.258	454.75
459.478	431.75
459.698	401.75
459.918	405.75
460.138	409.75
460.358	401.75
460.578	427.75
460.798	445.75
461.018	426.75
461.238	422.75
461.458	411.75
461.678	422.75
461.898	424.75
462.118	453.75
462.338	446.75
462.558	473.75
462.777	460.75
462.997	454.75
463.217	496.75
463.437	497.75
463.657	451.75
463.876	455.75
464.096	468.75
464.316	483.75
464.536	486.75
464.755	471.75
464.975	451.75
465.195	469.75
465.414	484.75
465.634	439.75
465.854	404.75
466.073	407.75
466.293	375.75
466.512	380.75
466.732	387.75
466.951	383.75
467.171	382.75
467.391	391.75
467.61	378.75
467.829	396.75
468.049	385.75
468.268	391.75
468.488	364.75
468.707	387.75
468.927	371.75
469.146	371.75
469.365	372.75
469.585	374.75
469.804	393.75
470.023	393.75
470.243	369.75
470.462	404.75
470.681	417.75
470.901	411.75
471.12	381.75
471.339	400.75
471.558	383.75
471.777	374.75
471.997	371.75
472.216	373.75
472.435	398.75
472.654	383.75
472.873	380.75
473.092	376.75
473.311	366.75
473.53	368.75
473.749	387.75
473.968	401.75
474.187	446.75
474.406	450.75
474.625	411.75
474.844	387.75
475.063	380.75
475.282	384.75
475.501	383.75
475.72	381.75
475.939	402.75
476.158	393.75
476.377	389.75
476.596	386.75
476.814	394.75
477.033	406.75
477.252	411.75
477.471	411.75
477.69	400.75
477.908	401.75
478.127	436.75
478.346	437.75
478.564	430.75
478.783	447.75
479.002	454.75
479.22	456.75
479.439	444.75
479.658	452.75
479.876	469.75
480.095	455.75
480.313	473.75
480.532	476.75
480.751	480.75
480.969	468.75
481.188	513.75
481.406	517.75
481.624	487.75
481.843	453.75
482.061	433.75
482.28	445.75
482.498	420.75
482.717	434.75
482.935	421.75
483.153	443.75
483.372	426.75
483.59	453.75
483.808	432.75
484.027	432.75
484.245	426.75
484.463	427.75
484.681	466.75
484.9	451.75
485.118	447.75
485.336	446.75
485.554	462.75
485.772	454.75
485.99	442.75
486.209	445.75
486.427	458.75
486.645	455.75
486.863	462.75
487.081	459.75
487.299	443.75
487.517	464.75
487.735	494.75
487.953	452.75
488.171	466.75
488.389	473.75
488.607	467.75
488.825	491.75
489.043	471.75
489.261	466.75
489.479	464.75
489.696	493.75
489.914	468.75
490.132	472.75
490.35	496.75
490.568	480.75
490.786	474.75
491.003	490.75
491.221	498.75
491.439	508.75
491.657	513.75
491.874	513.75
492.092	535.75
492.31	534.75
492.527	539.75
492.745	533.75
492.963	538.75
493.18	539.75
493.398	550.75
493.615	534.75
493.833	561.75
494.05	543.75
494.268	537.75
494.485	545.75
494.703	520.75
494.92	538.75
495.138	536.75
495.355	527.75
495.573	547.75
495.79	547.75
496.008	551.75
496.225	568.75
496.442	541.75
496.66	576.75
496.877	544.75
497.094	573.75
497.312	579.75
497.529	543.75
497.746	593.75
497.963	592.75
498.181	602.75
498.398	616.75
498.615	643.75
498.832	637.75
499.049	672.75
499.267	722.75
499.484	779.75
499.701	831.75
499.918	814.75
500.135	906.75
500.352	988.75
500.569	1021.75
500.786	993.75
501.003	955.75
501.22	905.75
501.437	848.75
501.654	775.75
501.871	766.75
502.088	697.75
