Data from 1969.PennyLincolnUp.Lamp.En5.5.200Scan.071719.P1._HRD10591_14-55-40-972.txt Node
Date: Thu Jul 18 14:55:40 EDT 2019
User: cochatt
Spectrometer: HR+D1059
Trigger mode: 1
Integration Time (sec): 1.000000E-1
Scans to average: 1
Electric dark correction enabled: true
Nonlinearity correction enabled: false
Boxcar width: 0
XAxis mode: Wavelengths
Number of Pixels in Spectrum: 2048
>>>>>Begin Spectral Data<<<<<
223.165	-10.62
223.4	-10.62
223.635	-10.62
223.869	-14.62
224.104	-28.62
224.338	-18.62
224.573	-7.62
224.808	-25.62
225.042	-5.62
225.277	-14.62
225.511	3.38
225.746	4.38
225.98	11.38
226.215	9.38
226.449	25.38
226.683	25.38
226.918	22.38
227.152	24.38
227.387	21.38
227.621	40.38
227.856	43.38
228.09	44.38
228.324	47.38
228.559	67.38
228.793	76.38
229.027	75.38
229.262	88.38
229.496	99.38
229.73	104.38
229.964	122.38
230.199	98.38
230.433	98.38
230.667	113.38
230.901	97.38
231.136	107.38
231.37	96.38
231.604	96.38
231.838	107.38
232.072	96.38
232.306	92.38
232.541	104.38
232.775	101.38
233.009	108.38
233.243	106.38
233.477	108.38
233.711	103.38
233.945	110.38
234.179	102.38
234.413	103.38
234.647	117.38
234.881	117.38
235.115	103.38
235.349	113.38
235.583	88.38
235.817	111.38
236.051	120.38
236.285	116.38
236.519	102.38
236.753	123.38
236.987	106.38
237.221	147.38
237.455	171.38
237.689	131.38
237.922	119.38
238.156	108.38
238.39	105.38
238.624	108.38
238.858	96.38
239.091	113.38
239.325	115.38
239.559	105.38
239.793	111.38
240.027	108.38
240.26	118.38
240.494	135.38
240.728	131.38
240.961	120.38
241.195	125.38
241.429	115.38
241.662	108.38
241.896	116.38
242.13	131.38
242.363	120.38
242.597	116.38
242.83	123.38
243.064	116.38
243.298	104.38
243.531	121.38
243.765	121.38
243.998	130.38
244.232	126.38
244.465	122.38
244.699	146.38
244.932	144.38
245.166	121.38
245.399	139.38
245.633	120.38
245.866	117.38
246.099	131.38
246.333	138.38
246.566	135.38
246.8	141.38
247.033	140.38
247.266	139.38
247.5	140.38
247.733	159.38
247.966	145.38
248.2	147.38
248.433	139.38
248.666	140.38
248.899	169.38
249.133	167.38
249.366	176.38
249.599	159.38
249.832	142.38
250.066	159.38
250.299	160.38
250.532	165.38
250.765	163.38
250.998	204.38
251.231	185.38
251.465	159.38
251.698	151.38
251.931	197.38
252.164	171.38
252.397	189.38
252.63	168.38
252.863	168.38
253.096	190.38
253.329	192.38
253.562	188.38
253.795	174.38
254.028	192.38
254.261	183.38
254.494	193.38
254.727	223.38
254.96	220.38
255.193	224.38
255.426	204.38
255.659	186.38
255.892	215.38
256.124	209.38
256.357	185.38
256.59	207.38
256.823	184.38
257.056	172.38
257.289	177.38
257.521	169.38
257.754	185.38
257.987	172.38
258.22	170.38
258.452	185.38
258.685	163.38
258.918	177.38
259.151	183.38
259.383	211.38
259.616	188.38
259.849	191.38
260.081	212.38
260.314	201.38
260.547	218.38
260.779	201.38
261.012	196.38
261.244	192.38
261.477	185.38
261.71	190.38
261.942	183.38
262.175	206.38
262.407	183.38
262.64	184.38
262.872	178.38
263.105	201.38
263.337	181.38
263.57	184.38
263.802	195.38
264.035	201.38
264.267	191.38
264.499	183.38
264.732	184.38
264.964	198.38
265.197	181.38
265.429	179.38
265.661	176.38
265.894	188.38
266.126	188.38
266.358	189.38
266.591	183.38
266.823	194.38
267.055	196.38
267.287	187.38
267.52	199.38
267.752	195.38
267.984	213.38
268.216	205.38
268.448	220.38
268.681	199.38
268.913	221.38
269.145	235.38
269.377	234.38
269.609	240.38
269.841	236.38
270.073	217.38
270.306	237.38
270.538	277.38
270.77	263.38
271.002	243.38
271.234	269.38
271.466	240.38
271.698	265.38
271.93	270.38
272.162	258.38
272.394	251.38
272.626	253.38
272.858	223.38
273.09	230.38
273.322	232.38
273.553	235.38
273.785	237.38
274.017	233.38
274.249	211.38
274.481	229.38
274.713	250.38
274.945	210.38
275.176	226.38
275.408	255.38
275.64	232.38
275.872	225.38
276.104	234.38
276.335	243.38
276.567	247.38
276.799	230.38
277.031	253.38
277.262	275.38
277.494	274.38
277.726	251.38
277.957	252.38
278.189	231.38
278.421	230.38
278.652	235.38
278.884	244.38
279.115	225.38
279.347	245.38
279.579	232.38
279.81	241.38
280.042	229.38
280.273	244.38
280.505	233.38
280.736	228.38
280.968	240.38
281.199	249.38
281.431	222.38
281.662	233.38
281.894	243.38
282.125	236.38
282.356	247.38
282.588	268.38
282.819	266.38
283.051	245.38
283.282	262.38
283.513	242.38
283.745	235.38
283.976	246.38
284.207	280.38
284.439	259.38
284.67	260.38
284.901	252.38
285.132	252.38
285.364	260.38
285.595	260.38
285.826	236.38
286.057	264.38
286.288	271.38
286.52	249.38
286.751	249.38
286.982	252.38
287.213	251.38
287.444	249.38
287.675	239.38
287.906	256.38
288.138	284.38
288.369	264.38
288.6	283.38
288.831	264.38
289.062	255.38
289.293	266.38
289.524	273.38
289.755	252.38
289.986	261.38
290.217	257.38
290.448	257.38
290.679	282.38
290.91	275.38
291.141	271.38
291.371	260.38
291.602	267.38
291.833	256.38
292.064	255.38
292.295	276.38
292.526	281.38
292.757	270.38
292.987	241.38
293.218	254.38
293.449	267.38
293.68	289.38
293.91	267.38
294.141	262.38
294.372	262.38
294.603	285.38
294.833	283.38
295.064	279.38
295.295	264.38
295.525	263.38
295.756	277.38
295.987	276.38
296.217	291.38
296.448	296.38
296.679	270.38
296.909	266.38
297.14	277.38
297.37	275.38
297.601	269.38
297.831	264.38
298.062	266.38
298.292	288.38
298.523	273.38
298.753	281.38
298.984	274.38
299.214	279.38
299.445	277.38
299.675	270.38
299.905	304.38
300.136	287.38
300.366	291.38
300.597	287.38
300.827	294.38
301.057	278.38
301.288	299.38
301.518	297.38
301.748	290.38
301.979	303.38
302.209	292.38
302.439	291.38
302.669	306.38
302.9	305.38
303.13	301.38
303.36	287.38
303.59	300.38
303.82	295.38
304.051	305.38
304.281	310.38
304.511	303.38
304.741	291.38
304.971	287.38
305.201	291.38
305.431	276.38
305.661	305.38
305.891	287.38
306.121	288.38
306.352	277.38
306.582	300.38
306.812	292.38
307.042	307.38
307.272	293.38
307.502	291.38
307.731	284.38
307.961	304.38
308.191	279.38
308.421	307.38
308.651	316.38
308.881	289.38
309.111	313.38
309.341	293.38
309.571	306.38
309.8	312.38
310.03	313.38
310.26	321.38
310.49	334.38
310.72	328.38
310.949	339.38
311.179	349.38
311.409	328.38
311.639	305.38
311.868	327.38
312.098	309.38
312.328	315.38
312.557	326.38
312.787	340.38
313.017	340.38
313.246	341.38
313.476	317.38
313.706	329.38
313.935	328.38
314.165	337.38
314.394	356.38
314.624	352.38
314.853	349.38
315.083	346.38
315.312	332.38
315.542	330.38
315.771	327.38
316.001	312.38
316.23	331.38
316.46	323.38
316.689	345.38
316.919	344.38
317.148	332.38
317.377	341.38
317.607	336.38
317.836	330.38
318.065	340.38
318.295	339.38
318.524	328.38
318.753	322.38
318.983	346.38
319.212	316.38
319.441	331.38
319.67	321.38
319.9	330.38
320.129	328.38
320.358	328.38
320.587	325.38
320.816	318.38
321.046	338.38
321.275	334.38
321.504	330.38
321.733	338.38
321.962	336.38
322.191	339.38
322.42	356.38
322.649	341.38
322.878	358.38
323.108	372.38
323.337	393.38
323.566	384.38
323.795	398.38
324.024	425.38
324.253	497.38
324.482	640.38
324.71	931.38
324.939	1259.38
325.168	1021.38
325.397	577.38
325.626	445.38
325.855	402.38
326.084	389.38
326.313	384.38
326.542	396.38
326.77	425.38
326.999	467.38
327.228	601.38
327.457	831.38
327.686	971.38
327.914	683.38
328.143	489.38
328.372	463.38
328.6	444.38
328.829	425.38
329.058	439.38
329.287	443.38
329.515	428.38
329.744	379.38
329.972	381.38
330.201	421.38
330.43	460.38
330.658	465.38
330.887	461.38
331.115	475.38
331.344	418.38
331.572	388.38
331.801	417.38
332.03	407.38
332.258	400.38
332.486	385.38
332.715	393.38
332.943	413.38
333.172	401.38
333.4	438.38
333.629	396.38
333.857	434.38
334.085	459.38
334.314	452.38
334.542	466.38
334.771	470.38
334.999	438.38
335.227	422.38
335.455	396.38
335.684	390.38
335.912	413.38
336.14	392.38
336.369	376.38
336.597	410.38
336.825	391.38
337.053	380.38
337.281	405.38
337.51	403.38
337.738	392.38
337.966	394.38
338.194	385.38
338.422	390.38
338.65	382.38
338.878	378.38
339.106	383.38
339.334	375.38
339.562	360.38
339.79	367.38
340.018	383.38
340.246	373.38
340.474	358.38
340.702	362.38
340.93	373.38
341.158	362.38
341.386	364.38
341.614	379.38
341.842	375.38
342.07	352.38
342.298	353.38
342.526	363.38
342.754	368.38
342.981	333.38
343.209	355.38
343.437	365.38
343.665	360.38
343.893	403.38
344.12	395.38
344.348	396.38
344.576	387.38
344.804	408.38
345.031	366.38
345.259	380.38
345.487	365.38
345.714	358.38
345.942	359.38
346.17	357.38
346.397	357.38
346.625	349.38
346.853	356.38
347.08	351.38
347.308	353.38
347.535	333.38
347.763	368.38
347.99	365.38
348.218	343.38
348.445	353.38
348.673	332.38
348.9	345.38
349.128	342.38
349.355	327.38
349.583	328.38
349.81	322.38
350.037	349.38
350.265	338.38
350.492	313.38
350.72	339.38
350.947	333.38
351.174	330.38
351.402	360.38
351.629	351.38
351.856	339.38
352.083	349.38
352.311	352.38
352.538	356.38
352.765	363.38
352.992	344.38
353.22	323.38
353.447	341.38
353.674	321.38
353.901	350.38
354.128	325.38
354.355	316.38
354.583	329.38
354.81	330.38
355.037	343.38
355.264	339.38
355.491	331.38
355.718	328.38
355.945	339.38
356.172	322.38
356.399	322.38
356.626	323.38
356.853	321.38
357.08	341.38
357.307	313.38
357.534	331.38
357.761	339.38
357.988	337.38
358.215	322.38
358.441	336.38
358.668	322.38
358.895	343.38
359.122	326.38
359.349	335.38
359.576	347.38
359.802	348.38
360.029	357.38
360.256	380.38
360.483	373.38
360.709	355.38
360.936	344.38
361.163	362.38
361.39	330.38
361.616	343.38
361.843	356.38
362.07	356.38
362.296	344.38
362.523	343.38
362.749	342.38
362.976	360.38
363.203	362.38
363.429	322.38
363.656	329.38
363.882	341.38
364.109	348.38
364.335	339.38
364.562	333.38
364.788	337.38
365.015	333.38
365.241	355.38
365.468	350.38
365.694	320.38
365.92	329.38
366.147	328.38
366.373	330.38
366.599	348.38
366.826	330.38
367.052	347.38
367.278	327.38
367.505	331.38
367.731	318.38
367.957	323.38
368.184	348.38
368.41	333.38
368.636	359.38
368.862	355.38
369.089	333.38
369.315	339.38
369.541	329.38
369.767	329.38
369.993	328.38
370.219	319.38
370.445	336.38
370.672	328.38
370.898	342.38
371.124	327.38
371.35	333.38
371.576	328.38
371.802	355.38
372.028	338.38
372.254	345.38
372.48	355.38
372.706	348.38
372.932	332.38
373.158	346.38
373.384	341.38
373.61	340.38
373.835	356.38
374.061	345.38
374.287	363.38
374.513	346.38
374.739	365.38
374.965	361.38
375.191	333.38
375.416	347.38
375.642	362.38
375.868	354.38
376.094	345.38
376.319	334.38
376.545	336.38
376.771	349.38
376.997	328.38
377.222	347.38
377.448	358.38
377.674	331.38
377.899	341.38
378.125	338.38
378.35	325.38
378.576	344.38
378.802	347.38
379.027	334.38
379.253	317.38
379.478	325.38
379.704	319.38
379.929	321.38
380.155	364.38
380.38	350.38
380.606	334.38
380.831	337.38
381.057	345.38
381.282	346.38
381.507	341.38
381.733	329.38
381.958	330.38
382.184	347.38
382.409	356.38
382.634	341.38
382.86	340.38
383.085	348.38
383.31	358.38
383.535	355.38
383.761	349.38
383.986	364.38
384.211	363.38
384.436	356.38
384.662	372.38
384.887	353.38
385.112	383.38
385.337	387.38
385.562	384.38
385.787	375.38
386.013	394.38
386.238	393.38
386.463	401.38
386.688	376.38
386.913	377.38
387.138	377.38
387.363	399.38
387.588	383.38
387.813	387.38
388.038	384.38
388.263	368.38
388.488	388.38
388.713	379.38
388.938	379.38
389.163	379.38
389.387	371.38
389.612	382.38
389.837	375.38
390.062	360.38
390.287	375.38
390.512	357.38
390.736	354.38
390.961	377.38
391.186	359.38
391.411	373.38
391.636	407.38
391.86	399.38
392.085	404.38
392.31	401.38
392.534	411.38
392.759	393.38
392.984	421.38
393.208	384.38
393.433	385.38
393.658	383.38
393.882	380.38
394.107	381.38
394.331	392.38
394.556	387.38
394.78	389.38
395.005	368.38
395.229	381.38
395.454	393.38
395.678	402.38
395.903	415.38
396.127	432.38
396.352	410.38
396.576	401.38
396.801	385.38
397.025	389.38
397.249	388.38
397.474	404.38
397.698	423.38
397.922	405.38
398.147	432.38
398.371	431.38
398.595	431.38
398.82	448.38
399.044	471.38
399.268	472.38
399.492	515.38
399.717	571.38
399.941	565.38
400.165	581.38
400.389	545.38
400.613	490.38
400.837	467.38
401.062	450.38
401.286	451.38
401.51	434.38
401.734	435.38
401.958	457.38
402.182	433.38
402.406	470.38
402.63	451.38
402.854	464.38
403.078	476.38
403.302	479.38
403.526	473.38
403.75	473.38
403.974	479.38
404.198	475.38
404.422	481.38
404.645	475.38
404.869	457.38
405.093	477.38
405.317	528.38
405.541	554.38
405.765	485.38
405.988	467.38
406.212	484.38
406.436	493.38
406.66	515.38
406.883	497.38
407.107	545.38
407.331	546.38
407.555	608.38
407.778	581.38
408.002	549.38
408.226	518.38
408.449	521.38
408.673	486.38
408.896	508.38
409.12	531.38
409.344	485.38
409.567	456.38
409.791	459.38
410.014	445.38
410.238	459.38
410.461	461.38
410.685	450.38
410.908	483.38
411.132	478.38
411.355	500.38
411.578	484.38
411.802	468.38
412.025	453.38
412.249	492.38
412.472	473.38
412.695	487.38
412.919	482.38
413.142	445.38
413.365	460.38
413.589	428.38
413.812	439.38
414.035	437.38
414.258	442.38
414.482	440.38
414.705	438.38
414.928	447.38
415.151	435.38
415.374	433.38
415.597	427.38
415.821	455.38
416.044	436.38
416.267	434.38
416.49	421.38
416.713	421.38
416.936	439.38
417.159	431.38
417.382	413.38
417.605	462.38
417.828	456.38
418.051	456.38
418.274	422.38
418.497	435.38
418.72	442.38
418.943	420.38
419.166	456.38
419.389	474.38
419.611	478.38
419.834	474.38
420.057	459.38
420.28	477.38
420.503	443.38
420.726	441.38
420.948	458.38
421.171	485.38
421.394	497.38
421.617	459.38
421.839	448.38
422.062	450.38
422.285	453.38
422.507	516.38
422.73	531.38
422.953	512.38
423.175	474.38
423.398	485.38
423.621	453.38
423.843	481.38
424.066	476.38
424.288	483.38
424.511	496.38
424.733	517.38
424.956	564.38
425.178	528.38
425.401	539.38
425.623	536.38
425.846	469.38
426.068	453.38
426.291	456.38
426.513	458.38
426.735	463.38
426.958	465.38
427.18	568.38
427.402	611.38
427.625	627.38
427.847	563.38
428.069	529.38
428.292	467.38
428.514	457.38
428.736	437.38
428.958	433.38
429.181	420.38
429.403	419.38
429.625	434.38
429.847	456.38
430.069	466.38
430.292	469.38
430.514	420.38
430.736	417.38
430.958	425.38
431.18	401.38
431.402	396.38
431.624	417.38
431.846	397.38
432.068	424.38
432.29	413.38
432.512	396.38
432.734	428.38
432.956	429.38
433.178	425.38
433.4	424.38
433.622	425.38
433.844	416.38
434.066	421.38
434.287	435.38
434.509	433.38
434.731	415.38
434.953	445.38
435.175	457.38
435.397	471.38
435.618	443.38
435.84	491.38
436.062	529.38
436.284	561.38
436.505	489.38
436.727	455.38
436.949	426.38
437.17	421.38
437.392	427.38
437.614	449.38
437.835	442.38
438.057	496.38
438.278	534.38
438.5	579.38
438.721	606.38
438.943	568.38
439.165	471.38
439.386	471.38
439.608	453.38
439.829	461.38
440.05	462.38
440.272	484.38
440.493	453.38
440.715	444.38
440.936	425.38
441.158	435.38
441.379	442.38
441.6	474.38
441.822	468.38
442.043	484.38
442.264	534.38
442.486	538.38
442.707	498.38
442.928	490.38
443.149	474.38
443.371	482.38
443.592	507.38
443.813	565.38
444.034	597.38
444.255	525.38
444.476	501.38
444.698	513.38
444.919	488.38
445.14	625.38
445.361	563.38
445.582	507.38
445.803	534.38
446.024	586.38
446.245	585.38
446.466	543.38
446.687	465.38
446.908	452.38
447.129	433.38
447.35	404.38
447.571	395.38
447.792	403.38
448.013	405.38
448.234	441.38
448.455	472.38
448.675	523.38
448.896	583.38
449.117	504.38
449.338	475.38
449.559	534.38
449.779	591.38
450	495.38
450.221	444.38
450.442	413.38
450.662	412.38
450.883	403.38
451.104	415.38
451.324	439.38
451.545	401.38
451.766	404.38
451.986	390.38
452.207	382.38
452.428	376.38
452.648	379.38
452.869	376.38
453.089	389.38
453.31	371.38
453.53	376.38
453.751	381.38
453.971	399.38
454.192	391.38
454.412	375.38
454.633	369.38
454.853	358.38
455.073	365.38
455.294	394.38
455.514	439.38
455.734	431.38
455.955	377.38
456.175	376.38
456.395	364.38
456.616	347.38
456.836	346.38
457.056	346.38
457.276	364.38
457.497	370.38
457.717	371.38
457.937	356.38
458.157	377.38
458.377	375.38
458.598	411.38
458.818	421.38
459.038	476.38
459.258	503.38
459.478	427.38
459.698	426.38
459.918	434.38
460.138	443.38
460.358	439.38
460.578	460.38
460.798	454.38
461.018	441.38
461.238	441.38
461.458	454.38
461.678	452.38
461.898	423.38
462.118	445.38
462.338	464.38
462.558	478.38
462.777	471.38
462.997	482.38
463.217	519.38
463.437	521.38
463.657	488.38
463.876	489.38
464.096	480.38
464.316	508.38
464.536	475.38
464.755	461.38
464.975	498.38
465.195	499.38
465.414	508.38
465.634	459.38
465.854	433.38
466.073	420.38
466.293	410.38
466.512	406.38
466.732	405.38
466.951	400.38
467.171	378.38
467.391	388.38
467.61	415.38
467.829	403.38
468.049	384.38
468.268	387.38
468.488	396.38
468.707	387.38
468.927	407.38
469.146	403.38
469.365	400.38
469.585	385.38
469.804	406.38
470.023	412.38
470.243	405.38
470.462	400.38
470.681	424.38
470.901	430.38
471.12	408.38
471.339	401.38
471.558	385.38
471.777	406.38
471.997	397.38
472.216	407.38
472.435	436.38
472.654	395.38
472.873	377.38
473.092	383.38
473.311	389.38
473.53	391.38
473.749	400.38
473.968	423.38
474.187	465.38
474.406	486.38
474.625	426.38
474.844	417.38
475.063	391.38
475.282	405.38
475.501	399.38
475.72	398.38
475.939	386.38
476.158	379.38
476.377	402.38
476.596	397.38
476.814	406.38
477.033	414.38
477.252	435.38
477.471	420.38
477.69	443.38
477.908	437.38
478.127	441.38
478.346	455.38
478.564	443.38
478.783	467.38
479.002	451.38
479.22	457.38
479.439	463.38
479.658	455.38
479.876	477.38
480.095	488.38
480.313	498.38
480.532	511.38
480.751	507.38
480.969	514.38
481.188	518.38
481.406	567.38
481.624	481.38
481.843	468.38
482.061	458.38
482.28	454.38
482.498	473.38
482.717	449.38
482.935	471.38
483.153	439.38
483.372	459.38
483.59	444.38
483.808	456.38
484.027	440.38
484.245	464.38
484.463	467.38
484.681	465.38
484.9	458.38
485.118	480.38
485.336	443.38
485.554	465.38
485.772	469.38
485.99	449.38
486.209	465.38
486.427	466.38
486.645	478.38
486.863	484.38
487.081	456.38
487.299	467.38
487.517	499.38
487.735	507.38
487.953	491.38
488.171	515.38
488.389	468.38
488.607	469.38
488.825	473.38
489.043	479.38
489.261	470.38
489.479	476.38
489.696	480.38
489.914	466.38
490.132	509.38
490.35	511.38
490.568	517.38
490.786	529.38
491.003	527.38
491.221	515.38
491.439	542.38
491.657	538.38
491.874	546.38
492.092	555.38
492.31	590.38
492.527	562.38
492.745	587.38
492.963	556.38
493.18	561.38
493.398	575.38
493.615	573.38
493.833	584.38
494.05	565.38
494.268	585.38
494.485	578.38
494.703	556.38
494.92	567.38
495.138	574.38
495.355	561.38
495.573	570.38
495.79	551.38
496.008	571.38
496.225	570.38
496.442	554.38
496.66	572.38
496.877	575.38
497.094	559.38
497.312	580.38
497.529	626.38
497.746	609.38
497.963	605.38
498.181	629.38
498.398	651.38
498.615	665.38
498.832	680.38
499.049	706.38
499.267	739.38
499.484	803.38
499.701	820.38
499.918	873.38
500.135	930.38
500.352	984.38
500.569	1043.38
500.786	1011.38
501.003	961.38
501.22	921.38
501.437	869.38
501.654	817.38
501.871	801.38
502.088	735.38
