Data from 1969.PennyLincolnUp.Lamp.En5.5.200Scan.071719.P1._HRD10591_14-55-52-980.txt Node
Date: Thu Jul 18 14:55:52 EDT 2019
User: cochatt
Spectrometer: HR+D1059
Trigger mode: 1
Integration Time (sec): 1.000000E-1
Scans to average: 1
Electric dark correction enabled: true
Nonlinearity correction enabled: false
Boxcar width: 0
XAxis mode: Wavelengths
Number of Pixels in Spectrum: 2048
>>>>>Begin Spectral Data<<<<<
223.165	-3.06
223.4	-3.06
223.635	-3.06
223.869	-22.06
224.104	-27.06
224.338	-14.06
224.573	-25.06
224.808	-25.06
225.042	-10.06
225.277	-7.06
225.511	-10.06
225.746	0.94
225.98	28.94
226.215	14.94
226.449	24.94
226.683	21.94
226.918	22.94
227.152	28.94
227.387	27.94
227.621	36.94
227.856	41.94
228.09	45.94
228.324	52.94
228.559	56.94
228.793	62.94
229.027	85.94
229.262	96.94
229.496	78.94
229.73	112.94
229.964	119.94
230.199	89.94
230.433	96.94
230.667	103.94
230.901	107.94
231.136	94.94
231.37	96.94
231.604	96.94
231.838	92.94
232.072	117.94
232.306	97.94
232.541	98.94
232.775	97.94
233.009	103.94
233.243	96.94
233.477	102.94
233.711	113.94
233.945	103.94
234.179	105.94
234.413	104.94
234.647	110.94
234.881	97.94
235.115	92.94
235.349	106.94
235.583	108.94
235.817	107.94
236.051	95.94
236.285	111.94
236.519	106.94
236.753	120.94
236.987	132.94
237.221	149.94
237.455	184.94
237.689	130.94
237.922	114.94
238.156	121.94
238.39	119.94
238.624	112.94
238.858	101.94
239.091	116.94
239.325	113.94
239.559	113.94
239.793	128.94
240.027	132.94
240.26	132.94
240.494	140.94
240.728	130.94
240.961	124.94
241.195	141.94
241.429	122.94
241.662	95.94
241.896	104.94
242.13	130.94
242.363	112.94
242.597	105.94
242.83	110.94
243.064	114.94
243.298	120.94
243.531	113.94
243.765	123.94
243.998	122.94
244.232	130.94
244.465	129.94
244.699	124.94
244.932	117.94
245.166	121.94
245.399	131.94
245.633	125.94
245.866	134.94
246.099	132.94
246.333	128.94
246.566	138.94
246.8	140.94
247.033	126.94
247.266	137.94
247.5	148.94
247.733	146.94
247.966	142.94
248.2	143.94
248.433	151.94
248.666	150.94
248.899	151.94
249.133	172.94
249.366	158.94
249.599	148.94
249.832	146.94
250.066	154.94
250.299	167.94
250.532	177.94
250.765	172.94
250.998	178.94
251.231	186.94
251.465	160.94
251.698	158.94
251.931	159.94
252.164	168.94
252.397	155.94
252.63	169.94
252.863	165.94
253.096	169.94
253.329	185.94
253.562	171.94
253.795	188.94
254.028	176.94
254.261	167.94
254.494	194.94
254.727	199.94
254.96	220.94
255.193	208.94
255.426	189.94
255.659	182.94
255.892	192.94
256.124	191.94
256.357	190.94
256.59	197.94
256.823	172.94
257.056	170.94
257.289	180.94
257.521	180.94
257.754	166.94
257.987	167.94
258.22	163.94
258.452	174.94
258.685	170.94
258.918	173.94
259.151	172.94
259.383	193.94
259.616	191.94
259.849	183.94
260.081	210.94
260.314	201.94
260.547	206.94
260.779	204.94
261.012	180.94
261.244	184.94
261.477	177.94
261.71	189.94
261.942	194.94
262.175	181.94
262.407	188.94
262.64	163.94
262.872	183.94
263.105	180.94
263.337	182.94
263.57	180.94
263.802	180.94
264.035	177.94
264.267	182.94
264.499	169.94
264.732	167.94
264.964	187.94
265.197	166.94
265.429	203.94
265.661	186.94
265.894	184.94
266.126	182.94
266.358	181.94
266.591	189.94
266.823	215.94
267.055	185.94
267.287	200.94
267.52	189.94
267.752	185.94
267.984	210.94
268.216	183.94
268.448	200.94
268.681	198.94
268.913	202.94
269.145	227.94
269.377	232.94
269.609	236.94
269.841	201.94
270.073	224.94
270.306	245.94
270.538	250.94
270.77	257.94
271.002	247.94
271.234	245.94
271.466	237.94
271.698	239.94
271.93	260.94
272.162	250.94
272.394	236.94
272.626	240.94
272.858	222.94
273.09	217.94
273.322	219.94
273.553	210.94
273.785	207.94
274.017	221.94
274.249	216.94
274.481	226.94
274.713	225.94
274.945	233.94
275.176	217.94
275.408	218.94
275.64	221.94
275.872	209.94
276.104	230.94
276.335	217.94
276.567	220.94
276.799	226.94
277.031	233.94
277.262	249.94
277.494	256.94
277.726	231.94
277.957	218.94
278.189	249.94
278.421	242.94
278.652	213.94
278.884	227.94
279.115	227.94
279.347	251.94
279.579	232.94
279.81	219.94
280.042	219.94
280.273	226.94
280.505	197.94
280.736	203.94
280.968	224.94
281.199	216.94
281.431	232.94
281.662	244.94
281.894	218.94
282.125	251.94
282.356	233.94
282.588	265.94
282.819	256.94
283.051	248.94
283.282	225.94
283.513	233.94
283.745	246.94
283.976	230.94
284.207	235.94
284.439	236.94
284.67	247.94
284.901	234.94
285.132	247.94
285.364	218.94
285.595	234.94
285.826	228.94
286.057	242.94
286.288	252.94
286.52	234.94
286.751	220.94
286.982	237.94
287.213	234.94
287.444	243.94
287.675	262.94
287.906	269.94
288.138	268.94
288.369	261.94
288.6	276.94
288.831	261.94
289.062	269.94
289.293	269.94
289.524	249.94
289.755	251.94
289.986	252.94
290.217	260.94
290.448	266.94
290.679	228.94
290.91	259.94
291.141	254.94
291.371	237.94
291.602	252.94
291.833	266.94
292.064	240.94
292.295	262.94
292.526	256.94
292.757	253.94
292.987	241.94
293.218	269.94
293.449	260.94
293.68	246.94
293.91	256.94
294.141	245.94
294.372	263.94
294.603	264.94
294.833	276.94
295.064	269.94
295.295	269.94
295.525	258.94
295.756	263.94
295.987	268.94
296.217	294.94
296.448	277.94
296.679	259.94
296.909	255.94
297.14	266.94
297.37	259.94
297.601	256.94
297.831	262.94
298.062	264.94
298.292	262.94
298.523	270.94
298.753	274.94
298.984	260.94
299.214	273.94
299.445	278.94
299.675	264.94
299.905	259.94
300.136	276.94
300.366	260.94
300.597	275.94
300.827	266.94
301.057	276.94
301.288	304.94
301.518	293.94
301.748	292.94
301.979	290.94
302.209	304.94
302.439	294.94
302.669	285.94
302.9	276.94
303.13	293.94
303.36	282.94
303.59	284.94
303.82	288.94
304.051	277.94
304.281	287.94
304.511	300.94
304.741	285.94
304.971	299.94
305.201	274.94
305.431	292.94
305.661	288.94
305.891	294.94
306.121	290.94
306.352	283.94
306.582	273.94
306.812	287.94
307.042	274.94
307.272	278.94
307.502	272.94
307.731	284.94
307.961	283.94
308.191	278.94
308.421	291.94
308.651	273.94
308.881	283.94
309.111	290.94
309.341	271.94
309.571	294.94
309.8	297.94
310.03	296.94
310.26	307.94
310.49	288.94
310.72	324.94
310.949	326.94
311.179	317.94
311.409	298.94
311.639	296.94
311.868	307.94
312.098	302.94
312.328	326.94
312.557	328.94
312.787	317.94
313.017	320.94
313.246	325.94
313.476	309.94
313.706	307.94
313.935	327.94
314.165	324.94
314.394	334.94
314.624	334.94
314.853	333.94
315.083	305.94
315.312	310.94
315.542	319.94
315.771	322.94
316.001	306.94
316.23	307.94
316.46	304.94
316.689	329.94
316.919	319.94
317.148	319.94
317.377	305.94
317.607	308.94
317.836	323.94
318.065	309.94
318.295	311.94
318.524	310.94
318.753	307.94
318.983	314.94
319.212	308.94
319.441	313.94
319.67	326.94
319.9	308.94
320.129	315.94
320.358	318.94
320.587	321.94
320.816	322.94
321.046	332.94
321.275	315.94
321.504	329.94
321.733	310.94
321.962	320.94
322.191	337.94
322.42	330.94
322.649	334.94
322.878	349.94
323.108	356.94
323.337	375.94
323.566	360.94
323.795	386.94
324.024	414.94
324.253	479.94
324.482	610.94
324.71	864.94
324.939	1118.94
325.168	916.94
325.397	534.94
325.626	400.94
325.855	365.94
326.084	362.94
326.313	366.94
326.542	360.94
326.77	384.94
326.999	460.94
327.228	561.94
327.457	772.94
327.686	881.94
327.914	610.94
328.143	462.94
328.372	421.94
328.6	413.94
328.829	413.94
329.058	426.94
329.287	419.94
329.515	406.94
329.744	401.94
329.972	392.94
330.201	404.94
330.43	446.94
330.658	460.94
330.887	429.94
331.115	437.94
331.344	414.94
331.572	388.94
331.801	381.94
332.03	378.94
332.258	396.94
332.486	386.94
332.715	388.94
332.943	379.94
333.172	383.94
333.4	384.94
333.629	403.94
333.857	409.94
334.085	406.94
334.314	419.94
334.542	444.94
334.771	458.94
334.999	432.94
335.227	400.94
335.455	392.94
335.684	393.94
335.912	394.94
336.14	356.94
336.369	386.94
336.597	374.94
336.825	385.94
337.053	360.94
337.281	388.94
337.51	362.94
337.738	368.94
337.966	377.94
338.194	378.94
338.422	354.94
338.65	368.94
338.878	352.94
339.106	344.94
339.334	343.94
339.562	352.94
339.79	369.94
340.018	360.94
340.246	349.94
340.474	361.94
340.702	366.94
340.93	365.94
341.158	354.94
341.386	353.94
341.614	370.94
341.842	352.94
342.07	348.94
342.298	340.94
342.526	340.94
342.754	331.94
342.981	352.94
343.209	334.94
343.437	341.94
343.665	374.94
343.893	365.94
344.12	376.94
344.348	375.94
344.576	368.94
344.804	356.94
345.031	347.94
345.259	364.94
345.487	363.94
345.714	351.94
345.942	336.94
346.17	339.94
346.397	337.94
346.625	337.94
346.853	325.94
347.08	331.94
347.308	328.94
347.535	338.94
347.763	348.94
347.99	335.94
348.218	317.94
348.445	341.94
348.673	348.94
348.9	354.94
349.128	345.94
349.355	322.94
349.583	332.94
349.81	322.94
350.037	304.94
350.265	337.94
350.492	343.94
350.72	316.94
350.947	304.94
351.174	329.94
351.402	345.94
351.629	329.94
351.856	333.94
352.083	321.94
352.311	331.94
352.538	319.94
352.765	324.94
352.992	328.94
353.22	330.94
353.447	342.94
353.674	327.94
353.901	316.94
354.128	311.94
354.355	321.94
354.583	312.94
354.81	316.94
355.037	311.94
355.264	302.94
355.491	306.94
355.718	297.94
355.945	307.94
356.172	317.94
356.399	309.94
356.626	327.94
356.853	317.94
357.08	318.94
357.307	315.94
357.534	321.94
357.761	332.94
357.988	301.94
358.215	315.94
358.441	309.94
358.668	307.94
358.895	339.94
359.122	320.94
359.349	314.94
359.576	319.94
359.802	346.94
360.029	359.94
360.256	346.94
360.483	345.94
360.709	323.94
360.936	334.94
361.163	326.94
361.39	337.94
361.616	339.94
361.843	332.94
362.07	340.94
362.296	340.94
362.523	349.94
362.749	326.94
362.976	320.94
363.203	313.94
363.429	333.94
363.656	343.94
363.882	327.94
364.109	314.94
364.335	322.94
364.562	324.94
364.788	317.94
365.015	323.94
365.241	312.94
365.468	316.94
365.694	308.94
365.92	337.94
366.147	314.94
366.373	331.94
366.599	320.94
366.826	314.94
367.052	320.94
367.278	324.94
367.505	314.94
367.731	298.94
367.957	309.94
368.184	314.94
368.41	332.94
368.636	345.94
368.862	338.94
369.089	333.94
369.315	320.94
369.541	300.94
369.767	322.94
369.993	338.94
370.219	318.94
370.445	321.94
370.672	328.94
370.898	312.94
371.124	325.94
371.35	323.94
371.576	321.94
371.802	352.94
372.028	319.94
372.254	328.94
372.48	316.94
372.706	338.94
372.932	323.94
373.158	330.94
373.384	313.94
373.61	317.94
373.835	295.94
374.061	323.94
374.287	331.94
374.513	337.94
374.739	342.94
374.965	342.94
375.191	337.94
375.416	347.94
375.642	327.94
375.868	337.94
376.094	334.94
376.319	333.94
376.545	318.94
376.771	338.94
376.997	331.94
377.222	326.94
377.448	316.94
377.674	323.94
377.899	314.94
378.125	339.94
378.35	320.94
378.576	328.94
378.802	304.94
379.027	328.94
379.253	317.94
379.478	298.94
379.704	316.94
379.929	326.94
380.155	330.94
380.38	333.94
380.606	344.94
380.831	316.94
381.057	351.94
381.282	322.94
381.507	324.94
381.733	309.94
381.958	322.94
382.184	321.94
382.409	334.94
382.634	363.94
382.86	317.94
383.085	345.94
383.31	359.94
383.535	337.94
383.761	344.94
383.986	326.94
384.211	351.94
384.436	357.94
384.662	328.94
384.887	341.94
385.112	354.94
385.337	360.94
385.562	347.94
385.787	365.94
386.013	379.94
386.238	371.94
386.463	360.94
386.688	343.94
386.913	352.94
387.138	355.94
387.363	366.94
387.588	345.94
387.813	345.94
388.038	366.94
388.263	372.94
388.488	368.94
388.713	359.94
388.938	373.94
389.163	358.94
389.387	346.94
389.612	349.94
389.837	356.94
390.062	355.94
390.287	359.94
390.512	344.94
390.736	368.94
390.961	365.94
391.186	351.94
391.411	391.94
391.636	393.94
391.86	387.94
392.085	394.94
392.31	384.94
392.534	390.94
392.759	381.94
392.984	378.94
393.208	377.94
393.433	356.94
393.658	364.94
393.882	374.94
394.107	369.94
394.331	380.94
394.556	361.94
394.78	370.94
395.005	375.94
395.229	381.94
395.454	380.94
395.678	387.94
395.903	397.94
396.127	402.94
396.352	408.94
396.576	383.94
396.801	374.94
397.025	371.94
397.249	374.94
397.474	388.94
397.698	387.94
397.922	409.94
398.147	408.94
398.371	419.94
398.595	420.94
398.82	424.94
399.044	437.94
399.268	491.94
399.492	501.94
399.717	558.94
399.941	557.94
400.165	553.94
400.389	518.94
400.613	472.94
400.837	440.94
401.062	446.94
401.286	433.94
401.51	408.94
401.734	408.94
401.958	422.94
402.182	413.94
402.406	438.94
402.63	465.94
402.854	452.94
403.078	443.94
403.302	432.94
403.526	460.94
403.75	436.94
403.974	430.94
404.198	453.94
404.422	449.94
404.645	435.94
404.869	457.94
405.093	481.94
405.317	527.94
405.541	504.94
405.765	483.94
405.988	438.94
406.212	472.94
406.436	481.94
406.66	483.94
406.883	465.94
407.107	516.94
407.331	540.94
407.555	571.94
407.778	552.94
408.002	524.94
408.226	491.94
408.449	483.94
408.673	485.94
408.896	498.94
409.12	503.94
409.344	506.94
409.567	459.94
409.791	448.94
410.014	418.94
410.238	445.94
410.461	436.94
410.685	454.94
410.908	456.94
411.132	457.94
411.355	468.94
411.578	483.94
411.802	441.94
412.025	434.94
412.249	439.94
412.472	461.94
412.695	468.94
412.919	453.94
413.142	442.94
413.365	448.94
413.589	427.94
413.812	432.94
414.035	426.94
414.258	410.94
414.482	426.94
414.705	426.94
414.928	407.94
415.151	439.94
415.374	418.94
415.597	400.94
415.821	419.94
416.044	414.94
416.267	426.94
416.49	412.94
416.713	419.94
416.936	414.94
417.159	408.94
417.382	400.94
417.605	420.94
417.828	413.94
418.051	409.94
418.274	428.94
418.497	406.94
418.72	427.94
418.943	410.94
419.166	426.94
419.389	449.94
419.611	418.94
419.834	421.94
420.057	427.94
420.28	450.94
420.503	434.94
420.726	430.94
420.948	416.94
421.171	465.94
421.394	469.94
421.617	428.94
421.839	400.94
422.062	414.94
422.285	443.94
422.507	480.94
422.73	504.94
422.953	515.94
423.175	463.94
423.398	450.94
423.621	446.94
423.843	474.94
424.066	472.94
424.288	469.94
424.511	452.94
424.733	486.94
424.956	549.94
425.178	526.94
425.401	516.94
425.623	504.94
425.846	485.94
426.068	434.94
426.291	434.94
426.513	433.94
426.735	453.94
426.958	464.94
427.18	524.94
427.402	574.94
427.625	604.94
427.847	552.94
428.069	479.94
428.292	444.94
428.514	433.94
428.736	414.94
428.958	409.94
429.181	389.94
429.403	418.94
429.625	423.94
429.847	423.94
430.069	462.94
430.292	444.94
430.514	416.94
430.736	410.94
430.958	393.94
431.18	400.94
431.402	395.94
431.624	389.94
431.846	395.94
432.068	386.94
432.29	394.94
432.512	393.94
432.734	405.94
432.956	395.94
433.178	398.94
433.4	410.94
433.622	408.94
433.844	396.94
434.066	390.94
434.287	381.94
434.509	417.94
434.731	402.94
434.953	403.94
435.175	434.94
435.397	440.94
435.618	449.94
435.84	440.94
436.062	514.94
436.284	506.94
436.505	455.94
436.727	429.94
436.949	419.94
437.17	412.94
437.392	390.94
437.614	389.94
437.835	436.94
438.057	483.94
438.278	530.94
438.5	534.94
438.721	565.94
438.943	544.94
439.165	439.94
439.386	426.94
439.608	421.94
439.829	442.94
440.05	440.94
440.272	469.94
440.493	441.94
440.715	430.94
440.936	432.94
441.158	416.94
441.379	434.94
441.6	448.94
441.822	448.94
442.043	450.94
442.264	540.94
442.486	521.94
442.707	480.94
442.928	452.94
443.149	476.94
443.371	469.94
443.592	478.94
443.813	547.94
444.034	565.94
444.255	523.94
444.476	484.94
444.698	474.94
444.919	480.94
445.14	584.94
445.361	510.94
445.582	488.94
445.803	508.94
446.024	548.94
446.245	549.94
446.466	509.94
446.687	444.94
446.908	428.94
447.129	419.94
447.35	400.94
447.571	411.94
447.792	396.94
448.013	397.94
448.234	424.94
448.455	430.94
448.675	525.94
448.896	539.94
449.117	480.94
449.338	472.94
449.559	528.94
449.779	566.94
450	471.94
450.221	410.94
450.442	384.94
450.662	386.94
450.883	387.94
451.104	401.94
451.324	402.94
451.545	387.94
451.766	362.94
451.986	380.94
452.207	375.94
452.428	368.94
452.648	363.94
452.869	356.94
453.089	368.94
453.31	380.94
453.53	367.94
453.751	365.94
453.971	353.94
454.192	359.94
454.412	371.94
454.633	340.94
454.853	358.94
455.073	374.94
455.294	375.94
455.514	399.94
455.734	390.94
455.955	358.94
456.175	373.94
456.395	344.94
456.616	317.94
456.836	340.94
457.056	322.94
457.276	344.94
457.497	348.94
457.717	343.94
457.937	362.94
458.157	352.94
458.377	351.94
458.598	369.94
458.818	411.94
459.038	443.94
459.258	452.94
459.478	414.94
459.698	394.94
459.918	392.94
460.138	395.94
460.358	436.94
460.578	406.94
460.798	418.94
461.018	433.94
461.238	408.94
461.458	404.94
461.678	421.94
461.898	405.94
462.118	425.94
462.338	453.94
462.558	427.94
462.777	446.94
462.997	466.94
463.217	497.94
463.437	502.94
463.657	477.94
463.876	470.94
464.096	447.94
464.316	466.94
464.536	471.94
464.755	466.94
464.975	466.94
465.195	469.94
465.414	486.94
465.634	447.94
465.854	421.94
466.073	410.94
466.293	387.94
466.512	380.94
466.732	380.94
466.951	368.94
467.171	376.94
467.391	380.94
467.61	373.94
467.829	382.94
468.049	398.94
468.268	398.94
468.488	384.94
468.707	370.94
468.927	382.94
469.146	385.94
469.365	364.94
469.585	374.94
469.804	390.94
470.023	396.94
470.243	394.94
470.462	393.94
470.681	392.94
470.901	382.94
471.12	388.94
471.339	407.94
471.558	384.94
471.777	380.94
471.997	396.94
472.216	381.94
472.435	401.94
472.654	384.94
472.873	385.94
473.092	358.94
473.311	376.94
473.53	363.94
473.749	386.94
473.968	411.94
474.187	448.94
474.406	466.94
474.625	399.94
474.844	385.94
475.063	373.94
475.282	370.94
475.501	383.94
475.72	380.94
475.939	396.94
476.158	395.94
476.377	391.94
476.596	375.94
476.814	365.94
477.033	403.94
477.252	394.94
477.471	411.94
477.69	396.94
477.908	404.94
478.127	430.94
478.346	418.94
478.564	422.94
478.783	413.94
479.002	449.94
479.22	443.94
479.439	442.94
479.658	461.94
479.876	443.94
480.095	462.94
480.313	467.94
480.532	477.94
480.751	456.94
480.969	487.94
481.188	512.94
481.406	522.94
481.624	474.94
481.843	459.94
482.061	438.94
482.28	425.94
482.498	414.94
482.717	420.94
482.935	436.94
483.153	432.94
483.372	414.94
483.59	432.94
483.808	433.94
484.027	427.94
484.245	420.94
484.463	430.94
484.681	445.94
484.9	454.94
485.118	437.94
485.336	440.94
485.554	435.94
485.772	452.94
485.99	465.94
486.209	455.94
486.427	464.94
486.645	470.94
486.863	465.94
487.081	468.94
487.299	472.94
487.517	424.94
487.735	452.94
487.953	468.94
488.171	465.94
488.389	444.94
488.607	456.94
488.825	465.94
489.043	470.94
489.261	457.94
489.479	471.94
489.696	472.94
489.914	454.94
490.132	461.94
490.35	467.94
490.568	473.94
490.786	506.94
491.003	502.94
491.221	504.94
491.439	513.94
491.657	534.94
491.874	540.94
492.092	541.94
492.31	538.94
492.527	539.94
492.745	537.94
492.963	552.94
493.18	550.94
493.398	570.94
493.615	548.94
493.833	545.94
494.05	542.94
494.268	511.94
494.485	549.94
494.703	564.94
494.92	558.94
495.138	548.94
495.355	546.94
495.573	538.94
495.79	541.94
496.008	532.94
496.225	547.94
496.442	559.94
496.66	541.94
496.877	554.94
497.094	556.94
497.312	576.94
497.529	562.94
497.746	579.94
497.963	595.94
498.181	614.94
498.398	618.94
498.615	652.94
498.832	632.94
499.049	690.94
499.267	706.94
499.484	731.94
499.701	809.94
499.918	850.94
500.135	917.94
500.352	970.94
500.569	994.94
500.786	984.94
501.003	932.94
501.22	887.94
501.437	829.94
501.654	772.94
501.871	746.94
502.088	712.94
502.305	690.94
