Data from 1969.PennyLincolnUp.Lamp.En5.5.200Scan.071719.P1._HRD10591_14-56-02-989.txt Node
Date: Thu Jul 18 14:56:02 EDT 2019
User: cochatt
Spectrometer: HR+D1059
Trigger mode: 1
Integration Time (sec): 1.000000E-1
Scans to average: 1
Electric dark correction enabled: true
Nonlinearity correction enabled: false
Boxcar width: 0
XAxis mode: Wavelengths
Number of Pixels in Spectrum: 2048
>>>>>Begin Spectral Data<<<<<
223.165	-23.94
223.4	-23.94
223.635	-23.94
223.869	-11.94
224.104	-16.94
224.338	-18.94
224.573	-12.94
224.808	-0.94
225.042	-2.94
225.277	2.06
225.511	3.06
225.746	5.06
225.98	-7.94
226.215	8.06
226.449	6.06
226.683	27.06
226.918	20.06
227.152	25.06
227.387	34.06
227.621	43.06
227.856	35.06
228.09	34.06
228.324	45.06
228.559	41.06
228.793	62.06
229.027	69.06
229.262	93.06
229.496	88.06
229.73	116.06
229.964	130.06
230.199	112.06
230.433	89.06
230.667	95.06
230.901	98.06
231.136	98.06
231.37	107.06
231.604	111.06
231.838	111.06
232.072	99.06
232.306	94.06
232.541	103.06
232.775	90.06
233.009	112.06
233.243	98.06
233.477	121.06
233.711	113.06
233.945	104.06
234.179	104.06
234.413	84.06
234.647	113.06
234.881	102.06
235.115	88.06
235.349	105.06
235.583	118.06
235.817	115.06
236.051	109.06
236.285	125.06
236.519	115.06
236.753	115.06
236.987	129.06
237.221	145.06
237.455	175.06
237.689	140.06
237.922	119.06
238.156	110.06
238.39	113.06
238.624	119.06
238.858	114.06
239.091	104.06
239.325	104.06
239.559	107.06
239.793	95.06
240.027	121.06
240.26	125.06
240.494	118.06
240.728	131.06
240.961	127.06
241.195	138.06
241.429	125.06
241.662	124.06
241.896	120.06
242.13	124.06
242.363	121.06
242.597	126.06
242.83	118.06
243.064	113.06
243.298	120.06
243.531	121.06
243.765	116.06
243.998	126.06
244.232	123.06
244.465	121.06
244.699	134.06
244.932	127.06
245.166	132.06
245.399	128.06
245.633	140.06
245.866	148.06
246.099	127.06
246.333	130.06
246.566	122.06
246.8	139.06
247.033	129.06
247.266	147.06
247.5	140.06
247.733	136.06
247.966	147.06
248.2	153.06
248.433	156.06
248.666	135.06
248.899	168.06
249.133	169.06
249.366	183.06
249.599	157.06
249.832	165.06
250.066	163.06
250.299	168.06
250.532	154.06
250.765	172.06
250.998	184.06
251.231	163.06
251.465	172.06
251.698	181.06
251.931	158.06
252.164	162.06
252.397	176.06
252.63	178.06
252.863	178.06
253.096	161.06
253.329	194.06
253.562	187.06
253.795	175.06
254.028	189.06
254.261	190.06
254.494	187.06
254.727	208.06
254.96	218.06
255.193	219.06
255.426	205.06
255.659	180.06
255.892	201.06
256.124	206.06
256.357	186.06
256.59	179.06
256.823	195.06
257.056	196.06
257.289	182.06
257.521	186.06
257.754	175.06
257.987	178.06
258.22	178.06
258.452	178.06
258.685	171.06
258.918	184.06
259.151	193.06
259.383	201.06
259.616	192.06
259.849	183.06
260.081	191.06
260.314	207.06
260.547	219.06
260.779	211.06
261.012	189.06
261.244	174.06
261.477	195.06
261.71	192.06
261.942	188.06
262.175	187.06
262.407	194.06
262.64	176.06
262.872	189.06
263.105	177.06
263.337	196.06
263.57	169.06
263.802	198.06
264.035	183.06
264.267	178.06
264.499	181.06
264.732	187.06
264.964	178.06
265.197	165.06
265.429	196.06
265.661	187.06
265.894	185.06
266.126	167.06
266.358	189.06
266.591	183.06
266.823	192.06
267.055	205.06
267.287	195.06
267.52	209.06
267.752	191.06
267.984	225.06
268.216	217.06
268.448	208.06
268.681	193.06
268.913	200.06
269.145	234.06
269.377	240.06
269.609	231.06
269.841	216.06
270.073	244.06
270.306	248.06
270.538	263.06
270.77	253.06
271.002	258.06
271.234	236.06
271.466	247.06
271.698	259.06
271.93	255.06
272.162	264.06
272.394	245.06
272.626	267.06
272.858	239.06
273.09	225.06
273.322	219.06
273.553	225.06
273.785	223.06
274.017	229.06
274.249	222.06
274.481	213.06
274.713	224.06
274.945	225.06
275.176	213.06
275.408	239.06
275.64	237.06
275.872	215.06
276.104	232.06
276.335	236.06
276.567	238.06
276.799	241.06
277.031	257.06
277.262	266.06
277.494	271.06
277.726	267.06
277.957	232.06
278.189	257.06
278.421	229.06
278.652	220.06
278.884	247.06
279.115	235.06
279.347	223.06
279.579	234.06
279.81	245.06
280.042	231.06
280.273	232.06
280.505	241.06
280.736	260.06
280.968	228.06
281.199	237.06
281.431	247.06
281.662	243.06
281.894	226.06
282.125	226.06
282.356	258.06
282.588	246.06
282.819	273.06
283.051	271.06
283.282	235.06
283.513	250.06
283.745	230.06
283.976	263.06
284.207	255.06
284.439	253.06
284.67	272.06
284.901	257.06
285.132	240.06
285.364	225.06
285.595	250.06
285.826	256.06
286.057	243.06
286.288	249.06
286.52	264.06
286.751	257.06
286.982	245.06
287.213	234.06
287.444	253.06
287.675	250.06
287.906	255.06
288.138	276.06
288.369	283.06
288.6	280.06
288.831	268.06
289.062	247.06
289.293	250.06
289.524	255.06
289.755	254.06
289.986	245.06
290.217	264.06
290.448	269.06
290.679	274.06
290.91	278.06
291.141	266.06
291.371	261.06
291.602	278.06
291.833	251.06
292.064	251.06
292.295	249.06
292.526	259.06
292.757	263.06
292.987	263.06
293.218	256.06
293.449	270.06
293.68	263.06
293.91	265.06
294.141	255.06
294.372	260.06
294.603	273.06
294.833	257.06
295.064	255.06
295.295	263.06
295.525	247.06
295.756	256.06
295.987	280.06
296.217	283.06
296.448	285.06
296.679	289.06
296.909	280.06
297.14	268.06
297.37	277.06
297.601	288.06
297.831	276.06
298.062	289.06
298.292	269.06
298.523	268.06
298.753	287.06
298.984	275.06
299.214	279.06
299.445	274.06
299.675	273.06
299.905	280.06
300.136	273.06
300.366	301.06
300.597	294.06
300.827	288.06
301.057	293.06
301.288	285.06
301.518	289.06
301.748	289.06
301.979	299.06
302.209	293.06
302.439	296.06
302.669	285.06
302.9	303.06
303.13	316.06
303.36	276.06
303.59	300.06
303.82	287.06
304.051	294.06
304.281	300.06
304.511	299.06
304.741	286.06
304.971	285.06
305.201	291.06
305.431	282.06
305.661	289.06
305.891	305.06
306.121	291.06
306.352	292.06
306.582	289.06
306.812	307.06
307.042	287.06
307.272	301.06
307.502	312.06
307.731	305.06
307.961	297.06
308.191	287.06
308.421	296.06
308.651	298.06
308.881	314.06
309.111	297.06
309.341	290.06
309.571	307.06
309.8	301.06
310.03	308.06
310.26	312.06
310.49	321.06
310.72	312.06
310.949	316.06
311.179	341.06
311.409	316.06
311.639	306.06
311.868	336.06
312.098	325.06
312.328	339.06
312.557	348.06
312.787	332.06
313.017	348.06
313.246	338.06
313.476	319.06
313.706	316.06
313.935	345.06
314.165	342.06
314.394	331.06
314.624	325.06
314.853	337.06
315.083	322.06
315.312	338.06
315.542	320.06
315.771	323.06
316.001	334.06
316.23	335.06
316.46	331.06
316.689	330.06
316.919	310.06
317.148	342.06
317.377	343.06
317.607	326.06
317.836	338.06
318.065	339.06
318.295	332.06
318.524	338.06
318.753	336.06
318.983	316.06
319.212	324.06
319.441	326.06
319.67	339.06
319.9	318.06
320.129	303.06
320.358	311.06
320.587	319.06
320.816	347.06
321.046	329.06
321.275	345.06
321.504	340.06
321.733	343.06
321.962	354.06
322.191	345.06
322.42	362.06
322.649	345.06
322.878	378.06
323.108	368.06
323.337	376.06
323.566	402.06
323.795	389.06
324.024	418.06
324.253	503.06
324.482	652.06
324.71	913.06
324.939	1231.06
325.168	1014.06
325.397	602.06
325.626	454.06
325.855	410.06
326.084	370.06
326.313	385.06
326.542	387.06
326.77	413.06
326.999	475.06
327.228	601.06
327.457	840.06
327.686	930.06
327.914	651.06
328.143	492.06
328.372	461.06
328.6	436.06
328.829	432.06
329.058	428.06
329.287	424.06
329.515	419.06
329.744	410.06
329.972	431.06
330.201	420.06
330.43	452.06
330.658	474.06
330.887	470.06
331.115	467.06
331.344	422.06
331.572	409.06
331.801	410.06
332.03	409.06
332.258	398.06
332.486	378.06
332.715	403.06
332.943	411.06
333.172	421.06
333.4	433.06
333.629	433.06
333.857	432.06
334.085	445.06
334.314	445.06
334.542	461.06
334.771	483.06
334.999	433.06
335.227	413.06
335.455	423.06
335.684	407.06
335.912	397.06
336.14	399.06
336.369	413.06
336.597	394.06
336.825	393.06
337.053	402.06
337.281	406.06
337.51	388.06
337.738	389.06
337.966	395.06
338.194	399.06
338.422	376.06
338.65	368.06
338.878	357.06
339.106	379.06
339.334	372.06
339.562	375.06
339.79	362.06
340.018	373.06
340.246	364.06
340.474	373.06
340.702	353.06
340.93	359.06
341.158	348.06
341.386	358.06
341.614	362.06
341.842	350.06
342.07	356.06
342.298	352.06
342.526	379.06
342.754	336.06
342.981	363.06
343.209	356.06
343.437	376.06
343.665	391.06
343.893	408.06
344.12	403.06
344.348	397.06
344.576	390.06
344.804	354.06
345.031	379.06
345.259	390.06
345.487	382.06
345.714	377.06
345.942	387.06
346.17	336.06
346.397	345.06
346.625	355.06
346.853	348.06
347.08	322.06
347.308	359.06
347.535	340.06
347.763	364.06
347.99	360.06
348.218	352.06
348.445	352.06
348.673	348.06
348.9	352.06
349.128	334.06
349.355	359.06
349.583	335.06
349.81	354.06
350.037	331.06
350.265	324.06
350.492	343.06
350.72	344.06
350.947	339.06
351.174	344.06
351.402	350.06
351.629	346.06
351.856	345.06
352.083	345.06
352.311	359.06
352.538	366.06
352.765	355.06
352.992	342.06
353.22	339.06
353.447	355.06
353.674	343.06
353.901	331.06
354.128	329.06
354.355	333.06
354.583	328.06
354.81	322.06
355.037	333.06
355.264	341.06
355.491	335.06
355.718	328.06
355.945	339.06
356.172	338.06
356.399	326.06
356.626	338.06
356.853	311.06
357.08	324.06
357.307	321.06
357.534	329.06
357.761	314.06
357.988	326.06
358.215	335.06
358.441	327.06
358.668	330.06
358.895	333.06
359.122	340.06
359.349	348.06
359.576	337.06
359.802	370.06
360.029	347.06
360.256	364.06
360.483	347.06
360.709	341.06
360.936	356.06
361.163	342.06
361.39	351.06
361.616	347.06
361.843	330.06
362.07	351.06
362.296	353.06
362.523	348.06
362.749	344.06
362.976	333.06
363.203	333.06
363.429	327.06
363.656	332.06
363.882	338.06
364.109	333.06
364.335	339.06
364.562	332.06
364.788	324.06
365.015	333.06
365.241	348.06
365.468	335.06
365.694	331.06
365.92	336.06
366.147	330.06
366.373	344.06
366.599	344.06
366.826	333.06
367.052	336.06
367.278	327.06
367.505	331.06
367.731	319.06
367.957	342.06
368.184	340.06
368.41	319.06
368.636	356.06
368.862	351.06
369.089	337.06
369.315	337.06
369.541	342.06
369.767	336.06
369.993	336.06
370.219	360.06
370.445	327.06
370.672	338.06
370.898	340.06
371.124	332.06
371.35	315.06
371.576	330.06
371.802	344.06
372.028	342.06
372.254	346.06
372.48	346.06
372.706	336.06
372.932	346.06
373.158	347.06
373.384	344.06
373.61	341.06
373.835	357.06
374.061	346.06
374.287	360.06
374.513	364.06
374.739	363.06
374.965	349.06
375.191	368.06
375.416	360.06
375.642	362.06
375.868	361.06
376.094	343.06
376.319	329.06
376.545	339.06
376.771	346.06
376.997	324.06
377.222	340.06
377.448	345.06
377.674	357.06
377.899	328.06
378.125	348.06
378.35	344.06
378.576	329.06
378.802	322.06
379.027	336.06
379.253	344.06
379.478	344.06
379.704	344.06
379.929	338.06
380.155	353.06
380.38	368.06
380.606	341.06
380.831	340.06
381.057	352.06
381.282	360.06
381.507	339.06
381.733	345.06
381.958	365.06
382.184	338.06
382.409	360.06
382.634	359.06
382.86	343.06
383.085	328.06
383.31	341.06
383.535	360.06
383.761	357.06
383.986	367.06
384.211	371.06
384.436	350.06
384.662	355.06
384.887	379.06
385.112	370.06
385.337	377.06
385.562	377.06
385.787	371.06
386.013	399.06
386.238	387.06
386.463	357.06
386.688	369.06
386.913	373.06
387.138	368.06
387.363	347.06
387.588	379.06
387.813	359.06
388.038	365.06
388.263	387.06
388.488	386.06
388.713	377.06
388.938	368.06
389.163	384.06
389.387	377.06
389.612	355.06
389.837	365.06
390.062	379.06
390.287	363.06
390.512	354.06
390.736	374.06
390.961	375.06
391.186	365.06
391.411	360.06
391.636	403.06
391.86	408.06
392.085	379.06
392.31	411.06
392.534	382.06
392.759	405.06
392.984	397.06
393.208	392.06
393.433	387.06
393.658	383.06
393.882	388.06
394.107	395.06
394.331	400.06
394.556	415.06
394.78	391.06
395.005	405.06
395.229	393.06
395.454	418.06
395.678	388.06
395.903	424.06
396.127	397.06
396.352	405.06
396.576	392.06
396.801	409.06
397.025	387.06
397.249	403.06
397.474	421.06
397.698	416.06
397.922	419.06
398.147	428.06
398.371	430.06
398.595	424.06
398.82	433.06
399.044	476.06
399.268	509.06
399.492	533.06
399.717	578.06
399.941	557.06
400.165	548.06
400.389	528.06
400.613	515.06
400.837	457.06
401.062	443.06
401.286	449.06
401.51	438.06
401.734	424.06
401.958	449.06
402.182	461.06
402.406	446.06
402.63	455.06
402.854	471.06
403.078	466.06
403.302	455.06
403.526	451.06
403.75	461.06
403.974	457.06
404.198	483.06
404.422	471.06
404.645	483.06
404.869	491.06
405.093	487.06
405.317	498.06
405.541	525.06
405.765	494.06
405.988	478.06
406.212	482.06
406.436	495.06
406.66	500.06
406.883	485.06
407.107	537.06
407.331	559.06
407.555	577.06
407.778	572.06
408.002	560.06
408.226	537.06
408.449	507.06
408.673	496.06
408.896	511.06
409.12	512.06
409.344	511.06
409.567	502.06
409.791	470.06
410.014	458.06
410.238	461.06
410.461	457.06
410.685	472.06
410.908	479.06
411.132	493.06
411.355	501.06
411.578	479.06
411.802	477.06
412.025	458.06
412.249	478.06
412.472	500.06
412.695	497.06
412.919	488.06
413.142	465.06
413.365	450.06
413.589	453.06
413.812	452.06
414.035	461.06
414.258	438.06
414.482	442.06
414.705	449.06
414.928	450.06
415.151	443.06
415.374	451.06
415.597	455.06
415.821	422.06
416.044	442.06
416.267	443.06
416.49	433.06
416.713	415.06
416.936	410.06
417.159	434.06
417.382	432.06
417.605	441.06
417.828	434.06
418.051	439.06
418.274	453.06
418.497	418.06
418.72	431.06
418.943	440.06
419.166	449.06
419.389	458.06
419.611	466.06
419.834	465.06
420.057	458.06
420.28	471.06
420.503	456.06
420.726	458.06
420.948	462.06
421.171	475.06
421.394	482.06
421.617	445.06
421.839	448.06
422.062	456.06
422.285	460.06
422.507	497.06
422.73	533.06
422.953	513.06
423.175	469.06
423.398	464.06
423.621	455.06
423.843	470.06
424.066	457.06
424.288	472.06
424.511	487.06
424.733	525.06
424.956	551.06
425.178	531.06
425.401	564.06
425.623	550.06
425.846	483.06
426.068	456.06
426.291	463.06
426.513	463.06
426.735	479.06
426.958	493.06
427.18	529.06
427.402	579.06
427.625	623.06
427.847	558.06
428.069	498.06
428.292	467.06
428.514	438.06
428.736	424.06
428.958	442.06
429.181	422.06
429.403	415.06
429.625	428.06
429.847	446.06
430.069	484.06
430.292	457.06
430.514	422.06
430.736	411.06
430.958	421.06
431.18	418.06
431.402	416.06
431.624	402.06
431.846	395.06
432.068	423.06
432.29	397.06
432.512	404.06
432.734	408.06
432.956	403.06
433.178	419.06
433.4	406.06
433.622	415.06
433.844	427.06
434.066	404.06
434.287	403.06
434.509	439.06
434.731	427.06
434.953	442.06
435.175	460.06
435.397	468.06
435.618	463.06
435.84	471.06
436.062	535.06
436.284	541.06
436.505	455.06
436.727	435.06
436.949	441.06
437.17	431.06
437.392	431.06
437.614	438.06
437.835	434.06
438.057	487.06
438.278	537.06
438.5	551.06
438.721	581.06
438.943	559.06
439.165	495.06
439.386	455.06
439.608	445.06
439.829	462.06
440.05	445.06
440.272	495.06
440.493	464.06
440.715	437.06
440.936	436.06
441.158	421.06
441.379	445.06
441.6	452.06
441.822	480.06
442.043	501.06
442.264	569.06
442.486	574.06
442.707	488.06
442.928	471.06
443.149	491.06
443.371	496.06
443.592	533.06
443.813	557.06
444.034	609.06
444.255	533.06
444.476	500.06
444.698	497.06
444.919	498.06
445.14	612.06
445.361	548.06
445.582	496.06
445.803	522.06
446.024	585.06
446.245	558.06
446.466	537.06
446.687	460.06
446.908	425.06
447.129	437.06
447.35	440.06
447.571	413.06
447.792	407.06
448.013	413.06
448.234	410.06
448.455	449.06
448.675	523.06
448.896	575.06
449.117	495.06
449.338	479.06
449.559	549.06
449.779	603.06
450	503.06
450.221	433.06
450.442	403.06
450.662	399.06
450.883	412.06
451.104	424.06
451.324	400.06
451.545	397.06
451.766	375.06
451.986	383.06
452.207	381.06
452.428	380.06
452.648	368.06
452.869	391.06
453.089	395.06
453.31	383.06
453.53	366.06
453.751	394.06
453.971	389.06
454.192	380.06
454.412	376.06
454.633	388.06
454.853	369.06
455.073	389.06
455.294	392.06
455.514	449.06
455.734	426.06
455.955	370.06
456.175	351.06
456.395	353.06
456.616	348.06
456.836	367.06
457.056	374.06
457.276	347.06
457.497	359.06
457.717	361.06
457.937	373.06
458.157	371.06
458.377	375.06
458.598	401.06
458.818	419.06
459.038	468.06
459.258	455.06
459.478	439.06
459.698	422.06
459.918	418.06
460.138	413.06
460.358	430.06
460.578	427.06
460.798	413.06
461.018	445.06
461.238	445.06
461.458	417.06
461.678	432.06
461.898	441.06
462.118	437.06
462.338	438.06
462.558	463.06
462.777	497.06
462.997	496.06
463.217	514.06
463.437	531.06
463.657	495.06
463.876	489.06
464.096	495.06
464.316	479.06
464.536	480.06
464.755	469.06
464.975	470.06
465.195	506.06
465.414	520.06
465.634	475.06
465.854	421.06
466.073	415.06
466.293	405.06
466.512	401.06
466.732	403.06
466.951	392.06
467.171	381.06
467.391	379.06
467.61	401.06
467.829	396.06
468.049	412.06
468.268	407.06
468.488	387.06
468.707	379.06
468.927	390.06
469.146	391.06
469.365	380.06
469.585	408.06
469.804	409.06
470.023	412.06
470.243	410.06
470.462	409.06
470.681	444.06
470.901	419.06
471.12	398.06
471.339	407.06
471.558	388.06
471.777	395.06
471.997	414.06
472.216	399.06
472.435	421.06
472.654	438.06
472.873	397.06
473.092	385.06
473.311	404.06
473.53	404.06
473.749	393.06
473.968	418.06
474.187	472.06
474.406	463.06
474.625	423.06
474.844	390.06
475.063	380.06
475.282	394.06
475.501	406.06
475.72	395.06
475.939	395.06
476.158	412.06
476.377	413.06
476.596	409.06
476.814	404.06
477.033	425.06
477.252	406.06
477.471	421.06
477.69	431.06
477.908	442.06
478.127	428.06
478.346	446.06
478.564	458.06
478.783	455.06
479.002	452.06
479.22	460.06
479.439	478.06
479.658	472.06
479.876	461.06
480.095	477.06
480.313	508.06
480.532	511.06
480.751	496.06
480.969	483.06
481.188	511.06
481.406	546.06
481.624	498.06
481.843	472.06
482.061	458.06
482.28	449.06
482.498	442.06
482.717	447.06
482.935	456.06
483.153	447.06
483.372	461.06
483.59	436.06
483.808	443.06
484.027	439.06
484.245	446.06
484.463	450.06
484.681	461.06
484.9	461.06
485.118	453.06
485.336	444.06
485.554	461.06
485.772	457.06
485.99	449.06
486.209	454.06
486.427	460.06
486.645	472.06
486.863	465.06
487.081	465.06
487.299	473.06
487.517	482.06
487.735	465.06
487.953	489.06
488.171	487.06
488.389	484.06
488.607	485.06
488.825	440.06
489.043	476.06
489.261	478.06
489.479	480.06
489.696	481.06
489.914	479.06
490.132	502.06
490.35	521.06
490.568	508.06
490.786	523.06
491.003	514.06
491.221	539.06
491.439	537.06
491.657	550.06
491.874	561.06
492.092	542.06
492.31	575.06
492.527	563.06
492.745	571.06
492.963	547.06
493.18	568.06
493.398	598.06
493.615	579.06
493.833	597.06
494.05	573.06
494.268	608.06
494.485	563.06
494.703	555.06
494.92	551.06
495.138	559.06
495.355	539.06
495.573	560.06
495.79	585.06
496.008	582.06
496.225	564.06
496.442	582.06
496.66	592.06
496.877	571.06
497.094	564.06
497.312	577.06
497.529	603.06
497.746	597.06
497.963	603.06
498.181	615.06
498.398	640.06
498.615	653.06
498.832	669.06
499.049	711.06
499.267	709.06
499.484	777.06
499.701	834.06
499.918	849.06
500.135	923.06
500.352	981.06
500.569	1027.06
500.786	1003.06
501.003	959.06
501.22	936.06
501.437	880.06
501.654	827.06
501.871	785.06
502.088	728.06
