Data from 1969.PennyLincolnUp.Lamp.En5.5.200Scan.071719.P1._HRD10591_14-56-00-973.txt Node
Date: Thu Jul 18 14:56:00 EDT 2019
User: cochatt
Spectrometer: HR+D1059
Trigger mode: 1
Integration Time (sec): 1.000000E-1
Scans to average: 1
Electric dark correction enabled: true
Nonlinearity correction enabled: false
Boxcar width: 0
XAxis mode: Wavelengths
Number of Pixels in Spectrum: 2048
>>>>>Begin Spectral Data<<<<<
223.165	-10.25
223.4	-10.25
223.635	-10.25
223.869	-13.25
224.104	-12.25
224.338	-10.25
224.573	-19.25
224.808	-9.25
225.042	-5.25
225.277	-7.25
225.511	-0.25
225.746	-8.25
225.98	6.75
226.215	5.75
226.449	11.75
226.683	13.75
226.918	22.75
227.152	34.75
227.387	33.75
227.621	34.75
227.856	39.75
228.09	54.75
228.324	60.75
228.559	59.75
228.793	72.75
229.027	92.75
229.262	94.75
229.496	93.75
229.73	99.75
229.964	127.75
230.199	93.75
230.433	102.75
230.667	123.75
230.901	99.75
231.136	102.75
231.37	109.75
231.604	109.75
231.838	107.75
232.072	105.75
232.306	91.75
232.541	100.75
232.775	110.75
233.009	95.75
233.243	121.75
233.477	98.75
233.711	109.75
233.945	108.75
234.179	110.75
234.413	123.75
234.647	104.75
234.881	108.75
235.115	95.75
235.349	112.75
235.583	103.75
235.817	107.75
236.051	124.75
236.285	117.75
236.519	109.75
236.753	130.75
236.987	136.75
237.221	142.75
237.455	162.75
237.689	141.75
237.922	124.75
238.156	108.75
238.39	132.75
238.624	128.75
238.858	96.75
239.091	109.75
239.325	114.75
239.559	114.75
239.793	107.75
240.027	124.75
240.26	132.75
240.494	127.75
240.728	127.75
240.961	122.75
241.195	126.75
241.429	125.75
241.662	125.75
241.896	115.75
242.13	105.75
242.363	107.75
242.597	116.75
242.83	122.75
243.064	123.75
243.298	121.75
243.531	111.75
243.765	138.75
243.998	114.75
244.232	130.75
244.465	125.75
244.699	123.75
244.932	133.75
245.166	143.75
245.399	111.75
245.633	122.75
245.866	124.75
246.099	134.75
246.333	128.75
246.566	126.75
246.8	140.75
247.033	146.75
247.266	146.75
247.5	144.75
247.733	134.75
247.966	139.75
248.2	147.75
248.433	141.75
248.666	143.75
248.899	159.75
249.133	173.75
249.366	169.75
249.599	170.75
249.832	148.75
250.066	158.75
250.299	168.75
250.532	180.75
250.765	183.75
250.998	172.75
251.231	192.75
251.465	178.75
251.698	160.75
251.931	163.75
252.164	167.75
252.397	175.75
252.63	175.75
252.863	173.75
253.096	181.75
253.329	195.75
253.562	186.75
253.795	175.75
254.028	196.75
254.261	182.75
254.494	182.75
254.727	206.75
254.96	223.75
255.193	233.75
255.426	187.75
255.659	197.75
255.892	194.75
256.124	196.75
256.357	191.75
256.59	191.75
256.823	182.75
257.056	175.75
257.289	174.75
257.521	182.75
257.754	183.75
257.987	187.75
258.22	180.75
258.452	179.75
258.685	199.75
258.918	192.75
259.151	180.75
259.383	179.75
259.616	194.75
259.849	181.75
260.081	203.75
260.314	217.75
260.547	209.75
260.779	212.75
261.012	193.75
261.244	194.75
261.477	208.75
261.71	184.75
261.942	189.75
262.175	210.75
262.407	196.75
262.64	184.75
262.872	174.75
263.105	192.75
263.337	187.75
263.57	174.75
263.802	186.75
264.035	183.75
264.267	201.75
264.499	192.75
264.732	190.75
264.964	201.75
265.197	170.75
265.429	181.75
265.661	204.75
265.894	191.75
266.126	198.75
266.358	186.75
266.591	193.75
266.823	208.75
267.055	201.75
267.287	184.75
267.52	203.75
267.752	205.75
267.984	209.75
268.216	199.75
268.448	208.75
268.681	220.75
268.913	239.75
269.145	222.75
269.377	236.75
269.609	235.75
269.841	209.75
270.073	230.75
270.306	244.75
270.538	282.75
270.77	262.75
271.002	243.75
271.234	226.75
271.466	246.75
271.698	256.75
271.93	258.75
272.162	273.75
272.394	262.75
272.626	240.75
272.858	244.75
273.09	232.75
273.322	230.75
273.553	229.75
273.785	228.75
274.017	218.75
274.249	229.75
274.481	221.75
274.713	238.75
274.945	246.75
275.176	222.75
275.408	238.75
275.64	224.75
275.872	238.75
276.104	251.75
276.335	230.75
276.567	233.75
276.799	256.75
277.031	235.75
277.262	276.75
277.494	268.75
277.726	269.75
277.957	245.75
278.189	237.75
278.421	254.75
278.652	238.75
278.884	231.75
279.115	231.75
279.347	224.75
279.579	220.75
279.81	236.75
280.042	253.75
280.273	250.75
280.505	250.75
280.736	246.75
280.968	233.75
281.199	242.75
281.431	246.75
281.662	246.75
281.894	239.75
282.125	240.75
282.356	266.75
282.588	247.75
282.819	268.75
283.051	234.75
283.282	243.75
283.513	228.75
283.745	239.75
283.976	244.75
284.207	249.75
284.439	234.75
284.67	258.75
284.901	240.75
285.132	250.75
285.364	264.75
285.595	251.75
285.826	242.75
286.057	246.75
286.288	254.75
286.52	257.75
286.751	250.75
286.982	269.75
287.213	264.75
287.444	265.75
287.675	276.75
287.906	257.75
288.138	272.75
288.369	262.75
288.6	280.75
288.831	255.75
289.062	279.75
289.293	279.75
289.524	260.75
289.755	250.75
289.986	273.75
290.217	271.75
290.448	250.75
290.679	260.75
290.91	265.75
291.141	274.75
291.371	270.75
291.602	279.75
291.833	263.75
292.064	275.75
292.295	256.75
292.526	261.75
292.757	269.75
292.987	262.75
293.218	287.75
293.449	255.75
293.68	269.75
293.91	263.75
294.141	279.75
294.372	260.75
294.603	275.75
294.833	260.75
295.064	261.75
295.295	258.75
295.525	256.75
295.756	254.75
295.987	283.75
296.217	290.75
296.448	292.75
296.679	269.75
296.909	262.75
297.14	281.75
297.37	295.75
297.601	271.75
297.831	285.75
298.062	280.75
298.292	272.75
298.523	298.75
298.753	285.75
298.984	293.75
299.214	295.75
299.445	295.75
299.675	293.75
299.905	304.75
300.136	281.75
300.366	290.75
300.597	284.75
300.827	287.75
301.057	297.75
301.288	308.75
301.518	298.75
301.748	310.75
301.979	300.75
302.209	306.75
302.439	312.75
302.669	284.75
302.9	295.75
303.13	278.75
303.36	302.75
303.59	301.75
303.82	312.75
304.051	301.75
304.281	299.75
304.511	291.75
304.741	292.75
304.971	319.75
305.201	303.75
305.431	295.75
305.661	283.75
305.891	293.75
306.121	308.75
306.352	311.75
306.582	291.75
306.812	278.75
307.042	312.75
307.272	319.75
307.502	308.75
307.731	299.75
307.961	297.75
308.191	282.75
308.421	291.75
308.651	289.75
308.881	306.75
309.111	312.75
309.341	302.75
309.571	319.75
309.8	321.75
310.03	316.75
310.26	318.75
310.49	317.75
310.72	327.75
310.949	315.75
311.179	311.75
311.409	319.75
311.639	302.75
311.868	322.75
312.098	307.75
312.328	334.75
312.557	342.75
312.787	327.75
313.017	335.75
313.246	324.75
313.476	346.75
313.706	332.75
313.935	325.75
314.165	342.75
314.394	327.75
314.624	354.75
314.853	328.75
315.083	322.75
315.312	330.75
315.542	320.75
315.771	331.75
316.001	335.75
316.23	336.75
316.46	317.75
316.689	327.75
316.919	328.75
317.148	337.75
317.377	327.75
317.607	334.75
317.836	323.75
318.065	332.75
318.295	322.75
318.524	329.75
318.753	326.75
318.983	326.75
319.212	320.75
319.441	314.75
319.67	318.75
319.9	323.75
320.129	322.75
320.358	335.75
320.587	322.75
320.816	340.75
321.046	339.75
321.275	343.75
321.504	335.75
321.733	327.75
321.962	335.75
322.191	345.75
322.42	366.75
322.649	349.75
322.878	379.75
323.108	384.75
323.337	376.75
323.566	382.75
323.795	409.75
324.024	432.75
324.253	506.75
324.482	631.75
324.71	905.75
324.939	1214.75
325.168	1017.75
325.397	586.75
325.626	412.75
325.855	419.75
326.084	382.75
326.313	382.75
326.542	375.75
326.77	434.75
326.999	468.75
327.228	614.75
327.457	827.75
327.686	898.75
327.914	656.75
328.143	482.75
328.372	449.75
328.6	454.75
328.829	423.75
329.058	444.75
329.287	439.75
329.515	431.75
329.744	405.75
329.972	406.75
330.201	406.75
330.43	462.75
330.658	455.75
330.887	481.75
331.115	456.75
331.344	409.75
331.572	418.75
331.801	400.75
332.03	409.75
332.258	408.75
332.486	417.75
332.715	396.75
332.943	381.75
333.172	408.75
333.4	417.75
333.629	421.75
333.857	446.75
334.085	435.75
334.314	456.75
334.542	455.75
334.771	471.75
334.999	441.75
335.227	427.75
335.455	425.75
335.684	434.75
335.912	403.75
336.14	392.75
336.369	389.75
336.597	404.75
336.825	399.75
337.053	390.75
337.281	393.75
337.51	384.75
337.738	375.75
337.966	374.75
338.194	376.75
338.422	384.75
338.65	366.75
338.878	381.75
339.106	372.75
339.334	372.75
339.562	382.75
339.79	376.75
340.018	366.75
340.246	374.75
340.474	383.75
340.702	375.75
340.93	366.75
341.158	378.75
341.386	375.75
341.614	348.75
341.842	362.75
342.07	365.75
342.298	353.75
342.526	356.75
342.754	341.75
342.981	364.75
343.209	351.75
343.437	359.75
343.665	393.75
343.893	392.75
344.12	400.75
344.348	401.75
344.576	392.75
344.804	380.75
345.031	373.75
345.259	389.75
345.487	369.75
345.714	376.75
345.942	356.75
346.17	374.75
346.397	356.75
346.625	359.75
346.853	342.75
347.08	370.75
347.308	359.75
347.535	376.75
347.763	346.75
347.99	342.75
348.218	342.75
348.445	367.75
348.673	365.75
348.9	354.75
349.128	337.75
349.355	338.75
349.583	342.75
349.81	327.75
350.037	344.75
350.265	336.75
350.492	343.75
350.72	354.75
350.947	350.75
351.174	356.75
351.402	348.75
351.629	347.75
351.856	346.75
352.083	342.75
352.311	355.75
352.538	344.75
352.765	367.75
352.992	341.75
353.22	353.75
353.447	331.75
353.674	348.75
353.901	332.75
354.128	341.75
354.355	332.75
354.583	335.75
354.81	342.75
355.037	334.75
355.264	319.75
355.491	329.75
355.718	335.75
355.945	325.75
356.172	314.75
356.399	334.75
356.626	327.75
356.853	320.75
357.08	315.75
357.307	347.75
357.534	326.75
357.761	346.75
357.988	335.75
358.215	329.75
358.441	335.75
358.668	329.75
358.895	335.75
359.122	350.75
359.349	331.75
359.576	346.75
359.802	367.75
360.029	370.75
360.256	374.75
360.483	365.75
360.709	352.75
360.936	340.75
361.163	340.75
361.39	339.75
361.616	347.75
361.843	339.75
362.07	348.75
362.296	350.75
362.523	366.75
362.749	349.75
362.976	348.75
363.203	353.75
363.429	347.75
363.656	320.75
363.882	341.75
364.109	340.75
364.335	344.75
364.562	312.75
364.788	340.75
365.015	340.75
365.241	339.75
365.468	338.75
365.694	337.75
365.92	344.75
366.147	334.75
366.373	352.75
366.599	340.75
366.826	350.75
367.052	323.75
367.278	332.75
367.505	331.75
367.731	332.75
367.957	341.75
368.184	351.75
368.41	348.75
368.636	342.75
368.862	370.75
369.089	317.75
369.315	322.75
369.541	336.75
369.767	325.75
369.993	334.75
370.219	332.75
370.445	332.75
370.672	342.75
370.898	337.75
371.124	339.75
371.35	351.75
371.576	357.75
371.802	340.75
372.028	346.75
372.254	350.75
372.48	343.75
372.706	369.75
372.932	347.75
373.158	344.75
373.384	348.75
373.61	336.75
373.835	336.75
374.061	361.75
374.287	352.75
374.513	349.75
374.739	349.75
374.965	359.75
375.191	348.75
375.416	343.75
375.642	359.75
375.868	360.75
376.094	351.75
376.319	338.75
376.545	340.75
376.771	311.75
376.997	327.75
377.222	334.75
377.448	336.75
377.674	336.75
377.899	327.75
378.125	324.75
378.35	341.75
378.576	334.75
378.802	348.75
379.027	350.75
379.253	330.75
379.478	336.75
379.704	344.75
379.929	344.75
380.155	339.75
380.38	345.75
380.606	332.75
380.831	329.75
381.057	356.75
381.282	348.75
381.507	337.75
381.733	360.75
381.958	365.75
382.184	332.75
382.409	339.75
382.634	348.75
382.86	358.75
383.085	354.75
383.31	366.75
383.535	374.75
383.761	370.75
383.986	361.75
384.211	370.75
384.436	356.75
384.662	374.75
384.887	378.75
385.112	368.75
385.337	380.75
385.562	384.75
385.787	382.75
386.013	394.75
386.238	397.75
386.463	392.75
386.688	388.75
386.913	379.75
387.138	376.75
387.363	389.75
387.588	383.75
387.813	373.75
388.038	383.75
388.263	387.75
388.488	376.75
388.713	386.75
388.938	367.75
389.163	362.75
389.387	381.75
389.612	364.75
389.837	362.75
390.062	380.75
390.287	381.75
390.512	382.75
390.736	379.75
390.961	396.75
391.186	384.75
391.411	390.75
391.636	390.75
391.86	395.75
392.085	399.75
392.31	398.75
392.534	389.75
392.759	399.75
392.984	376.75
393.208	403.75
393.433	380.75
393.658	390.75
393.882	394.75
394.107	370.75
394.331	380.75
394.556	388.75
394.78	388.75
395.005	409.75
395.229	404.75
395.454	394.75
395.678	407.75
395.903	405.75
396.127	410.75
396.352	405.75
396.576	394.75
396.801	382.75
397.025	387.75
397.249	411.75
397.474	418.75
397.698	428.75
397.922	409.75
398.147	429.75
398.371	425.75
398.595	418.75
398.82	454.75
399.044	458.75
399.268	479.75
399.492	534.75
399.717	563.75
399.941	587.75
400.165	556.75
400.389	553.75
400.613	501.75
400.837	462.75
401.062	467.75
401.286	435.75
401.51	445.75
401.734	445.75
401.958	443.75
402.182	451.75
402.406	455.75
402.63	459.75
402.854	456.75
403.078	459.75
403.302	462.75
403.526	477.75
403.75	500.75
403.974	477.75
404.198	486.75
404.422	483.75
404.645	480.75
404.869	492.75
405.093	490.75
405.317	522.75
405.541	547.75
405.765	522.75
405.988	484.75
406.212	486.75
406.436	495.75
406.66	499.75
406.883	517.75
407.107	544.75
407.331	564.75
407.555	585.75
407.778	600.75
408.002	530.75
408.226	514.75
408.449	509.75
408.673	514.75
408.896	531.75
409.12	543.75
409.344	503.75
409.567	486.75
409.791	462.75
410.014	473.75
410.238	486.75
410.461	453.75
410.685	462.75
410.908	458.75
411.132	482.75
411.355	488.75
411.578	473.75
411.802	454.75
412.025	461.75
412.249	459.75
412.472	479.75
412.695	494.75
412.919	468.75
413.142	487.75
413.365	461.75
413.589	447.75
413.812	441.75
414.035	430.75
414.258	429.75
414.482	434.75
414.705	434.75
414.928	440.75
415.151	430.75
415.374	431.75
415.597	427.75
415.821	418.75
416.044	424.75
416.267	430.75
416.49	447.75
416.713	426.75
416.936	440.75
417.159	442.75
417.382	424.75
417.605	427.75
417.828	442.75
418.051	447.75
418.274	459.75
418.497	447.75
418.72	436.75
418.943	444.75
419.166	469.75
419.389	480.75
419.611	472.75
419.834	470.75
420.057	459.75
420.28	458.75
420.503	468.75
420.726	447.75
420.948	474.75
421.171	478.75
421.394	480.75
421.617	476.75
421.839	481.75
422.062	456.75
422.285	440.75
422.507	487.75
422.73	558.75
422.953	506.75
423.175	494.75
423.398	446.75
423.621	456.75
423.843	491.75
424.066	478.75
424.288	492.75
424.511	483.75
424.733	523.75
424.956	552.75
425.178	527.75
425.401	551.75
425.623	551.75
425.846	492.75
426.068	463.75
426.291	457.75
426.513	474.75
426.735	446.75
426.958	474.75
427.18	527.75
427.402	605.75
427.625	644.75
427.847	581.75
428.069	532.75
428.292	472.75
428.514	457.75
428.736	424.75
428.958	404.75
429.181	423.75
429.403	423.75
429.625	430.75
429.847	442.75
430.069	497.75
430.292	462.75
430.514	449.75
430.736	435.75
430.958	420.75
431.18	398.75
431.402	400.75
431.624	402.75
431.846	402.75
432.068	392.75
432.29	405.75
432.512	406.75
432.734	400.75
432.956	410.75
433.178	436.75
433.4	405.75
433.622	424.75
433.844	427.75
434.066	420.75
434.287	405.75
434.509	413.75
434.731	420.75
434.953	438.75
435.175	454.75
435.397	483.75
435.618	458.75
435.84	499.75
436.062	535.75
436.284	548.75
436.505	479.75
436.727	464.75
436.949	442.75
437.17	439.75
437.392	420.75
437.614	422.75
437.835	439.75
438.057	487.75
438.278	553.75
438.5	549.75
438.721	599.75
438.943	576.75
439.165	478.75
439.386	456.75
439.608	454.75
439.829	455.75
440.05	470.75
440.272	463.75
440.493	475.75
440.715	444.75
440.936	445.75
441.158	440.75
441.379	437.75
441.6	462.75
441.822	474.75
442.043	490.75
442.264	555.75
442.486	542.75
442.707	479.75
442.928	461.75
443.149	498.75
443.371	486.75
443.592	516.75
443.813	553.75
444.034	578.75
444.255	531.75
444.476	498.75
444.698	524.75
444.919	518.75
445.14	637.75
445.361	532.75
445.582	487.75
445.803	545.75
446.024	576.75
446.245	594.75
446.466	533.75
446.687	494.75
446.908	445.75
447.129	426.75
447.35	426.75
447.571	413.75
447.792	427.75
448.013	435.75
448.234	423.75
448.455	454.75
448.675	524.75
448.896	582.75
449.117	479.75
449.338	493.75
449.559	560.75
449.779	621.75
450	491.75
450.221	424.75
450.442	412.75
450.662	403.75
450.883	407.75
451.104	429.75
451.324	408.75
451.545	398.75
451.766	410.75
451.986	383.75
452.207	376.75
452.428	378.75
452.648	403.75
452.869	377.75
453.089	378.75
453.31	401.75
453.53	386.75
453.751	372.75
453.971	379.75
454.192	386.75
454.412	398.75
454.633	389.75
454.853	361.75
455.073	367.75
455.294	415.75
455.514	426.75
455.734	420.75
455.955	389.75
456.175	357.75
456.395	357.75
456.616	372.75
456.836	365.75
457.056	351.75
457.276	377.75
457.497	351.75
457.717	372.75
457.937	356.75
458.157	352.75
458.377	368.75
458.598	418.75
458.818	442.75
459.038	475.75
459.258	478.75
459.478	438.75
459.698	394.75
459.918	404.75
460.138	441.75
460.358	440.75
460.578	450.75
460.798	444.75
461.018	438.75
461.238	438.75
461.458	430.75
461.678	426.75
461.898	439.75
462.118	432.75
462.338	456.75
462.558	478.75
462.777	476.75
462.997	514.75
463.217	511.75
463.437	518.75
463.657	510.75
463.876	482.75
464.096	498.75
464.316	482.75
464.536	488.75
464.755	487.75
464.975	486.75
465.195	486.75
465.414	509.75
465.634	467.75
465.854	421.75
466.073	414.75
466.293	400.75
466.512	381.75
466.732	400.75
466.951	395.75
467.171	380.75
467.391	405.75
467.61	401.75
467.829	393.75
468.049	410.75
468.268	395.75
468.488	386.75
468.707	394.75
468.927	373.75
469.146	392.75
469.365	409.75
469.585	405.75
469.804	393.75
470.023	402.75
470.243	410.75
470.462	417.75
470.681	415.75
470.901	407.75
471.12	396.75
471.339	430.75
471.558	423.75
471.777	396.75
471.997	400.75
472.216	398.75
472.435	435.75
472.654	406.75
472.873	380.75
473.092	365.75
473.311	396.75
473.53	407.75
473.749	398.75
473.968	427.75
474.187	484.75
474.406	503.75
474.625	423.75
474.844	401.75
475.063	375.75
475.282	378.75
475.501	398.75
475.72	393.75
475.939	410.75
476.158	406.75
476.377	412.75
476.596	408.75
476.814	399.75
477.033	408.75
477.252	407.75
477.471	408.75
477.69	438.75
477.908	437.75
478.127	447.75
478.346	450.75
478.564	450.75
478.783	452.75
479.002	460.75
479.22	472.75
479.439	481.75
479.658	481.75
479.876	475.75
480.095	485.75
480.313	509.75
480.532	498.75
480.751	484.75
480.969	486.75
481.188	547.75
481.406	540.75
481.624	492.75
481.843	471.75
482.061	467.75
482.28	458.75
482.498	467.75
482.717	451.75
482.935	458.75
483.153	444.75
483.372	455.75
483.59	461.75
483.808	448.75
484.027	463.75
484.245	460.75
484.463	465.75
484.681	475.75
484.9	448.75
485.118	488.75
485.336	463.75
485.554	473.75
485.772	467.75
485.99	477.75
486.209	477.75
486.427	476.75
486.645	463.75
486.863	483.75
487.081	493.75
487.299	479.75
487.517	474.75
487.735	470.75
487.953	515.75
488.171	474.75
488.389	486.75
488.607	480.75
488.825	487.75
489.043	496.75
489.261	480.75
489.479	473.75
489.696	476.75
489.914	479.75
490.132	484.75
490.35	503.75
490.568	549.75
490.786	530.75
491.003	490.75
491.221	536.75
491.439	538.75
491.657	538.75
491.874	560.75
492.092	531.75
492.31	563.75
492.527	548.75
492.745	562.75
492.963	562.75
493.18	565.75
493.398	574.75
493.615	552.75
493.833	585.75
494.05	577.75
494.268	580.75
494.485	572.75
494.703	570.75
494.92	568.75
495.138	574.75
495.355	581.75
495.573	562.75
495.79	568.75
496.008	575.75
496.225	580.75
496.442	574.75
496.66	570.75
496.877	578.75
497.094	566.75
497.312	592.75
497.529	590.75
497.746	623.75
497.963	622.75
498.181	591.75
498.398	659.75
498.615	671.75
498.832	675.75
499.049	700.75
499.267	733.75
499.484	763.75
499.701	806.75
499.918	849.75
500.135	906.75
500.352	1035.75
500.569	1036.75
500.786	1036.75
501.003	991.75
501.22	906.75
501.437	879.75
501.654	810.75
501.871	770.75
502.088	757.75
