Data from 1969.PennyLincolnUp.Lamp.En5.5.200Scan.071719.P1._HRD10591_14-55-45-972.txt Node
Date: Thu Jul 18 14:55:45 EDT 2019
User: cochatt
Spectrometer: HR+D1059
Trigger mode: 1
Integration Time (sec): 1.000000E-1
Scans to average: 1
Electric dark correction enabled: true
Nonlinearity correction enabled: false
Boxcar width: 0
XAxis mode: Wavelengths
Number of Pixels in Spectrum: 2048
>>>>>Begin Spectral Data<<<<<
223.165	-15.88
223.4	-15.88
223.635	-15.88
223.869	-10.88
224.104	-15.88
224.338	-28.88
224.573	-18.88
224.808	-26.88
225.042	-1.88
225.277	5.12
225.511	-5.88
225.746	-0.88
225.98	-0.88
226.215	16.12
226.449	31.12
226.683	19.12
226.918	19.12
227.152	36.12
227.387	32.12
227.621	44.12
227.856	34.12
228.09	41.12
228.324	49.12
228.559	59.12
228.793	55.12
229.027	76.12
229.262	86.12
229.496	95.12
229.73	116.12
229.964	119.12
230.199	106.12
230.433	111.12
230.667	99.12
230.901	97.12
231.136	109.12
231.37	114.12
231.604	100.12
231.838	91.12
232.072	110.12
232.306	104.12
232.541	95.12
232.775	101.12
233.009	99.12
233.243	105.12
233.477	111.12
233.711	104.12
233.945	111.12
234.179	117.12
234.413	107.12
234.647	114.12
234.881	108.12
235.115	103.12
235.349	108.12
235.583	102.12
235.817	129.12
236.051	113.12
236.285	107.12
236.519	103.12
236.753	114.12
236.987	125.12
237.221	144.12
237.455	183.12
237.689	138.12
237.922	120.12
238.156	116.12
238.39	121.12
238.624	104.12
238.858	112.12
239.091	120.12
239.325	101.12
239.559	117.12
239.793	116.12
240.027	98.12
240.26	133.12
240.494	133.12
240.728	140.12
240.961	133.12
241.195	130.12
241.429	122.12
241.662	124.12
241.896	126.12
242.13	122.12
242.363	132.12
242.597	123.12
242.83	131.12
243.064	127.12
243.298	123.12
243.531	118.12
243.765	141.12
243.998	130.12
244.232	137.12
244.465	129.12
244.699	143.12
244.932	133.12
245.166	136.12
245.399	124.12
245.633	130.12
245.866	124.12
246.099	123.12
246.333	115.12
246.566	132.12
246.8	131.12
247.033	129.12
247.266	140.12
247.5	130.12
247.733	129.12
247.966	132.12
248.2	137.12
248.433	133.12
248.666	142.12
248.899	179.12
249.133	177.12
249.366	158.12
249.599	149.12
249.832	148.12
250.066	175.12
250.299	147.12
250.532	177.12
250.765	141.12
250.998	175.12
251.231	185.12
251.465	179.12
251.698	181.12
251.931	163.12
252.164	159.12
252.397	175.12
252.63	184.12
252.863	175.12
253.096	170.12
253.329	180.12
253.562	191.12
253.795	184.12
254.028	186.12
254.261	176.12
254.494	197.12
254.727	192.12
254.96	206.12
255.193	212.12
255.426	199.12
255.659	199.12
255.892	196.12
256.124	187.12
256.357	199.12
256.59	179.12
256.823	189.12
257.056	174.12
257.289	174.12
257.521	178.12
257.754	176.12
257.987	166.12
258.22	185.12
258.452	172.12
258.685	169.12
258.918	177.12
259.151	177.12
259.383	202.12
259.616	175.12
259.849	167.12
260.081	208.12
260.314	216.12
260.547	211.12
260.779	191.12
261.012	205.12
261.244	202.12
261.477	188.12
261.71	183.12
261.942	193.12
262.175	193.12
262.407	195.12
262.64	187.12
262.872	201.12
263.105	183.12
263.337	191.12
263.57	175.12
263.802	197.12
264.035	191.12
264.267	202.12
264.499	187.12
264.732	181.12
264.964	196.12
265.197	192.12
265.429	179.12
265.661	183.12
265.894	180.12
266.126	189.12
266.358	190.12
266.591	203.12
266.823	221.12
267.055	203.12
267.287	200.12
267.52	204.12
267.752	213.12
267.984	207.12
268.216	209.12
268.448	198.12
268.681	195.12
268.913	228.12
269.145	228.12
269.377	224.12
269.609	229.12
269.841	227.12
270.073	231.12
270.306	234.12
270.538	275.12
270.77	256.12
271.002	244.12
271.234	243.12
271.466	249.12
271.698	266.12
271.93	252.12
272.162	266.12
272.394	278.12
272.626	258.12
272.858	233.12
273.09	231.12
273.322	232.12
273.553	230.12
273.785	218.12
274.017	226.12
274.249	229.12
274.481	227.12
274.713	237.12
274.945	227.12
275.176	224.12
275.408	217.12
275.64	224.12
275.872	220.12
276.104	237.12
276.335	244.12
276.567	244.12
276.799	249.12
277.031	254.12
277.262	259.12
277.494	262.12
277.726	265.12
277.957	245.12
278.189	223.12
278.421	229.12
278.652	230.12
278.884	219.12
279.115	217.12
279.347	254.12
279.579	233.12
279.81	227.12
280.042	244.12
280.273	251.12
280.505	231.12
280.736	258.12
280.968	237.12
281.199	220.12
281.431	236.12
281.662	241.12
281.894	243.12
282.125	249.12
282.356	255.12
282.588	252.12
282.819	264.12
283.051	221.12
283.282	245.12
283.513	233.12
283.745	247.12
283.976	243.12
284.207	235.12
284.439	246.12
284.67	250.12
284.901	257.12
285.132	247.12
285.364	237.12
285.595	280.12
285.826	249.12
286.057	257.12
286.288	248.12
286.52	241.12
286.751	227.12
286.982	247.12
287.213	264.12
287.444	254.12
287.675	277.12
287.906	276.12
288.138	256.12
288.369	282.12
288.6	247.12
288.831	270.12
289.062	257.12
289.293	249.12
289.524	253.12
289.755	259.12
289.986	253.12
290.217	257.12
290.448	260.12
290.679	252.12
290.91	258.12
291.141	268.12
291.371	281.12
291.602	268.12
291.833	255.12
292.064	266.12
292.295	285.12
292.526	267.12
292.757	257.12
292.987	259.12
293.218	258.12
293.449	261.12
293.68	242.12
293.91	252.12
294.141	262.12
294.372	241.12
294.603	275.12
294.833	269.12
295.064	271.12
295.295	269.12
295.525	287.12
295.756	266.12
295.987	265.12
296.217	270.12
296.448	298.12
296.679	265.12
296.909	277.12
297.14	274.12
297.37	277.12
297.601	287.12
297.831	275.12
298.062	271.12
298.292	279.12
298.523	280.12
298.753	296.12
298.984	287.12
299.214	291.12
299.445	280.12
299.675	287.12
299.905	281.12
300.136	272.12
300.366	273.12
300.597	278.12
300.827	295.12
301.057	293.12
301.288	281.12
301.518	306.12
301.748	277.12
301.979	284.12
302.209	300.12
302.439	312.12
302.669	288.12
302.9	289.12
303.13	306.12
303.36	279.12
303.59	301.12
303.82	312.12
304.051	295.12
304.281	287.12
304.511	286.12
304.741	306.12
304.971	303.12
305.201	305.12
305.431	306.12
305.661	291.12
305.891	298.12
306.121	290.12
306.352	312.12
306.582	294.12
306.812	280.12
307.042	290.12
307.272	295.12
307.502	289.12
307.731	285.12
307.961	286.12
308.191	311.12
308.421	290.12
308.651	299.12
308.881	293.12
309.111	305.12
309.341	322.12
309.571	303.12
309.8	311.12
310.03	327.12
310.26	321.12
310.49	310.12
310.72	308.12
310.949	320.12
311.179	356.12
311.409	325.12
311.639	298.12
311.868	338.12
312.098	318.12
312.328	322.12
312.557	336.12
312.787	356.12
313.017	331.12
313.246	311.12
313.476	339.12
313.706	327.12
313.935	307.12
314.165	330.12
314.394	336.12
314.624	339.12
314.853	323.12
315.083	338.12
315.312	319.12
315.542	315.12
315.771	329.12
316.001	342.12
316.23	326.12
316.46	328.12
316.689	323.12
316.919	319.12
317.148	320.12
317.377	332.12
317.607	325.12
317.836	331.12
318.065	325.12
318.295	305.12
318.524	307.12
318.753	325.12
318.983	322.12
319.212	334.12
319.441	341.12
319.67	337.12
319.9	331.12
320.129	326.12
320.358	321.12
320.587	331.12
320.816	313.12
321.046	337.12
321.275	345.12
321.504	347.12
321.733	338.12
321.962	327.12
322.191	355.12
322.42	362.12
322.649	360.12
322.878	379.12
323.108	364.12
323.337	385.12
323.566	388.12
323.795	392.12
324.024	426.12
324.253	484.12
324.482	671.12
324.71	963.12
324.939	1264.12
325.168	1033.12
325.397	592.12
325.626	439.12
325.855	417.12
326.084	417.12
326.313	379.12
326.542	376.12
326.77	417.12
326.999	480.12
327.228	597.12
327.457	836.12
327.686	929.12
327.914	661.12
328.143	490.12
328.372	445.12
328.6	435.12
328.829	416.12
329.058	426.12
329.287	419.12
329.515	442.12
329.744	398.12
329.972	413.12
330.201	423.12
330.43	449.12
330.658	459.12
330.887	480.12
331.115	447.12
331.344	424.12
331.572	389.12
331.801	418.12
332.03	410.12
332.258	412.12
332.486	401.12
332.715	401.12
332.943	416.12
333.172	387.12
333.4	427.12
333.629	451.12
333.857	425.12
334.085	463.12
334.314	437.12
334.542	480.12
334.771	495.12
334.999	434.12
335.227	413.12
335.455	401.12
335.684	393.12
335.912	391.12
336.14	419.12
336.369	400.12
336.597	407.12
336.825	396.12
337.053	397.12
337.281	386.12
337.51	400.12
337.738	385.12
337.966	389.12
338.194	369.12
338.422	388.12
338.65	365.12
338.878	377.12
339.106	367.12
339.334	380.12
339.562	381.12
339.79	369.12
340.018	351.12
340.246	371.12
340.474	367.12
340.702	360.12
340.93	357.12
341.158	348.12
341.386	352.12
341.614	370.12
341.842	364.12
342.07	367.12
342.298	364.12
342.526	369.12
342.754	371.12
342.981	377.12
343.209	342.12
343.437	363.12
343.665	388.12
343.893	381.12
344.12	416.12
344.348	387.12
344.576	382.12
344.804	397.12
345.031	367.12
345.259	378.12
345.487	369.12
345.714	360.12
345.942	346.12
346.17	354.12
346.397	356.12
346.625	347.12
346.853	353.12
347.08	351.12
347.308	364.12
347.535	353.12
347.763	350.12
347.99	360.12
348.218	374.12
348.445	364.12
348.673	343.12
348.9	354.12
349.128	349.12
349.355	336.12
349.583	331.12
349.81	335.12
350.037	328.12
350.265	347.12
350.492	347.12
350.72	345.12
350.947	344.12
351.174	334.12
351.402	333.12
351.629	325.12
351.856	353.12
352.083	353.12
352.311	364.12
352.538	348.12
352.765	360.12
352.992	346.12
353.22	333.12
353.447	338.12
353.674	355.12
353.901	319.12
354.128	335.12
354.355	323.12
354.583	334.12
354.81	341.12
355.037	328.12
355.264	332.12
355.491	345.12
355.718	328.12
355.945	324.12
356.172	337.12
356.399	317.12
356.626	315.12
356.853	336.12
357.08	331.12
357.307	336.12
357.534	327.12
357.761	327.12
357.988	329.12
358.215	340.12
358.441	324.12
358.668	330.12
358.895	333.12
359.122	317.12
359.349	351.12
359.576	334.12
359.802	361.12
360.029	383.12
360.256	364.12
360.483	373.12
360.709	331.12
360.936	352.12
361.163	355.12
361.39	333.12
361.616	342.12
361.843	352.12
362.07	355.12
362.296	349.12
362.523	340.12
362.749	352.12
362.976	331.12
363.203	328.12
363.429	336.12
363.656	317.12
363.882	337.12
364.109	339.12
364.335	345.12
364.562	324.12
364.788	330.12
365.015	324.12
365.241	327.12
365.468	327.12
365.694	319.12
365.92	332.12
366.147	312.12
366.373	343.12
366.599	326.12
366.826	338.12
367.052	320.12
367.278	351.12
367.505	330.12
367.731	331.12
367.957	328.12
368.184	337.12
368.41	338.12
368.636	337.12
368.862	344.12
369.089	360.12
369.315	331.12
369.541	321.12
369.767	327.12
369.993	329.12
370.219	356.12
370.445	347.12
370.672	347.12
370.898	336.12
371.124	352.12
371.35	341.12
371.576	330.12
371.802	352.12
372.028	348.12
372.254	348.12
372.48	359.12
372.706	347.12
372.932	332.12
373.158	339.12
373.384	340.12
373.61	336.12
373.835	370.12
374.061	351.12
374.287	364.12
374.513	348.12
374.739	356.12
374.965	360.12
375.191	359.12
375.416	363.12
375.642	332.12
375.868	333.12
376.094	357.12
376.319	343.12
376.545	328.12
376.771	343.12
376.997	340.12
377.222	335.12
377.448	349.12
377.674	345.12
377.899	356.12
378.125	343.12
378.35	336.12
378.576	336.12
378.802	331.12
379.027	343.12
379.253	350.12
379.478	327.12
379.704	332.12
379.929	331.12
380.155	333.12
380.38	328.12
380.606	348.12
380.831	340.12
381.057	345.12
381.282	333.12
381.507	352.12
381.733	352.12
381.958	343.12
382.184	340.12
382.409	339.12
382.634	346.12
382.86	325.12
383.085	333.12
383.31	340.12
383.535	341.12
383.761	357.12
383.986	349.12
384.211	360.12
384.436	369.12
384.662	344.12
384.887	352.12
385.112	371.12
385.337	347.12
385.562	375.12
385.787	361.12
386.013	377.12
386.238	381.12
386.463	379.12
386.688	394.12
386.913	383.12
387.138	385.12
387.363	386.12
387.588	368.12
387.813	393.12
388.038	369.12
388.263	367.12
388.488	378.12
388.713	388.12
388.938	376.12
389.163	387.12
389.387	364.12
389.612	379.12
389.837	365.12
390.062	373.12
390.287	368.12
390.512	375.12
390.736	385.12
390.961	377.12
391.186	385.12
391.411	384.12
391.636	385.12
391.86	397.12
392.085	401.12
392.31	396.12
392.534	379.12
392.759	362.12
392.984	379.12
393.208	391.12
393.433	401.12
393.658	381.12
393.882	379.12
394.107	381.12
394.331	388.12
394.556	405.12
394.78	386.12
395.005	400.12
395.229	387.12
395.454	377.12
395.678	397.12
395.903	396.12
396.127	434.12
396.352	410.12
396.576	416.12
396.801	401.12
397.025	390.12
397.249	389.12
397.474	431.12
397.698	395.12
397.922	401.12
398.147	400.12
398.371	419.12
398.595	432.12
398.82	449.12
399.044	461.12
399.268	495.12
399.492	547.12
399.717	565.12
399.941	565.12
400.165	578.12
400.389	500.12
400.613	479.12
400.837	447.12
401.062	454.12
401.286	421.12
401.51	446.12
401.734	445.12
401.958	444.12
402.182	462.12
402.406	446.12
402.63	462.12
402.854	450.12
403.078	480.12
403.302	452.12
403.526	473.12
403.75	477.12
403.974	467.12
404.198	469.12
404.422	489.12
404.645	495.12
404.869	468.12
405.093	500.12
405.317	497.12
405.541	554.12
405.765	507.12
405.988	493.12
406.212	502.12
406.436	511.12
406.66	497.12
406.883	500.12
407.107	515.12
407.331	540.12
407.555	581.12
407.778	583.12
408.002	550.12
408.226	498.12
408.449	517.12
408.673	502.12
408.896	515.12
409.12	538.12
409.344	511.12
409.567	457.12
409.791	486.12
410.014	455.12
410.238	458.12
410.461	465.12
410.685	458.12
410.908	479.12
411.132	485.12
411.355	482.12
411.578	500.12
411.802	435.12
412.025	457.12
412.249	459.12
412.472	466.12
412.695	504.12
412.919	470.12
413.142	448.12
413.365	432.12
413.589	442.12
413.812	437.12
414.035	441.12
414.258	442.12
414.482	431.12
414.705	437.12
414.928	441.12
415.151	430.12
415.374	430.12
415.597	422.12
415.821	427.12
416.044	425.12
416.267	438.12
416.49	435.12
416.713	436.12
416.936	417.12
417.159	413.12
417.382	426.12
417.605	433.12
417.828	428.12
418.051	451.12
418.274	437.12
418.497	443.12
418.72	446.12
418.943	443.12
419.166	451.12
419.389	475.12
419.611	461.12
419.834	433.12
420.057	449.12
420.28	455.12
420.503	459.12
420.726	471.12
420.948	468.12
421.171	492.12
421.394	486.12
421.617	442.12
421.839	451.12
422.062	472.12
422.285	449.12
422.507	460.12
422.73	515.12
422.953	508.12
423.175	468.12
423.398	479.12
423.621	473.12
423.843	491.12
424.066	478.12
424.288	476.12
424.511	488.12
424.733	494.12
424.956	561.12
425.178	549.12
425.401	541.12
425.623	531.12
425.846	474.12
426.068	436.12
426.291	464.12
426.513	451.12
426.735	471.12
426.958	468.12
427.18	522.12
427.402	609.12
427.625	625.12
427.847	552.12
428.069	524.12
428.292	471.12
428.514	430.12
428.736	422.12
428.958	442.12
429.181	420.12
429.403	411.12
429.625	407.12
429.847	456.12
430.069	457.12
430.292	461.12
430.514	425.12
430.736	412.12
430.958	409.12
431.18	406.12
431.402	396.12
431.624	405.12
431.846	405.12
432.068	411.12
432.29	412.12
432.512	418.12
432.734	417.12
432.956	408.12
433.178	401.12
433.4	412.12
433.622	411.12
433.844	416.12
434.066	404.12
434.287	401.12
434.509	406.12
434.731	432.12
434.953	433.12
435.175	446.12
435.397	463.12
435.618	459.12
435.84	471.12
436.062	535.12
436.284	558.12
436.505	464.12
436.727	465.12
436.949	427.12
437.17	405.12
437.392	406.12
437.614	417.12
437.835	443.12
438.057	482.12
438.278	548.12
438.5	570.12
438.721	591.12
438.943	564.12
439.165	483.12
439.386	468.12
439.608	452.12
439.829	453.12
440.05	463.12
440.272	484.12
440.493	467.12
440.715	444.12
440.936	447.12
441.158	428.12
441.379	443.12
441.6	450.12
441.822	464.12
442.043	501.12
442.264	549.12
442.486	558.12
442.707	475.12
442.928	470.12
443.149	475.12
443.371	511.12
443.592	516.12
443.813	554.12
444.034	586.12
444.255	520.12
444.476	512.12
444.698	482.12
444.919	496.12
445.14	623.12
445.361	545.12
445.582	513.12
445.803	526.12
446.024	571.12
446.245	576.12
446.466	548.12
446.687	451.12
446.908	440.12
447.129	449.12
447.35	416.12
447.571	407.12
447.792	401.12
448.013	415.12
448.234	416.12
448.455	429.12
448.675	547.12
448.896	561.12
449.117	487.12
449.338	485.12
449.559	550.12
449.779	588.12
450	483.12
450.221	432.12
450.442	408.12
450.662	401.12
450.883	415.12
451.104	433.12
451.324	414.12
451.545	404.12
451.766	392.12
451.986	386.12
452.207	399.12
452.428	398.12
452.648	370.12
452.869	368.12
453.089	388.12
453.31	400.12
453.53	389.12
453.751	377.12
453.971	358.12
454.192	390.12
454.412	389.12
454.633	366.12
454.853	378.12
455.073	348.12
455.294	405.12
455.514	435.12
455.734	385.12
455.955	354.12
456.175	352.12
456.395	383.12
456.616	374.12
456.836	346.12
457.056	362.12
457.276	338.12
457.497	357.12
457.717	357.12
457.937	361.12
458.157	360.12
458.377	397.12
458.598	361.12
458.818	419.12
459.038	453.12
459.258	478.12
459.478	439.12
459.698	420.12
459.918	405.12
460.138	413.12
460.358	434.12
460.578	456.12
460.798	445.12
461.018	447.12
461.238	425.12
461.458	416.12
461.678	435.12
461.898	421.12
462.118	434.12
462.338	461.12
462.558	473.12
462.777	485.12
462.997	503.12
463.217	507.12
463.437	497.12
463.657	487.12
463.876	492.12
464.096	472.12
464.316	474.12
464.536	486.12
464.755	473.12
464.975	462.12
465.195	488.12
465.414	519.12
465.634	459.12
465.854	440.12
466.073	422.12
466.293	404.12
466.512	389.12
466.732	392.12
466.951	408.12
467.171	405.12
467.391	405.12
467.61	410.12
467.829	424.12
468.049	409.12
468.268	419.12
468.488	387.12
468.707	400.12
468.927	385.12
469.146	365.12
469.365	383.12
469.585	399.12
469.804	388.12
470.023	416.12
470.243	411.12
470.462	420.12
470.681	429.12
470.901	419.12
471.12	386.12
471.339	408.12
471.558	397.12
471.777	393.12
471.997	417.12
472.216	412.12
472.435	393.12
472.654	395.12
472.873	378.12
473.092	373.12
473.311	390.12
473.53	415.12
473.749	407.12
473.968	394.12
474.187	479.12
474.406	473.12
474.625	404.12
474.844	387.12
475.063	382.12
475.282	379.12
475.501	371.12
475.72	395.12
475.939	399.12
476.158	409.12
476.377	408.12
476.596	393.12
476.814	397.12
477.033	416.12
477.252	408.12
477.471	427.12
477.69	431.12
477.908	419.12
478.127	459.12
478.346	455.12
478.564	444.12
478.783	457.12
479.002	459.12
479.22	465.12
479.439	473.12
479.658	463.12
479.876	461.12
480.095	469.12
480.313	509.12
480.532	484.12
480.751	509.12
480.969	494.12
481.188	525.12
481.406	556.12
481.624	496.12
481.843	481.12
482.061	471.12
482.28	450.12
482.498	454.12
482.717	427.12
482.935	431.12
483.153	433.12
483.372	466.12
483.59	465.12
483.808	442.12
484.027	445.12
484.245	462.12
484.463	479.12
484.681	467.12
484.9	454.12
485.118	473.12
485.336	468.12
485.554	443.12
485.772	459.12
485.99	463.12
486.209	451.12
486.427	455.12
486.645	474.12
486.863	461.12
487.081	504.12
487.299	469.12
487.517	480.12
487.735	473.12
487.953	476.12
488.171	467.12
488.389	471.12
488.607	462.12
488.825	487.12
489.043	489.12
489.261	484.12
489.479	475.12
489.696	499.12
489.914	500.12
490.132	486.12
490.35	495.12
490.568	495.12
490.786	512.12
491.003	512.12
491.221	522.12
491.439	538.12
491.657	543.12
491.874	555.12
492.092	589.12
492.31	556.12
492.527	548.12
492.745	560.12
492.963	572.12
493.18	577.12
493.398	573.12
493.615	581.12
493.833	562.12
494.05	563.12
494.268	570.12
494.485	543.12
494.703	580.12
494.92	574.12
495.138	565.12
495.355	560.12
495.573	562.12
495.79	589.12
496.008	555.12
496.225	556.12
496.442	583.12
496.66	587.12
496.877	586.12
497.094	585.12
497.312	596.12
497.529	588.12
497.746	590.12
497.963	599.12
498.181	628.12
498.398	641.12
498.615	649.12
498.832	696.12
499.049	709.12
499.267	728.12
499.484	765.12
499.701	823.12
499.918	863.12
500.135	935.12
500.352	973.12
500.569	1016.12
500.786	1012.12
501.003	964.12
501.22	897.12
501.437	866.12
501.654	833.12
501.871	793.12
502.088	746.12
