Data from 1969.PennyLincolnUp.Lamp.En5.5.200Scan.071719.P1._HRD10591_14-54-17-972.txt Node
Date: Thu Jul 18 14:54:17 EDT 2019
User: cochatt
Spectrometer: HR+D1059
Trigger mode: 1
Integration Time (sec): 1.000000E-1
Scans to average: 1
Electric dark correction enabled: true
Nonlinearity correction enabled: false
Boxcar width: 0
XAxis mode: Wavelengths
Number of Pixels in Spectrum: 2048
>>>>>Begin Spectral Data<<<<<
223.165	-18.94
223.4	-18.94
223.635	-18.94
223.869	-24.94
224.104	-17.94
224.338	-21.94
224.573	-20.94
224.808	2.06
225.042	-1.94
225.277	5.06
225.511	3.06
225.746	22.06
225.98	4.06
226.215	4.06
226.449	-2.94
226.683	14.06
226.918	25.06
227.152	30.06
227.387	38.06
227.621	28.06
227.856	43.06
228.09	47.06
228.324	56.06
228.559	46.06
228.793	58.06
229.027	85.06
229.262	101.06
229.496	109.06
229.73	104.06
229.964	136.06
230.199	106.06
230.433	103.06
230.667	102.06
230.901	108.06
231.136	93.06
231.37	88.06
231.604	99.06
231.838	105.06
232.072	98.06
232.306	104.06
232.541	116.06
232.775	100.06
233.009	105.06
233.243	114.06
233.477	112.06
233.711	122.06
233.945	109.06
234.179	107.06
234.413	113.06
234.647	101.06
234.881	109.06
235.115	102.06
235.349	104.06
235.583	110.06
235.817	108.06
236.051	120.06
236.285	113.06
236.519	124.06
236.753	122.06
236.987	128.06
237.221	141.06
237.455	169.06
237.689	142.06
237.922	118.06
238.156	122.06
238.39	103.06
238.624	106.06
238.858	109.06
239.091	111.06
239.325	111.06
239.559	130.06
239.793	102.06
240.027	125.06
240.26	134.06
240.494	128.06
240.728	130.06
240.961	126.06
241.195	119.06
241.429	128.06
241.662	125.06
241.896	113.06
242.13	118.06
242.363	112.06
242.597	113.06
242.83	125.06
243.064	114.06
243.298	129.06
243.531	116.06
243.765	125.06
243.998	126.06
244.232	121.06
244.465	116.06
244.699	132.06
244.932	138.06
245.166	126.06
245.399	121.06
245.633	129.06
245.866	133.06
246.099	129.06
246.333	136.06
246.566	124.06
246.8	131.06
247.033	140.06
247.266	141.06
247.5	131.06
247.733	143.06
247.966	142.06
248.2	138.06
248.433	156.06
248.666	150.06
248.899	156.06
249.133	150.06
249.366	184.06
249.599	173.06
249.832	152.06
250.066	150.06
250.299	168.06
250.532	147.06
250.765	165.06
250.998	172.06
251.231	165.06
251.465	173.06
251.698	165.06
251.931	153.06
252.164	156.06
252.397	169.06
252.63	166.06
252.863	170.06
253.096	180.06
253.329	192.06
253.562	178.06
253.795	172.06
254.028	160.06
254.261	169.06
254.494	184.06
254.727	190.06
254.96	183.06
255.193	196.06
255.426	188.06
255.659	177.06
255.892	172.06
256.124	184.06
256.357	178.06
256.59	180.06
256.823	179.06
257.056	181.06
257.289	184.06
257.521	167.06
257.754	189.06
257.987	181.06
258.22	181.06
258.452	173.06
258.685	169.06
258.918	172.06
259.151	182.06
259.383	196.06
259.616	184.06
259.849	197.06
260.081	190.06
260.314	189.06
260.547	183.06
260.779	190.06
261.012	180.06
261.244	181.06
261.477	183.06
261.71	178.06
261.942	190.06
262.175	184.06
262.407	187.06
262.64	171.06
262.872	175.06
263.105	177.06
263.337	193.06
263.57	188.06
263.802	198.06
264.035	184.06
264.267	173.06
264.499	174.06
264.732	186.06
264.964	188.06
265.197	192.06
265.429	168.06
265.661	184.06
265.894	190.06
266.126	177.06
266.358	188.06
266.591	169.06
266.823	214.06
267.055	188.06
267.287	195.06
267.52	175.06
267.752	193.06
267.984	186.06
268.216	196.06
268.448	196.06
268.681	198.06
268.913	204.06
269.145	211.06
269.377	200.06
269.609	186.06
269.841	200.06
270.073	213.06
270.306	233.06
270.538	231.06
270.77	228.06
271.002	240.06
271.234	217.06
271.466	223.06
271.698	228.06
271.93	225.06
272.162	236.06
272.394	249.06
272.626	228.06
272.858	233.06
273.09	207.06
273.322	223.06
273.553	193.06
273.785	217.06
274.017	205.06
274.249	223.06
274.481	204.06
274.713	212.06
274.945	209.06
275.176	213.06
275.408	212.06
275.64	214.06
275.872	201.06
276.104	213.06
276.335	227.06
276.567	211.06
276.799	236.06
277.031	246.06
277.262	233.06
277.494	234.06
277.726	236.06
277.957	220.06
278.189	229.06
278.421	239.06
278.652	222.06
278.884	242.06
279.115	214.06
279.347	228.06
279.579	229.06
279.81	229.06
280.042	223.06
280.273	224.06
280.505	232.06
280.736	217.06
280.968	245.06
281.199	232.06
281.431	234.06
281.662	240.06
281.894	228.06
282.125	232.06
282.356	250.06
282.588	246.06
282.819	240.06
283.051	261.06
283.282	239.06
283.513	245.06
283.745	243.06
283.976	231.06
284.207	232.06
284.439	252.06
284.67	235.06
284.901	244.06
285.132	233.06
285.364	249.06
285.595	237.06
285.826	236.06
286.057	221.06
286.288	234.06
286.52	259.06
286.751	247.06
286.982	244.06
287.213	245.06
287.444	260.06
287.675	237.06
287.906	262.06
288.138	264.06
288.369	249.06
288.6	254.06
288.831	260.06
289.062	253.06
289.293	239.06
289.524	256.06
289.755	230.06
289.986	230.06
290.217	249.06
290.448	253.06
290.679	223.06
290.91	255.06
291.141	249.06
291.371	262.06
291.602	261.06
291.833	272.06
292.064	262.06
292.295	251.06
292.526	254.06
292.757	253.06
292.987	265.06
293.218	264.06
293.449	256.06
293.68	262.06
293.91	262.06
294.141	251.06
294.372	255.06
294.603	261.06
294.833	264.06
295.064	236.06
295.295	248.06
295.525	250.06
295.756	267.06
295.987	269.06
296.217	271.06
296.448	261.06
296.679	271.06
296.909	258.06
297.14	266.06
297.37	274.06
297.601	263.06
297.831	258.06
298.062	272.06
298.292	272.06
298.523	269.06
298.753	282.06
298.984	271.06
299.214	277.06
299.445	292.06
299.675	266.06
299.905	278.06
300.136	270.06
300.366	276.06
300.597	255.06
300.827	275.06
301.057	273.06
301.288	278.06
301.518	278.06
301.748	279.06
301.979	287.06
302.209	276.06
302.439	280.06
302.669	298.06
302.9	275.06
303.13	294.06
303.36	295.06
303.59	273.06
303.82	286.06
304.051	282.06
304.281	283.06
304.511	289.06
304.741	286.06
304.971	290.06
305.201	265.06
305.431	277.06
305.661	275.06
305.891	271.06
306.121	286.06
306.352	278.06
306.582	295.06
306.812	272.06
307.042	293.06
307.272	300.06
307.502	281.06
307.731	273.06
307.961	289.06
308.191	285.06
308.421	292.06
308.651	276.06
308.881	296.06
309.111	292.06
309.341	281.06
309.571	286.06
309.8	296.06
310.03	299.06
310.26	312.06
310.49	314.06
310.72	307.06
310.949	299.06
311.179	318.06
311.409	314.06
311.639	293.06
311.868	316.06
312.098	295.06
312.328	305.06
312.557	311.06
312.787	298.06
313.017	332.06
313.246	309.06
313.476	310.06
313.706	309.06
313.935	325.06
314.165	325.06
314.394	317.06
314.624	320.06
314.853	329.06
315.083	321.06
315.312	299.06
315.542	307.06
315.771	314.06
316.001	328.06
316.23	295.06
316.46	296.06
316.689	307.06
316.919	308.06
317.148	323.06
317.377	312.06
317.607	314.06
317.836	308.06
318.065	312.06
318.295	301.06
318.524	325.06
318.753	301.06
318.983	292.06
319.212	287.06
319.441	312.06
319.67	312.06
319.9	314.06
320.129	312.06
320.358	311.06
320.587	328.06
320.816	310.06
321.046	310.06
321.275	329.06
321.504	322.06
321.733	306.06
321.962	300.06
322.191	317.06
322.42	331.06
322.649	340.06
322.878	316.06
323.108	343.06
323.337	345.06
323.566	354.06
323.795	359.06
324.024	386.06
324.253	452.06
324.482	571.06
324.71	792.06
324.939	1055.06
325.168	890.06
325.397	514.06
325.626	395.06
325.855	369.06
326.084	350.06
326.313	356.06
326.542	361.06
326.77	378.06
326.999	422.06
327.228	549.06
327.457	719.06
327.686	833.06
327.914	590.06
328.143	450.06
328.372	397.06
328.6	409.06
328.829	389.06
329.058	402.06
329.287	406.06
329.515	382.06
329.744	359.06
329.972	378.06
330.201	369.06
330.43	410.06
330.658	420.06
330.887	411.06
331.115	402.06
331.344	381.06
331.572	380.06
331.801	372.06
332.03	366.06
332.258	368.06
332.486	385.06
332.715	390.06
332.943	376.06
333.172	382.06
333.4	388.06
333.629	412.06
333.857	385.06
334.085	388.06
334.314	419.06
334.542	428.06
334.771	420.06
334.999	409.06
335.227	394.06
335.455	394.06
335.684	387.06
335.912	369.06
336.14	384.06
336.369	380.06
336.597	379.06
336.825	367.06
337.053	359.06
337.281	365.06
337.51	352.06
337.738	362.06
337.966	361.06
338.194	357.06
338.422	381.06
338.65	353.06
338.878	368.06
339.106	356.06
339.334	359.06
339.562	357.06
339.79	333.06
340.018	336.06
340.246	353.06
340.474	365.06
340.702	323.06
340.93	329.06
341.158	345.06
341.386	334.06
341.614	337.06
341.842	345.06
342.07	345.06
342.298	344.06
342.526	337.06
342.754	332.06
342.981	346.06
343.209	344.06
343.437	369.06
343.665	363.06
343.893	365.06
344.12	379.06
344.348	364.06
344.576	345.06
344.804	354.06
345.031	360.06
345.259	346.06
345.487	334.06
345.714	343.06
345.942	335.06
346.17	320.06
346.397	333.06
346.625	330.06
346.853	324.06
347.08	345.06
347.308	341.06
347.535	331.06
347.763	330.06
347.99	333.06
348.218	330.06
348.445	313.06
348.673	347.06
348.9	356.06
349.128	327.06
349.355	320.06
349.583	304.06
349.81	306.06
350.037	327.06
350.265	330.06
350.492	315.06
350.72	332.06
350.947	347.06
351.174	321.06
351.402	338.06
351.629	313.06
351.856	312.06
352.083	303.06
352.311	322.06
352.538	325.06
352.765	330.06
352.992	313.06
353.22	340.06
353.447	302.06
353.674	326.06
353.901	327.06
354.128	322.06
354.355	292.06
354.583	328.06
354.81	314.06
355.037	318.06
355.264	312.06
355.491	330.06
355.718	306.06
355.945	314.06
356.172	322.06
356.399	325.06
356.626	310.06
356.853	321.06
357.08	322.06
357.307	319.06
357.534	319.06
357.761	309.06
357.988	320.06
358.215	320.06
358.441	304.06
358.668	312.06
358.895	303.06
359.122	331.06
359.349	313.06
359.576	324.06
359.802	320.06
360.029	349.06
360.256	345.06
360.483	341.06
360.709	314.06
360.936	309.06
361.163	333.06
361.39	337.06
361.616	344.06
361.843	329.06
362.07	324.06
362.296	294.06
362.523	326.06
362.749	317.06
362.976	296.06
363.203	324.06
363.429	310.06
363.656	325.06
363.882	309.06
364.109	316.06
364.335	310.06
364.562	310.06
364.788	324.06
365.015	322.06
365.241	340.06
365.468	312.06
365.694	320.06
365.92	309.06
366.147	315.06
366.373	333.06
366.599	318.06
366.826	290.06
367.052	313.06
367.278	322.06
367.505	333.06
367.731	318.06
367.957	298.06
368.184	330.06
368.41	320.06
368.636	334.06
368.862	327.06
369.089	314.06
369.315	328.06
369.541	316.06
369.767	335.06
369.993	331.06
370.219	320.06
370.445	329.06
370.672	319.06
370.898	311.06
371.124	313.06
371.35	322.06
371.576	307.06
371.802	337.06
372.028	319.06
372.254	318.06
372.48	327.06
372.706	326.06
372.932	356.06
373.158	340.06
373.384	327.06
373.61	328.06
373.835	331.06
374.061	315.06
374.287	337.06
374.513	334.06
374.739	326.06
374.965	346.06
375.191	335.06
375.416	335.06
375.642	341.06
375.868	338.06
376.094	336.06
376.319	345.06
376.545	332.06
376.771	318.06
376.997	318.06
377.222	331.06
377.448	322.06
377.674	334.06
377.899	312.06
378.125	323.06
378.35	349.06
378.576	325.06
378.802	336.06
379.027	300.06
379.253	329.06
379.478	328.06
379.704	327.06
379.929	332.06
380.155	321.06
380.38	322.06
380.606	332.06
380.831	310.06
381.057	305.06
381.282	322.06
381.507	319.06
381.733	324.06
381.958	323.06
382.184	324.06
382.409	348.06
382.634	340.06
382.86	342.06
383.085	344.06
383.31	332.06
383.535	347.06
383.761	337.06
383.986	336.06
384.211	356.06
384.436	341.06
384.662	381.06
384.887	361.06
385.112	356.06
385.337	361.06
385.562	366.06
385.787	367.06
386.013	372.06
386.238	374.06
386.463	382.06
386.688	362.06
386.913	361.06
387.138	358.06
387.363	365.06
387.588	336.06
387.813	374.06
388.038	359.06
388.263	359.06
388.488	366.06
388.713	358.06
388.938	345.06
389.163	368.06
389.387	349.06
389.612	338.06
389.837	357.06
390.062	358.06
390.287	348.06
390.512	356.06
390.736	374.06
390.961	369.06
391.186	380.06
391.411	387.06
391.636	376.06
391.86	376.06
392.085	395.06
392.31	384.06
392.534	380.06
392.759	384.06
392.984	389.06
393.208	375.06
393.433	365.06
393.658	384.06
393.882	365.06
394.107	392.06
394.331	380.06
394.556	382.06
394.78	363.06
395.005	383.06
395.229	371.06
395.454	382.06
395.678	402.06
395.903	403.06
396.127	392.06
396.352	397.06
396.576	375.06
396.801	372.06
397.025	385.06
397.249	378.06
397.474	394.06
397.698	378.06
397.922	414.06
398.147	423.06
398.371	420.06
398.595	405.06
398.82	423.06
399.044	448.06
399.268	468.06
399.492	503.06
399.717	543.06
399.941	516.06
400.165	524.06
400.389	507.06
400.613	466.06
400.837	437.06
401.062	417.06
401.286	428.06
401.51	441.06
401.734	421.06
401.958	465.06
402.182	425.06
402.406	448.06
402.63	457.06
402.854	449.06
403.078	447.06
403.302	450.06
403.526	453.06
403.75	457.06
403.974	452.06
404.198	464.06
404.422	470.06
404.645	478.06
404.869	454.06
405.093	471.06
405.317	481.06
405.541	479.06
405.765	477.06
405.988	456.06
406.212	466.06
406.436	468.06
406.66	489.06
406.883	475.06
407.107	517.06
407.331	530.06
407.555	552.06
407.778	566.06
408.002	521.06
408.226	504.06
408.449	496.06
408.673	470.06
408.896	485.06
409.12	493.06
409.344	456.06
409.567	450.06
409.791	465.06
410.014	451.06
410.238	464.06
410.461	453.06
410.685	443.06
410.908	440.06
411.132	460.06
411.355	466.06
411.578	465.06
411.802	430.06
412.025	436.06
412.249	442.06
412.472	462.06
412.695	473.06
412.919	477.06
413.142	425.06
413.365	430.06
413.589	408.06
413.812	412.06
414.035	429.06
414.258	419.06
414.482	417.06
414.705	429.06
414.928	430.06
415.151	396.06
415.374	416.06
415.597	401.06
415.821	414.06
416.044	406.06
416.267	409.06
416.49	401.06
416.713	398.06
416.936	417.06
417.159	413.06
417.382	411.06
417.605	402.06
417.828	416.06
418.051	429.06
418.274	437.06
418.497	427.06
418.72	446.06
418.943	398.06
419.166	455.06
419.389	438.06
419.611	425.06
419.834	447.06
420.057	430.06
420.28	448.06
420.503	436.06
420.726	436.06
420.948	425.06
421.171	438.06
421.394	470.06
421.617	468.06
421.839	439.06
422.062	423.06
422.285	457.06
422.507	458.06
422.73	489.06
422.953	474.06
423.175	453.06
423.398	437.06
423.621	432.06
423.843	452.06
424.066	451.06
424.288	444.06
424.511	461.06
424.733	493.06
424.956	522.06
425.178	476.06
425.401	497.06
425.623	497.06
425.846	440.06
426.068	460.06
426.291	424.06
426.513	430.06
426.735	444.06
426.958	462.06
427.18	488.06
427.402	558.06
427.625	584.06
427.847	522.06
428.069	464.06
428.292	442.06
428.514	400.06
428.736	407.06
428.958	416.06
429.181	403.06
429.403	414.06
429.625	394.06
429.847	423.06
430.069	446.06
430.292	429.06
430.514	398.06
430.736	400.06
430.958	388.06
431.18	381.06
431.402	375.06
431.624	378.06
431.846	372.06
432.068	385.06
432.29	363.06
432.512	389.06
432.734	396.06
432.956	392.06
433.178	403.06
433.4	396.06
433.622	408.06
433.844	403.06
434.066	408.06
434.287	373.06
434.509	376.06
434.731	410.06
434.953	427.06
435.175	418.06
435.397	428.06
435.618	429.06
435.84	452.06
436.062	474.06
436.284	497.06
436.505	452.06
436.727	428.06
436.949	391.06
437.17	394.06
437.392	415.06
437.614	388.06
437.835	426.06
438.057	485.06
438.278	504.06
438.5	487.06
438.721	544.06
438.943	518.06
439.165	452.06
439.386	398.06
439.608	429.06
439.829	413.06
440.05	450.06
440.272	468.06
440.493	454.06
440.715	425.06
440.936	410.06
441.158	388.06
441.379	427.06
441.6	442.06
441.822	436.06
442.043	461.06
442.264	502.06
442.486	504.06
442.707	450.06
442.928	462.06
443.149	422.06
443.371	461.06
443.592	505.06
443.813	511.06
444.034	553.06
444.255	470.06
444.476	485.06
444.698	467.06
444.919	480.06
445.14	584.06
445.361	526.06
445.582	479.06
445.803	487.06
446.024	526.06
446.245	534.06
446.466	487.06
446.687	428.06
446.908	423.06
447.129	412.06
447.35	398.06
447.571	407.06
447.792	421.06
448.013	398.06
448.234	401.06
448.455	437.06
448.675	490.06
448.896	530.06
449.117	483.06
449.338	450.06
449.559	517.06
449.779	544.06
450	474.06
450.221	410.06
450.442	384.06
450.662	380.06
450.883	379.06
451.104	396.06
451.324	382.06
451.545	365.06
451.766	369.06
451.986	345.06
452.207	360.06
452.428	331.06
452.648	365.06
452.869	361.06
453.089	364.06
453.31	367.06
453.53	359.06
453.751	357.06
453.971	354.06
454.192	389.06
454.412	352.06
454.633	348.06
454.853	369.06
455.073	362.06
455.294	370.06
455.514	409.06
455.734	378.06
455.955	378.06
456.175	351.06
456.395	330.06
456.616	352.06
456.836	335.06
457.056	349.06
457.276	330.06
457.497	357.06
457.717	328.06
457.937	361.06
458.157	364.06
458.377	357.06
458.598	383.06
458.818	387.06
459.038	440.06
459.258	442.06
459.478	408.06
459.698	403.06
459.918	392.06
460.138	423.06
460.358	425.06
460.578	418.06
460.798	416.06
461.018	440.06
461.238	433.06
461.458	412.06
461.678	426.06
461.898	403.06
462.118	438.06
462.338	417.06
462.558	442.06
462.777	458.06
462.997	489.06
463.217	511.06
463.437	508.06
463.657	469.06
463.876	453.06
464.096	486.06
464.316	453.06
464.536	467.06
464.755	461.06
464.975	442.06
465.195	458.06
465.414	462.06
465.634	421.06
465.854	417.06
466.073	420.06
466.293	394.06
466.512	377.06
466.732	385.06
466.951	379.06
467.171	362.06
467.391	361.06
467.61	395.06
467.829	389.06
468.049	400.06
468.268	394.06
468.488	381.06
468.707	374.06
468.927	383.06
469.146	378.06
469.365	390.06
469.585	383.06
469.804	394.06
470.023	378.06
470.243	391.06
470.462	387.06
470.681	385.06
470.901	386.06
471.12	374.06
471.339	376.06
471.558	369.06
471.777	374.06
471.997	368.06
472.216	390.06
472.435	388.06
472.654	391.06
472.873	380.06
473.092	365.06
473.311	384.06
473.53	378.06
473.749	380.06
473.968	398.06
474.187	449.06
474.406	425.06
474.625	401.06
474.844	380.06
475.063	382.06
475.282	386.06
475.501	380.06
475.72	390.06
475.939	369.06
476.158	378.06
476.377	376.06
476.596	379.06
476.814	394.06
477.033	383.06
477.252	403.06
477.471	392.06
477.69	409.06
477.908	406.06
478.127	430.06
478.346	403.06
478.564	427.06
478.783	453.06
479.002	441.06
479.22	433.06
479.439	436.06
479.658	447.06
479.876	453.06
480.095	461.06
480.313	474.06
480.532	467.06
480.751	468.06
480.969	487.06
481.188	478.06
481.406	501.06
481.624	472.06
481.843	418.06
482.061	431.06
482.28	425.06
482.498	428.06
482.717	431.06
482.935	413.06
483.153	427.06
483.372	432.06
483.59	427.06
483.808	426.06
484.027	416.06
484.245	419.06
484.463	404.06
484.681	429.06
484.9	447.06
485.118	426.06
485.336	444.06
485.554	430.06
485.772	431.06
485.99	444.06
486.209	441.06
486.427	441.06
486.645	479.06
486.863	458.06
487.081	446.06
487.299	463.06
487.517	466.06
487.735	443.06
487.953	457.06
488.171	458.06
488.389	454.06
488.607	450.06
488.825	446.06
489.043	461.06
489.261	472.06
489.479	474.06
489.696	458.06
489.914	470.06
490.132	488.06
490.35	480.06
490.568	466.06
490.786	478.06
491.003	469.06
491.221	492.06
491.439	504.06
491.657	504.06
491.874	503.06
492.092	501.06
492.31	534.06
492.527	499.06
492.745	501.06
492.963	534.06
493.18	532.06
493.398	525.06
493.615	534.06
493.833	540.06
494.05	546.06
494.268	509.06
494.485	523.06
494.703	512.06
494.92	530.06
495.138	521.06
495.355	534.06
495.573	522.06
495.79	548.06
496.008	535.06
496.225	532.06
496.442	549.06
496.66	540.06
496.877	541.06
497.094	540.06
497.312	554.06
497.529	546.06
497.746	574.06
497.963	592.06
498.181	585.06
498.398	599.06
498.615	616.06
498.832	632.06
499.049	673.06
499.267	676.06
499.484	712.06
499.701	768.06
499.918	817.06
500.135	895.06
500.352	936.06
500.569	980.06
500.786	964.06
501.003	932.06
501.22	884.06
501.437	846.06
501.654	779.06
501.871	733.06
502.088	704.06
