Data from 1969.PennyLincolnUp.Lamp.En5.5.200Scan.071719.P1._HRD10591_14-55-59-973.txt Node
Date: Thu Jul 18 14:55:59 EDT 2019
User: cochatt
Spectrometer: HR+D1059
Trigger mode: 1
Integration Time (sec): 1.000000E-1
Scans to average: 1
Electric dark correction enabled: true
Nonlinearity correction enabled: false
Boxcar width: 0
XAxis mode: Wavelengths
Number of Pixels in Spectrum: 2048
>>>>>Begin Spectral Data<<<<<
223.165	-19.62
223.4	-19.62
223.635	-19.62
223.869	-6.62
224.104	-21.62
224.338	-0.62
224.573	-14.62
224.808	-20.62
225.042	-3.62
225.277	-12.62
225.511	-20.62
225.746	4.38
225.98	9.38
226.215	5.38
226.449	7.38
226.683	25.38
226.918	26.38
227.152	42.38
227.387	39.38
227.621	54.38
227.856	49.38
228.09	42.38
228.324	37.38
228.559	61.38
228.793	69.38
229.027	74.38
229.262	90.38
229.496	101.38
229.73	112.38
229.964	111.38
230.199	92.38
230.433	104.38
230.667	83.38
230.901	96.38
231.136	94.38
231.37	94.38
231.604	92.38
231.838	96.38
232.072	112.38
232.306	114.38
232.541	99.38
232.775	111.38
233.009	98.38
233.243	106.38
233.477	117.38
233.711	91.38
233.945	121.38
234.179	119.38
234.413	108.38
234.647	102.38
234.881	106.38
235.115	108.38
235.349	105.38
235.583	110.38
235.817	119.38
236.051	108.38
236.285	97.38
236.519	110.38
236.753	103.38
236.987	122.38
237.221	144.38
237.455	167.38
237.689	139.38
237.922	115.38
238.156	103.38
238.39	117.38
238.624	123.38
238.858	117.38
239.091	111.38
239.325	127.38
239.559	121.38
239.793	113.38
240.027	115.38
240.26	125.38
240.494	115.38
240.728	123.38
240.961	136.38
241.195	132.38
241.429	116.38
241.662	123.38
241.896	125.38
242.13	118.38
242.363	122.38
242.597	129.38
242.83	116.38
243.064	125.38
243.298	110.38
243.531	99.38
243.765	113.38
243.998	109.38
244.232	123.38
244.465	141.38
244.699	138.38
244.932	133.38
245.166	127.38
245.399	127.38
245.633	133.38
245.866	126.38
246.099	128.38
246.333	127.38
246.566	139.38
246.8	155.38
247.033	110.38
247.266	121.38
247.5	128.38
247.733	134.38
247.966	132.38
248.2	127.38
248.433	136.38
248.666	140.38
248.899	157.38
249.133	150.38
249.366	170.38
249.599	164.38
249.832	162.38
250.066	153.38
250.299	153.38
250.532	154.38
250.765	157.38
250.998	163.38
251.231	166.38
251.465	179.38
251.698	157.38
251.931	163.38
252.164	153.38
252.397	164.38
252.63	167.38
252.863	158.38
253.096	169.38
253.329	173.38
253.562	177.38
253.795	162.38
254.028	170.38
254.261	175.38
254.494	169.38
254.727	187.38
254.96	205.38
255.193	201.38
255.426	194.38
255.659	187.38
255.892	183.38
256.124	189.38
256.357	187.38
256.59	193.38
256.823	193.38
257.056	165.38
257.289	153.38
257.521	178.38
257.754	167.38
257.987	164.38
258.22	167.38
258.452	156.38
258.685	165.38
258.918	172.38
259.151	178.38
259.383	190.38
259.616	158.38
259.849	163.38
260.081	195.38
260.314	197.38
260.547	192.38
260.779	179.38
261.012	164.38
261.244	177.38
261.477	188.38
261.71	185.38
261.942	168.38
262.175	185.38
262.407	182.38
262.64	182.38
262.872	184.38
263.105	171.38
263.337	181.38
263.57	165.38
263.802	180.38
264.035	173.38
264.267	179.38
264.499	177.38
264.732	183.38
264.964	175.38
265.197	185.38
265.429	173.38
265.661	193.38
265.894	181.38
266.126	174.38
266.358	172.38
266.591	174.38
266.823	154.38
267.055	186.38
267.287	191.38
267.52	190.38
267.752	178.38
267.984	204.38
268.216	180.38
268.448	198.38
268.681	200.38
268.913	204.38
269.145	225.38
269.377	223.38
269.609	227.38
269.841	203.38
270.073	213.38
270.306	231.38
270.538	244.38
270.77	244.38
271.002	226.38
271.234	219.38
271.466	220.38
271.698	227.38
271.93	222.38
272.162	247.38
272.394	263.38
272.626	238.38
272.858	207.38
273.09	219.38
273.322	235.38
273.553	199.38
273.785	198.38
274.017	214.38
274.249	206.38
274.481	200.38
274.713	203.38
274.945	212.38
275.176	204.38
275.408	207.38
275.64	202.38
275.872	215.38
276.104	214.38
276.335	211.38
276.567	215.38
276.799	224.38
277.031	257.38
277.262	244.38
277.494	237.38
277.726	229.38
277.957	228.38
278.189	227.38
278.421	226.38
278.652	214.38
278.884	215.38
279.115	231.38
279.347	215.38
279.579	213.38
279.81	226.38
280.042	225.38
280.273	213.38
280.505	215.38
280.736	222.38
280.968	216.38
281.199	225.38
281.431	229.38
281.662	225.38
281.894	220.38
282.125	241.38
282.356	227.38
282.588	245.38
282.819	251.38
283.051	230.38
283.282	230.38
283.513	242.38
283.745	241.38
283.976	223.38
284.207	236.38
284.439	234.38
284.67	242.38
284.901	228.38
285.132	243.38
285.364	243.38
285.595	257.38
285.826	247.38
286.057	250.38
286.288	243.38
286.52	238.38
286.751	232.38
286.982	250.38
287.213	261.38
287.444	247.38
287.675	243.38
287.906	262.38
288.138	236.38
288.369	253.38
288.6	245.38
288.831	267.38
289.062	262.38
289.293	238.38
289.524	231.38
289.755	231.38
289.986	237.38
290.217	241.38
290.448	233.38
290.679	246.38
290.91	253.38
291.141	248.38
291.371	230.38
291.602	249.38
291.833	261.38
292.064	237.38
292.295	254.38
292.526	229.38
292.757	249.38
292.987	244.38
293.218	235.38
293.449	239.38
293.68	237.38
293.91	253.38
294.141	235.38
294.372	258.38
294.603	257.38
294.833	254.38
295.064	230.38
295.295	250.38
295.525	266.38
295.756	256.38
295.987	254.38
296.217	268.38
296.448	282.38
296.679	255.38
296.909	252.38
297.14	264.38
297.37	283.38
297.601	269.38
297.831	271.38
298.062	246.38
298.292	259.38
298.523	259.38
298.753	237.38
298.984	265.38
299.214	265.38
299.445	270.38
299.675	281.38
299.905	257.38
300.136	271.38
300.366	273.38
300.597	273.38
300.827	262.38
301.057	284.38
301.288	266.38
301.518	289.38
301.748	286.38
301.979	285.38
302.209	286.38
302.439	278.38
302.669	262.38
302.9	260.38
303.13	281.38
303.36	275.38
303.59	264.38
303.82	266.38
304.051	305.38
304.281	283.38
304.511	301.38
304.741	261.38
304.971	277.38
305.201	270.38
305.431	261.38
305.661	257.38
305.891	277.38
306.121	284.38
306.352	292.38
306.582	281.38
306.812	268.38
307.042	272.38
307.272	277.38
307.502	288.38
307.731	273.38
307.961	271.38
308.191	279.38
308.421	279.38
308.651	280.38
308.881	284.38
309.111	269.38
309.341	281.38
309.571	283.38
309.8	296.38
310.03	282.38
310.26	283.38
310.49	300.38
310.72	297.38
310.949	297.38
311.179	299.38
311.409	317.38
311.639	309.38
311.868	319.38
312.098	313.38
312.328	300.38
312.557	307.38
312.787	324.38
313.017	324.38
313.246	301.38
313.476	314.38
313.706	297.38
313.935	321.38
314.165	322.38
314.394	322.38
314.624	324.38
314.853	319.38
315.083	325.38
315.312	305.38
315.542	315.38
315.771	311.38
316.001	299.38
316.23	297.38
316.46	316.38
316.689	293.38
316.919	295.38
317.148	309.38
317.377	299.38
317.607	302.38
317.836	311.38
318.065	301.38
318.295	301.38
318.524	307.38
318.753	299.38
318.983	310.38
319.212	296.38
319.441	307.38
319.67	328.38
319.9	293.38
320.129	312.38
320.358	307.38
320.587	315.38
320.816	298.38
321.046	325.38
321.275	300.38
321.504	311.38
321.733	320.38
321.962	313.38
322.191	313.38
322.42	338.38
322.649	336.38
322.878	328.38
323.108	342.38
323.337	361.38
323.566	359.38
323.795	379.38
324.024	405.38
324.253	434.38
324.482	568.38
324.71	829.38
324.939	1091.38
325.168	892.38
325.397	504.38
325.626	407.38
325.855	369.38
326.084	373.38
326.313	345.38
326.542	372.38
326.77	387.38
326.999	418.38
327.228	545.38
327.457	730.38
327.686	807.38
327.914	606.38
328.143	451.38
328.372	397.38
328.6	404.38
328.829	398.38
329.058	385.38
329.287	399.38
329.515	374.38
329.744	367.38
329.972	373.38
330.201	379.38
330.43	404.38
330.658	426.38
330.887	427.38
331.115	405.38
331.344	395.38
331.572	366.38
331.801	372.38
332.03	386.38
332.258	353.38
332.486	385.38
332.715	369.38
332.943	379.38
333.172	381.38
333.4	392.38
333.629	402.38
333.857	411.38
334.085	423.38
334.314	420.38
334.542	435.38
334.771	447.38
334.999	402.38
335.227	382.38
335.455	393.38
335.684	380.38
335.912	382.38
336.14	366.38
336.369	368.38
336.597	354.38
336.825	356.38
337.053	376.38
337.281	391.38
337.51	362.38
337.738	353.38
337.966	357.38
338.194	364.38
338.422	361.38
338.65	348.38
338.878	362.38
339.106	343.38
339.334	346.38
339.562	351.38
339.79	348.38
340.018	347.38
340.246	338.38
340.474	345.38
340.702	340.38
340.93	344.38
341.158	344.38
341.386	346.38
341.614	335.38
341.842	350.38
342.07	340.38
342.298	346.38
342.526	334.38
342.754	333.38
342.981	343.38
343.209	330.38
343.437	369.38
343.665	366.38
343.893	383.38
344.12	363.38
344.348	350.38
344.576	362.38
344.804	353.38
345.031	369.38
345.259	359.38
345.487	345.38
345.714	348.38
345.942	328.38
346.17	330.38
346.397	342.38
346.625	337.38
346.853	327.38
347.08	325.38
347.308	332.38
347.535	338.38
347.763	339.38
347.99	348.38
348.218	339.38
348.445	319.38
348.673	324.38
348.9	320.38
349.128	337.38
349.355	331.38
349.583	326.38
349.81	317.38
350.037	326.38
350.265	322.38
350.492	317.38
350.72	327.38
350.947	309.38
351.174	323.38
351.402	341.38
351.629	322.38
351.856	317.38
352.083	319.38
352.311	315.38
352.538	337.38
352.765	350.38
352.992	335.38
353.22	310.38
353.447	321.38
353.674	305.38
353.901	302.38
354.128	302.38
354.355	319.38
354.583	314.38
354.81	305.38
355.037	303.38
355.264	317.38
355.491	310.38
355.718	310.38
355.945	302.38
356.172	311.38
356.399	323.38
356.626	282.38
356.853	295.38
357.08	305.38
357.307	314.38
357.534	297.38
357.761	317.38
357.988	299.38
358.215	311.38
358.441	310.38
358.668	306.38
358.895	321.38
359.122	318.38
359.349	328.38
359.576	321.38
359.802	334.38
360.029	355.38
360.256	336.38
360.483	329.38
360.709	327.38
360.936	330.38
361.163	326.38
361.39	320.38
361.616	331.38
361.843	315.38
362.07	330.38
362.296	330.38
362.523	319.38
362.749	317.38
362.976	329.38
363.203	330.38
363.429	316.38
363.656	318.38
363.882	311.38
364.109	330.38
364.335	302.38
364.562	322.38
364.788	313.38
365.015	298.38
365.241	311.38
365.468	317.38
365.694	323.38
365.92	310.38
366.147	287.38
366.373	316.38
366.599	316.38
366.826	301.38
367.052	315.38
367.278	317.38
367.505	324.38
367.731	309.38
367.957	314.38
368.184	309.38
368.41	309.38
368.636	313.38
368.862	304.38
369.089	313.38
369.315	300.38
369.541	307.38
369.767	325.38
369.993	323.38
370.219	317.38
370.445	334.38
370.672	323.38
370.898	321.38
371.124	326.38
371.35	324.38
371.576	318.38
371.802	313.38
372.028	314.38
372.254	311.38
372.48	323.38
372.706	323.38
372.932	326.38
373.158	335.38
373.384	330.38
373.61	322.38
373.835	324.38
374.061	331.38
374.287	331.38
374.513	336.38
374.739	341.38
374.965	340.38
375.191	337.38
375.416	338.38
375.642	317.38
375.868	344.38
376.094	333.38
376.319	340.38
376.545	327.38
376.771	350.38
376.997	321.38
377.222	327.38
377.448	331.38
377.674	344.38
377.899	293.38
378.125	325.38
378.35	326.38
378.576	300.38
378.802	315.38
379.027	335.38
379.253	314.38
379.478	293.38
379.704	320.38
379.929	315.38
380.155	343.38
380.38	325.38
380.606	313.38
380.831	315.38
381.057	317.38
381.282	320.38
381.507	326.38
381.733	313.38
381.958	323.38
382.184	324.38
382.409	331.38
382.634	334.38
382.86	345.38
383.085	321.38
383.31	324.38
383.535	353.38
383.761	331.38
383.986	323.38
384.211	328.38
384.436	359.38
384.662	349.38
384.887	352.38
385.112	379.38
385.337	358.38
385.562	340.38
385.787	369.38
386.013	361.38
386.238	346.38
386.463	346.38
386.688	332.38
386.913	349.38
387.138	348.38
387.363	342.38
387.588	346.38
387.813	373.38
388.038	354.38
388.263	364.38
388.488	364.38
388.713	353.38
388.938	356.38
389.163	357.38
389.387	338.38
389.612	362.38
389.837	354.38
390.062	357.38
390.287	360.38
390.512	343.38
390.736	345.38
390.961	353.38
391.186	357.38
391.411	379.38
391.636	363.38
391.86	385.38
392.085	372.38
392.31	366.38
392.534	361.38
392.759	376.38
392.984	366.38
393.208	351.38
393.433	343.38
393.658	362.38
393.882	370.38
394.107	367.38
394.331	382.38
394.556	366.38
394.78	355.38
395.005	379.38
395.229	382.38
395.454	372.38
395.678	377.38
395.903	374.38
396.127	387.38
396.352	393.38
396.576	392.38
396.801	374.38
397.025	383.38
397.249	380.38
397.474	392.38
397.698	411.38
397.922	403.38
398.147	405.38
398.371	414.38
398.595	422.38
398.82	399.38
399.044	442.38
399.268	451.38
399.492	499.38
399.717	531.38
399.941	548.38
400.165	499.38
400.389	522.38
400.613	467.38
400.837	423.38
401.062	430.38
401.286	411.38
401.51	412.38
401.734	392.38
401.958	416.38
402.182	436.38
402.406	405.38
402.63	412.38
402.854	441.38
403.078	445.38
403.302	436.38
403.526	449.38
403.75	440.38
403.974	463.38
404.198	457.38
404.422	451.38
404.645	443.38
404.869	438.38
405.093	455.38
405.317	486.38
405.541	493.38
405.765	470.38
405.988	458.38
406.212	449.38
406.436	468.38
406.66	494.38
406.883	481.38
407.107	487.38
407.331	512.38
407.555	558.38
407.778	540.38
408.002	489.38
408.226	475.38
408.449	463.38
408.673	472.38
408.896	478.38
409.12	482.38
409.344	462.38
409.567	437.38
409.791	428.38
410.014	425.38
410.238	443.38
410.461	430.38
410.685	451.38
410.908	428.38
411.132	464.38
411.355	452.38
411.578	486.38
411.802	414.38
412.025	418.38
412.249	447.38
412.472	454.38
412.695	452.38
412.919	452.38
413.142	415.38
413.365	436.38
413.589	430.38
413.812	412.38
414.035	393.38
414.258	403.38
414.482	415.38
414.705	439.38
414.928	404.38
415.151	419.38
415.374	407.38
415.597	421.38
415.821	430.38
416.044	397.38
416.267	422.38
416.49	397.38
416.713	399.38
416.936	418.38
417.159	407.38
417.382	406.38
417.605	410.38
417.828	399.38
418.051	407.38
418.274	425.38
418.497	431.38
418.72	415.38
418.943	394.38
419.166	439.38
419.389	470.38
419.611	443.38
419.834	441.38
420.057	426.38
420.28	427.38
420.503	413.38
420.726	422.38
420.948	444.38
421.171	441.38
421.394	461.38
421.617	409.38
421.839	413.38
422.062	398.38
422.285	415.38
422.507	455.38
422.73	481.38
422.953	473.38
423.175	441.38
423.398	417.38
423.621	443.38
423.843	443.38
424.066	436.38
424.288	444.38
424.511	445.38
424.733	470.38
424.956	525.38
425.178	515.38
425.401	488.38
425.623	521.38
425.846	441.38
426.068	439.38
426.291	412.38
426.513	442.38
426.735	400.38
426.958	442.38
427.18	481.38
427.402	541.38
427.625	575.38
427.847	509.38
428.069	441.38
428.292	403.38
428.514	410.38
428.736	386.38
428.958	409.38
429.181	395.38
429.403	377.38
429.625	404.38
429.847	435.38
430.069	443.38
430.292	416.38
430.514	403.38
430.736	399.38
430.958	394.38
431.18	398.38
431.402	382.38
431.624	377.38
431.846	390.38
432.068	383.38
432.29	383.38
432.512	394.38
432.734	381.38
432.956	410.38
433.178	374.38
433.4	403.38
433.622	370.38
433.844	385.38
434.066	396.38
434.287	400.38
434.509	374.38
434.731	405.38
434.953	422.38
435.175	415.38
435.397	437.38
435.618	419.38
435.84	442.38
436.062	488.38
436.284	522.38
436.505	450.38
436.727	399.38
436.949	403.38
437.17	393.38
437.392	370.38
437.614	395.38
437.835	412.38
438.057	449.38
438.278	515.38
438.5	473.38
438.721	573.38
438.943	524.38
439.165	437.38
439.386	426.38
439.608	424.38
439.829	417.38
440.05	397.38
440.272	450.38
440.493	419.38
440.715	418.38
440.936	406.38
441.158	403.38
441.379	423.38
441.6	447.38
441.822	435.38
442.043	463.38
442.264	495.38
442.486	530.38
442.707	459.38
442.928	445.38
443.149	436.38
443.371	430.38
443.592	454.38
443.813	531.38
444.034	546.38
444.255	496.38
444.476	459.38
444.698	480.38
444.919	467.38
445.14	571.38
445.361	514.38
445.582	472.38
445.803	496.38
446.024	517.38
446.245	536.38
446.466	491.38
446.687	424.38
446.908	429.38
447.129	392.38
447.35	385.38
447.571	389.38
447.792	394.38
448.013	391.38
448.234	396.38
448.455	433.38
448.675	487.38
448.896	528.38
449.117	477.38
449.338	456.38
449.559	494.38
449.779	558.38
450	459.38
450.221	410.38
450.442	389.38
450.662	367.38
450.883	372.38
451.104	372.38
451.324	366.38
451.545	373.38
451.766	379.38
451.986	359.38
452.207	350.38
452.428	345.38
452.648	350.38
452.869	354.38
453.089	364.38
453.31	367.38
453.53	374.38
453.751	357.38
453.971	346.38
454.192	354.38
454.412	349.38
454.633	362.38
454.853	333.38
455.073	350.38
455.294	362.38
455.514	384.38
455.734	381.38
455.955	348.38
456.175	341.38
456.395	350.38
456.616	325.38
456.836	343.38
457.056	341.38
457.276	328.38
457.497	339.38
457.717	341.38
457.937	346.38
458.157	346.38
458.377	367.38
458.598	351.38
458.818	387.38
459.038	433.38
459.258	453.38
459.478	400.38
459.698	401.38
459.918	408.38
460.138	412.38
460.358	401.38
460.578	413.38
460.798	420.38
461.018	415.38
461.238	425.38
461.458	401.38
461.678	430.38
461.898	421.38
462.118	422.38
462.338	443.38
462.558	442.38
462.777	452.38
462.997	439.38
463.217	472.38
463.437	482.38
463.657	479.38
463.876	438.38
464.096	435.38
464.316	466.38
464.536	463.38
464.755	431.38
464.975	439.38
465.195	444.38
465.414	479.38
465.634	436.38
465.854	406.38
466.073	379.38
466.293	381.38
466.512	396.38
466.732	382.38
466.951	392.38
467.171	377.38
467.391	367.38
467.61	379.38
467.829	378.38
468.049	379.38
468.268	385.38
468.488	350.38
468.707	354.38
468.927	364.38
469.146	372.38
469.365	366.38
469.585	361.38
469.804	361.38
470.023	372.38
470.243	378.38
470.462	388.38
470.681	394.38
470.901	385.38
471.12	375.38
471.339	385.38
471.558	387.38
471.777	358.38
471.997	378.38
472.216	379.38
472.435	382.38
472.654	378.38
472.873	375.38
473.092	371.38
473.311	355.38
473.53	369.38
473.749	379.38
473.968	396.38
474.187	457.38
474.406	435.38
474.625	392.38
474.844	370.38
475.063	360.38
475.282	373.38
475.501	365.38
475.72	391.38
475.939	397.38
476.158	381.38
476.377	381.38
476.596	371.38
476.814	378.38
477.033	379.38
477.252	386.38
477.471	396.38
477.69	395.38
477.908	414.38
478.127	411.38
478.346	431.38
478.564	427.38
478.783	421.38
479.002	421.38
479.22	422.38
479.439	457.38
479.658	440.38
479.876	458.38
480.095	450.38
480.313	466.38
480.532	470.38
480.751	464.38
480.969	446.38
481.188	472.38
481.406	482.38
481.624	458.38
481.843	438.38
482.061	436.38
482.28	440.38
482.498	428.38
482.717	433.38
482.935	425.38
483.153	436.38
483.372	426.38
483.59	422.38
483.808	424.38
484.027	431.38
484.245	414.38
484.463	453.38
484.681	429.38
484.9	426.38
485.118	448.38
485.336	415.38
485.554	425.38
485.772	436.38
485.99	439.38
486.209	443.38
486.427	438.38
486.645	437.38
486.863	437.38
487.081	445.38
487.299	443.38
487.517	469.38
487.735	455.38
487.953	440.38
488.171	471.38
488.389	439.38
488.607	443.38
488.825	466.38
489.043	445.38
489.261	459.38
489.479	460.38
489.696	437.38
489.914	464.38
490.132	450.38
490.35	468.38
490.568	471.38
490.786	489.38
491.003	474.38
491.221	510.38
491.439	519.38
491.657	492.38
491.874	507.38
492.092	491.38
492.31	502.38
492.527	505.38
492.745	513.38
492.963	523.38
493.18	542.38
493.398	521.38
493.615	529.38
493.833	539.38
494.05	536.38
494.268	546.38
494.485	539.38
494.703	519.38
494.92	520.38
495.138	529.38
495.355	545.38
495.573	550.38
495.79	519.38
496.008	524.38
496.225	532.38
496.442	504.38
496.66	521.38
496.877	562.38
497.094	533.38
497.312	540.38
497.529	536.38
497.746	567.38
497.963	564.38
498.181	579.38
498.398	598.38
498.615	604.38
498.832	604.38
499.049	652.38
499.267	694.38
499.484	708.38
499.701	750.38
499.918	813.38
500.135	844.38
500.352	938.38
500.569	932.38
500.786	952.38
501.003	902.38
501.22	871.38
501.437	841.38
501.654	775.38
501.871	724.38
502.088	715.38
