Data from 1969.PennyLincolnUp.Lamp.En5.5.200Scan.071719.P1._HRD10591_14-55-18-973.txt Node
Date: Thu Jul 18 14:55:18 EDT 2019
User: cochatt
Spectrometer: HR+D1059
Trigger mode: 1
Integration Time (sec): 1.000000E-1
Scans to average: 1
Electric dark correction enabled: true
Nonlinearity correction enabled: false
Boxcar width: 0
XAxis mode: Wavelengths
Number of Pixels in Spectrum: 2048
>>>>>Begin Spectral Data<<<<<
223.165	-22.88
223.4	-22.88
223.635	-22.88
223.869	-4.88
224.104	-11.88
224.338	-8.88
224.573	-18.88
224.808	-9.88
225.042	-22.88
225.277	-7.88
225.511	-9.88
225.746	3.12
225.98	9.12
226.215	18.12
226.449	23.12
226.683	19.12
226.918	11.12
227.152	34.12
227.387	32.12
227.621	37.12
227.856	42.12
228.09	48.12
228.324	38.12
228.559	49.12
228.793	72.12
229.027	84.12
229.262	81.12
229.496	86.12
229.73	112.12
229.964	107.12
230.199	112.12
230.433	101.12
230.667	96.12
230.901	86.12
231.136	95.12
231.37	99.12
231.604	94.12
231.838	102.12
232.072	89.12
232.306	101.12
232.541	107.12
232.775	105.12
233.009	99.12
233.243	116.12
233.477	99.12
233.711	100.12
233.945	105.12
234.179	97.12
234.413	99.12
234.647	116.12
234.881	123.12
235.115	108.12
235.349	92.12
235.583	109.12
235.817	101.12
236.051	102.12
236.285	106.12
236.519	118.12
236.753	121.12
236.987	122.12
237.221	125.12
237.455	150.12
237.689	132.12
237.922	118.12
238.156	108.12
238.39	109.12
238.624	96.12
238.858	103.12
239.091	104.12
239.325	94.12
239.559	99.12
239.793	115.12
240.027	103.12
240.26	114.12
240.494	118.12
240.728	123.12
240.961	122.12
241.195	130.12
241.429	134.12
241.662	121.12
241.896	117.12
242.13	108.12
242.363	128.12
242.597	125.12
242.83	109.12
243.064	119.12
243.298	117.12
243.531	112.12
243.765	118.12
243.998	125.12
244.232	131.12
244.465	132.12
244.699	126.12
244.932	133.12
245.166	112.12
245.399	133.12
245.633	140.12
245.866	119.12
246.099	128.12
246.333	131.12
246.566	125.12
246.8	143.12
247.033	127.12
247.266	128.12
247.5	130.12
247.733	145.12
247.966	140.12
248.2	135.12
248.433	160.12
248.666	148.12
248.899	138.12
249.133	162.12
249.366	165.12
249.599	158.12
249.832	141.12
250.066	144.12
250.299	154.12
250.532	157.12
250.765	154.12
250.998	184.12
251.231	171.12
251.465	176.12
251.698	176.12
251.931	159.12
252.164	161.12
252.397	157.12
252.63	163.12
252.863	166.12
253.096	184.12
253.329	176.12
253.562	170.12
253.795	190.12
254.028	165.12
254.261	173.12
254.494	180.12
254.727	194.12
254.96	208.12
255.193	206.12
255.426	187.12
255.659	178.12
255.892	188.12
256.124	190.12
256.357	192.12
256.59	181.12
256.823	161.12
257.056	186.12
257.289	160.12
257.521	167.12
257.754	174.12
257.987	164.12
258.22	158.12
258.452	178.12
258.685	168.12
258.918	159.12
259.151	174.12
259.383	176.12
259.616	177.12
259.849	165.12
260.081	189.12
260.314	196.12
260.547	203.12
260.779	188.12
261.012	198.12
261.244	187.12
261.477	174.12
261.71	172.12
261.942	176.12
262.175	173.12
262.407	185.12
262.64	169.12
262.872	176.12
263.105	171.12
263.337	184.12
263.57	176.12
263.802	178.12
264.035	173.12
264.267	176.12
264.499	180.12
264.732	165.12
264.964	185.12
265.197	160.12
265.429	186.12
265.661	205.12
265.894	185.12
266.126	174.12
266.358	165.12
266.591	166.12
266.823	195.12
267.055	180.12
267.287	181.12
267.52	191.12
267.752	191.12
267.984	199.12
268.216	209.12
268.448	192.12
268.681	199.12
268.913	201.12
269.145	204.12
269.377	229.12
269.609	200.12
269.841	208.12
270.073	203.12
270.306	213.12
270.538	235.12
270.77	245.12
271.002	220.12
271.234	214.12
271.466	231.12
271.698	233.12
271.93	241.12
272.162	256.12
272.394	248.12
272.626	230.12
272.858	212.12
273.09	205.12
273.322	202.12
273.553	213.12
273.785	208.12
274.017	207.12
274.249	217.12
274.481	219.12
274.713	221.12
274.945	229.12
275.176	216.12
275.408	198.12
275.64	209.12
275.872	199.12
276.104	213.12
276.335	222.12
276.567	221.12
276.799	215.12
277.031	237.12
277.262	251.12
277.494	236.12
277.726	239.12
277.957	245.12
278.189	220.12
278.421	217.12
278.652	240.12
278.884	223.12
279.115	222.12
279.347	214.12
279.579	227.12
279.81	230.12
280.042	216.12
280.273	221.12
280.505	225.12
280.736	218.12
280.968	214.12
281.199	221.12
281.431	244.12
281.662	219.12
281.894	211.12
282.125	227.12
282.356	240.12
282.588	250.12
282.819	240.12
283.051	230.12
283.282	234.12
283.513	235.12
283.745	241.12
283.976	246.12
284.207	221.12
284.439	229.12
284.67	235.12
284.901	240.12
285.132	246.12
285.364	258.12
285.595	226.12
285.826	233.12
286.057	228.12
286.288	234.12
286.52	235.12
286.751	232.12
286.982	238.12
287.213	232.12
287.444	242.12
287.675	260.12
287.906	248.12
288.138	233.12
288.369	248.12
288.6	262.12
288.831	233.12
289.062	259.12
289.293	228.12
289.524	254.12
289.755	255.12
289.986	249.12
290.217	253.12
290.448	259.12
290.679	254.12
290.91	251.12
291.141	243.12
291.371	244.12
291.602	236.12
291.833	260.12
292.064	249.12
292.295	252.12
292.526	254.12
292.757	245.12
292.987	232.12
293.218	256.12
293.449	258.12
293.68	243.12
293.91	234.12
294.141	237.12
294.372	233.12
294.603	258.12
294.833	250.12
295.064	245.12
295.295	250.12
295.525	230.12
295.756	254.12
295.987	262.12
296.217	265.12
296.448	266.12
296.679	258.12
296.909	261.12
297.14	245.12
297.37	261.12
297.601	277.12
297.831	252.12
298.062	280.12
298.292	264.12
298.523	274.12
298.753	269.12
298.984	281.12
299.214	268.12
299.445	258.12
299.675	262.12
299.905	271.12
300.136	266.12
300.366	269.12
300.597	273.12
300.827	268.12
301.057	294.12
301.288	277.12
301.518	275.12
301.748	261.12
301.979	282.12
302.209	282.12
302.439	284.12
302.669	274.12
302.9	292.12
303.13	283.12
303.36	269.12
303.59	280.12
303.82	270.12
304.051	274.12
304.281	281.12
304.511	297.12
304.741	289.12
304.971	277.12
305.201	281.12
305.431	286.12
305.661	270.12
305.891	256.12
306.121	278.12
306.352	282.12
306.582	271.12
306.812	279.12
307.042	286.12
307.272	284.12
307.502	279.12
307.731	267.12
307.961	288.12
308.191	308.12
308.421	281.12
308.651	282.12
308.881	298.12
309.111	276.12
309.341	284.12
309.571	271.12
309.8	293.12
310.03	304.12
310.26	301.12
310.49	296.12
310.72	304.12
310.949	297.12
311.179	311.12
311.409	287.12
311.639	278.12
311.868	285.12
312.098	299.12
312.328	313.12
312.557	312.12
312.787	327.12
313.017	345.12
313.246	318.12
313.476	307.12
313.706	303.12
313.935	309.12
314.165	316.12
314.394	310.12
314.624	323.12
314.853	293.12
315.083	313.12
315.312	316.12
315.542	294.12
315.771	299.12
316.001	312.12
316.23	302.12
316.46	291.12
316.689	302.12
316.919	313.12
317.148	315.12
317.377	314.12
317.607	320.12
317.836	296.12
318.065	310.12
318.295	291.12
318.524	299.12
318.753	308.12
318.983	290.12
319.212	314.12
319.441	300.12
319.67	313.12
319.9	301.12
320.129	300.12
320.358	289.12
320.587	317.12
320.816	327.12
321.046	300.12
321.275	301.12
321.504	324.12
321.733	320.12
321.962	309.12
322.191	313.12
322.42	322.12
322.649	332.12
322.878	308.12
323.108	318.12
323.337	351.12
323.566	353.12
323.795	357.12
324.024	385.12
324.253	434.12
324.482	574.12
324.71	783.12
324.939	1037.12
325.168	864.12
325.397	522.12
325.626	397.12
325.855	384.12
326.084	366.12
326.313	362.12
326.542	365.12
326.77	380.12
326.999	408.12
327.228	532.12
327.457	715.12
327.686	803.12
327.914	580.12
328.143	431.12
328.372	398.12
328.6	394.12
328.829	379.12
329.058	402.12
329.287	396.12
329.515	370.12
329.744	366.12
329.972	350.12
330.201	388.12
330.43	428.12
330.658	406.12
330.887	420.12
331.115	412.12
331.344	378.12
331.572	363.12
331.801	376.12
332.03	396.12
332.258	380.12
332.486	351.12
332.715	371.12
332.943	377.12
333.172	380.12
333.4	380.12
333.629	390.12
333.857	411.12
334.085	401.12
334.314	416.12
334.542	441.12
334.771	436.12
334.999	390.12
335.227	378.12
335.455	362.12
335.684	388.12
335.912	375.12
336.14	374.12
336.369	385.12
336.597	360.12
336.825	365.12
337.053	348.12
337.281	372.12
337.51	352.12
337.738	378.12
337.966	370.12
338.194	364.12
338.422	360.12
338.65	354.12
338.878	345.12
339.106	339.12
339.334	344.12
339.562	344.12
339.79	344.12
340.018	331.12
340.246	338.12
340.474	341.12
340.702	354.12
340.93	334.12
341.158	340.12
341.386	332.12
341.614	336.12
341.842	338.12
342.07	338.12
342.298	338.12
342.526	344.12
342.754	343.12
342.981	344.12
343.209	357.12
343.437	356.12
343.665	354.12
343.893	377.12
344.12	373.12
344.348	357.12
344.576	359.12
344.804	352.12
345.031	338.12
345.259	332.12
345.487	333.12
345.714	334.12
345.942	327.12
346.17	335.12
346.397	337.12
346.625	333.12
346.853	326.12
347.08	329.12
347.308	333.12
347.535	334.12
347.763	351.12
347.99	322.12
348.218	343.12
348.445	324.12
348.673	333.12
348.9	338.12
349.128	335.12
349.355	329.12
349.583	308.12
349.81	320.12
350.037	301.12
350.265	345.12
350.492	297.12
350.72	316.12
350.947	313.12
351.174	336.12
351.402	338.12
351.629	321.12
351.856	324.12
352.083	325.12
352.311	320.12
352.538	328.12
352.765	326.12
352.992	322.12
353.22	312.12
353.447	316.12
353.674	334.12
353.901	314.12
354.128	313.12
354.355	318.12
354.583	318.12
354.81	305.12
355.037	317.12
355.264	312.12
355.491	310.12
355.718	312.12
355.945	304.12
356.172	324.12
356.399	344.12
356.626	326.12
356.853	309.12
357.08	302.12
357.307	302.12
357.534	324.12
357.761	298.12
357.988	310.12
358.215	310.12
358.441	310.12
358.668	301.12
358.895	310.12
359.122	314.12
359.349	335.12
359.576	315.12
359.802	313.12
360.029	336.12
360.256	324.12
360.483	331.12
360.709	332.12
360.936	334.12
361.163	325.12
361.39	332.12
361.616	310.12
361.843	314.12
362.07	329.12
362.296	323.12
362.523	322.12
362.749	295.12
362.976	339.12
363.203	314.12
363.429	302.12
363.656	328.12
363.882	305.12
364.109	312.12
364.335	308.12
364.562	307.12
364.788	316.12
365.015	325.12
365.241	316.12
365.468	293.12
365.694	327.12
365.92	324.12
366.147	315.12
366.373	322.12
366.599	298.12
366.826	297.12
367.052	316.12
367.278	312.12
367.505	324.12
367.731	346.12
367.957	330.12
368.184	298.12
368.41	321.12
368.636	312.12
368.862	321.12
369.089	325.12
369.315	301.12
369.541	308.12
369.767	305.12
369.993	309.12
370.219	306.12
370.445	310.12
370.672	313.12
370.898	312.12
371.124	336.12
371.35	312.12
371.576	317.12
371.802	321.12
372.028	324.12
372.254	305.12
372.48	336.12
372.706	334.12
372.932	331.12
373.158	332.12
373.384	330.12
373.61	327.12
373.835	313.12
374.061	318.12
374.287	334.12
374.513	325.12
374.739	327.12
374.965	342.12
375.191	340.12
375.416	326.12
375.642	326.12
375.868	333.12
376.094	330.12
376.319	329.12
376.545	318.12
376.771	323.12
376.997	292.12
377.222	317.12
377.448	329.12
377.674	336.12
377.899	297.12
378.125	293.12
378.35	323.12
378.576	299.12
378.802	323.12
379.027	311.12
379.253	328.12
379.478	310.12
379.704	330.12
379.929	324.12
380.155	315.12
380.38	294.12
380.606	305.12
380.831	345.12
381.057	316.12
381.282	329.12
381.507	318.12
381.733	316.12
381.958	335.12
382.184	329.12
382.409	328.12
382.634	347.12
382.86	334.12
383.085	330.12
383.31	345.12
383.535	332.12
383.761	329.12
383.986	352.12
384.211	342.12
384.436	327.12
384.662	337.12
384.887	376.12
385.112	352.12
385.337	354.12
385.562	359.12
385.787	358.12
386.013	362.12
386.238	365.12
386.463	373.12
386.688	355.12
386.913	355.12
387.138	348.12
387.363	362.12
387.588	354.12
387.813	360.12
388.038	370.12
388.263	345.12
388.488	356.12
388.713	365.12
388.938	354.12
389.163	352.12
389.387	344.12
389.612	336.12
389.837	358.12
390.062	353.12
390.287	341.12
390.512	340.12
390.736	344.12
390.961	346.12
391.186	356.12
391.411	361.12
391.636	377.12
391.86	375.12
392.085	375.12
392.31	382.12
392.534	372.12
392.759	375.12
392.984	378.12
393.208	379.12
393.433	378.12
393.658	361.12
393.882	360.12
394.107	364.12
394.331	345.12
394.556	355.12
394.78	386.12
395.005	372.12
395.229	348.12
395.454	382.12
395.678	384.12
395.903	397.12
396.127	394.12
396.352	384.12
396.576	372.12
396.801	398.12
397.025	377.12
397.249	376.12
397.474	376.12
397.698	392.12
397.922	401.12
398.147	392.12
398.371	410.12
398.595	395.12
398.82	412.12
399.044	426.12
399.268	467.12
399.492	530.12
399.717	534.12
399.941	526.12
400.165	508.12
400.389	498.12
400.613	461.12
400.837	427.12
401.062	416.12
401.286	426.12
401.51	401.12
401.734	396.12
401.958	404.12
402.182	420.12
402.406	422.12
402.63	435.12
402.854	433.12
403.078	440.12
403.302	444.12
403.526	432.12
403.75	452.12
403.974	454.12
404.198	433.12
404.422	452.12
404.645	455.12
404.869	456.12
405.093	477.12
405.317	474.12
405.541	509.12
405.765	477.12
405.988	473.12
406.212	459.12
406.436	475.12
406.66	459.12
406.883	461.12
407.107	484.12
407.331	512.12
407.555	536.12
407.778	536.12
408.002	516.12
408.226	457.12
408.449	457.12
408.673	455.12
408.896	477.12
409.12	498.12
409.344	466.12
409.567	446.12
409.791	448.12
410.014	432.12
410.238	435.12
410.461	434.12
410.685	429.12
410.908	454.12
411.132	456.12
411.355	453.12
411.578	456.12
411.802	433.12
412.025	433.12
412.249	433.12
412.472	451.12
412.695	473.12
412.919	450.12
413.142	440.12
413.365	419.12
413.589	403.12
413.812	386.12
414.035	415.12
414.258	406.12
414.482	426.12
414.705	403.12
414.928	422.12
415.151	396.12
415.374	416.12
415.597	415.12
415.821	410.12
416.044	413.12
416.267	396.12
416.49	392.12
416.713	401.12
416.936	434.12
417.159	401.12
417.382	417.12
417.605	411.12
417.828	412.12
418.051	428.12
418.274	400.12
418.497	406.12
418.72	424.12
418.943	417.12
419.166	437.12
419.389	466.12
419.611	445.12
419.834	440.12
420.057	434.12
420.28	439.12
420.503	422.12
420.726	420.12
420.948	418.12
421.171	454.12
421.394	449.12
421.617	444.12
421.839	419.12
422.062	405.12
422.285	408.12
422.507	474.12
422.73	498.12
422.953	474.12
423.175	450.12
423.398	450.12
423.621	417.12
423.843	458.12
424.066	453.12
424.288	456.12
424.511	452.12
424.733	470.12
424.956	502.12
425.178	508.12
425.401	506.12
425.623	510.12
425.846	445.12
426.068	442.12
426.291	433.12
426.513	428.12
426.735	419.12
426.958	432.12
427.18	488.12
427.402	530.12
427.625	573.12
427.847	518.12
428.069	453.12
428.292	435.12
428.514	396.12
428.736	389.12
428.958	410.12
429.181	384.12
429.403	391.12
429.625	394.12
429.847	416.12
430.069	457.12
430.292	440.12
430.514	400.12
430.736	378.12
430.958	404.12
431.18	391.12
431.402	394.12
431.624	395.12
431.846	376.12
432.068	389.12
432.29	395.12
432.512	373.12
432.734	395.12
432.956	390.12
433.178	397.12
433.4	388.12
433.622	388.12
433.844	401.12
434.066	400.12
434.287	385.12
434.509	385.12
434.731	391.12
434.953	412.12
435.175	404.12
435.397	435.12
435.618	428.12
435.84	435.12
436.062	488.12
436.284	499.12
436.505	459.12
436.727	411.12
436.949	387.12
437.17	375.12
437.392	371.12
437.614	395.12
437.835	402.12
438.057	454.12
438.278	490.12
438.5	509.12
438.721	524.12
438.943	521.12
439.165	426.12
439.386	413.12
439.608	438.12
439.829	428.12
440.05	444.12
440.272	444.12
440.493	429.12
440.715	424.12
440.936	427.12
441.158	395.12
441.379	400.12
441.6	413.12
441.822	431.12
442.043	441.12
442.264	494.12
442.486	510.12
442.707	475.12
442.928	436.12
443.149	466.12
443.371	448.12
443.592	464.12
443.813	530.12
444.034	525.12
444.255	488.12
444.476	459.12
444.698	470.12
444.919	490.12
445.14	556.12
445.361	486.12
445.582	448.12
445.803	486.12
446.024	521.12
446.245	516.12
446.466	471.12
446.687	446.12
446.908	422.12
447.129	400.12
447.35	398.12
447.571	376.12
447.792	385.12
448.013	378.12
448.234	405.12
448.455	428.12
448.675	468.12
448.896	516.12
449.117	464.12
449.338	443.12
449.559	525.12
449.779	546.12
450	450.12
450.221	404.12
450.442	393.12
450.662	378.12
450.883	382.12
451.104	381.12
451.324	376.12
451.545	386.12
451.766	371.12
451.986	372.12
452.207	358.12
452.428	370.12
452.648	365.12
452.869	357.12
453.089	366.12
453.31	363.12
453.53	339.12
453.751	342.12
453.971	339.12
454.192	361.12
454.412	349.12
454.633	341.12
454.853	328.12
455.073	328.12
455.294	373.12
455.514	402.12
455.734	396.12
455.955	344.12
456.175	331.12
456.395	334.12
456.616	336.12
456.836	329.12
457.056	338.12
457.276	342.12
457.497	326.12
457.717	338.12
457.937	357.12
458.157	334.12
458.377	343.12
458.598	374.12
458.818	396.12
459.038	433.12
459.258	442.12
459.478	390.12
459.698	379.12
459.918	399.12
460.138	390.12
460.358	415.12
460.578	400.12
460.798	414.12
461.018	404.12
461.238	421.12
461.458	416.12
461.678	381.12
461.898	419.12
462.118	428.12
462.338	420.12
462.558	445.12
462.777	450.12
462.997	451.12
463.217	483.12
463.437	498.12
463.657	448.12
463.876	440.12
464.096	460.12
464.316	458.12
464.536	452.12
464.755	446.12
464.975	446.12
465.195	430.12
465.414	469.12
465.634	420.12
465.854	398.12
466.073	382.12
466.293	383.12
466.512	380.12
466.732	377.12
466.951	378.12
467.171	365.12
467.391	390.12
467.61	372.12
467.829	391.12
468.049	376.12
468.268	362.12
468.488	380.12
468.707	357.12
468.927	364.12
469.146	361.12
469.365	386.12
469.585	370.12
469.804	376.12
470.023	374.12
470.243	367.12
470.462	386.12
470.681	406.12
470.901	411.12
471.12	364.12
471.339	392.12
471.558	370.12
471.777	384.12
471.997	369.12
472.216	373.12
472.435	366.12
472.654	386.12
472.873	373.12
473.092	369.12
473.311	362.12
473.53	362.12
473.749	396.12
473.968	380.12
474.187	437.12
474.406	420.12
474.625	388.12
474.844	376.12
475.063	366.12
475.282	372.12
475.501	376.12
475.72	380.12
475.939	355.12
476.158	382.12
476.377	400.12
476.596	386.12
476.814	396.12
477.033	394.12
477.252	364.12
477.471	404.12
477.69	409.12
477.908	408.12
478.127	416.12
478.346	424.12
478.564	408.12
478.783	417.12
479.002	427.12
479.22	430.12
479.439	416.12
479.658	440.12
479.876	442.12
480.095	430.12
480.313	487.12
480.532	457.12
480.751	450.12
480.969	456.12
481.188	501.12
481.406	490.12
481.624	461.12
481.843	445.12
482.061	439.12
482.28	420.12
482.498	409.12
482.717	420.12
482.935	440.12
483.153	420.12
483.372	431.12
483.59	428.12
483.808	432.12
484.027	433.12
484.245	420.12
484.463	428.12
484.681	433.12
484.9	428.12
485.118	428.12
485.336	448.12
485.554	426.12
485.772	438.12
485.99	436.12
486.209	443.12
486.427	421.12
486.645	443.12
486.863	476.12
487.081	442.12
487.299	437.12
487.517	438.12
487.735	442.12
487.953	437.12
488.171	451.12
488.389	452.12
488.607	449.12
488.825	452.12
489.043	434.12
489.261	451.12
489.479	445.12
489.696	450.12
489.914	452.12
490.132	452.12
490.35	465.12
490.568	463.12
490.786	489.12
491.003	490.12
491.221	474.12
491.439	500.12
491.657	521.12
491.874	507.12
492.092	521.12
492.31	513.12
492.527	516.12
492.745	520.12
492.963	514.12
493.18	521.12
493.398	501.12
493.615	516.12
493.833	513.12
494.05	526.12
494.268	526.12
494.485	524.12
494.703	528.12
494.92	527.12
495.138	519.12
495.355	541.12
495.573	518.12
495.79	515.12
496.008	532.12
496.225	534.12
496.442	538.12
496.66	542.12
496.877	554.12
497.094	542.12
497.312	533.12
497.529	566.12
497.746	540.12
497.963	579.12
498.181	589.12
498.398	611.12
498.615	601.12
498.832	613.12
499.049	657.12
499.267	694.12
499.484	700.12
499.701	780.12
499.918	794.12
500.135	853.12
500.352	937.12
500.569	966.12
500.786	944.12
501.003	906.12
501.22	851.12
501.437	815.12
501.654	758.12
501.871	734.12
502.088	690.12
502.305	652.12
