Data from 1969.PennyLincolnUp.Lamp.En5.5.200Scan.071719.P1._HRD10591_14-55-26-973.txt Node
Date: Thu Jul 18 14:55:26 EDT 2019
User: cochatt
Spectrometer: HR+D1059
Trigger mode: 1
Integration Time (sec): 1.000000E-1
Scans to average: 1
Electric dark correction enabled: true
Nonlinearity correction enabled: false
Boxcar width: 0
XAxis mode: Wavelengths
Number of Pixels in Spectrum: 2048
>>>>>Begin Spectral Data<<<<<
223.165	-0.69
223.4	-0.69
223.635	-0.69
223.869	-14.69
224.104	-21.69
224.338	-18.69
224.573	-8.69
224.808	-4.69
225.042	-9.69
225.277	7.31
225.511	0.31
225.746	-4.69
225.98	2.31
226.215	15.31
226.449	14.31
226.683	14.31
226.918	6.31
227.152	23.31
227.387	36.31
227.621	40.31
227.856	36.31
228.09	53.31
228.324	31.31
228.559	61.31
228.793	62.31
229.027	85.31
229.262	93.31
229.496	102.31
229.73	103.31
229.964	117.31
230.199	110.31
230.433	111.31
230.667	100.31
230.901	99.31
231.136	91.31
231.37	100.31
231.604	115.31
231.838	107.31
232.072	116.31
232.306	106.31
232.541	98.31
232.775	104.31
233.009	96.31
233.243	92.31
233.477	105.31
233.711	109.31
233.945	106.31
234.179	117.31
234.413	118.31
234.647	109.31
234.881	106.31
235.115	114.31
235.349	91.31
235.583	100.31
235.817	112.31
236.051	112.31
236.285	96.31
236.519	99.31
236.753	120.31
236.987	128.31
237.221	143.31
237.455	174.31
237.689	142.31
237.922	125.31
238.156	120.31
238.39	117.31
238.624	122.31
238.858	118.31
239.091	118.31
239.325	126.31
239.559	111.31
239.793	126.31
240.027	124.31
240.26	127.31
240.494	124.31
240.728	129.31
240.961	132.31
241.195	131.31
241.429	128.31
241.662	127.31
241.896	123.31
242.13	124.31
242.363	125.31
242.597	142.31
242.83	124.31
243.064	119.31
243.298	135.31
243.531	132.31
243.765	126.31
243.998	120.31
244.232	130.31
244.465	121.31
244.699	136.31
244.932	120.31
245.166	123.31
245.399	131.31
245.633	119.31
245.866	129.31
246.099	128.31
246.333	126.31
246.566	134.31
246.8	130.31
247.033	134.31
247.266	143.31
247.5	149.31
247.733	149.31
247.966	152.31
248.2	153.31
248.433	142.31
248.666	155.31
248.899	158.31
249.133	158.31
249.366	171.31
249.599	179.31
249.832	168.31
250.066	162.31
250.299	163.31
250.532	163.31
250.765	173.31
250.998	176.31
251.231	190.31
251.465	178.31
251.698	167.31
251.931	167.31
252.164	166.31
252.397	158.31
252.63	156.31
252.863	183.31
253.096	170.31
253.329	178.31
253.562	198.31
253.795	174.31
254.028	174.31
254.261	170.31
254.494	180.31
254.727	216.31
254.96	221.31
255.193	207.31
255.426	187.31
255.659	189.31
255.892	199.31
256.124	190.31
256.357	194.31
256.59	181.31
256.823	186.31
257.056	192.31
257.289	180.31
257.521	182.31
257.754	182.31
257.987	174.31
258.22	182.31
258.452	182.31
258.685	167.31
258.918	167.31
259.151	179.31
259.383	184.31
259.616	178.31
259.849	207.31
260.081	202.31
260.314	218.31
260.547	197.31
260.779	199.31
261.012	190.31
261.244	199.31
261.477	184.31
261.71	189.31
261.942	168.31
262.175	195.31
262.407	209.31
262.64	172.31
262.872	198.31
263.105	186.31
263.337	178.31
263.57	189.31
263.802	172.31
264.035	189.31
264.267	192.31
264.499	198.31
264.732	188.31
264.964	192.31
265.197	191.31
265.429	194.31
265.661	194.31
265.894	174.31
266.126	198.31
266.358	184.31
266.591	190.31
266.823	204.31
267.055	198.31
267.287	206.31
267.52	198.31
267.752	180.31
267.984	199.31
268.216	209.31
268.448	208.31
268.681	222.31
268.913	220.31
269.145	222.31
269.377	232.31
269.609	230.31
269.841	235.31
270.073	226.31
270.306	239.31
270.538	250.31
270.77	264.31
271.002	254.31
271.234	248.31
271.466	260.31
271.698	278.31
271.93	264.31
272.162	252.31
272.394	252.31
272.626	243.31
272.858	238.31
273.09	224.31
273.322	229.31
273.553	211.31
273.785	208.31
274.017	236.31
274.249	240.31
274.481	208.31
274.713	230.31
274.945	223.31
275.176	244.31
275.408	224.31
275.64	219.31
275.872	239.31
276.104	232.31
276.335	224.31
276.567	246.31
276.799	238.31
277.031	267.31
277.262	284.31
277.494	271.31
277.726	254.31
277.957	234.31
278.189	237.31
278.421	227.31
278.652	223.31
278.884	234.31
279.115	236.31
279.347	231.31
279.579	229.31
279.81	231.31
280.042	231.31
280.273	227.31
280.505	226.31
280.736	244.31
280.968	229.31
281.199	221.31
281.431	225.31
281.662	246.31
281.894	245.31
282.125	225.31
282.356	238.31
282.588	260.31
282.819	260.31
283.051	231.31
283.282	251.31
283.513	242.31
283.745	239.31
283.976	248.31
284.207	266.31
284.439	252.31
284.67	259.31
284.901	245.31
285.132	264.31
285.364	254.31
285.595	256.31
285.826	240.31
286.057	262.31
286.288	242.31
286.52	256.31
286.751	256.31
286.982	263.31
287.213	266.31
287.444	238.31
287.675	246.31
287.906	272.31
288.138	270.31
288.369	261.31
288.6	283.31
288.831	263.31
289.062	254.31
289.293	267.31
289.524	280.31
289.755	250.31
289.986	272.31
290.217	237.31
290.448	286.31
290.679	251.31
290.91	270.31
291.141	238.31
291.371	257.31
291.602	272.31
291.833	271.31
292.064	268.31
292.295	253.31
292.526	272.31
292.757	276.31
292.987	274.31
293.218	279.31
293.449	287.31
293.68	261.31
293.91	264.31
294.141	244.31
294.372	256.31
294.603	271.31
294.833	262.31
295.064	262.31
295.295	259.31
295.525	272.31
295.756	271.31
295.987	270.31
296.217	276.31
296.448	289.31
296.679	277.31
296.909	261.31
297.14	259.31
297.37	256.31
297.601	279.31
297.831	295.31
298.062	266.31
298.292	285.31
298.523	278.31
298.753	283.31
298.984	278.31
299.214	297.31
299.445	280.31
299.675	278.31
299.905	281.31
300.136	287.31
300.366	294.31
300.597	282.31
300.827	280.31
301.057	293.31
301.288	298.31
301.518	301.31
301.748	289.31
301.979	291.31
302.209	294.31
302.439	307.31
302.669	282.31
302.9	294.31
303.13	307.31
303.36	294.31
303.59	306.31
303.82	302.31
304.051	306.31
304.281	288.31
304.511	294.31
304.741	291.31
304.971	305.31
305.201	323.31
305.431	300.31
305.661	308.31
305.891	293.31
306.121	292.31
306.352	303.31
306.582	297.31
306.812	297.31
307.042	299.31
307.272	311.31
307.502	291.31
307.731	282.31
307.961	290.31
308.191	310.31
308.421	275.31
308.651	301.31
308.881	295.31
309.111	295.31
309.341	306.31
309.571	310.31
309.8	312.31
310.03	304.31
310.26	325.31
310.49	331.31
310.72	319.31
310.949	302.31
311.179	309.31
311.409	316.31
311.639	307.31
311.868	322.31
312.098	314.31
312.328	316.31
312.557	336.31
312.787	340.31
313.017	319.31
313.246	332.31
313.476	319.31
313.706	328.31
313.935	333.31
314.165	330.31
314.394	347.31
314.624	347.31
314.853	326.31
315.083	318.31
315.312	327.31
315.542	329.31
315.771	320.31
316.001	313.31
316.23	324.31
316.46	317.31
316.689	330.31
316.919	347.31
317.148	335.31
317.377	340.31
317.607	336.31
317.836	337.31
318.065	328.31
318.295	319.31
318.524	320.31
318.753	328.31
318.983	333.31
319.212	318.31
319.441	326.31
319.67	329.31
319.9	319.31
320.129	307.31
320.358	311.31
320.587	337.31
320.816	322.31
321.046	328.31
321.275	337.31
321.504	331.31
321.733	342.31
321.962	330.31
322.191	340.31
322.42	360.31
322.649	341.31
322.878	345.31
323.108	356.31
323.337	370.31
323.566	388.31
323.795	397.31
324.024	418.31
324.253	482.31
324.482	619.31
324.71	911.31
324.939	1172.31
325.168	972.31
325.397	571.31
325.626	437.31
325.855	403.31
326.084	387.31
326.313	380.31
326.542	386.31
326.77	418.31
326.999	453.31
327.228	598.31
327.457	818.31
327.686	940.31
327.914	647.31
328.143	498.31
328.372	447.31
328.6	426.31
328.829	430.31
329.058	438.31
329.287	436.31
329.515	418.31
329.744	396.31
329.972	404.31
330.201	415.31
330.43	452.31
330.658	460.31
330.887	463.31
331.115	451.31
331.344	414.31
331.572	400.31
331.801	396.31
332.03	381.31
332.258	393.31
332.486	401.31
332.715	397.31
332.943	400.31
333.172	413.31
333.4	428.31
333.629	421.31
333.857	426.31
334.085	456.31
334.314	446.31
334.542	438.31
334.771	452.31
334.999	446.31
335.227	421.31
335.455	410.31
335.684	403.31
335.912	391.31
336.14	394.31
336.369	390.31
336.597	388.31
336.825	391.31
337.053	395.31
337.281	380.31
337.51	372.31
337.738	385.31
337.966	383.31
338.194	383.31
338.422	405.31
338.65	382.31
338.878	378.31
339.106	363.31
339.334	382.31
339.562	364.31
339.79	372.31
340.018	376.31
340.246	362.31
340.474	358.31
340.702	372.31
340.93	380.31
341.158	357.31
341.386	377.31
341.614	352.31
341.842	370.31
342.07	350.31
342.298	362.31
342.526	359.31
342.754	350.31
342.981	351.31
343.209	367.31
343.437	383.31
343.665	373.31
343.893	400.31
344.12	393.31
344.348	386.31
344.576	371.31
344.804	377.31
345.031	378.31
345.259	382.31
345.487	383.31
345.714	353.31
345.942	356.31
346.17	355.31
346.397	352.31
346.625	341.31
346.853	358.31
347.08	350.31
347.308	364.31
347.535	340.31
347.763	346.31
347.99	357.31
348.218	372.31
348.445	364.31
348.673	355.31
348.9	350.31
349.128	343.31
349.355	348.31
349.583	365.31
349.81	319.31
350.037	349.31
350.265	334.31
350.492	331.31
350.72	325.31
350.947	339.31
351.174	348.31
351.402	359.31
351.629	339.31
351.856	325.31
352.083	350.31
352.311	354.31
352.538	345.31
352.765	326.31
352.992	355.31
353.22	332.31
353.447	335.31
353.674	336.31
353.901	328.31
354.128	334.31
354.355	344.31
354.583	315.31
354.81	345.31
355.037	318.31
355.264	340.31
355.491	333.31
355.718	330.31
355.945	355.31
356.172	326.31
356.399	335.31
356.626	335.31
356.853	330.31
357.08	340.31
357.307	337.31
357.534	336.31
357.761	325.31
357.988	346.31
358.215	350.31
358.441	336.31
358.668	341.31
358.895	310.31
359.122	334.31
359.349	328.31
359.576	330.31
359.802	363.31
360.029	360.31
360.256	370.31
360.483	360.31
360.709	344.31
360.936	344.31
361.163	356.31
361.39	340.31
361.616	343.31
361.843	357.31
362.07	335.31
362.296	341.31
362.523	352.31
362.749	350.31
362.976	351.31
363.203	337.31
363.429	318.31
363.656	341.31
363.882	333.31
364.109	333.31
364.335	331.31
364.562	360.31
364.788	336.31
365.015	329.31
365.241	336.31
365.468	353.31
365.694	340.31
365.92	346.31
366.147	335.31
366.373	331.31
366.599	328.31
366.826	324.31
367.052	343.31
367.278	311.31
367.505	341.31
367.731	334.31
367.957	329.31
368.184	326.31
368.41	351.31
368.636	352.31
368.862	341.31
369.089	330.31
369.315	333.31
369.541	345.31
369.767	322.31
369.993	334.31
370.219	322.31
370.445	338.31
370.672	342.31
370.898	337.31
371.124	343.31
371.35	345.31
371.576	347.31
371.802	342.31
372.028	344.31
372.254	351.31
372.48	332.31
372.706	346.31
372.932	349.31
373.158	355.31
373.384	352.31
373.61	359.31
373.835	361.31
374.061	338.31
374.287	338.31
374.513	352.31
374.739	339.31
374.965	343.31
375.191	357.31
375.416	341.31
375.642	362.31
375.868	357.31
376.094	344.31
376.319	366.31
376.545	358.31
376.771	362.31
376.997	344.31
377.222	338.31
377.448	334.31
377.674	332.31
377.899	328.31
378.125	340.31
378.35	331.31
378.576	322.31
378.802	336.31
379.027	325.31
379.253	313.31
379.478	343.31
379.704	344.31
379.929	340.31
380.155	324.31
380.38	356.31
380.606	340.31
380.831	340.31
381.057	342.31
381.282	344.31
381.507	346.31
381.733	343.31
381.958	344.31
382.184	343.31
382.409	334.31
382.634	351.31
382.86	367.31
383.085	344.31
383.31	350.31
383.535	361.31
383.761	372.31
383.986	359.31
384.211	376.31
384.436	367.31
384.662	369.31
384.887	389.31
385.112	377.31
385.337	357.31
385.562	374.31
385.787	375.31
386.013	384.31
386.238	367.31
386.463	379.31
386.688	386.31
386.913	356.31
387.138	363.31
387.363	375.31
387.588	377.31
387.813	384.31
388.038	374.31
388.263	360.31
388.488	372.31
388.713	393.31
388.938	360.31
389.163	382.31
389.387	384.31
389.612	380.31
389.837	378.31
390.062	364.31
390.287	368.31
390.512	371.31
390.736	363.31
390.961	382.31
391.186	386.31
391.411	391.31
391.636	386.31
391.86	410.31
392.085	392.31
392.31	387.31
392.534	391.31
392.759	390.31
392.984	385.31
393.208	393.31
393.433	390.31
393.658	389.31
393.882	393.31
394.107	399.31
394.331	376.31
394.556	382.31
394.78	385.31
395.005	380.31
395.229	394.31
395.454	408.31
395.678	394.31
395.903	409.31
396.127	409.31
396.352	403.31
396.576	413.31
396.801	394.31
397.025	381.31
397.249	397.31
397.474	393.31
397.698	411.31
397.922	400.31
398.147	423.31
398.371	434.31
398.595	431.31
398.82	432.31
399.044	458.31
399.268	483.31
399.492	544.31
399.717	564.31
399.941	574.31
400.165	564.31
400.389	573.31
400.613	479.31
400.837	468.31
401.062	444.31
401.286	446.31
401.51	448.31
401.734	438.31
401.958	446.31
402.182	432.31
402.406	463.31
402.63	463.31
402.854	447.31
403.078	462.31
403.302	447.31
403.526	484.31
403.75	481.31
403.974	473.31
404.198	473.31
404.422	487.31
404.645	482.31
404.869	487.31
405.093	475.31
405.317	503.31
405.541	534.31
405.765	491.31
405.988	491.31
406.212	480.31
406.436	493.31
406.66	510.31
406.883	532.31
407.107	526.31
407.331	534.31
407.555	574.31
407.778	596.31
408.002	540.31
408.226	505.31
408.449	505.31
408.673	496.31
408.896	498.31
409.12	512.31
409.344	528.31
409.567	483.31
409.791	487.31
410.014	470.31
410.238	446.31
410.461	473.31
410.685	487.31
410.908	455.31
411.132	472.31
411.355	486.31
411.578	486.31
411.802	473.31
412.025	450.31
412.249	442.31
412.472	477.31
412.695	483.31
412.919	484.31
413.142	455.31
413.365	450.31
413.589	446.31
413.812	450.31
414.035	436.31
414.258	426.31
414.482	447.31
414.705	436.31
414.928	455.31
415.151	459.31
415.374	436.31
415.597	420.31
415.821	438.31
416.044	447.31
416.267	432.31
416.49	425.31
416.713	446.31
416.936	456.31
417.159	441.31
417.382	421.31
417.605	433.31
417.828	458.31
418.051	444.31
418.274	434.31
418.497	431.31
418.72	442.31
418.943	442.31
419.166	468.31
419.389	507.31
419.611	470.31
419.834	468.31
420.057	480.31
420.28	459.31
420.503	466.31
420.726	470.31
420.948	457.31
421.171	470.31
421.394	509.31
421.617	461.31
421.839	456.31
422.062	457.31
422.285	431.31
422.507	504.31
422.73	532.31
422.953	519.31
423.175	476.31
423.398	459.31
423.621	472.31
423.843	465.31
424.066	457.31
424.288	477.31
424.511	488.31
424.733	500.31
424.956	560.31
425.178	524.31
425.401	523.31
425.623	534.31
425.846	495.31
426.068	467.31
426.291	440.31
426.513	444.31
426.735	451.31
426.958	476.31
427.18	526.31
427.402	614.31
427.625	638.31
427.847	570.31
428.069	500.31
428.292	473.31
428.514	450.31
428.736	443.31
428.958	427.31
429.181	399.31
429.403	419.31
429.625	422.31
429.847	437.31
430.069	486.31
430.292	472.31
430.514	432.31
430.736	432.31
430.958	412.31
431.18	400.31
431.402	410.31
431.624	413.31
431.846	404.31
432.068	406.31
432.29	414.31
432.512	384.31
432.734	434.31
432.956	414.31
433.178	424.31
433.4	418.31
433.622	424.31
433.844	405.31
434.066	405.31
434.287	415.31
434.509	430.31
434.731	439.31
434.953	468.31
435.175	430.31
435.397	469.31
435.618	461.31
435.84	465.31
436.062	516.31
436.284	535.31
436.505	465.31
436.727	447.31
436.949	437.31
437.17	430.31
437.392	416.31
437.614	409.31
437.835	437.31
438.057	485.31
438.278	570.31
438.5	530.31
438.721	575.31
438.943	573.31
439.165	461.31
439.386	460.31
439.608	454.31
439.829	432.31
440.05	464.31
440.272	467.31
440.493	451.31
440.715	436.31
440.936	433.31
441.158	423.31
441.379	453.31
441.6	451.31
441.822	468.31
442.043	472.31
442.264	546.31
442.486	557.31
442.707	491.31
442.928	471.31
443.149	476.31
443.371	489.31
443.592	499.31
443.813	563.31
444.034	574.31
444.255	521.31
444.476	510.31
444.698	477.31
444.919	493.31
445.14	604.31
445.361	525.31
445.582	518.31
445.803	531.31
446.024	546.31
446.245	595.31
446.466	520.31
446.687	489.31
446.908	449.31
447.129	438.31
447.35	393.31
447.571	418.31
447.792	418.31
448.013	411.31
448.234	429.31
448.455	454.31
448.675	547.31
448.896	575.31
449.117	504.31
449.338	473.31
449.559	549.31
449.779	601.31
450	490.31
450.221	425.31
450.442	404.31
450.662	401.31
450.883	395.31
451.104	427.31
451.324	412.31
451.545	392.31
451.766	390.31
451.986	370.31
452.207	374.31
452.428	383.31
452.648	381.31
452.869	379.31
453.089	385.31
453.31	412.31
453.53	393.31
453.751	357.31
453.971	370.31
454.192	402.31
454.412	388.31
454.633	394.31
454.853	379.31
455.073	357.31
455.294	392.31
455.514	410.31
455.734	410.31
455.955	364.31
456.175	352.31
456.395	362.31
456.616	377.31
456.836	362.31
457.056	349.31
457.276	341.31
457.497	341.31
457.717	341.31
457.937	359.31
458.157	379.31
458.377	394.31
458.598	373.31
458.818	413.31
459.038	460.31
459.258	492.31
459.478	449.31
459.698	430.31
459.918	414.31
460.138	422.31
460.358	452.31
460.578	438.31
460.798	434.31
461.018	456.31
461.238	453.31
461.458	432.31
461.678	434.31
461.898	452.31
462.118	450.31
462.338	443.31
462.558	472.31
462.777	450.31
462.997	480.31
463.217	514.31
463.437	526.31
463.657	481.31
463.876	478.31
464.096	483.31
464.316	468.31
464.536	486.31
464.755	477.31
464.975	464.31
465.195	482.31
465.414	523.31
465.634	444.31
465.854	418.31
466.073	404.31
466.293	397.31
466.512	412.31
466.732	393.31
466.951	388.31
467.171	404.31
467.391	383.31
467.61	402.31
467.829	433.31
468.049	428.31
468.268	396.31
468.488	384.31
468.707	398.31
468.927	397.31
469.146	375.31
469.365	389.31
469.585	388.31
469.804	399.31
470.023	431.31
470.243	400.31
470.462	418.31
470.681	418.31
470.901	412.31
471.12	399.31
471.339	391.31
471.558	388.31
471.777	410.31
471.997	383.31
472.216	383.31
472.435	438.31
472.654	403.31
472.873	406.31
473.092	386.31
473.311	397.31
473.53	386.31
473.749	390.31
473.968	419.31
474.187	474.31
474.406	478.31
474.625	403.31
474.844	398.31
475.063	376.31
475.282	384.31
475.501	402.31
475.72	397.31
475.939	399.31
476.158	418.31
476.377	422.31
476.596	390.31
476.814	398.31
477.033	411.31
477.252	417.31
477.471	415.31
477.69	433.31
477.908	420.31
478.127	450.31
478.346	438.31
478.564	426.31
478.783	450.31
479.002	459.31
479.22	482.31
479.439	471.31
479.658	450.31
479.876	483.31
480.095	484.31
480.313	492.31
480.532	511.31
480.751	490.31
480.969	495.31
481.188	521.31
481.406	548.31
481.624	505.31
481.843	458.31
482.061	455.31
482.28	464.31
482.498	451.31
482.717	450.31
482.935	442.31
483.153	445.31
483.372	441.31
483.59	441.31
483.808	450.31
484.027	456.31
484.245	453.31
484.463	440.31
484.681	459.31
484.9	474.31
485.118	485.31
485.336	457.31
485.554	475.31
485.772	464.31
485.99	459.31
486.209	471.31
486.427	484.31
486.645	483.31
486.863	472.31
487.081	469.31
487.299	476.31
487.517	505.31
487.735	479.31
487.953	471.31
488.171	491.31
488.389	476.31
488.607	494.31
488.825	483.31
489.043	468.31
489.261	489.31
489.479	498.31
489.696	500.31
489.914	476.31
490.132	496.31
490.35	503.31
490.568	510.31
490.786	524.31
491.003	534.31
491.221	530.31
491.439	565.31
491.657	542.31
491.874	542.31
492.092	534.31
492.31	548.31
492.527	568.31
492.745	556.31
492.963	558.31
493.18	581.31
493.398	550.31
493.615	591.31
493.833	555.31
494.05	572.31
494.268	580.31
494.485	566.31
494.703	564.31
494.92	543.31
495.138	547.31
495.355	559.31
495.573	552.31
495.79	584.31
496.008	557.31
496.225	567.31
496.442	576.31
496.66	569.31
496.877	593.31
497.094	567.31
497.312	566.31
497.529	584.31
497.746	599.31
497.963	604.31
498.181	617.31
498.398	634.31
498.615	676.31
498.832	686.31
499.049	702.31
499.267	710.31
499.484	787.31
499.701	827.31
499.918	859.31
500.135	916.31
500.352	981.31
500.569	995.31
500.786	1001.31
501.003	987.31
501.22	924.31
501.437	842.31
501.654	780.31
501.871	772.31
502.088	751.31
