Data from 1969.PennyLincolnUp.Lamp.En5.5.200Scan.071719.P1._HRD10591_14-55-53-976.txt Node
Date: Thu Jul 18 14:55:53 EDT 2019
User: cochatt
Spectrometer: HR+D1059
Trigger mode: 1
Integration Time (sec): 1.000000E-1
Scans to average: 1
Electric dark correction enabled: true
Nonlinearity correction enabled: false
Boxcar width: 0
XAxis mode: Wavelengths
Number of Pixels in Spectrum: 2048
>>>>>Begin Spectral Data<<<<<
223.165	-3.5
223.4	-3.5
223.635	-3.5
223.869	-18.5
224.104	-8.5
224.338	-24.5
224.573	-17.5
224.808	-14.5
225.042	-10.5
225.277	-12.5
225.511	-1.5
225.746	11.5
225.98	-2.5
226.215	-2.5
226.449	24.5
226.683	34.5
226.918	19.5
227.152	26.5
227.387	26.5
227.621	37.5
227.856	46.5
228.09	50.5
228.324	38.5
228.559	65.5
228.793	60.5
229.027	72.5
229.262	77.5
229.496	99.5
229.73	101.5
229.964	111.5
230.199	111.5
230.433	106.5
230.667	99.5
230.901	102.5
231.136	103.5
231.37	110.5
231.604	95.5
231.838	97.5
232.072	96.5
232.306	108.5
232.541	109.5
232.775	109.5
233.009	116.5
233.243	104.5
233.477	115.5
233.711	105.5
233.945	110.5
234.179	107.5
234.413	118.5
234.647	107.5
234.881	107.5
235.115	104.5
235.349	110.5
235.583	116.5
235.817	114.5
236.051	117.5
236.285	110.5
236.519	121.5
236.753	115.5
236.987	116.5
237.221	150.5
237.455	157.5
237.689	121.5
237.922	116.5
238.156	125.5
238.39	105.5
238.624	100.5
238.858	115.5
239.091	99.5
239.325	95.5
239.559	123.5
239.793	113.5
240.027	98.5
240.26	139.5
240.494	125.5
240.728	130.5
240.961	130.5
241.195	115.5
241.429	129.5
241.662	106.5
241.896	127.5
242.13	110.5
242.363	122.5
242.597	125.5
242.83	114.5
243.064	127.5
243.298	110.5
243.531	127.5
243.765	131.5
243.998	126.5
244.232	147.5
244.465	146.5
244.699	131.5
244.932	128.5
245.166	133.5
245.399	124.5
245.633	120.5
245.866	134.5
246.099	128.5
246.333	127.5
246.566	120.5
246.8	125.5
247.033	137.5
247.266	144.5
247.5	139.5
247.733	139.5
247.966	134.5
248.2	157.5
248.433	147.5
248.666	141.5
248.899	156.5
249.133	165.5
249.366	172.5
249.599	169.5
249.832	149.5
250.066	166.5
250.299	164.5
250.532	165.5
250.765	168.5
250.998	165.5
251.231	181.5
251.465	166.5
251.698	157.5
251.931	177.5
252.164	155.5
252.397	175.5
252.63	172.5
252.863	169.5
253.096	174.5
253.329	190.5
253.562	179.5
253.795	192.5
254.028	183.5
254.261	174.5
254.494	185.5
254.727	203.5
254.96	192.5
255.193	214.5
255.426	200.5
255.659	197.5
255.892	196.5
256.124	192.5
256.357	179.5
256.59	188.5
256.823	177.5
257.056	171.5
257.289	166.5
257.521	167.5
257.754	176.5
257.987	178.5
258.22	178.5
258.452	178.5
258.685	170.5
258.918	162.5
259.151	165.5
259.383	170.5
259.616	188.5
259.849	174.5
260.081	180.5
260.314	203.5
260.547	190.5
260.779	199.5
261.012	187.5
261.244	172.5
261.477	187.5
261.71	182.5
261.942	164.5
262.175	177.5
262.407	184.5
262.64	180.5
262.872	183.5
263.105	183.5
263.337	186.5
263.57	174.5
263.802	179.5
264.035	167.5
264.267	183.5
264.499	182.5
264.732	189.5
264.964	182.5
265.197	174.5
265.429	175.5
265.661	182.5
265.894	190.5
266.126	172.5
266.358	189.5
266.591	187.5
266.823	200.5
267.055	181.5
267.287	190.5
267.52	189.5
267.752	194.5
267.984	198.5
268.216	221.5
268.448	219.5
268.681	211.5
268.913	211.5
269.145	232.5
269.377	218.5
269.609	219.5
269.841	209.5
270.073	223.5
270.306	233.5
270.538	259.5
270.77	248.5
271.002	235.5
271.234	238.5
271.466	236.5
271.698	250.5
271.93	268.5
272.162	243.5
272.394	255.5
272.626	258.5
272.858	237.5
273.09	225.5
273.322	215.5
273.553	218.5
273.785	226.5
274.017	221.5
274.249	213.5
274.481	222.5
274.713	233.5
274.945	225.5
275.176	227.5
275.408	207.5
275.64	216.5
275.872	197.5
276.104	206.5
276.335	215.5
276.567	224.5
276.799	249.5
277.031	230.5
277.262	257.5
277.494	243.5
277.726	253.5
277.957	236.5
278.189	229.5
278.421	222.5
278.652	232.5
278.884	243.5
279.115	246.5
279.347	233.5
279.579	234.5
279.81	238.5
280.042	245.5
280.273	242.5
280.505	227.5
280.736	220.5
280.968	219.5
281.199	223.5
281.431	222.5
281.662	234.5
281.894	255.5
282.125	238.5
282.356	244.5
282.588	229.5
282.819	259.5
283.051	238.5
283.282	237.5
283.513	233.5
283.745	243.5
283.976	245.5
284.207	258.5
284.439	242.5
284.67	239.5
284.901	228.5
285.132	245.5
285.364	225.5
285.595	242.5
285.826	251.5
286.057	231.5
286.288	233.5
286.52	262.5
286.751	260.5
286.982	241.5
287.213	245.5
287.444	255.5
287.675	267.5
287.906	263.5
288.138	271.5
288.369	261.5
288.6	279.5
288.831	257.5
289.062	249.5
289.293	246.5
289.524	261.5
289.755	237.5
289.986	267.5
290.217	239.5
290.448	241.5
290.679	259.5
290.91	263.5
291.141	250.5
291.371	241.5
291.602	255.5
291.833	259.5
292.064	252.5
292.295	237.5
292.526	241.5
292.757	247.5
292.987	237.5
293.218	265.5
293.449	249.5
293.68	254.5
293.91	255.5
294.141	250.5
294.372	267.5
294.603	275.5
294.833	246.5
295.064	266.5
295.295	253.5
295.525	275.5
295.756	266.5
295.987	253.5
296.217	253.5
296.448	265.5
296.679	276.5
296.909	252.5
297.14	257.5
297.37	277.5
297.601	263.5
297.831	272.5
298.062	280.5
298.292	277.5
298.523	281.5
298.753	271.5
298.984	286.5
299.214	261.5
299.445	267.5
299.675	284.5
299.905	270.5
300.136	261.5
300.366	275.5
300.597	274.5
300.827	289.5
301.057	279.5
301.288	281.5
301.518	300.5
301.748	292.5
301.979	291.5
302.209	277.5
302.439	293.5
302.669	290.5
302.9	282.5
303.13	293.5
303.36	283.5
303.59	293.5
303.82	283.5
304.051	299.5
304.281	285.5
304.511	292.5
304.741	280.5
304.971	273.5
305.201	280.5
305.431	294.5
305.661	284.5
305.891	296.5
306.121	279.5
306.352	297.5
306.582	293.5
306.812	288.5
307.042	295.5
307.272	298.5
307.502	282.5
307.731	278.5
307.961	279.5
308.191	290.5
308.421	285.5
308.651	280.5
308.881	282.5
309.111	290.5
309.341	268.5
309.571	293.5
309.8	283.5
310.03	311.5
310.26	291.5
310.49	292.5
310.72	306.5
310.949	313.5
311.179	300.5
311.409	311.5
311.639	321.5
311.868	296.5
312.098	332.5
312.328	313.5
312.557	315.5
312.787	333.5
313.017	313.5
313.246	324.5
313.476	300.5
313.706	307.5
313.935	324.5
314.165	336.5
314.394	322.5
314.624	337.5
314.853	313.5
315.083	323.5
315.312	326.5
315.542	310.5
315.771	309.5
316.001	312.5
316.23	312.5
316.46	317.5
316.689	310.5
316.919	287.5
317.148	341.5
317.377	342.5
317.607	319.5
317.836	327.5
318.065	310.5
318.295	326.5
318.524	301.5
318.753	312.5
318.983	300.5
319.212	322.5
319.441	315.5
319.67	337.5
319.9	307.5
320.129	315.5
320.358	329.5
320.587	311.5
320.816	316.5
321.046	307.5
321.275	329.5
321.504	315.5
321.733	348.5
321.962	342.5
322.191	333.5
322.42	350.5
322.649	340.5
322.878	329.5
323.108	347.5
323.337	349.5
323.566	353.5
323.795	375.5
324.024	399.5
324.253	459.5
324.482	601.5
324.71	836.5
324.939	1150.5
325.168	951.5
325.397	546.5
325.626	429.5
325.855	368.5
326.084	360.5
326.313	361.5
326.542	366.5
326.77	407.5
326.999	457.5
327.228	583.5
327.457	761.5
327.686	868.5
327.914	609.5
328.143	473.5
328.372	421.5
328.6	408.5
328.829	392.5
329.058	410.5
329.287	414.5
329.515	404.5
329.744	386.5
329.972	386.5
330.201	412.5
330.43	425.5
330.658	417.5
330.887	431.5
331.115	418.5
331.344	387.5
331.572	374.5
331.801	372.5
332.03	374.5
332.258	378.5
332.486	378.5
332.715	399.5
332.943	409.5
333.172	399.5
333.4	391.5
333.629	408.5
333.857	412.5
334.085	411.5
334.314	415.5
334.542	451.5
334.771	455.5
334.999	403.5
335.227	378.5
335.455	385.5
335.684	389.5
335.912	389.5
336.14	376.5
336.369	385.5
336.597	377.5
336.825	379.5
337.053	377.5
337.281	364.5
337.51	353.5
337.738	359.5
337.966	366.5
338.194	380.5
338.422	379.5
338.65	369.5
338.878	381.5
339.106	357.5
339.334	351.5
339.562	346.5
339.79	344.5
340.018	380.5
340.246	343.5
340.474	358.5
340.702	358.5
340.93	346.5
341.158	354.5
341.386	353.5
341.614	346.5
341.842	333.5
342.07	365.5
342.298	355.5
342.526	349.5
342.754	347.5
342.981	328.5
343.209	344.5
343.437	357.5
343.665	366.5
343.893	376.5
344.12	371.5
344.348	367.5
344.576	376.5
344.804	367.5
345.031	361.5
345.259	361.5
345.487	355.5
345.714	342.5
345.942	339.5
346.17	350.5
346.397	352.5
346.625	345.5
346.853	341.5
347.08	352.5
347.308	342.5
347.535	344.5
347.763	342.5
347.99	359.5
348.218	350.5
348.445	332.5
348.673	339.5
348.9	353.5
349.128	344.5
349.355	332.5
349.583	329.5
349.81	317.5
350.037	327.5
350.265	330.5
350.492	311.5
350.72	311.5
350.947	314.5
351.174	324.5
351.402	331.5
351.629	329.5
351.856	343.5
352.083	343.5
352.311	338.5
352.538	337.5
352.765	338.5
352.992	318.5
353.22	322.5
353.447	323.5
353.674	337.5
353.901	323.5
354.128	335.5
354.355	324.5
354.583	334.5
354.81	332.5
355.037	340.5
355.264	325.5
355.491	305.5
355.718	314.5
355.945	335.5
356.172	312.5
356.399	310.5
356.626	314.5
356.853	323.5
357.08	321.5
357.307	314.5
357.534	305.5
357.761	307.5
357.988	317.5
358.215	323.5
358.441	326.5
358.668	312.5
358.895	340.5
359.122	334.5
359.349	310.5
359.576	341.5
359.802	336.5
360.029	339.5
360.256	338.5
360.483	348.5
360.709	334.5
360.936	333.5
361.163	337.5
361.39	324.5
361.616	335.5
361.843	321.5
362.07	335.5
362.296	338.5
362.523	338.5
362.749	327.5
362.976	302.5
363.203	313.5
363.429	332.5
363.656	324.5
363.882	314.5
364.109	321.5
364.335	317.5
364.562	307.5
364.788	321.5
365.015	316.5
365.241	322.5
365.468	320.5
365.694	343.5
365.92	350.5
366.147	335.5
366.373	329.5
366.599	317.5
366.826	316.5
367.052	308.5
367.278	316.5
367.505	310.5
367.731	321.5
367.957	310.5
368.184	332.5
368.41	334.5
368.636	327.5
368.862	325.5
369.089	319.5
369.315	324.5
369.541	318.5
369.767	338.5
369.993	311.5
370.219	318.5
370.445	335.5
370.672	349.5
370.898	326.5
371.124	328.5
371.35	322.5
371.576	328.5
371.802	308.5
372.028	339.5
372.254	351.5
372.48	318.5
372.706	338.5
372.932	335.5
373.158	340.5
373.384	347.5
373.61	339.5
373.835	322.5
374.061	312.5
374.287	329.5
374.513	325.5
374.739	336.5
374.965	354.5
375.191	361.5
375.416	353.5
375.642	335.5
375.868	336.5
376.094	318.5
376.319	335.5
376.545	349.5
376.771	325.5
376.997	326.5
377.222	330.5
377.448	337.5
377.674	323.5
377.899	345.5
378.125	321.5
378.35	326.5
378.576	329.5
378.802	306.5
379.027	323.5
379.253	329.5
379.478	335.5
379.704	320.5
379.929	319.5
380.155	318.5
380.38	338.5
380.606	338.5
380.831	331.5
381.057	346.5
381.282	345.5
381.507	322.5
381.733	330.5
381.958	344.5
382.184	333.5
382.409	343.5
382.634	353.5
382.86	341.5
383.085	343.5
383.31	360.5
383.535	333.5
383.761	340.5
383.986	343.5
384.211	343.5
384.436	370.5
384.662	347.5
384.887	350.5
385.112	359.5
385.337	360.5
385.562	363.5
385.787	374.5
386.013	381.5
386.238	382.5
386.463	378.5
386.688	365.5
386.913	372.5
387.138	368.5
387.363	359.5
387.588	330.5
387.813	354.5
388.038	367.5
388.263	364.5
388.488	353.5
388.713	367.5
388.938	351.5
389.163	349.5
389.387	371.5
389.612	355.5
389.837	353.5
390.062	354.5
390.287	376.5
390.512	351.5
390.736	371.5
390.961	370.5
391.186	376.5
391.411	364.5
391.636	375.5
391.86	395.5
392.085	395.5
392.31	371.5
392.534	387.5
392.759	388.5
392.984	385.5
393.208	372.5
393.433	387.5
393.658	385.5
393.882	375.5
394.107	369.5
394.331	372.5
394.556	366.5
394.78	369.5
395.005	364.5
395.229	391.5
395.454	392.5
395.678	391.5
395.903	406.5
396.127	403.5
396.352	401.5
396.576	372.5
396.801	380.5
397.025	365.5
397.249	381.5
397.474	390.5
397.698	394.5
397.922	401.5
398.147	397.5
398.371	422.5
398.595	418.5
398.82	413.5
399.044	440.5
399.268	488.5
399.492	504.5
399.717	565.5
399.941	549.5
400.165	514.5
400.389	532.5
400.613	477.5
400.837	453.5
401.062	425.5
401.286	449.5
401.51	410.5
401.734	433.5
401.958	442.5
402.182	428.5
402.406	457.5
402.63	433.5
402.854	444.5
403.078	429.5
403.302	468.5
403.526	463.5
403.75	470.5
403.974	438.5
404.198	451.5
404.422	479.5
404.645	469.5
404.869	462.5
405.093	475.5
405.317	511.5
405.541	519.5
405.765	484.5
405.988	465.5
406.212	471.5
406.436	490.5
406.66	486.5
406.883	488.5
407.107	512.5
407.331	530.5
407.555	570.5
407.778	564.5
408.002	538.5
408.226	499.5
408.449	492.5
408.673	483.5
408.896	483.5
409.12	481.5
409.344	491.5
409.567	459.5
409.791	443.5
410.014	441.5
410.238	429.5
410.461	446.5
410.685	481.5
410.908	451.5
411.132	457.5
411.355	482.5
411.578	473.5
411.802	440.5
412.025	438.5
412.249	433.5
412.472	461.5
412.695	488.5
412.919	468.5
413.142	458.5
413.365	443.5
413.589	442.5
413.812	436.5
414.035	427.5
414.258	413.5
414.482	422.5
414.705	435.5
414.928	432.5
415.151	437.5
415.374	436.5
415.597	409.5
415.821	411.5
416.044	406.5
416.267	421.5
416.49	425.5
416.713	391.5
416.936	406.5
417.159	426.5
417.382	441.5
417.605	435.5
417.828	435.5
418.051	413.5
418.274	428.5
418.497	436.5
418.72	421.5
418.943	407.5
419.166	436.5
419.389	458.5
419.611	443.5
419.834	458.5
420.057	459.5
420.28	436.5
420.503	417.5
420.726	445.5
420.948	456.5
421.171	443.5
421.394	463.5
421.617	430.5
421.839	436.5
422.062	428.5
422.285	453.5
422.507	471.5
422.73	503.5
422.953	489.5
423.175	464.5
423.398	466.5
423.621	442.5
423.843	479.5
424.066	443.5
424.288	477.5
424.511	462.5
424.733	504.5
424.956	521.5
425.178	509.5
425.401	492.5
425.623	521.5
425.846	470.5
426.068	453.5
426.291	433.5
426.513	434.5
426.735	443.5
426.958	464.5
427.18	515.5
427.402	560.5
427.625	606.5
427.847	538.5
428.069	482.5
428.292	430.5
428.514	418.5
428.736	416.5
428.958	416.5
429.181	384.5
429.403	403.5
429.625	412.5
429.847	423.5
430.069	461.5
430.292	447.5
430.514	410.5
430.736	413.5
430.958	409.5
431.18	406.5
431.402	392.5
431.624	391.5
431.846	411.5
432.068	389.5
432.29	393.5
432.512	399.5
432.734	389.5
432.956	416.5
433.178	400.5
433.4	401.5
433.622	411.5
433.844	395.5
434.066	414.5
434.287	401.5
434.509	395.5
434.731	407.5
434.953	426.5
435.175	447.5
435.397	427.5
435.618	443.5
435.84	475.5
436.062	495.5
436.284	533.5
436.505	451.5
436.727	435.5
436.949	434.5
437.17	420.5
437.392	421.5
437.614	410.5
437.835	425.5
438.057	486.5
438.278	534.5
438.5	524.5
438.721	556.5
438.943	550.5
439.165	459.5
439.386	427.5
439.608	416.5
439.829	427.5
440.05	434.5
440.272	471.5
440.493	444.5
440.715	422.5
440.936	385.5
441.158	444.5
441.379	393.5
441.6	433.5
441.822	440.5
442.043	450.5
442.264	518.5
442.486	515.5
442.707	473.5
442.928	445.5
443.149	452.5
443.371	451.5
443.592	485.5
443.813	551.5
444.034	562.5
444.255	503.5
444.476	470.5
444.698	490.5
444.919	476.5
445.14	604.5
445.361	536.5
445.582	477.5
445.803	507.5
446.024	547.5
446.245	559.5
446.466	514.5
446.687	447.5
446.908	450.5
447.129	435.5
447.35	418.5
447.571	387.5
447.792	398.5
448.013	377.5
448.234	409.5
448.455	433.5
448.675	493.5
448.896	556.5
449.117	479.5
449.338	464.5
449.559	517.5
449.779	575.5
450	462.5
450.221	409.5
450.442	403.5
450.662	406.5
450.883	383.5
451.104	385.5
451.324	415.5
451.545	384.5
451.766	378.5
451.986	361.5
452.207	359.5
452.428	362.5
452.648	357.5
452.869	353.5
453.089	349.5
453.31	378.5
453.53	372.5
453.751	347.5
453.971	362.5
454.192	387.5
454.412	365.5
454.633	356.5
454.853	353.5
455.073	355.5
455.294	379.5
455.514	397.5
455.734	401.5
455.955	331.5
456.175	335.5
456.395	327.5
456.616	348.5
456.836	327.5
457.056	357.5
457.276	330.5
457.497	347.5
457.717	341.5
457.937	368.5
458.157	368.5
458.377	367.5
458.598	369.5
458.818	394.5
459.038	452.5
459.258	458.5
459.478	411.5
459.698	413.5
459.918	421.5
460.138	422.5
460.358	427.5
460.578	425.5
460.798	423.5
461.018	432.5
461.238	406.5
461.458	446.5
461.678	426.5
461.898	443.5
462.118	432.5
462.338	426.5
462.558	447.5
462.777	468.5
462.997	468.5
463.217	500.5
463.437	500.5
463.657	454.5
463.876	455.5
464.096	470.5
464.316	446.5
464.536	456.5
464.755	465.5
464.975	458.5
465.195	456.5
465.414	475.5
465.634	441.5
465.854	414.5
466.073	407.5
466.293	389.5
466.512	409.5
466.732	384.5
466.951	359.5
467.171	387.5
467.391	395.5
467.61	385.5
467.829	383.5
468.049	395.5
468.268	391.5
468.488	374.5
468.707	383.5
468.927	383.5
469.146	362.5
469.365	389.5
469.585	370.5
469.804	384.5
470.023	392.5
470.243	396.5
470.462	412.5
470.681	390.5
470.901	403.5
471.12	374.5
471.339	387.5
471.558	395.5
471.777	383.5
471.997	391.5
472.216	390.5
472.435	405.5
472.654	387.5
472.873	369.5
473.092	389.5
473.311	379.5
473.53	379.5
473.749	379.5
473.968	390.5
474.187	466.5
474.406	449.5
474.625	419.5
474.844	397.5
475.063	371.5
475.282	384.5
475.501	374.5
475.72	387.5
475.939	404.5
476.158	368.5
476.377	387.5
476.596	379.5
476.814	394.5
477.033	399.5
477.252	390.5
477.471	399.5
477.69	420.5
477.908	416.5
478.127	435.5
478.346	420.5
478.564	453.5
478.783	419.5
479.002	457.5
479.22	446.5
479.439	456.5
479.658	456.5
479.876	467.5
480.095	464.5
480.313	478.5
480.532	473.5
480.751	472.5
480.969	481.5
481.188	520.5
481.406	520.5
481.624	460.5
481.843	444.5
482.061	449.5
482.28	422.5
482.498	450.5
482.717	426.5
482.935	433.5
483.153	433.5
483.372	451.5
483.59	436.5
483.808	419.5
484.027	451.5
484.245	444.5
484.463	443.5
484.681	439.5
484.9	447.5
485.118	441.5
485.336	439.5
485.554	461.5
485.772	440.5
485.99	473.5
486.209	471.5
486.427	459.5
486.645	465.5
486.863	487.5
487.081	476.5
487.299	455.5
487.517	454.5
487.735	450.5
487.953	462.5
488.171	449.5
488.389	461.5
488.607	466.5
488.825	457.5
489.043	455.5
489.261	461.5
489.479	470.5
489.696	471.5
489.914	465.5
490.132	476.5
490.35	505.5
490.568	503.5
490.786	495.5
491.003	505.5
491.221	507.5
491.439	526.5
491.657	499.5
491.874	521.5
492.092	523.5
492.31	537.5
492.527	543.5
492.745	513.5
492.963	548.5
493.18	545.5
493.398	541.5
493.615	566.5
493.833	530.5
494.05	541.5
494.268	537.5
494.485	562.5
494.703	543.5
494.92	561.5
495.138	553.5
495.355	545.5
495.573	550.5
495.79	542.5
496.008	534.5
496.225	546.5
496.442	538.5
496.66	555.5
496.877	553.5
497.094	558.5
497.312	553.5
497.529	568.5
497.746	590.5
497.963	577.5
498.181	589.5
498.398	601.5
498.615	634.5
498.832	643.5
499.049	661.5
499.267	701.5
499.484	757.5
499.701	798.5
499.918	828.5
500.135	894.5
500.352	925.5
500.569	970.5
500.786	959.5
501.003	940.5
501.22	877.5
501.437	839.5
501.654	797.5
501.871	775.5
502.088	693.5
502.305	681.5
502.522	649.5
502.739	630.5
502.956	597.5
503.172	587.5
503.389	593.5
503.606	580.5
503.823	581.5
504.04	566.5
504.256	565.5
504.473	577.5
504.69	561.5
504.907	574.5
505.123	565.5
505.34	528.5
505.557	519.5
505.773	515.5
505.99	511.5
506.207	524.5
506.423	515.5
506.64	517.5
506.856	497.5
507.073	488.5
507.289	504.5
507.506	477.5
507.722	497.5
507.939	474.5
508.155	489.5
508.372	487.5
508.588	483.5
508.805	469.5
509.021	482.5
509.238	499.5
509.454	497.5
509.67	490.5
509.887	482.5
510.103	460.5
510.319	456.5
510.536	511.5
510.752	721.5
510.968	623.5
511.184	458.5
511.401	459.5
511.617	449.5
511.833	453.5
512.049	436.5
512.265	451.5
512.481	438.5
512.698	426.5
512.914	450.5
513.13	471.5
513.346	452.5
513.562	426.5
513.778	437.5
513.994	418.5
514.21	443.5
514.426	461.5
514.642	450.5
514.858	466.5
515.074	486.5
515.29	539.5
515.506	749.5
515.721	651.5
515.937	495.5
516.153	473.5
516.369	469.5
516.585	475.5
516.801	479.5
517.016	493.5
517.232	497.5
517.448	481.5
517.664	515.5
517.879	509.5
518.095	481.5
518.311	491.5
518.527	507.5
518.742	482.5
518.958	474.5
519.173	461.5
519.389	473.5
519.605	447.5
519.82	468.5
520.036	434.5
