Data from 1969.PennyLincolnUp.Lamp.En5.5.200Scan.071719.P1._HRD10591_14-56-29-972.txt Node
Date: Thu Jul 18 14:56:29 EDT 2019
User: cochatt
Spectrometer: HR+D1059
Trigger mode: 1
Integration Time (sec): 1.000000E-1
Scans to average: 1
Electric dark correction enabled: true
Nonlinearity correction enabled: false
Boxcar width: 0
XAxis mode: Wavelengths
Number of Pixels in Spectrum: 2048
>>>>>Begin Spectral Data<<<<<
223.165	-20.19
223.4	-20.19
223.635	-20.19
223.869	-28.19
224.104	-10.19
224.338	-12.19
224.573	-13.19
224.808	-25.19
225.042	-13.19
225.277	3.81
225.511	2.81
225.746	6.81
225.98	7.81
226.215	16.81
226.449	14.81
226.683	20.81
226.918	26.81
227.152	21.81
227.387	35.81
227.621	31.81
227.856	38.81
228.09	49.81
228.324	48.81
228.559	45.81
228.793	64.81
229.027	83.81
229.262	84.81
229.496	89.81
229.73	101.81
229.964	108.81
230.199	81.81
230.433	106.81
230.667	97.81
230.901	90.81
231.136	108.81
231.37	92.81
231.604	110.81
231.838	109.81
232.072	101.81
232.306	114.81
232.541	103.81
232.775	89.81
233.009	99.81
233.243	96.81
233.477	100.81
233.711	128.81
233.945	126.81
234.179	102.81
234.413	91.81
234.647	103.81
234.881	124.81
235.115	106.81
235.349	115.81
235.583	101.81
235.817	114.81
236.051	117.81
236.285	114.81
236.519	102.81
236.753	114.81
236.987	115.81
237.221	147.81
237.455	172.81
237.689	147.81
237.922	114.81
238.156	109.81
238.39	114.81
238.624	108.81
238.858	119.81
239.091	112.81
239.325	115.81
239.559	110.81
239.793	114.81
240.027	112.81
240.26	123.81
240.494	139.81
240.728	138.81
240.961	148.81
241.195	115.81
241.429	130.81
241.662	134.81
241.896	116.81
242.13	124.81
242.363	128.81
242.597	117.81
242.83	132.81
243.064	119.81
243.298	110.81
243.531	121.81
243.765	124.81
243.998	131.81
244.232	118.81
244.465	122.81
244.699	121.81
244.932	130.81
245.166	137.81
245.399	130.81
245.633	130.81
245.866	131.81
246.099	146.81
246.333	125.81
246.566	133.81
246.8	132.81
247.033	130.81
247.266	130.81
247.5	133.81
247.733	137.81
247.966	144.81
248.2	142.81
248.433	151.81
248.666	130.81
248.899	164.81
249.133	157.81
249.366	153.81
249.599	170.81
249.832	162.81
250.066	155.81
250.299	143.81
250.532	165.81
250.765	185.81
250.998	196.81
251.231	179.81
251.465	164.81
251.698	192.81
251.931	162.81
252.164	161.81
252.397	165.81
252.63	166.81
252.863	177.81
253.096	178.81
253.329	188.81
253.562	180.81
253.795	180.81
254.028	181.81
254.261	173.81
254.494	182.81
254.727	200.81
254.96	213.81
255.193	203.81
255.426	200.81
255.659	178.81
255.892	176.81
256.124	191.81
256.357	191.81
256.59	188.81
256.823	171.81
257.056	185.81
257.289	166.81
257.521	178.81
257.754	186.81
257.987	183.81
258.22	180.81
258.452	172.81
258.685	162.81
258.918	179.81
259.151	170.81
259.383	172.81
259.616	197.81
259.849	180.81
260.081	189.81
260.314	203.81
260.547	214.81
260.779	210.81
261.012	182.81
261.244	186.81
261.477	189.81
261.71	179.81
261.942	181.81
262.175	211.81
262.407	172.81
262.64	178.81
262.872	194.81
263.105	169.81
263.337	179.81
263.57	173.81
263.802	183.81
264.035	178.81
264.267	196.81
264.499	180.81
264.732	182.81
264.964	202.81
265.197	196.81
265.429	182.81
265.661	173.81
265.894	189.81
266.126	190.81
266.358	186.81
266.591	204.81
266.823	184.81
267.055	191.81
267.287	202.81
267.52	192.81
267.752	204.81
267.984	179.81
268.216	208.81
268.448	219.81
268.681	197.81
268.913	207.81
269.145	223.81
269.377	226.81
269.609	212.81
269.841	229.81
270.073	230.81
270.306	224.81
270.538	260.81
270.77	236.81
271.002	248.81
271.234	243.81
271.466	242.81
271.698	236.81
271.93	247.81
272.162	263.81
272.394	275.81
272.626	234.81
272.858	227.81
273.09	236.81
273.322	214.81
273.553	221.81
273.785	203.81
274.017	226.81
274.249	228.81
274.481	229.81
274.713	225.81
274.945	233.81
275.176	242.81
275.408	233.81
275.64	220.81
275.872	222.81
276.104	222.81
276.335	232.81
276.567	220.81
276.799	243.81
277.031	260.81
277.262	266.81
277.494	269.81
277.726	250.81
277.957	238.81
278.189	240.81
278.421	240.81
278.652	224.81
278.884	241.81
279.115	212.81
279.347	227.81
279.579	238.81
279.81	221.81
280.042	232.81
280.273	249.81
280.505	224.81
280.736	230.81
280.968	226.81
281.199	231.81
281.431	232.81
281.662	231.81
281.894	258.81
282.125	233.81
282.356	242.81
282.588	248.81
282.819	260.81
283.051	244.81
283.282	242.81
283.513	237.81
283.745	253.81
283.976	254.81
284.207	234.81
284.439	254.81
284.67	237.81
284.901	234.81
285.132	246.81
285.364	248.81
285.595	249.81
285.826	249.81
286.057	257.81
286.288	252.81
286.52	256.81
286.751	233.81
286.982	246.81
287.213	244.81
287.444	275.81
287.675	256.81
287.906	270.81
288.138	276.81
288.369	287.81
288.6	278.81
288.831	275.81
289.062	257.81
289.293	253.81
289.524	270.81
289.755	263.81
289.986	266.81
290.217	270.81
290.448	256.81
290.679	248.81
290.91	266.81
291.141	257.81
291.371	264.81
291.602	265.81
291.833	251.81
292.064	271.81
292.295	285.81
292.526	249.81
292.757	252.81
292.987	272.81
293.218	266.81
293.449	268.81
293.68	248.81
293.91	274.81
294.141	298.81
294.372	249.81
294.603	278.81
294.833	260.81
295.064	258.81
295.295	262.81
295.525	262.81
295.756	262.81
295.987	257.81
296.217	280.81
296.448	285.81
296.679	264.81
296.909	268.81
297.14	284.81
297.37	261.81
297.601	274.81
297.831	284.81
298.062	270.81
298.292	271.81
298.523	258.81
298.753	261.81
298.984	263.81
299.214	262.81
299.445	265.81
299.675	279.81
299.905	289.81
300.136	289.81
300.366	288.81
300.597	271.81
300.827	273.81
301.057	297.81
301.288	306.81
301.518	304.81
301.748	300.81
301.979	282.81
302.209	293.81
302.439	285.81
302.669	292.81
302.9	292.81
303.13	300.81
303.36	299.81
303.59	308.81
303.82	289.81
304.051	308.81
304.281	295.81
304.511	288.81
304.741	278.81
304.971	278.81
305.201	273.81
305.431	278.81
305.661	294.81
305.891	294.81
306.121	316.81
306.352	287.81
306.582	299.81
306.812	300.81
307.042	296.81
307.272	289.81
307.502	293.81
307.731	308.81
307.961	290.81
308.191	299.81
308.421	314.81
308.651	298.81
308.881	277.81
309.111	267.81
309.341	304.81
309.571	296.81
309.8	308.81
310.03	312.81
310.26	313.81
310.49	312.81
310.72	314.81
310.949	316.81
311.179	338.81
311.409	336.81
311.639	317.81
311.868	317.81
312.098	323.81
312.328	316.81
312.557	331.81
312.787	350.81
313.017	338.81
313.246	314.81
313.476	326.81
313.706	322.81
313.935	317.81
314.165	318.81
314.394	317.81
314.624	344.81
314.853	311.81
315.083	302.81
315.312	324.81
315.542	320.81
315.771	321.81
316.001	322.81
316.23	321.81
316.46	320.81
316.689	322.81
316.919	317.81
317.148	334.81
317.377	333.81
317.607	338.81
317.836	310.81
318.065	309.81
318.295	314.81
318.524	326.81
318.753	333.81
318.983	319.81
319.212	308.81
319.441	332.81
319.67	328.81
319.9	313.81
320.129	308.81
320.358	305.81
320.587	326.81
320.816	337.81
321.046	324.81
321.275	338.81
321.504	338.81
321.733	326.81
321.962	328.81
322.191	353.81
322.42	343.81
322.649	356.81
322.878	360.81
323.108	370.81
323.337	371.81
323.566	377.81
323.795	392.81
324.024	423.81
324.253	486.81
324.482	620.81
324.71	896.81
324.939	1186.81
325.168	971.81
325.397	560.81
325.626	429.81
325.855	404.81
326.084	364.81
326.313	385.81
326.542	390.81
326.77	407.81
326.999	469.81
327.228	606.81
327.457	775.81
327.686	921.81
327.914	657.81
328.143	474.81
328.372	426.81
328.6	420.81
328.829	412.81
329.058	429.81
329.287	406.81
329.515	421.81
329.744	411.81
329.972	418.81
330.201	402.81
330.43	439.81
330.658	453.81
330.887	477.81
331.115	441.81
331.344	396.81
331.572	391.81
331.801	410.81
332.03	398.81
332.258	408.81
332.486	410.81
332.715	376.81
332.943	380.81
333.172	402.81
333.4	411.81
333.629	415.81
333.857	442.81
334.085	423.81
334.314	446.81
334.542	456.81
334.771	444.81
334.999	428.81
335.227	408.81
335.455	417.81
335.684	398.81
335.912	392.81
336.14	391.81
336.369	391.81
336.597	395.81
336.825	390.81
337.053	401.81
337.281	384.81
337.51	388.81
337.738	374.81
337.966	373.81
338.194	360.81
338.422	364.81
338.65	374.81
338.878	376.81
339.106	383.81
339.334	354.81
339.562	349.81
339.79	354.81
340.018	354.81
340.246	356.81
340.474	368.81
340.702	358.81
340.93	344.81
341.158	378.81
341.386	342.81
341.614	372.81
341.842	337.81
342.07	356.81
342.298	352.81
342.526	340.81
342.754	352.81
342.981	372.81
343.209	340.81
343.437	346.81
343.665	372.81
343.893	376.81
344.12	418.81
344.348	379.81
344.576	355.81
344.804	386.81
345.031	366.81
345.259	372.81
345.487	365.81
345.714	360.81
345.942	324.81
346.17	326.81
346.397	333.81
346.625	325.81
346.853	345.81
347.08	354.81
347.308	353.81
347.535	360.81
347.763	338.81
347.99	349.81
348.218	348.81
348.445	357.81
348.673	353.81
348.9	349.81
349.128	345.81
349.355	332.81
349.583	346.81
349.81	357.81
350.037	332.81
350.265	327.81
350.492	313.81
350.72	348.81
350.947	347.81
351.174	332.81
351.402	343.81
351.629	344.81
351.856	352.81
352.083	353.81
352.311	331.81
352.538	329.81
352.765	345.81
352.992	332.81
353.22	347.81
353.447	332.81
353.674	324.81
353.901	328.81
354.128	320.81
354.355	326.81
354.583	314.81
354.81	332.81
355.037	321.81
355.264	320.81
355.491	331.81
355.718	328.81
355.945	317.81
356.172	313.81
356.399	325.81
356.626	318.81
356.853	324.81
357.08	320.81
357.307	331.81
357.534	333.81
357.761	333.81
357.988	317.81
358.215	321.81
358.441	330.81
358.668	319.81
358.895	333.81
359.122	309.81
359.349	333.81
359.576	342.81
359.802	338.81
360.029	372.81
360.256	371.81
360.483	341.81
360.709	330.81
360.936	339.81
361.163	338.81
361.39	340.81
361.616	342.81
361.843	347.81
362.07	340.81
362.296	332.81
362.523	352.81
362.749	352.81
362.976	353.81
363.203	349.81
363.429	321.81
363.656	344.81
363.882	327.81
364.109	324.81
364.335	328.81
364.562	324.81
364.788	331.81
365.015	326.81
365.241	342.81
365.468	324.81
365.694	330.81
365.92	344.81
366.147	333.81
366.373	323.81
366.599	342.81
366.826	326.81
367.052	334.81
367.278	331.81
367.505	326.81
367.731	339.81
367.957	358.81
368.184	339.81
368.41	323.81
368.636	337.81
368.862	361.81
369.089	346.81
369.315	322.81
369.541	336.81
369.767	348.81
369.993	323.81
370.219	340.81
370.445	346.81
370.672	322.81
370.898	332.81
371.124	340.81
371.35	332.81
371.576	349.81
371.802	338.81
372.028	331.81
372.254	331.81
372.48	341.81
372.706	357.81
372.932	346.81
373.158	357.81
373.384	351.81
373.61	342.81
373.835	343.81
374.061	345.81
374.287	324.81
374.513	323.81
374.739	353.81
374.965	354.81
375.191	364.81
375.416	352.81
375.642	331.81
375.868	348.81
376.094	340.81
376.319	346.81
376.545	348.81
376.771	335.81
376.997	344.81
377.222	329.81
377.448	336.81
377.674	314.81
377.899	317.81
378.125	327.81
378.35	317.81
378.576	329.81
378.802	322.81
379.027	327.81
379.253	354.81
379.478	341.81
379.704	329.81
379.929	321.81
380.155	334.81
380.38	346.81
380.606	345.81
380.831	331.81
381.057	340.81
381.282	342.81
381.507	340.81
381.733	330.81
381.958	334.81
382.184	337.81
382.409	335.81
382.634	337.81
382.86	339.81
383.085	337.81
383.31	357.81
383.535	365.81
383.761	352.81
383.986	357.81
384.211	348.81
384.436	368.81
384.662	343.81
384.887	370.81
385.112	372.81
385.337	363.81
385.562	365.81
385.787	364.81
386.013	377.81
386.238	372.81
386.463	397.81
386.688	384.81
386.913	373.81
387.138	350.81
387.363	363.81
387.588	356.81
387.813	366.81
388.038	384.81
388.263	350.81
388.488	358.81
388.713	368.81
388.938	354.81
389.163	351.81
389.387	392.81
389.612	344.81
389.837	378.81
390.062	381.81
390.287	369.81
390.512	344.81
390.736	355.81
390.961	360.81
391.186	372.81
391.411	390.81
391.636	393.81
391.86	396.81
392.085	406.81
392.31	406.81
392.534	389.81
392.759	386.81
392.984	359.81
393.208	396.81
393.433	379.81
393.658	384.81
393.882	371.81
394.107	374.81
394.331	375.81
394.556	388.81
394.78	387.81
395.005	397.81
395.229	354.81
395.454	378.81
395.678	419.81
395.903	405.81
396.127	416.81
396.352	412.81
396.576	376.81
396.801	387.81
397.025	384.81
397.249	396.81
397.474	396.81
397.698	396.81
397.922	419.81
398.147	419.81
398.371	411.81
398.595	421.81
398.82	438.81
399.044	457.81
399.268	475.81
399.492	533.81
399.717	545.81
399.941	566.81
400.165	541.81
400.389	531.81
400.613	477.81
400.837	464.81
401.062	443.81
401.286	449.81
401.51	446.81
401.734	444.81
401.958	423.81
402.182	433.81
402.406	456.81
402.63	470.81
402.854	441.81
403.078	457.81
403.302	459.81
403.526	473.81
403.75	467.81
403.974	455.81
404.198	476.81
404.422	468.81
404.645	477.81
404.869	485.81
405.093	494.81
405.317	496.81
405.541	516.81
405.765	493.81
405.988	467.81
406.212	476.81
406.436	478.81
406.66	492.81
406.883	504.81
407.107	523.81
407.331	557.81
407.555	581.81
407.778	572.81
408.002	514.81
408.226	492.81
408.449	515.81
408.673	494.81
408.896	522.81
409.12	514.81
409.344	510.81
409.567	478.81
409.791	458.81
410.014	460.81
410.238	458.81
410.461	458.81
410.685	450.81
410.908	464.81
411.132	477.81
411.355	507.81
411.578	501.81
411.802	455.81
412.025	445.81
412.249	463.81
412.472	468.81
412.695	498.81
412.919	463.81
413.142	444.81
413.365	451.81
413.589	436.81
413.812	426.81
414.035	440.81
414.258	434.81
414.482	427.81
414.705	414.81
414.928	438.81
415.151	438.81
415.374	445.81
415.597	422.81
415.821	414.81
416.044	423.81
416.267	438.81
416.49	428.81
416.713	417.81
416.936	400.81
417.159	410.81
417.382	395.81
417.605	427.81
417.828	442.81
418.051	464.81
418.274	441.81
418.497	428.81
418.72	438.81
418.943	442.81
419.166	454.81
419.389	461.81
419.611	444.81
419.834	440.81
420.057	459.81
420.28	446.81
420.503	442.81
420.726	440.81
420.948	429.81
421.171	473.81
421.394	478.81
421.617	440.81
421.839	448.81
422.062	452.81
422.285	461.81
422.507	470.81
422.73	511.81
422.953	499.81
423.175	457.81
423.398	450.81
423.621	467.81
423.843	484.81
424.066	488.81
424.288	455.81
424.511	485.81
424.733	518.81
424.956	538.81
425.178	525.81
425.401	521.81
425.623	539.81
425.846	478.81
426.068	448.81
426.291	438.81
426.513	454.81
426.735	452.81
426.958	474.81
427.18	521.81
427.402	586.81
427.625	593.81
427.847	548.81
428.069	489.81
428.292	467.81
428.514	406.81
428.736	430.81
428.958	420.81
429.181	427.81
429.403	419.81
429.625	414.81
429.847	433.81
430.069	482.81
430.292	477.81
430.514	418.81
430.736	408.81
430.958	421.81
431.18	418.81
431.402	400.81
431.624	380.81
431.846	376.81
432.068	390.81
432.29	386.81
432.512	394.81
432.734	415.81
432.956	415.81
433.178	407.81
433.4	403.81
433.622	411.81
433.844	422.81
434.066	408.81
434.287	398.81
434.509	427.81
434.731	432.81
434.953	431.81
435.175	459.81
435.397	455.81
435.618	458.81
435.84	467.81
436.062	540.81
436.284	536.81
436.505	468.81
436.727	436.81
436.949	429.81
437.17	411.81
437.392	421.81
437.614	412.81
437.835	439.81
438.057	500.81
438.278	546.81
438.5	544.81
438.721	586.81
438.943	570.81
439.165	464.81
439.386	434.81
439.608	465.81
439.829	448.81
440.05	466.81
440.272	456.81
440.493	448.81
440.715	447.81
440.936	441.81
441.158	412.81
441.379	417.81
441.6	434.81
441.822	483.81
442.043	477.81
442.264	517.81
442.486	541.81
442.707	485.81
442.928	470.81
443.149	474.81
443.371	499.81
443.592	492.81
443.813	533.81
444.034	594.81
444.255	506.81
444.476	492.81
444.698	508.81
444.919	505.81
445.14	570.81
445.361	525.81
445.582	473.81
445.803	528.81
446.024	549.81
446.245	576.81
446.466	526.81
446.687	439.81
446.908	449.81
447.129	428.81
447.35	406.81
447.571	401.81
447.792	401.81
448.013	395.81
448.234	433.81
448.455	446.81
448.675	500.81
448.896	570.81
449.117	492.81
449.338	464.81
449.559	539.81
449.779	591.81
450	482.81
450.221	436.81
450.442	413.81
450.662	388.81
450.883	402.81
451.104	413.81
451.324	402.81
451.545	401.81
451.766	378.81
451.986	354.81
452.207	368.81
452.428	383.81
452.648	379.81
452.869	373.81
453.089	379.81
453.31	384.81
453.53	381.81
453.751	384.81
453.971	372.81
454.192	366.81
454.412	386.81
454.633	372.81
454.853	364.81
455.073	373.81
455.294	376.81
455.514	405.81
455.734	390.81
455.955	364.81
456.175	356.81
456.395	368.81
456.616	343.81
456.836	350.81
457.056	364.81
457.276	342.81
457.497	374.81
457.717	354.81
457.937	377.81
458.157	356.81
458.377	367.81
458.598	392.81
458.818	409.81
459.038	472.81
459.258	477.81
459.478	426.81
459.698	407.81
459.918	404.81
460.138	424.81
460.358	434.81
460.578	406.81
460.798	423.81
461.018	441.81
461.238	438.81
461.458	412.81
461.678	415.81
461.898	412.81
462.118	416.81
462.338	458.81
462.558	468.81
462.777	460.81
462.997	481.81
463.217	510.81
463.437	516.81
463.657	497.81
463.876	476.81
464.096	456.81
464.316	456.81
464.536	477.81
464.755	482.81
464.975	483.81
465.195	481.81
465.414	491.81
465.634	462.81
465.854	408.81
466.073	412.81
466.293	407.81
466.512	397.81
466.732	388.81
466.951	397.81
467.171	400.81
467.391	415.81
467.61	399.81
467.829	394.81
468.049	386.81
468.268	386.81
468.488	371.81
468.707	390.81
468.927	384.81
469.146	381.81
469.365	382.81
469.585	394.81
469.804	396.81
470.023	388.81
470.243	400.81
470.462	434.81
470.681	423.81
470.901	394.81
471.12	403.81
471.339	411.81
471.558	394.81
471.777	402.81
471.997	384.81
472.216	393.81
472.435	435.81
472.654	410.81
472.873	398.81
473.092	391.81
473.311	388.81
473.53	368.81
473.749	378.81
473.968	413.81
474.187	477.81
474.406	477.81
474.625	408.81
474.844	388.81
475.063	374.81
475.282	368.81
475.501	371.81
475.72	390.81
475.939	402.81
476.158	390.81
476.377	398.81
476.596	408.81
476.814	411.81
477.033	406.81
477.252	405.81
477.471	417.81
477.69	432.81
477.908	424.81
478.127	438.81
478.346	441.81
478.564	430.81
478.783	448.81
479.002	448.81
479.22	438.81
479.439	460.81
479.658	461.81
479.876	472.81
480.095	484.81
480.313	508.81
480.532	481.81
480.751	485.81
480.969	478.81
481.188	515.81
481.406	541.81
481.624	497.81
481.843	454.81
482.061	465.81
482.28	464.81
482.498	445.81
482.717	426.81
482.935	433.81
483.153	455.81
483.372	472.81
483.59	472.81
483.808	441.81
484.027	455.81
484.245	440.81
484.463	447.81
484.681	471.81
484.9	475.81
485.118	445.81
485.336	450.81
485.554	450.81
485.772	446.81
485.99	482.81
486.209	468.81
486.427	456.81
486.645	472.81
486.863	491.81
487.081	479.81
487.299	476.81
487.517	486.81
487.735	486.81
487.953	499.81
488.171	472.81
488.389	472.81
488.607	468.81
488.825	461.81
489.043	494.81
489.261	477.81
489.479	457.81
489.696	470.81
489.914	496.81
490.132	484.81
490.35	493.81
490.568	488.81
490.786	499.81
491.003	509.81
491.221	528.81
491.439	540.81
491.657	533.81
491.874	523.81
492.092	535.81
492.31	523.81
492.527	548.81
492.745	537.81
492.963	550.81
493.18	549.81
493.398	554.81
493.615	549.81
493.833	576.81
494.05	565.81
494.268	547.81
494.485	536.81
494.703	557.81
494.92	554.81
495.138	578.81
495.355	550.81
495.573	576.81
495.79	565.81
496.008	530.81
496.225	572.81
496.442	567.81
496.66	562.81
496.877	573.81
497.094	578.81
497.312	576.81
497.529	557.81
497.746	571.81
497.963	616.81
498.181	617.81
498.398	626.81
498.615	632.81
498.832	677.81
499.049	703.81
499.267	745.81
499.484	768.81
499.701	785.81
499.918	845.81
500.135	914.81
500.352	990.81
500.569	987.81
500.786	981.81
501.003	962.81
501.22	896.81
501.437	850.81
501.654	818.81
501.871	779.81
502.088	724.81
