Data from 1969.PennyLincolnUp.Lamp.En5.5.200Scan.071719.P1._HRD10591_14-56-06-972.txt Node
Date: Thu Jul 18 14:56:06 EDT 2019
User: cochatt
Spectrometer: HR+D1059
Trigger mode: 1
Integration Time (sec): 1.000000E-1
Scans to average: 1
Electric dark correction enabled: true
Nonlinearity correction enabled: false
Boxcar width: 0
XAxis mode: Wavelengths
Number of Pixels in Spectrum: 2048
>>>>>Begin Spectral Data<<<<<
223.165	-19.06
223.4	-19.06
223.635	-19.06
223.869	-12.06
224.104	-21.06
224.338	-0.06
224.573	-16.06
224.808	-7.06
225.042	-13.06
225.277	-7.06
225.511	-2.06
225.746	12.94
225.98	5.94
226.215	10.94
226.449	5.94
226.683	8.94
226.918	20.94
227.152	31.94
227.387	27.94
227.621	47.94
227.856	22.94
228.09	38.94
228.324	57.94
228.559	52.94
228.793	70.94
229.027	79.94
229.262	97.94
229.496	115.94
229.73	112.94
229.964	131.94
230.199	112.94
230.433	106.94
230.667	100.94
230.901	82.94
231.136	96.94
231.37	91.94
231.604	91.94
231.838	108.94
232.072	90.94
232.306	112.94
232.541	98.94
232.775	112.94
233.009	98.94
233.243	112.94
233.477	107.94
233.711	103.94
233.945	100.94
234.179	110.94
234.413	103.94
234.647	105.94
234.881	120.94
235.115	96.94
235.349	98.94
235.583	101.94
235.817	107.94
236.051	116.94
236.285	109.94
236.519	133.94
236.753	106.94
236.987	124.94
237.221	134.94
237.455	176.94
237.689	150.94
237.922	106.94
238.156	119.94
238.39	116.94
238.624	116.94
238.858	103.94
239.091	103.94
239.325	137.94
239.559	110.94
239.793	107.94
240.027	124.94
240.26	122.94
240.494	125.94
240.728	130.94
240.961	131.94
241.195	134.94
241.429	113.94
241.662	105.94
241.896	103.94
242.13	133.94
242.363	104.94
242.597	118.94
242.83	126.94
243.064	130.94
243.298	108.94
243.531	112.94
243.765	122.94
243.998	120.94
244.232	109.94
244.465	136.94
244.699	115.94
244.932	122.94
245.166	132.94
245.399	133.94
245.633	150.94
245.866	136.94
246.099	128.94
246.333	134.94
246.566	136.94
246.8	140.94
247.033	143.94
247.266	136.94
247.5	130.94
247.733	146.94
247.966	135.94
248.2	139.94
248.433	149.94
248.666	154.94
248.899	151.94
249.133	171.94
249.366	181.94
249.599	153.94
249.832	158.94
250.066	161.94
250.299	145.94
250.532	166.94
250.765	168.94
250.998	179.94
251.231	190.94
251.465	201.94
251.698	177.94
251.931	163.94
252.164	191.94
252.397	166.94
252.63	163.94
252.863	166.94
253.096	202.94
253.329	186.94
253.562	187.94
253.795	175.94
254.028	186.94
254.261	176.94
254.494	188.94
254.727	206.94
254.96	222.94
255.193	201.94
255.426	200.94
255.659	186.94
255.892	198.94
256.124	188.94
256.357	199.94
256.59	184.94
256.823	183.94
257.056	179.94
257.289	169.94
257.521	186.94
257.754	188.94
257.987	179.94
258.22	175.94
258.452	183.94
258.685	182.94
258.918	181.94
259.151	172.94
259.383	174.94
259.616	186.94
259.849	187.94
260.081	195.94
260.314	205.94
260.547	202.94
260.779	208.94
261.012	201.94
261.244	207.94
261.477	197.94
261.71	194.94
261.942	192.94
262.175	177.94
262.407	186.94
262.64	197.94
262.872	194.94
263.105	176.94
263.337	200.94
263.57	186.94
263.802	174.94
264.035	182.94
264.267	192.94
264.499	167.94
264.732	186.94
264.964	190.94
265.197	180.94
265.429	191.94
265.661	194.94
265.894	186.94
266.126	192.94
266.358	200.94
266.591	186.94
266.823	194.94
267.055	184.94
267.287	206.94
267.52	192.94
267.752	210.94
267.984	201.94
268.216	189.94
268.448	216.94
268.681	206.94
268.913	209.94
269.145	217.94
269.377	229.94
269.609	244.94
269.841	226.94
270.073	221.94
270.306	242.94
270.538	275.94
270.77	258.94
271.002	250.94
271.234	235.94
271.466	244.94
271.698	250.94
271.93	260.94
272.162	282.94
272.394	262.94
272.626	258.94
272.858	240.94
273.09	253.94
273.322	211.94
273.553	212.94
273.785	233.94
274.017	223.94
274.249	218.94
274.481	238.94
274.713	220.94
274.945	226.94
275.176	215.94
275.408	213.94
275.64	228.94
275.872	231.94
276.104	233.94
276.335	222.94
276.567	233.94
276.799	231.94
277.031	267.94
277.262	274.94
277.494	273.94
277.726	260.94
277.957	248.94
278.189	244.94
278.421	254.94
278.652	233.94
278.884	243.94
279.115	249.94
279.347	234.94
279.579	246.94
279.81	258.94
280.042	239.94
280.273	246.94
280.505	253.94
280.736	235.94
280.968	253.94
281.199	236.94
281.431	258.94
281.662	242.94
281.894	229.94
282.125	252.94
282.356	258.94
282.588	262.94
282.819	263.94
283.051	240.94
283.282	246.94
283.513	241.94
283.745	236.94
283.976	255.94
284.207	250.94
284.439	227.94
284.67	242.94
284.901	253.94
285.132	256.94
285.364	244.94
285.595	251.94
285.826	256.94
286.057	264.94
286.288	260.94
286.52	254.94
286.751	254.94
286.982	248.94
287.213	249.94
287.444	239.94
287.675	248.94
287.906	272.94
288.138	288.94
288.369	272.94
288.6	279.94
288.831	268.94
289.062	274.94
289.293	267.94
289.524	266.94
289.755	264.94
289.986	259.94
290.217	268.94
290.448	282.94
290.679	258.94
290.91	260.94
291.141	245.94
291.371	271.94
291.602	258.94
291.833	252.94
292.064	264.94
292.295	260.94
292.526	263.94
292.757	271.94
292.987	262.94
293.218	254.94
293.449	273.94
293.68	258.94
293.91	268.94
294.141	279.94
294.372	260.94
294.603	260.94
294.833	263.94
295.064	267.94
295.295	267.94
295.525	270.94
295.756	268.94
295.987	264.94
296.217	308.94
296.448	294.94
296.679	274.94
296.909	272.94
297.14	264.94
297.37	271.94
297.601	274.94
297.831	272.94
298.062	272.94
298.292	253.94
298.523	275.94
298.753	267.94
298.984	272.94
299.214	279.94
299.445	291.94
299.675	271.94
299.905	305.94
300.136	275.94
300.366	275.94
300.597	272.94
300.827	294.94
301.057	299.94
301.288	299.94
301.518	272.94
301.748	290.94
301.979	300.94
302.209	318.94
302.439	295.94
302.669	299.94
302.9	296.94
303.13	306.94
303.36	310.94
303.59	292.94
303.82	308.94
304.051	308.94
304.281	304.94
304.511	305.94
304.741	287.94
304.971	293.94
305.201	299.94
305.431	297.94
305.661	294.94
305.891	302.94
306.121	316.94
306.352	280.94
306.582	299.94
306.812	291.94
307.042	307.94
307.272	294.94
307.502	313.94
307.731	294.94
307.961	310.94
308.191	297.94
308.421	297.94
308.651	311.94
308.881	288.94
309.111	286.94
309.341	298.94
309.571	314.94
309.8	311.94
310.03	321.94
310.26	310.94
310.49	315.94
310.72	315.94
310.949	322.94
311.179	341.94
311.409	327.94
311.639	313.94
311.868	320.94
312.098	327.94
312.328	323.94
312.557	348.94
312.787	341.94
313.017	368.94
313.246	337.94
313.476	347.94
313.706	332.94
313.935	328.94
314.165	341.94
314.394	318.94
314.624	323.94
314.853	326.94
315.083	323.94
315.312	345.94
315.542	330.94
315.771	328.94
316.001	307.94
316.23	331.94
316.46	317.94
316.689	326.94
316.919	335.94
317.148	325.94
317.377	351.94
317.607	340.94
317.836	345.94
318.065	325.94
318.295	298.94
318.524	313.94
318.753	314.94
318.983	323.94
319.212	319.94
319.441	321.94
319.67	333.94
319.9	325.94
320.129	322.94
320.358	310.94
320.587	335.94
320.816	327.94
321.046	332.94
321.275	337.94
321.504	324.94
321.733	334.94
321.962	348.94
322.191	358.94
322.42	337.94
322.649	366.94
322.878	372.94
323.108	373.94
323.337	355.94
323.566	366.94
323.795	391.94
324.024	416.94
324.253	508.94
324.482	671.94
324.71	931.94
324.939	1240.94
325.168	1049.94
325.397	602.94
325.626	434.94
325.855	400.94
326.084	405.94
326.313	380.94
326.542	394.94
326.77	432.94
326.999	496.94
327.228	587.94
327.457	826.94
327.686	946.94
327.914	648.94
328.143	516.94
328.372	442.94
328.6	435.94
328.829	422.94
329.058	411.94
329.287	442.94
329.515	425.94
329.744	387.94
329.972	416.94
330.201	414.94
330.43	440.94
330.658	469.94
330.887	476.94
331.115	472.94
331.344	417.94
331.572	415.94
331.801	421.94
332.03	409.94
332.258	406.94
332.486	380.94
332.715	408.94
332.943	410.94
333.172	418.94
333.4	418.94
333.629	427.94
333.857	426.94
334.085	440.94
334.314	457.94
334.542	491.94
334.771	475.94
334.999	453.94
335.227	434.94
335.455	408.94
335.684	411.94
335.912	394.94
336.14	384.94
336.369	378.94
336.597	400.94
336.825	394.94
337.053	400.94
337.281	382.94
337.51	378.94
337.738	384.94
337.966	382.94
338.194	387.94
338.422	386.94
338.65	384.94
338.878	378.94
339.106	386.94
339.334	391.94
339.562	357.94
339.79	370.94
340.018	359.94
340.246	363.94
340.474	360.94
340.702	369.94
340.93	376.94
341.158	356.94
341.386	349.94
341.614	361.94
341.842	357.94
342.07	353.94
342.298	356.94
342.526	361.94
342.754	359.94
342.981	358.94
343.209	359.94
343.437	374.94
343.665	381.94
343.893	402.94
344.12	379.94
344.348	403.94
344.576	410.94
344.804	386.94
345.031	360.94
345.259	368.94
345.487	357.94
345.714	362.94
345.942	378.94
346.17	344.94
346.397	365.94
346.625	347.94
346.853	343.94
347.08	342.94
347.308	346.94
347.535	352.94
347.763	346.94
347.99	349.94
348.218	356.94
348.445	361.94
348.673	357.94
348.9	338.94
349.128	368.94
349.355	344.94
349.583	335.94
349.81	338.94
350.037	362.94
350.265	344.94
350.492	325.94
350.72	338.94
350.947	355.94
351.174	339.94
351.402	362.94
351.629	333.94
351.856	359.94
352.083	344.94
352.311	354.94
352.538	349.94
352.765	353.94
352.992	330.94
353.22	341.94
353.447	339.94
353.674	331.94
353.901	330.94
354.128	328.94
354.355	337.94
354.583	338.94
354.81	332.94
355.037	324.94
355.264	345.94
355.491	331.94
355.718	318.94
355.945	320.94
356.172	326.94
356.399	325.94
356.626	332.94
356.853	324.94
357.08	316.94
357.307	350.94
357.534	329.94
357.761	321.94
357.988	336.94
358.215	327.94
358.441	334.94
358.668	347.94
358.895	336.94
359.122	336.94
359.349	351.94
359.576	342.94
359.802	358.94
360.029	360.94
360.256	366.94
360.483	355.94
360.709	327.94
360.936	352.94
361.163	340.94
361.39	328.94
361.616	337.94
361.843	344.94
362.07	359.94
362.296	329.94
362.523	317.94
362.749	344.94
362.976	346.94
363.203	331.94
363.429	335.94
363.656	334.94
363.882	329.94
364.109	328.94
364.335	327.94
364.562	337.94
364.788	331.94
365.015	335.94
365.241	345.94
365.468	331.94
365.694	339.94
365.92	355.94
366.147	336.94
366.373	337.94
366.599	337.94
366.826	330.94
367.052	337.94
367.278	323.94
367.505	343.94
367.731	329.94
367.957	345.94
368.184	335.94
368.41	312.94
368.636	343.94
368.862	334.94
369.089	329.94
369.315	342.94
369.541	334.94
369.767	344.94
369.993	333.94
370.219	330.94
370.445	340.94
370.672	353.94
370.898	345.94
371.124	350.94
371.35	348.94
371.576	345.94
371.802	334.94
372.028	352.94
372.254	358.94
372.48	332.94
372.706	338.94
372.932	352.94
373.158	346.94
373.384	343.94
373.61	344.94
373.835	362.94
374.061	334.94
374.287	350.94
374.513	376.94
374.739	384.94
374.965	367.94
375.191	362.94
375.416	336.94
375.642	353.94
375.868	358.94
376.094	350.94
376.319	337.94
376.545	347.94
376.771	347.94
376.997	343.94
377.222	343.94
377.448	344.94
377.674	340.94
377.899	333.94
378.125	313.94
378.35	345.94
378.576	320.94
378.802	335.94
379.027	328.94
379.253	348.94
379.478	342.94
379.704	318.94
379.929	327.94
380.155	345.94
380.38	324.94
380.606	330.94
380.831	339.94
381.057	366.94
381.282	358.94
381.507	341.94
381.733	326.94
381.958	339.94
382.184	350.94
382.409	358.94
382.634	359.94
382.86	341.94
383.085	353.94
383.31	366.94
383.535	354.94
383.761	374.94
383.986	370.94
384.211	356.94
384.436	370.94
384.662	380.94
384.887	368.94
385.112	366.94
385.337	378.94
385.562	355.94
385.787	355.94
386.013	391.94
386.238	378.94
386.463	379.94
386.688	374.94
386.913	375.94
387.138	381.94
387.363	389.94
387.588	373.94
387.813	408.94
388.038	369.94
388.263	380.94
388.488	372.94
388.713	362.94
388.938	371.94
389.163	358.94
389.387	382.94
389.612	369.94
389.837	375.94
390.062	371.94
390.287	372.94
390.512	358.94
390.736	355.94
390.961	366.94
391.186	387.94
391.411	410.94
391.636	419.94
391.86	414.94
392.085	393.94
392.31	412.94
392.534	402.94
392.759	385.94
392.984	384.94
393.208	362.94
393.433	396.94
393.658	376.94
393.882	396.94
394.107	385.94
394.331	392.94
394.556	386.94
394.78	386.94
395.005	386.94
395.229	373.94
395.454	387.94
395.678	388.94
395.903	407.94
396.127	416.94
396.352	421.94
396.576	379.94
396.801	388.94
397.025	404.94
397.249	407.94
397.474	421.94
397.698	409.94
397.922	402.94
398.147	400.94
398.371	454.94
398.595	411.94
398.82	463.94
399.044	467.94
399.268	501.94
399.492	518.94
399.717	572.94
399.941	598.94
400.165	560.94
400.389	531.94
400.613	505.94
400.837	471.94
401.062	452.94
401.286	462.94
401.51	442.94
401.734	442.94
401.958	452.94
402.182	433.94
402.406	454.94
402.63	434.94
402.854	447.94
403.078	459.94
403.302	474.94
403.526	465.94
403.75	486.94
403.974	488.94
404.198	457.94
404.422	484.94
404.645	487.94
404.869	478.94
405.093	498.94
405.317	510.94
405.541	536.94
405.765	502.94
405.988	491.94
406.212	488.94
406.436	517.94
406.66	514.94
406.883	500.94
407.107	543.94
407.331	543.94
407.555	577.94
407.778	579.94
408.002	538.94
408.226	518.94
408.449	508.94
408.673	485.94
408.896	516.94
409.12	531.94
409.344	524.94
409.567	484.94
409.791	462.94
410.014	437.94
410.238	448.94
410.461	459.94
410.685	480.94
410.908	461.94
411.132	486.94
411.355	496.94
411.578	482.94
411.802	448.94
412.025	444.94
412.249	470.94
412.472	502.94
412.695	500.94
412.919	482.94
413.142	462.94
413.365	449.94
413.589	427.94
413.812	443.94
414.035	449.94
414.258	436.94
414.482	444.94
414.705	448.94
414.928	442.94
415.151	426.94
415.374	422.94
415.597	421.94
415.821	425.94
416.044	430.94
416.267	423.94
416.49	428.94
416.713	439.94
416.936	438.94
417.159	427.94
417.382	438.94
417.605	444.94
417.828	435.94
418.051	446.94
418.274	454.94
418.497	440.94
418.72	464.94
418.943	436.94
419.166	471.94
419.389	473.94
419.611	460.94
419.834	464.94
420.057	455.94
420.28	468.94
420.503	443.94
420.726	440.94
420.948	473.94
421.171	481.94
421.394	505.94
421.617	455.94
421.839	442.94
422.062	452.94
422.285	459.94
422.507	507.94
422.73	534.94
422.953	522.94
423.175	474.94
423.398	462.94
423.621	487.94
423.843	490.94
424.066	458.94
424.288	460.94
424.511	489.94
424.733	504.94
424.956	576.94
425.178	537.94
425.401	542.94
425.623	544.94
425.846	489.94
426.068	467.94
426.291	440.94
426.513	453.94
426.735	462.94
426.958	504.94
427.18	520.94
427.402	620.94
427.625	637.94
427.847	580.94
428.069	523.94
428.292	478.94
428.514	442.94
428.736	434.94
428.958	418.94
429.181	405.94
429.403	411.94
429.625	425.94
429.847	444.94
430.069	482.94
430.292	472.94
430.514	417.94
430.736	415.94
430.958	409.94
431.18	412.94
431.402	417.94
431.624	397.94
431.846	435.94
432.068	425.94
432.29	410.94
432.512	399.94
432.734	402.94
432.956	418.94
433.178	422.94
433.4	396.94
433.622	406.94
433.844	407.94
434.066	396.94
434.287	394.94
434.509	426.94
434.731	451.94
434.953	441.94
435.175	461.94
435.397	459.94
435.618	457.94
435.84	464.94
436.062	521.94
436.284	562.94
436.505	467.94
436.727	460.94
436.949	451.94
437.17	419.94
437.392	412.94
437.614	425.94
437.835	455.94
438.057	518.94
438.278	566.94
438.5	560.94
438.721	602.94
438.943	564.94
439.165	468.94
439.386	440.94
439.608	439.94
439.829	458.94
440.05	458.94
440.272	492.94
440.493	468.94
440.715	436.94
440.936	427.94
441.158	430.94
441.379	438.94
441.6	441.94
441.822	467.94
442.043	509.94
442.264	522.94
442.486	537.94
442.707	480.94
442.928	461.94
443.149	481.94
443.371	518.94
443.592	498.94
443.813	560.94
444.034	610.94
444.255	532.94
444.476	486.94
444.698	514.94
444.919	510.94
445.14	632.94
445.361	565.94
445.582	508.94
445.803	531.94
446.024	590.94
446.245	586.94
446.466	530.94
446.687	466.94
446.908	438.94
447.129	432.94
447.35	424.94
447.571	430.94
447.792	411.94
448.013	427.94
448.234	432.94
448.455	460.94
448.675	520.94
448.896	566.94
449.117	513.94
449.338	511.94
449.559	553.94
449.779	605.94
450	503.94
450.221	429.94
450.442	416.94
450.662	400.94
450.883	417.94
451.104	414.94
451.324	403.94
451.545	407.94
451.766	383.94
451.986	375.94
452.207	382.94
452.428	370.94
452.648	370.94
452.869	384.94
453.089	380.94
453.31	382.94
453.53	389.94
453.751	381.94
453.971	372.94
454.192	382.94
454.412	383.94
454.633	390.94
454.853	370.94
455.073	373.94
455.294	378.94
455.514	437.94
455.734	409.94
455.955	370.94
456.175	355.94
456.395	368.94
456.616	353.94
456.836	370.94
457.056	360.94
457.276	357.94
457.497	352.94
457.717	368.94
457.937	376.94
458.157	375.94
458.377	372.94
458.598	390.94
458.818	421.94
459.038	477.94
459.258	471.94
459.478	435.94
459.698	411.94
459.918	407.94
460.138	436.94
460.358	440.94
460.578	433.94
460.798	435.94
461.018	448.94
461.238	438.94
461.458	438.94
461.678	435.94
461.898	454.94
462.118	448.94
462.338	476.94
462.558	464.94
462.777	477.94
462.997	483.94
463.217	516.94
463.437	514.94
463.657	525.94
463.876	480.94
464.096	485.94
464.316	467.94
464.536	464.94
464.755	463.94
464.975	469.94
465.195	490.94
465.414	517.94
465.634	466.94
465.854	442.94
466.073	428.94
466.293	406.94
466.512	399.94
466.732	410.94
466.951	398.94
467.171	399.94
467.391	415.94
467.61	420.94
467.829	406.94
468.049	400.94
468.268	395.94
468.488	397.94
468.707	387.94
468.927	386.94
469.146	394.94
469.365	374.94
469.585	416.94
469.804	401.94
470.023	403.94
470.243	400.94
470.462	400.94
470.681	413.94
470.901	422.94
471.12	405.94
471.339	397.94
471.558	425.94
471.777	409.94
471.997	392.94
472.216	387.94
472.435	430.94
472.654	418.94
472.873	394.94
473.092	400.94
473.311	388.94
473.53	390.94
473.749	412.94
473.968	423.94
474.187	485.94
474.406	468.94
474.625	419.94
474.844	406.94
475.063	407.94
475.282	408.94
475.501	408.94
475.72	393.94
475.939	388.94
476.158	400.94
476.377	407.94
476.596	386.94
476.814	399.94
477.033	422.94
477.252	419.94
477.471	434.94
477.69	404.94
477.908	441.94
478.127	448.94
478.346	455.94
478.564	457.94
478.783	444.94
479.002	455.94
479.22	439.94
479.439	475.94
479.658	479.94
479.876	494.94
480.095	502.94
480.313	505.94
480.532	514.94
480.751	485.94
480.969	493.94
481.188	509.94
481.406	539.94
481.624	469.94
481.843	461.94
482.061	451.94
482.28	462.94
482.498	448.94
482.717	428.94
482.935	453.94
483.153	456.94
483.372	455.94
483.59	462.94
483.808	442.94
484.027	456.94
484.245	464.94
484.463	442.94
484.681	484.94
484.9	459.94
485.118	477.94
485.336	457.94
485.554	470.94
485.772	446.94
485.99	472.94
486.209	477.94
486.427	487.94
486.645	468.94
486.863	501.94
487.081	488.94
487.299	470.94
487.517	478.94
487.735	496.94
487.953	490.94
488.171	476.94
488.389	479.94
488.607	488.94
488.825	491.94
489.043	484.94
489.261	486.94
489.479	483.94
489.696	490.94
489.914	480.94
490.132	496.94
490.35	512.94
490.568	516.94
490.786	518.94
491.003	502.94
491.221	563.94
491.439	539.94
491.657	570.94
491.874	550.94
492.092	553.94
492.31	572.94
492.527	562.94
492.745	581.94
492.963	573.94
493.18	570.94
493.398	586.94
493.615	556.94
493.833	571.94
494.05	585.94
494.268	581.94
494.485	547.94
494.703	552.94
494.92	571.94
495.138	567.94
495.355	575.94
495.573	568.94
495.79	574.94
496.008	570.94
496.225	583.94
496.442	553.94
496.66	594.94
496.877	560.94
497.094	578.94
497.312	600.94
497.529	598.94
497.746	615.94
497.963	600.94
498.181	620.94
498.398	643.94
498.615	681.94
498.832	676.94
499.049	707.94
499.267	748.94
499.484	789.94
499.701	839.94
499.918	874.94
500.135	924.94
500.352	1002.94
500.569	1017.94
500.786	1038.94
501.003	956.94
501.22	928.94
501.437	875.94
501.654	839.94
501.871	768.94
502.088	741.94
