Data from 1969.PennyLincolnUp.Lamp.En5.5.200Scan.071719.P1._HRD10591_14-56-40-973.txt Node
Date: Thu Jul 18 14:56:40 EDT 2019
User: cochatt
Spectrometer: HR+D1059
Trigger mode: 1
Integration Time (sec): 1.000000E-1
Scans to average: 1
Electric dark correction enabled: true
Nonlinearity correction enabled: false
Boxcar width: 0
XAxis mode: Wavelengths
Number of Pixels in Spectrum: 2048
>>>>>Begin Spectral Data<<<<<
223.165	-15.31
223.4	-15.31
223.635	-15.31
223.869	-10.31
224.104	3.69
224.338	-19.31
224.573	-8.31
224.808	-3.31
225.042	-17.31
225.277	-4.31
225.511	-13.31
225.746	2.69
225.98	5.69
226.215	7.69
226.449	12.69
226.683	13.69
226.918	17.69
227.152	27.69
227.387	27.69
227.621	31.69
227.856	39.69
228.09	35.69
228.324	52.69
228.559	49.69
228.793	64.69
229.027	87.69
229.262	82.69
229.496	99.69
229.73	116.69
229.964	120.69
230.199	106.69
230.433	113.69
230.667	103.69
230.901	109.69
231.136	109.69
231.37	111.69
231.604	99.69
231.838	96.69
232.072	101.69
232.306	94.69
232.541	112.69
232.775	95.69
233.009	92.69
233.243	112.69
233.477	103.69
233.711	119.69
233.945	113.69
234.179	106.69
234.413	100.69
234.647	108.69
234.881	115.69
235.115	122.69
235.349	108.69
235.583	101.69
235.817	115.69
236.051	124.69
236.285	119.69
236.519	107.69
236.753	119.69
236.987	115.69
237.221	156.69
237.455	175.69
237.689	133.69
237.922	126.69
238.156	113.69
238.39	121.69
238.624	116.69
238.858	108.69
239.091	106.69
239.325	106.69
239.559	109.69
239.793	101.69
240.027	120.69
240.26	118.69
240.494	116.69
240.728	130.69
240.961	136.69
241.195	120.69
241.429	128.69
241.662	116.69
241.896	113.69
242.13	117.69
242.363	125.69
242.597	116.69
242.83	123.69
243.064	118.69
243.298	111.69
243.531	130.69
243.765	132.69
243.998	116.69
244.232	114.69
244.465	127.69
244.699	132.69
244.932	131.69
245.166	127.69
245.399	126.69
245.633	129.69
245.866	138.69
246.099	124.69
246.333	122.69
246.566	135.69
246.8	139.69
247.033	146.69
247.266	152.69
247.5	147.69
247.733	146.69
247.966	165.69
248.2	138.69
248.433	150.69
248.666	164.69
248.899	156.69
249.133	166.69
249.366	165.69
249.599	165.69
249.832	151.69
250.066	156.69
250.299	155.69
250.532	165.69
250.765	178.69
250.998	191.69
251.231	183.69
251.465	165.69
251.698	184.69
251.931	161.69
252.164	168.69
252.397	175.69
252.63	168.69
252.863	153.69
253.096	172.69
253.329	191.69
253.562	175.69
253.795	184.69
254.028	166.69
254.261	180.69
254.494	183.69
254.727	214.69
254.96	234.69
255.193	220.69
255.426	209.69
255.659	196.69
255.892	186.69
256.124	194.69
256.357	185.69
256.59	193.69
256.823	185.69
257.056	183.69
257.289	184.69
257.521	187.69
257.754	158.69
257.987	170.69
258.22	162.69
258.452	188.69
258.685	167.69
258.918	169.69
259.151	174.69
259.383	196.69
259.616	196.69
259.849	181.69
260.081	196.69
260.314	212.69
260.547	220.69
260.779	202.69
261.012	204.69
261.244	193.69
261.477	192.69
261.71	198.69
261.942	192.69
262.175	189.69
262.407	183.69
262.64	195.69
262.872	197.69
263.105	194.69
263.337	175.69
263.57	188.69
263.802	189.69
264.035	184.69
264.267	183.69
264.499	184.69
264.732	180.69
264.964	190.69
265.197	195.69
265.429	194.69
265.661	192.69
265.894	188.69
266.126	193.69
266.358	186.69
266.591	183.69
266.823	197.69
267.055	202.69
267.287	194.69
267.52	200.69
267.752	209.69
267.984	197.69
268.216	209.69
268.448	186.69
268.681	208.69
268.913	201.69
269.145	235.69
269.377	237.69
269.609	224.69
269.841	222.69
270.073	229.69
270.306	244.69
270.538	249.69
270.77	271.69
271.002	236.69
271.234	252.69
271.466	244.69
271.698	256.69
271.93	257.69
272.162	264.69
272.394	249.69
272.626	251.69
272.858	233.69
273.09	245.69
273.322	243.69
273.553	235.69
273.785	222.69
274.017	233.69
274.249	228.69
274.481	221.69
274.713	202.69
274.945	233.69
275.176	234.69
275.408	233.69
275.64	231.69
275.872	216.69
276.104	225.69
276.335	228.69
276.567	244.69
276.799	220.69
277.031	251.69
277.262	269.69
277.494	270.69
277.726	249.69
277.957	244.69
278.189	236.69
278.421	235.69
278.652	231.69
278.884	212.69
279.115	240.69
279.347	223.69
279.579	242.69
279.81	233.69
280.042	222.69
280.273	246.69
280.505	227.69
280.736	239.69
280.968	228.69
281.199	229.69
281.431	233.69
281.662	239.69
281.894	248.69
282.125	232.69
282.356	259.69
282.588	229.69
282.819	260.69
283.051	273.69
283.282	244.69
283.513	238.69
283.745	255.69
283.976	249.69
284.207	259.69
284.439	247.69
284.67	259.69
284.901	257.69
285.132	249.69
285.364	243.69
285.595	240.69
285.826	262.69
286.057	256.69
286.288	259.69
286.52	259.69
286.751	268.69
286.982	256.69
287.213	251.69
287.444	253.69
287.675	253.69
287.906	252.69
288.138	264.69
288.369	250.69
288.6	272.69
288.831	261.69
289.062	257.69
289.293	277.69
289.524	261.69
289.755	275.69
289.986	240.69
290.217	260.69
290.448	276.69
290.679	258.69
290.91	264.69
291.141	256.69
291.371	275.69
291.602	270.69
291.833	268.69
292.064	269.69
292.295	264.69
292.526	264.69
292.757	249.69
292.987	266.69
293.218	259.69
293.449	279.69
293.68	264.69
293.91	271.69
294.141	264.69
294.372	253.69
294.603	274.69
294.833	269.69
295.064	267.69
295.295	264.69
295.525	270.69
295.756	267.69
295.987	279.69
296.217	279.69
296.448	306.69
296.679	276.69
296.909	282.69
297.14	288.69
297.37	276.69
297.601	286.69
297.831	269.69
298.062	283.69
298.292	276.69
298.523	275.69
298.753	278.69
298.984	276.69
299.214	295.69
299.445	284.69
299.675	283.69
299.905	289.69
300.136	294.69
300.366	272.69
300.597	300.69
300.827	290.69
301.057	311.69
301.288	284.69
301.518	282.69
301.748	309.69
301.979	295.69
302.209	275.69
302.439	298.69
302.669	282.69
302.9	279.69
303.13	305.69
303.36	297.69
303.59	289.69
303.82	293.69
304.051	291.69
304.281	299.69
304.511	288.69
304.741	299.69
304.971	297.69
305.201	299.69
305.431	292.69
305.661	299.69
305.891	283.69
306.121	299.69
306.352	289.69
306.582	277.69
306.812	296.69
307.042	307.69
307.272	305.69
307.502	313.69
307.731	313.69
307.961	288.69
308.191	282.69
308.421	298.69
308.651	306.69
308.881	287.69
309.111	301.69
309.341	311.69
309.571	301.69
309.8	300.69
310.03	321.69
310.26	339.69
310.49	336.69
310.72	320.69
310.949	324.69
311.179	332.69
311.409	325.69
311.639	313.69
311.868	332.69
312.098	340.69
312.328	317.69
312.557	334.69
312.787	362.69
313.017	349.69
313.246	331.69
313.476	326.69
313.706	308.69
313.935	330.69
314.165	344.69
314.394	337.69
314.624	345.69
314.853	319.69
315.083	333.69
315.312	321.69
315.542	338.69
315.771	337.69
316.001	336.69
316.23	347.69
316.46	322.69
316.689	315.69
316.919	333.69
317.148	337.69
317.377	331.69
317.607	345.69
317.836	322.69
318.065	329.69
318.295	331.69
318.524	337.69
318.753	329.69
318.983	333.69
319.212	324.69
319.441	333.69
319.67	323.69
319.9	315.69
320.129	318.69
320.358	326.69
320.587	338.69
320.816	339.69
321.046	332.69
321.275	334.69
321.504	341.69
321.733	329.69
321.962	338.69
322.191	347.69
322.42	361.69
322.649	348.69
322.878	353.69
323.108	361.69
323.337	378.69
323.566	397.69
323.795	406.69
324.024	437.69
324.253	474.69
324.482	665.69
324.71	950.69
324.939	1263.69
325.168	1037.69
325.397	595.69
325.626	453.69
325.855	395.69
326.084	391.69
326.313	403.69
326.542	388.69
326.77	414.69
326.999	473.69
327.228	605.69
327.457	851.69
327.686	953.69
327.914	658.69
328.143	493.69
328.372	460.69
328.6	428.69
328.829	413.69
329.058	416.69
329.287	449.69
329.515	423.69
329.744	409.69
329.972	421.69
330.201	421.69
330.43	467.69
330.658	468.69
330.887	480.69
331.115	448.69
331.344	404.69
331.572	420.69
331.801	400.69
332.03	392.69
332.258	392.69
332.486	402.69
332.715	412.69
332.943	424.69
333.172	431.69
333.4	414.69
333.629	452.69
333.857	420.69
334.085	453.69
334.314	479.69
334.542	460.69
334.771	476.69
334.999	444.69
335.227	436.69
335.455	409.69
335.684	401.69
335.912	388.69
336.14	394.69
336.369	386.69
336.597	400.69
336.825	412.69
337.053	398.69
337.281	387.69
337.51	381.69
337.738	386.69
337.966	391.69
338.194	372.69
338.422	398.69
338.65	389.69
338.878	377.69
339.106	357.69
339.334	364.69
339.562	397.69
339.79	353.69
340.018	384.69
340.246	371.69
340.474	372.69
340.702	373.69
340.93	364.69
341.158	370.69
341.386	372.69
341.614	360.69
341.842	374.69
342.07	344.69
342.298	353.69
342.526	364.69
342.754	354.69
342.981	331.69
343.209	374.69
343.437	363.69
343.665	374.69
343.893	407.69
344.12	404.69
344.348	407.69
344.576	375.69
344.804	376.69
345.031	373.69
345.259	381.69
345.487	380.69
345.714	362.69
345.942	343.69
346.17	343.69
346.397	347.69
346.625	360.69
346.853	349.69
347.08	348.69
347.308	359.69
347.535	369.69
347.763	353.69
347.99	348.69
348.218	345.69
348.445	351.69
348.673	351.69
348.9	355.69
349.128	357.69
349.355	344.69
349.583	325.69
349.81	341.69
350.037	344.69
350.265	347.69
350.492	328.69
350.72	336.69
350.947	357.69
351.174	335.69
351.402	319.69
351.629	349.69
351.856	340.69
352.083	358.69
352.311	356.69
352.538	354.69
352.765	368.69
352.992	356.69
353.22	332.69
353.447	342.69
353.674	333.69
353.901	327.69
354.128	327.69
354.355	330.69
354.583	333.69
354.81	346.69
355.037	331.69
355.264	339.69
355.491	331.69
355.718	333.69
355.945	322.69
356.172	323.69
356.399	334.69
356.626	331.69
356.853	341.69
357.08	327.69
357.307	344.69
357.534	316.69
357.761	345.69
357.988	332.69
358.215	322.69
358.441	348.69
358.668	323.69
358.895	346.69
359.122	332.69
359.349	322.69
359.576	359.69
359.802	353.69
360.029	373.69
360.256	380.69
360.483	370.69
360.709	328.69
360.936	333.69
361.163	341.69
361.39	348.69
361.616	344.69
361.843	329.69
362.07	361.69
362.296	350.69
362.523	347.69
362.749	331.69
362.976	334.69
363.203	321.69
363.429	336.69
363.656	339.69
363.882	341.69
364.109	340.69
364.335	330.69
364.562	341.69
364.788	307.69
365.015	338.69
365.241	335.69
365.468	331.69
365.694	336.69
365.92	339.69
366.147	318.69
366.373	321.69
366.599	341.69
366.826	338.69
367.052	337.69
367.278	336.69
367.505	340.69
367.731	338.69
367.957	347.69
368.184	342.69
368.41	329.69
368.636	339.69
368.862	344.69
369.089	332.69
369.315	352.69
369.541	339.69
369.767	329.69
369.993	335.69
370.219	349.69
370.445	315.69
370.672	339.69
370.898	357.69
371.124	344.69
371.35	362.69
371.576	334.69
371.802	333.69
372.028	335.69
372.254	332.69
372.48	326.69
372.706	349.69
372.932	344.69
373.158	342.69
373.384	347.69
373.61	354.69
373.835	351.69
374.061	346.69
374.287	350.69
374.513	344.69
374.739	350.69
374.965	351.69
375.191	358.69
375.416	351.69
375.642	364.69
375.868	366.69
376.094	357.69
376.319	351.69
376.545	347.69
376.771	355.69
376.997	338.69
377.222	337.69
377.448	336.69
377.674	344.69
377.899	329.69
378.125	337.69
378.35	336.69
378.576	321.69
378.802	337.69
379.027	337.69
379.253	327.69
379.478	322.69
379.704	326.69
379.929	340.69
380.155	350.69
380.38	334.69
380.606	343.69
380.831	358.69
381.057	339.69
381.282	337.69
381.507	326.69
381.733	358.69
381.958	332.69
382.184	344.69
382.409	362.69
382.634	365.69
382.86	348.69
383.085	357.69
383.31	360.69
383.535	358.69
383.761	351.69
383.986	370.69
384.211	365.69
384.436	377.69
384.662	383.69
384.887	371.69
385.112	361.69
385.337	385.69
385.562	363.69
385.787	378.69
386.013	381.69
386.238	382.69
386.463	391.69
386.688	380.69
386.913	374.69
387.138	363.69
387.363	389.69
387.588	367.69
387.813	379.69
388.038	380.69
388.263	377.69
388.488	367.69
388.713	387.69
388.938	373.69
389.163	395.69
389.387	362.69
389.612	387.69
389.837	369.69
390.062	371.69
390.287	361.69
390.512	383.69
390.736	379.69
390.961	380.69
391.186	375.69
391.411	374.69
391.636	391.69
391.86	410.69
392.085	397.69
392.31	387.69
392.534	396.69
392.759	395.69
392.984	391.69
393.208	381.69
393.433	392.69
393.658	391.69
393.882	397.69
394.107	397.69
394.331	391.69
394.556	392.69
394.78	397.69
395.005	402.69
395.229	398.69
395.454	379.69
395.678	396.69
395.903	405.69
396.127	413.69
396.352	401.69
396.576	383.69
396.801	402.69
397.025	388.69
397.249	397.69
397.474	412.69
397.698	426.69
397.922	416.69
398.147	414.69
398.371	433.69
398.595	408.69
398.82	429.69
399.044	456.69
399.268	491.69
399.492	525.69
399.717	544.69
399.941	560.69
400.165	550.69
400.389	535.69
400.613	485.69
400.837	469.69
401.062	434.69
401.286	444.69
401.51	445.69
401.734	449.69
401.958	444.69
402.182	427.69
402.406	445.69
402.63	459.69
402.854	447.69
403.078	464.69
403.302	464.69
403.526	476.69
403.75	466.69
403.974	485.69
404.198	468.69
404.422	472.69
404.645	476.69
404.869	504.69
405.093	518.69
405.317	514.69
405.541	530.69
405.765	490.69
405.988	485.69
406.212	500.69
406.436	514.69
406.66	523.69
406.883	492.69
407.107	504.69
407.331	546.69
407.555	579.69
407.778	589.69
408.002	530.69
408.226	512.69
408.449	509.69
408.673	512.69
408.896	515.69
409.12	532.69
409.344	519.69
409.567	489.69
409.791	457.69
410.014	451.69
410.238	455.69
410.461	470.69
410.685	472.69
410.908	468.69
411.132	463.69
411.355	503.69
411.578	493.69
411.802	466.69
412.025	460.69
412.249	478.69
412.472	515.69
412.695	497.69
412.919	492.69
413.142	487.69
413.365	473.69
413.589	434.69
413.812	428.69
414.035	432.69
414.258	441.69
414.482	416.69
414.705	435.69
414.928	440.69
415.151	441.69
415.374	444.69
415.597	455.69
415.821	407.69
416.044	428.69
416.267	421.69
416.49	416.69
416.713	418.69
416.936	438.69
417.159	419.69
417.382	431.69
417.605	439.69
417.828	438.69
418.051	449.69
418.274	459.69
418.497	433.69
418.72	441.69
418.943	441.69
419.166	465.69
419.389	469.69
419.611	481.69
419.834	459.69
420.057	490.69
420.28	460.69
420.503	470.69
420.726	465.69
420.948	458.69
421.171	472.69
421.394	491.69
421.617	451.69
421.839	443.69
422.062	443.69
422.285	453.69
422.507	497.69
422.73	512.69
422.953	504.69
423.175	485.69
423.398	475.69
423.621	466.69
423.843	486.69
424.066	474.69
424.288	483.69
424.511	480.69
424.733	525.69
424.956	562.69
425.178	533.69
425.401	556.69
425.623	559.69
425.846	473.69
426.068	457.69
426.291	461.69
426.513	470.69
426.735	461.69
426.958	485.69
427.18	535.69
427.402	618.69
427.625	635.69
427.847	579.69
428.069	490.69
428.292	471.69
428.514	453.69
428.736	436.69
428.958	416.69
429.181	432.69
429.403	417.69
429.625	449.69
429.847	447.69
430.069	472.69
430.292	480.69
430.514	421.69
430.736	401.69
430.958	401.69
431.18	398.69
431.402	409.69
431.624	388.69
431.846	404.69
432.068	402.69
432.29	398.69
432.512	412.69
432.734	421.69
432.956	402.69
433.178	426.69
433.4	420.69
433.622	416.69
433.844	413.69
434.066	402.69
434.287	402.69
434.509	409.69
434.731	422.69
434.953	424.69
435.175	449.69
435.397	488.69
435.618	451.69
435.84	499.69
436.062	531.69
436.284	559.69
436.505	483.69
436.727	453.69
436.949	420.69
437.17	441.69
437.392	430.69
437.614	431.69
437.835	439.69
438.057	498.69
438.278	563.69
438.5	543.69
438.721	595.69
438.943	563.69
439.165	480.69
439.386	452.69
439.608	451.69
439.829	445.69
440.05	442.69
440.272	479.69
440.493	479.69
440.715	448.69
440.936	438.69
441.158	437.69
441.379	445.69
441.6	443.69
441.822	460.69
442.043	476.69
442.264	517.69
442.486	551.69
442.707	480.69
442.928	458.69
443.149	466.69
443.371	508.69
443.592	521.69
443.813	568.69
444.034	604.69
444.255	533.69
444.476	491.69
444.698	499.69
444.919	505.69
445.14	586.69
445.361	509.69
445.582	482.69
445.803	521.69
446.024	551.69
446.245	565.69
446.466	539.69
446.687	466.69
446.908	440.69
447.129	430.69
447.35	411.69
447.571	407.69
447.792	411.69
448.013	425.69
448.234	432.69
448.455	456.69
448.675	532.69
448.896	568.69
449.117	502.69
449.338	482.69
449.559	545.69
449.779	613.69
450	504.69
450.221	465.69
450.442	408.69
450.662	382.69
450.883	389.69
451.104	416.69
451.324	421.69
451.545	389.69
451.766	396.69
451.986	387.69
452.207	390.69
452.428	368.69
452.648	384.69
452.869	386.69
453.089	386.69
453.31	392.69
453.53	379.69
453.751	391.69
453.971	371.69
454.192	384.69
454.412	379.69
454.633	379.69
454.853	359.69
455.073	377.69
455.294	386.69
455.514	427.69
455.734	409.69
455.955	373.69
456.175	388.69
456.395	343.69
456.616	357.69
456.836	367.69
457.056	355.69
457.276	356.69
457.497	375.69
457.717	355.69
457.937	371.69
458.157	373.69
458.377	372.69
458.598	384.69
458.818	409.69
459.038	475.69
459.258	490.69
459.478	436.69
459.698	413.69
459.918	404.69
460.138	419.69
460.358	428.69
460.578	453.69
460.798	415.69
461.018	441.69
461.238	436.69
461.458	441.69
461.678	433.69
461.898	441.69
462.118	451.69
462.338	447.69
462.558	459.69
462.777	456.69
462.997	508.69
463.217	529.69
463.437	514.69
463.657	481.69
463.876	476.69
464.096	488.69
464.316	483.69
464.536	484.69
464.755	481.69
464.975	477.69
465.195	492.69
465.414	514.69
465.634	455.69
465.854	425.69
466.073	413.69
466.293	428.69
466.512	399.69
466.732	389.69
466.951	391.69
467.171	387.69
467.391	389.69
467.61	403.69
467.829	408.69
468.049	391.69
468.268	395.69
468.488	375.69
468.707	383.69
468.927	379.69
469.146	366.69
469.365	381.69
469.585	377.69
469.804	400.69
470.023	394.69
470.243	407.69
470.462	405.69
470.681	420.69
470.901	398.69
471.12	416.69
471.339	392.69
471.558	404.69
471.777	382.69
471.997	397.69
472.216	396.69
472.435	404.69
472.654	406.69
472.873	374.69
473.092	402.69
473.311	380.69
473.53	377.69
473.749	402.69
473.968	415.69
474.187	470.69
474.406	487.69
474.625	419.69
474.844	392.69
475.063	395.69
475.282	387.69
475.501	401.69
475.72	404.69
475.939	401.69
476.158	403.69
476.377	408.69
476.596	420.69
476.814	398.69
477.033	392.69
477.252	402.69
477.471	408.69
477.69	434.69
477.908	438.69
478.127	432.69
478.346	445.69
478.564	419.69
478.783	457.69
479.002	456.69
479.22	460.69
479.439	465.69
479.658	480.69
479.876	467.69
480.095	479.69
480.313	497.69
480.532	491.69
480.751	499.69
480.969	509.69
481.188	539.69
481.406	573.69
481.624	471.69
481.843	447.69
482.061	442.69
482.28	458.69
482.498	444.69
482.717	459.69
482.935	459.69
483.153	455.69
483.372	425.69
483.59	435.69
483.808	457.69
484.027	450.69
484.245	448.69
484.463	448.69
484.681	457.69
484.9	448.69
485.118	456.69
485.336	463.69
485.554	454.69
485.772	479.69
485.99	465.69
486.209	449.69
486.427	464.69
486.645	477.69
486.863	501.69
487.081	481.69
487.299	470.69
487.517	469.69
487.735	489.69
487.953	495.69
488.171	497.69
488.389	492.69
488.607	482.69
488.825	480.69
489.043	471.69
489.261	479.69
489.479	495.69
489.696	497.69
489.914	492.69
490.132	498.69
490.35	512.69
490.568	520.69
490.786	488.69
491.003	524.69
491.221	518.69
491.439	524.69
491.657	539.69
491.874	564.69
492.092	571.69
492.31	550.69
492.527	579.69
492.745	559.69
492.963	562.69
493.18	572.69
493.398	572.69
493.615	568.69
493.833	593.69
494.05	567.69
494.268	586.69
494.485	579.69
494.703	580.69
494.92	547.69
495.138	539.69
495.355	557.69
495.573	600.69
495.79	574.69
496.008	555.69
496.225	553.69
496.442	580.69
496.66	559.69
496.877	570.69
497.094	578.69
497.312	587.69
497.529	597.69
497.746	606.69
497.963	605.69
498.181	651.69
498.398	635.69
498.615	651.69
498.832	668.69
499.049	735.69
499.267	703.69
499.484	760.69
499.701	790.69
499.918	841.69
500.135	912.69
500.352	993.69
500.569	996.69
500.786	1030.69
501.003	982.69
501.22	930.69
501.437	853.69
501.654	822.69
501.871	769.69
502.088	740.69
