Data from 1969.PennyLincolnUp.Lamp.En5.5.200Scan.071719.P1._HRD10591_14-56-46-973.txt Node
Date: Thu Jul 18 14:56:46 EDT 2019
User: cochatt
Spectrometer: HR+D1059
Trigger mode: 1
Integration Time (sec): 1.000000E-1
Scans to average: 1
Electric dark correction enabled: true
Nonlinearity correction enabled: false
Boxcar width: 0
XAxis mode: Wavelengths
Number of Pixels in Spectrum: 2048
>>>>>Begin Spectral Data<<<<<
223.165	-17.69
223.4	-17.69
223.635	-17.69
223.869	-16.69
224.104	-22.69
224.338	-11.69
224.573	-21.69
224.808	-13.69
225.042	-14.69
225.277	-4.69
225.511	-7.69
225.746	20.31
225.98	6.31
226.215	16.31
226.449	13.31
226.683	20.31
226.918	28.31
227.152	26.31
227.387	29.31
227.621	34.31
227.856	24.31
228.09	50.31
228.324	41.31
228.559	49.31
228.793	64.31
229.027	87.31
229.262	71.31
229.496	100.31
229.73	123.31
229.964	111.31
230.199	120.31
230.433	114.31
230.667	94.31
230.901	120.31
231.136	98.31
231.37	108.31
231.604	82.31
231.838	102.31
232.072	106.31
232.306	91.31
232.541	109.31
232.775	90.31
233.009	100.31
233.243	91.31
233.477	98.31
233.711	104.31
233.945	106.31
234.179	114.31
234.413	123.31
234.647	125.31
234.881	111.31
235.115	113.31
235.349	109.31
235.583	104.31
235.817	117.31
236.051	104.31
236.285	106.31
236.519	114.31
236.753	111.31
236.987	109.31
237.221	131.31
237.455	169.31
237.689	149.31
237.922	115.31
238.156	116.31
238.39	115.31
238.624	105.31
238.858	104.31
239.091	123.31
239.325	111.31
239.559	111.31
239.793	107.31
240.027	117.31
240.26	119.31
240.494	136.31
240.728	133.31
240.961	123.31
241.195	139.31
241.429	117.31
241.662	119.31
241.896	113.31
242.13	119.31
242.363	125.31
242.597	123.31
242.83	111.31
243.064	124.31
243.298	116.31
243.531	127.31
243.765	128.31
243.998	130.31
244.232	137.31
244.465	130.31
244.699	127.31
244.932	127.31
245.166	127.31
245.399	120.31
245.633	135.31
245.866	134.31
246.099	135.31
246.333	126.31
246.566	126.31
246.8	131.31
247.033	133.31
247.266	123.31
247.5	151.31
247.733	145.31
247.966	162.31
248.2	159.31
248.433	162.31
248.666	160.31
248.899	170.31
249.133	157.31
249.366	171.31
249.599	178.31
249.832	165.31
250.066	159.31
250.299	170.31
250.532	178.31
250.765	177.31
250.998	191.31
251.231	178.31
251.465	174.31
251.698	181.31
251.931	165.31
252.164	171.31
252.397	162.31
252.63	162.31
252.863	185.31
253.096	183.31
253.329	185.31
253.562	194.31
253.795	185.31
254.028	186.31
254.261	185.31
254.494	183.31
254.727	210.31
254.96	218.31
255.193	216.31
255.426	208.31
255.659	188.31
255.892	186.31
256.124	194.31
256.357	212.31
256.59	200.31
256.823	166.31
257.056	194.31
257.289	183.31
257.521	177.31
257.754	171.31
257.987	195.31
258.22	171.31
258.452	173.31
258.685	189.31
258.918	178.31
259.151	184.31
259.383	176.31
259.616	174.31
259.849	206.31
260.081	213.31
260.314	202.31
260.547	227.31
260.779	189.31
261.012	182.31
261.244	184.31
261.477	187.31
261.71	201.31
261.942	200.31
262.175	197.31
262.407	197.31
262.64	194.31
262.872	197.31
263.105	166.31
263.337	182.31
263.57	185.31
263.802	178.31
264.035	184.31
264.267	196.31
264.499	203.31
264.732	184.31
264.964	175.31
265.197	197.31
265.429	171.31
265.661	181.31
265.894	182.31
266.126	203.31
266.358	171.31
266.591	201.31
266.823	199.31
267.055	196.31
267.287	198.31
267.52	202.31
267.752	209.31
267.984	199.31
268.216	203.31
268.448	215.31
268.681	203.31
268.913	200.31
269.145	228.31
269.377	236.31
269.609	239.31
269.841	233.31
270.073	234.31
270.306	259.31
270.538	272.31
270.77	269.31
271.002	255.31
271.234	245.31
271.466	257.31
271.698	268.31
271.93	248.31
272.162	253.31
272.394	270.31
272.626	273.31
272.858	226.31
273.09	241.31
273.322	222.31
273.553	226.31
273.785	233.31
274.017	214.31
274.249	241.31
274.481	230.31
274.713	227.31
274.945	229.31
275.176	224.31
275.408	245.31
275.64	222.31
275.872	233.31
276.104	232.31
276.335	225.31
276.567	227.31
276.799	250.31
277.031	259.31
277.262	281.31
277.494	276.31
277.726	267.31
277.957	248.31
278.189	250.31
278.421	243.31
278.652	246.31
278.884	234.31
279.115	217.31
279.347	229.31
279.579	250.31
279.81	229.31
280.042	222.31
280.273	250.31
280.505	256.31
280.736	243.31
280.968	243.31
281.199	218.31
281.431	229.31
281.662	240.31
281.894	234.31
282.125	223.31
282.356	259.31
282.588	254.31
282.819	238.31
283.051	243.31
283.282	257.31
283.513	253.31
283.745	243.31
283.976	258.31
284.207	269.31
284.439	244.31
284.67	263.31
284.901	236.31
285.132	261.31
285.364	237.31
285.595	244.31
285.826	251.31
286.057	232.31
286.288	254.31
286.52	253.31
286.751	252.31
286.982	255.31
287.213	260.31
287.444	250.31
287.675	278.31
287.906	269.31
288.138	257.31
288.369	271.31
288.6	258.31
288.831	273.31
289.062	263.31
289.293	271.31
289.524	269.31
289.755	282.31
289.986	255.31
290.217	274.31
290.448	262.31
290.679	244.31
290.91	258.31
291.141	256.31
291.371	282.31
291.602	264.31
291.833	266.31
292.064	264.31
292.295	261.31
292.526	246.31
292.757	263.31
292.987	267.31
293.218	262.31
293.449	275.31
293.68	265.31
293.91	267.31
294.141	269.31
294.372	260.31
294.603	281.31
294.833	285.31
295.064	261.31
295.295	263.31
295.525	265.31
295.756	244.31
295.987	264.31
296.217	301.31
296.448	296.31
296.679	282.31
296.909	281.31
297.14	263.31
297.37	277.31
297.601	259.31
297.831	262.31
298.062	279.31
298.292	282.31
298.523	264.31
298.753	275.31
298.984	270.31
299.214	281.31
299.445	292.31
299.675	293.31
299.905	278.31
300.136	283.31
300.366	287.31
300.597	273.31
300.827	299.31
301.057	285.31
301.288	301.31
301.518	304.31
301.748	289.31
301.979	321.31
302.209	297.31
302.439	287.31
302.669	275.31
302.9	290.31
303.13	293.31
303.36	306.31
303.59	295.31
303.82	317.31
304.051	294.31
304.281	285.31
304.511	308.31
304.741	294.31
304.971	297.31
305.201	295.31
305.431	286.31
305.661	290.31
305.891	287.31
306.121	298.31
306.352	287.31
306.582	298.31
306.812	286.31
307.042	304.31
307.272	294.31
307.502	297.31
307.731	291.31
307.961	285.31
308.191	288.31
308.421	271.31
308.651	296.31
308.881	294.31
309.111	306.31
309.341	297.31
309.571	306.31
309.8	321.31
310.03	301.31
310.26	308.31
310.49	341.31
310.72	338.31
310.949	331.31
311.179	336.31
311.409	334.31
311.639	313.31
311.868	341.31
312.098	322.31
312.328	319.31
312.557	335.31
312.787	332.31
313.017	340.31
313.246	340.31
313.476	324.31
313.706	304.31
313.935	332.31
314.165	351.31
314.394	344.31
314.624	339.31
314.853	342.31
315.083	320.31
315.312	336.31
315.542	325.31
315.771	313.31
316.001	310.31
316.23	329.31
316.46	343.31
316.689	342.31
316.919	352.31
317.148	340.31
317.377	358.31
317.607	330.31
317.836	346.31
318.065	354.31
318.295	321.31
318.524	316.31
318.753	313.31
318.983	314.31
319.212	334.31
319.441	322.31
319.67	337.31
319.9	317.31
320.129	321.31
320.358	307.31
320.587	330.31
320.816	322.31
321.046	336.31
321.275	349.31
321.504	338.31
321.733	325.31
321.962	331.31
322.191	355.31
322.42	354.31
322.649	372.31
322.878	374.31
323.108	368.31
323.337	385.31
323.566	406.31
323.795	427.31
324.024	436.31
324.253	477.31
324.482	691.31
324.71	1004.31
324.939	1293.31
325.168	1070.31
325.397	600.31
325.626	449.31
325.855	401.31
326.084	400.31
326.313	391.31
326.542	397.31
326.77	410.31
326.999	453.31
327.228	627.31
327.457	881.31
327.686	971.31
327.914	687.31
328.143	503.31
328.372	458.31
328.6	440.31
328.829	430.31
329.058	443.31
329.287	448.31
329.515	430.31
329.744	415.31
329.972	428.31
330.201	437.31
330.43	467.31
330.658	471.31
330.887	483.31
331.115	459.31
331.344	422.31
331.572	399.31
331.801	420.31
332.03	406.31
332.258	398.31
332.486	411.31
332.715	398.31
332.943	407.31
333.172	409.31
333.4	417.31
333.629	425.31
333.857	446.31
334.085	444.31
334.314	472.31
334.542	474.31
334.771	463.31
334.999	454.31
335.227	433.31
335.455	417.31
335.684	399.31
335.912	414.31
336.14	394.31
336.369	389.31
336.597	389.31
336.825	403.31
337.053	403.31
337.281	381.31
337.51	381.31
337.738	375.31
337.966	384.31
338.194	369.31
338.422	381.31
338.65	375.31
338.878	356.31
339.106	367.31
339.334	375.31
339.562	359.31
339.79	370.31
340.018	379.31
340.246	377.31
340.474	378.31
340.702	344.31
340.93	377.31
341.158	389.31
341.386	358.31
341.614	360.31
341.842	355.31
342.07	362.31
342.298	360.31
342.526	340.31
342.754	357.31
342.981	370.31
343.209	352.31
343.437	377.31
343.665	379.31
343.893	374.31
344.12	385.31
344.348	398.31
344.576	377.31
344.804	383.31
345.031	381.31
345.259	378.31
345.487	387.31
345.714	365.31
345.942	370.31
346.17	353.31
346.397	343.31
346.625	330.31
346.853	333.31
347.08	357.31
347.308	355.31
347.535	336.31
347.763	369.31
347.99	331.31
348.218	345.31
348.445	358.31
348.673	345.31
348.9	340.31
349.128	370.31
349.355	349.31
349.583	342.31
349.81	334.31
350.037	345.31
350.265	355.31
350.492	335.31
350.72	331.31
350.947	346.31
351.174	350.31
351.402	338.31
351.629	343.31
351.856	354.31
352.083	331.31
352.311	351.31
352.538	348.31
352.765	341.31
352.992	353.31
353.22	347.31
353.447	346.31
353.674	345.31
353.901	333.31
354.128	336.31
354.355	337.31
354.583	337.31
354.81	316.31
355.037	319.31
355.264	330.31
355.491	324.31
355.718	332.31
355.945	302.31
356.172	311.31
356.399	306.31
356.626	331.31
356.853	333.31
357.08	309.31
357.307	311.31
357.534	332.31
357.761	325.31
357.988	338.31
358.215	309.31
358.441	336.31
358.668	331.31
358.895	337.31
359.122	336.31
359.349	328.31
359.576	359.31
359.802	369.31
360.029	359.31
360.256	365.31
360.483	366.31
360.709	370.31
360.936	339.31
361.163	341.31
361.39	333.31
361.616	358.31
361.843	338.31
362.07	342.31
362.296	343.31
362.523	339.31
362.749	339.31
362.976	366.31
363.203	334.31
363.429	339.31
363.656	332.31
363.882	339.31
364.109	329.31
364.335	331.31
364.562	325.31
364.788	326.31
365.015	314.31
365.241	331.31
365.468	337.31
365.694	351.31
365.92	343.31
366.147	341.31
366.373	336.31
366.599	319.31
366.826	324.31
367.052	327.31
367.278	325.31
367.505	313.31
367.731	323.31
367.957	333.31
368.184	330.31
368.41	343.31
368.636	338.31
368.862	345.31
369.089	340.31
369.315	329.31
369.541	315.31
369.767	327.31
369.993	327.31
370.219	360.31
370.445	345.31
370.672	328.31
370.898	329.31
371.124	330.31
371.35	344.31
371.576	351.31
371.802	356.31
372.028	345.31
372.254	352.31
372.48	329.31
372.706	351.31
372.932	342.31
373.158	337.31
373.384	356.31
373.61	362.31
373.835	332.31
374.061	337.31
374.287	345.31
374.513	336.31
374.739	366.31
374.965	358.31
375.191	338.31
375.416	350.31
375.642	369.31
375.868	341.31
376.094	345.31
376.319	348.31
376.545	320.31
376.771	356.31
376.997	332.31
377.222	330.31
377.448	353.31
377.674	327.31
377.899	343.31
378.125	340.31
378.35	357.31
378.576	334.31
378.802	341.31
379.027	328.31
379.253	322.31
379.478	353.31
379.704	335.31
379.929	340.31
380.155	323.31
380.38	330.31
380.606	345.31
380.831	338.31
381.057	351.31
381.282	342.31
381.507	331.31
381.733	351.31
381.958	338.31
382.184	354.31
382.409	359.31
382.634	350.31
382.86	348.31
383.085	367.31
383.31	349.31
383.535	359.31
383.761	369.31
383.986	360.31
384.211	359.31
384.436	353.31
384.662	382.31
384.887	376.31
385.112	380.31
385.337	360.31
385.562	343.31
385.787	368.31
386.013	389.31
386.238	401.31
386.463	366.31
386.688	365.31
386.913	363.31
387.138	371.31
387.363	363.31
387.588	377.31
387.813	378.31
388.038	358.31
388.263	376.31
388.488	376.31
388.713	375.31
388.938	377.31
389.163	387.31
389.387	387.31
389.612	379.31
389.837	388.31
390.062	370.31
390.287	353.31
390.512	365.31
390.736	382.31
390.961	364.31
391.186	394.31
391.411	380.31
391.636	396.31
391.86	401.31
392.085	395.31
392.31	394.31
392.534	388.31
392.759	393.31
392.984	383.31
393.208	376.31
393.433	383.31
393.658	381.31
393.882	382.31
394.107	397.31
394.331	378.31
394.556	380.31
394.78	393.31
395.005	381.31
395.229	393.31
395.454	401.31
395.678	390.31
395.903	393.31
396.127	431.31
396.352	413.31
396.576	379.31
396.801	375.31
397.025	394.31
397.249	399.31
397.474	393.31
397.698	438.31
397.922	405.31
398.147	419.31
398.371	446.31
398.595	431.31
398.82	432.31
399.044	449.31
399.268	496.31
399.492	545.31
399.717	551.31
399.941	580.31
400.165	570.31
400.389	560.31
400.613	469.31
400.837	466.31
401.062	429.31
401.286	419.31
401.51	433.31
401.734	440.31
401.958	453.31
402.182	440.31
402.406	454.31
402.63	448.31
402.854	475.31
403.078	451.31
403.302	458.31
403.526	485.31
403.75	479.31
403.974	470.31
404.198	482.31
404.422	475.31
404.645	480.31
404.869	473.31
405.093	487.31
405.317	516.31
405.541	515.31
405.765	473.31
405.988	483.31
406.212	475.31
406.436	493.31
406.66	527.31
406.883	513.31
407.107	517.31
407.331	553.31
407.555	596.31
407.778	589.31
408.002	547.31
408.226	527.31
408.449	491.31
408.673	502.31
408.896	481.31
409.12	529.31
409.344	504.31
409.567	471.31
409.791	460.31
410.014	458.31
410.238	470.31
410.461	457.31
410.685	470.31
410.908	467.31
411.132	490.31
411.355	489.31
411.578	480.31
411.802	434.31
412.025	459.31
412.249	469.31
412.472	469.31
412.695	518.31
412.919	478.31
413.142	463.31
413.365	455.31
413.589	447.31
413.812	435.31
414.035	444.31
414.258	443.31
414.482	426.31
414.705	437.31
414.928	438.31
415.151	424.31
415.374	439.31
415.597	413.31
415.821	431.31
416.044	443.31
416.267	426.31
416.49	407.31
416.713	418.31
416.936	415.31
417.159	423.31
417.382	407.31
417.605	439.31
417.828	456.31
418.051	459.31
418.274	447.31
418.497	446.31
418.72	440.31
418.943	428.31
419.166	434.31
419.389	466.31
419.611	471.31
419.834	459.31
420.057	469.31
420.28	470.31
420.503	453.31
420.726	443.31
420.948	453.31
421.171	459.31
421.394	471.31
421.617	466.31
421.839	451.31
422.062	449.31
422.285	452.31
422.507	505.31
422.73	534.31
422.953	541.31
423.175	481.31
423.398	467.31
423.621	480.31
423.843	477.31
424.066	470.31
424.288	485.31
424.511	515.31
424.733	513.31
424.956	552.31
425.178	544.31
425.401	524.31
425.623	550.31
425.846	494.31
426.068	477.31
426.291	452.31
426.513	479.31
426.735	455.31
426.958	484.31
427.18	537.31
427.402	622.31
427.625	666.31
427.847	569.31
428.069	517.31
428.292	451.31
428.514	439.31
428.736	418.31
428.958	440.31
429.181	407.31
429.403	418.31
429.625	417.31
429.847	441.31
430.069	474.31
430.292	489.31
430.514	432.31
430.736	422.31
430.958	433.31
431.18	403.31
431.402	425.31
431.624	401.31
431.846	404.31
432.068	402.31
432.29	391.31
432.512	403.31
432.734	433.31
432.956	409.31
433.178	422.31
433.4	414.31
433.622	408.31
433.844	421.31
434.066	409.31
434.287	433.31
434.509	403.31
434.731	422.31
434.953	444.31
435.175	430.31
435.397	451.31
435.618	471.31
435.84	458.31
436.062	541.31
436.284	567.31
436.505	496.31
436.727	441.31
436.949	435.31
437.17	431.31
437.392	409.31
437.614	440.31
437.835	426.31
438.057	503.31
438.278	521.31
438.5	585.31
438.721	592.31
438.943	571.31
439.165	467.31
439.386	438.31
439.608	450.31
439.829	460.31
440.05	457.31
440.272	502.31
440.493	481.31
440.715	421.31
440.936	451.31
441.158	423.31
441.379	428.31
441.6	446.31
441.822	477.31
442.043	485.31
442.264	535.31
442.486	545.31
442.707	498.31
442.928	474.31
443.149	475.31
443.371	505.31
443.592	506.31
443.813	562.31
444.034	597.31
444.255	523.31
444.476	509.31
444.698	479.31
444.919	499.31
445.14	570.31
445.361	539.31
445.582	512.31
445.803	535.31
446.024	599.31
446.245	584.31
446.466	529.31
446.687	456.31
446.908	463.31
447.129	416.31
447.35	408.31
447.571	406.31
447.792	420.31
448.013	437.31
448.234	438.31
448.455	457.31
448.675	527.31
448.896	591.31
449.117	513.31
449.338	486.31
449.559	557.31
449.779	626.31
450	502.31
450.221	425.31
450.442	423.31
450.662	406.31
450.883	429.31
451.104	391.31
451.324	406.31
451.545	402.31
451.766	384.31
451.986	357.31
452.207	371.31
452.428	405.31
452.648	388.31
452.869	385.31
453.089	368.31
453.31	372.31
453.53	395.31
453.751	388.31
453.971	383.31
454.192	407.31
454.412	375.31
454.633	378.31
454.853	381.31
455.073	383.31
455.294	393.31
455.514	439.31
455.734	424.31
455.955	369.31
456.175	369.31
456.395	370.31
456.616	366.31
456.836	336.31
457.056	345.31
457.276	327.31
457.497	355.31
457.717	342.31
457.937	351.31
458.157	366.31
458.377	359.31
458.598	377.31
458.818	401.31
459.038	493.31
459.258	471.31
459.478	441.31
459.698	424.31
459.918	398.31
460.138	414.31
460.358	430.31
460.578	446.31
460.798	431.31
461.018	431.31
461.238	426.31
461.458	424.31
461.678	402.31
461.898	434.31
462.118	452.31
462.338	458.31
462.558	467.31
462.777	457.31
462.997	497.31
463.217	525.31
463.437	517.31
463.657	507.31
463.876	458.31
464.096	482.31
464.316	489.31
464.536	480.31
464.755	460.31
464.975	463.31
465.195	488.31
465.414	520.31
465.634	471.31
465.854	432.31
466.073	411.31
466.293	415.31
466.512	421.31
466.732	425.31
466.951	382.31
467.171	365.31
467.391	390.31
467.61	394.31
467.829	397.31
468.049	403.31
468.268	392.31
468.488	410.31
468.707	381.31
468.927	389.31
469.146	399.31
469.365	390.31
469.585	378.31
469.804	405.31
470.023	403.31
470.243	390.31
470.462	413.31
470.681	450.31
470.901	409.31
471.12	402.31
471.339	387.31
471.558	413.31
471.777	407.31
471.997	392.31
472.216	394.31
472.435	426.31
472.654	403.31
472.873	371.31
473.092	403.31
473.311	404.31
473.53	388.31
473.749	387.31
473.968	432.31
474.187	493.31
474.406	475.31
474.625	437.31
474.844	419.31
475.063	391.31
475.282	395.31
475.501	407.31
475.72	398.31
475.939	402.31
476.158	399.31
476.377	418.31
476.596	379.31
476.814	391.31
477.033	419.31
477.252	431.31
477.471	427.31
477.69	429.31
477.908	424.31
478.127	438.31
478.346	439.31
478.564	438.31
478.783	443.31
479.002	461.31
479.22	458.31
479.439	472.31
479.658	481.31
479.876	490.31
480.095	471.31
480.313	501.31
480.532	486.31
480.751	500.31
480.969	499.31
481.188	537.31
481.406	560.31
481.624	485.31
481.843	473.31
482.061	451.31
482.28	459.31
482.498	442.31
482.717	423.31
482.935	460.31
483.153	441.31
483.372	449.31
483.59	453.31
483.808	431.31
484.027	452.31
484.245	453.31
484.463	446.31
484.681	448.31
484.9	466.31
485.118	460.31
485.336	466.31
485.554	460.31
485.772	463.31
485.99	489.31
486.209	475.31
486.427	463.31
486.645	473.31
486.863	480.31
487.081	502.31
487.299	463.31
487.517	478.31
487.735	473.31
487.953	489.31
488.171	500.31
488.389	479.31
488.607	510.31
488.825	472.31
489.043	465.31
489.261	500.31
489.479	489.31
489.696	479.31
489.914	505.31
490.132	515.31
490.35	517.31
490.568	513.31
490.786	496.31
491.003	505.31
491.221	542.31
491.439	579.31
491.657	552.31
491.874	559.31
492.092	573.31
492.31	567.31
492.527	580.31
492.745	580.31
492.963	573.31
493.18	560.31
493.398	583.31
493.615	580.31
493.833	602.31
494.05	579.31
494.268	575.31
494.485	588.31
494.703	567.31
494.92	552.31
495.138	559.31
495.355	578.31
495.573	585.31
495.79	582.31
496.008	570.31
496.225	570.31
496.442	555.31
496.66	566.31
496.877	585.31
497.094	580.31
497.312	564.31
497.529	605.31
497.746	598.31
497.963	618.31
498.181	624.31
498.398	658.31
498.615	638.31
498.832	679.31
499.049	717.31
499.267	705.31
499.484	783.31
499.701	830.31
499.918	838.31
500.135	909.31
500.352	1023.31
500.569	1025.31
500.786	990.31
501.003	942.31
501.22	907.31
501.437	905.31
501.654	830.31
501.871	775.31
502.088	772.31
