Data from 1969.PennyLincolnUp.Lamp.En5.5.200Scan.071719.P1._HRD10591_14-54-01-971.txt Node
Date: Thu Jul 18 14:54:01 EDT 2019
User: cochatt
Spectrometer: HR+D1059
Trigger mode: 1
Integration Time (sec): 1.000000E-1
Scans to average: 1
Electric dark correction enabled: true
Nonlinearity correction enabled: false
Boxcar width: 0
XAxis mode: Wavelengths
Number of Pixels in Spectrum: 2048
>>>>>Begin Spectral Data<<<<<
223.165	-14.56
223.4	-14.56
223.635	-14.56
223.869	-14.56
224.104	-19.56
224.338	-22.56
224.573	6.44
224.808	-12.56
225.042	-2.56
225.277	5.44
225.511	10.44
225.746	-9.56
225.98	-6.56
226.215	-0.56
226.449	11.44
226.683	24.44
226.918	19.44
227.152	25.44
227.387	36.44
227.621	39.44
227.856	43.44
228.09	46.44
228.324	53.44
228.559	57.44
228.793	59.44
229.027	83.44
229.262	93.44
229.496	77.44
229.73	88.44
229.964	115.44
230.199	105.44
230.433	88.44
230.667	93.44
230.901	93.44
231.136	90.44
231.37	110.44
231.604	100.44
231.838	107.44
232.072	113.44
232.306	101.44
232.541	97.44
232.775	101.44
233.009	92.44
233.243	103.44
233.477	98.44
233.711	97.44
233.945	90.44
234.179	116.44
234.413	108.44
234.647	101.44
234.881	102.44
235.115	85.44
235.349	111.44
235.583	108.44
235.817	102.44
236.051	110.44
236.285	108.44
236.519	102.44
236.753	103.44
236.987	106.44
237.221	125.44
237.455	154.44
237.689	121.44
237.922	107.44
238.156	117.44
238.39	117.44
238.624	116.44
238.858	107.44
239.091	117.44
239.325	96.44
239.559	111.44
239.793	125.44
240.027	109.44
240.26	127.44
240.494	125.44
240.728	127.44
240.961	124.44
241.195	129.44
241.429	114.44
241.662	119.44
241.896	102.44
242.13	103.44
242.363	104.44
242.597	112.44
242.83	109.44
243.064	119.44
243.298	108.44
243.531	119.44
243.765	116.44
243.998	128.44
244.232	122.44
244.465	114.44
244.699	129.44
244.932	123.44
245.166	129.44
245.399	133.44
245.633	121.44
245.866	127.44
246.099	119.44
246.333	125.44
246.566	140.44
246.8	137.44
247.033	135.44
247.266	119.44
247.5	119.44
247.733	139.44
247.966	146.44
248.2	137.44
248.433	126.44
248.666	122.44
248.899	149.44
249.133	133.44
249.366	148.44
249.599	161.44
249.832	145.44
250.066	150.44
250.299	153.44
250.532	141.44
250.765	163.44
250.998	170.44
251.231	162.44
251.465	147.44
251.698	162.44
251.931	154.44
252.164	149.44
252.397	147.44
252.63	161.44
252.863	153.44
253.096	167.44
253.329	156.44
253.562	167.44
253.795	160.44
254.028	171.44
254.261	162.44
254.494	164.44
254.727	179.44
254.96	188.44
255.193	177.44
255.426	177.44
255.659	178.44
255.892	162.44
256.124	167.44
256.357	178.44
256.59	197.44
256.823	192.44
257.056	164.44
257.289	178.44
257.521	155.44
257.754	178.44
257.987	156.44
258.22	164.44
258.452	173.44
258.685	164.44
258.918	172.44
259.151	166.44
259.383	170.44
259.616	194.44
259.849	190.44
260.081	195.44
260.314	186.44
260.547	181.44
260.779	187.44
261.012	163.44
261.244	187.44
261.477	189.44
261.71	166.44
261.942	185.44
262.175	182.44
262.407	174.44
262.64	175.44
262.872	162.44
263.105	173.44
263.337	177.44
263.57	172.44
263.802	165.44
264.035	180.44
264.267	166.44
264.499	168.44
264.732	164.44
264.964	170.44
265.197	177.44
265.429	177.44
265.661	182.44
265.894	173.44
266.126	169.44
266.358	174.44
266.591	187.44
266.823	183.44
267.055	172.44
267.287	190.44
267.52	177.44
267.752	173.44
267.984	163.44
268.216	189.44
268.448	190.44
268.681	186.44
268.913	202.44
269.145	201.44
269.377	207.44
269.609	214.44
269.841	213.44
270.073	200.44
270.306	214.44
270.538	207.44
270.77	229.44
271.002	203.44
271.234	220.44
271.466	241.44
271.698	230.44
271.93	238.44
272.162	230.44
272.394	219.44
272.626	218.44
272.858	212.44
273.09	215.44
273.322	213.44
273.553	208.44
273.785	206.44
274.017	215.44
274.249	216.44
274.481	197.44
274.713	200.44
274.945	216.44
275.176	203.44
275.408	211.44
275.64	206.44
275.872	227.44
276.104	219.44
276.335	207.44
276.567	207.44
276.799	205.44
277.031	218.44
277.262	230.44
277.494	214.44
277.726	229.44
277.957	224.44
278.189	214.44
278.421	205.44
278.652	219.44
278.884	217.44
279.115	224.44
279.347	219.44
279.579	202.44
279.81	224.44
280.042	209.44
280.273	223.44
280.505	227.44
280.736	196.44
280.968	217.44
281.199	233.44
281.431	222.44
281.662	231.44
281.894	217.44
282.125	203.44
282.356	239.44
282.588	223.44
282.819	237.44
283.051	231.44
283.282	233.44
283.513	232.44
283.745	230.44
283.976	235.44
284.207	239.44
284.439	219.44
284.67	221.44
284.901	234.44
285.132	238.44
285.364	208.44
285.595	232.44
285.826	219.44
286.057	228.44
286.288	236.44
286.52	247.44
286.751	250.44
286.982	247.44
287.213	249.44
287.444	244.44
287.675	233.44
287.906	228.44
288.138	256.44
288.369	234.44
288.6	229.44
288.831	229.44
289.062	234.44
289.293	248.44
289.524	234.44
289.755	233.44
289.986	240.44
290.217	227.44
290.448	229.44
290.679	242.44
290.91	247.44
291.141	241.44
291.371	243.44
291.602	243.44
291.833	241.44
292.064	224.44
292.295	242.44
292.526	255.44
292.757	254.44
292.987	251.44
293.218	236.44
293.449	255.44
293.68	249.44
293.91	246.44
294.141	231.44
294.372	241.44
294.603	245.44
294.833	243.44
295.064	241.44
295.295	258.44
295.525	225.44
295.756	246.44
295.987	244.44
296.217	248.44
296.448	257.44
296.679	247.44
296.909	257.44
297.14	261.44
297.37	248.44
297.601	269.44
297.831	254.44
298.062	272.44
298.292	253.44
298.523	267.44
298.753	263.44
298.984	248.44
299.214	247.44
299.445	264.44
299.675	263.44
299.905	263.44
300.136	253.44
300.366	247.44
300.597	269.44
300.827	262.44
301.057	267.44
301.288	277.44
301.518	277.44
301.748	285.44
301.979	263.44
302.209	250.44
302.439	262.44
302.669	267.44
302.9	242.44
303.13	250.44
303.36	271.44
303.59	271.44
303.82	277.44
304.051	289.44
304.281	266.44
304.511	279.44
304.741	269.44
304.971	276.44
305.201	279.44
305.431	260.44
305.661	256.44
305.891	268.44
306.121	275.44
306.352	282.44
306.582	275.44
306.812	283.44
307.042	270.44
307.272	283.44
307.502	273.44
307.731	260.44
307.961	270.44
308.191	258.44
308.421	280.44
308.651	268.44
308.881	260.44
309.111	284.44
309.341	265.44
309.571	290.44
309.8	289.44
310.03	281.44
310.26	280.44
310.49	298.44
310.72	287.44
310.949	296.44
311.179	292.44
311.409	285.44
311.639	290.44
311.868	273.44
312.098	298.44
312.328	309.44
312.557	297.44
312.787	297.44
313.017	309.44
313.246	303.44
313.476	288.44
313.706	290.44
313.935	307.44
314.165	290.44
314.394	309.44
314.624	311.44
314.853	292.44
315.083	295.44
315.312	286.44
315.542	315.44
315.771	305.44
316.001	294.44
316.23	289.44
316.46	296.44
316.689	302.44
316.919	298.44
317.148	285.44
317.377	295.44
317.607	307.44
317.836	290.44
318.065	292.44
318.295	301.44
318.524	301.44
318.753	299.44
318.983	287.44
319.212	313.44
319.441	293.44
319.67	309.44
319.9	283.44
320.129	280.44
320.358	282.44
320.587	287.44
320.816	308.44
321.046	310.44
321.275	300.44
321.504	307.44
321.733	279.44
321.962	317.44
322.191	294.44
322.42	316.44
322.649	312.44
322.878	325.44
323.108	324.44
323.337	321.44
323.566	344.44
323.795	361.44
324.024	357.44
324.253	404.44
324.482	499.44
324.71	702.44
324.939	927.44
325.168	772.44
325.397	473.44
325.626	378.44
325.855	337.44
326.084	342.44
326.313	333.44
326.542	349.44
326.77	346.44
326.999	382.44
327.228	487.44
327.457	628.44
327.686	693.44
327.914	512.44
328.143	394.44
328.372	387.44
328.6	354.44
328.829	375.44
329.058	362.44
329.287	385.44
329.515	360.44
329.744	353.44
329.972	348.44
330.201	364.44
330.43	386.44
330.658	379.44
330.887	396.44
331.115	384.44
331.344	350.44
331.572	361.44
331.801	355.44
332.03	363.44
332.258	379.44
332.486	377.44
332.715	369.44
332.943	355.44
333.172	361.44
333.4	354.44
333.629	390.44
333.857	404.44
334.085	365.44
334.314	404.44
334.542	404.44
334.771	403.44
334.999	389.44
335.227	393.44
335.455	371.44
335.684	361.44
335.912	359.44
336.14	380.44
336.369	365.44
336.597	355.44
336.825	365.44
337.053	350.44
337.281	334.44
337.51	332.44
337.738	341.44
337.966	361.44
338.194	377.44
338.422	350.44
338.65	344.44
338.878	337.44
339.106	360.44
339.334	354.44
339.562	334.44
339.79	316.44
340.018	334.44
340.246	335.44
340.474	335.44
340.702	322.44
340.93	347.44
341.158	338.44
341.386	356.44
341.614	340.44
341.842	351.44
342.07	327.44
342.298	326.44
342.526	318.44
342.754	341.44
342.981	323.44
343.209	336.44
343.437	334.44
343.665	329.44
343.893	349.44
344.12	361.44
344.348	367.44
344.576	330.44
344.804	341.44
345.031	324.44
345.259	329.44
345.487	332.44
345.714	337.44
345.942	331.44
346.17	342.44
346.397	325.44
346.625	325.44
346.853	315.44
347.08	330.44
347.308	317.44
347.535	338.44
347.763	323.44
347.99	316.44
348.218	315.44
348.445	313.44
348.673	329.44
348.9	326.44
349.128	314.44
349.355	307.44
349.583	305.44
349.81	302.44
350.037	313.44
350.265	296.44
350.492	308.44
350.72	311.44
350.947	323.44
351.174	310.44
351.402	323.44
351.629	307.44
351.856	309.44
352.083	299.44
352.311	330.44
352.538	327.44
352.765	318.44
352.992	310.44
353.22	306.44
353.447	307.44
353.674	314.44
353.901	315.44
354.128	311.44
354.355	295.44
354.583	293.44
354.81	298.44
355.037	299.44
355.264	301.44
355.491	301.44
355.718	306.44
355.945	285.44
356.172	297.44
356.399	298.44
356.626	307.44
356.853	306.44
357.08	313.44
357.307	288.44
357.534	309.44
357.761	292.44
357.988	307.44
358.215	296.44
358.441	292.44
358.668	299.44
358.895	309.44
359.122	299.44
359.349	293.44
359.576	309.44
359.802	333.44
360.029	317.44
360.256	324.44
360.483	321.44
360.709	312.44
360.936	317.44
361.163	313.44
361.39	302.44
361.616	298.44
361.843	300.44
362.07	312.44
362.296	310.44
362.523	305.44
362.749	311.44
362.976	307.44
363.203	312.44
363.429	282.44
363.656	302.44
363.882	305.44
364.109	303.44
364.335	307.44
364.562	305.44
364.788	298.44
365.015	305.44
365.241	294.44
365.468	305.44
365.694	310.44
365.92	297.44
366.147	282.44
366.373	286.44
366.599	288.44
366.826	294.44
367.052	302.44
367.278	292.44
367.505	300.44
367.731	320.44
367.957	305.44
368.184	307.44
368.41	306.44
368.636	322.44
368.862	289.44
369.089	307.44
369.315	297.44
369.541	294.44
369.767	311.44
369.993	321.44
370.219	314.44
370.445	307.44
370.672	314.44
370.898	299.44
371.124	319.44
371.35	317.44
371.576	313.44
371.802	307.44
372.028	310.44
372.254	308.44
372.48	306.44
372.706	319.44
372.932	317.44
373.158	329.44
373.384	333.44
373.61	315.44
373.835	306.44
374.061	325.44
374.287	329.44
374.513	321.44
374.739	315.44
374.965	344.44
375.191	320.44
375.416	325.44
375.642	310.44
375.868	314.44
376.094	319.44
376.319	321.44
376.545	311.44
376.771	316.44
376.997	319.44
377.222	292.44
377.448	307.44
377.674	309.44
377.899	321.44
378.125	324.44
378.35	308.44
378.576	313.44
378.802	295.44
379.027	321.44
379.253	319.44
379.478	322.44
379.704	322.44
379.929	295.44
380.155	297.44
380.38	309.44
380.606	327.44
380.831	314.44
381.057	328.44
381.282	315.44
381.507	325.44
381.733	329.44
381.958	325.44
382.184	323.44
382.409	308.44
382.634	312.44
382.86	319.44
383.085	338.44
383.31	318.44
383.535	334.44
383.761	308.44
383.986	333.44
384.211	327.44
384.436	336.44
384.662	348.44
384.887	366.44
385.112	331.44
385.337	329.44
385.562	362.44
385.787	355.44
386.013	334.44
386.238	365.44
386.463	351.44
386.688	353.44
386.913	327.44
387.138	344.44
387.363	357.44
387.588	345.44
387.813	354.44
388.038	335.44
388.263	355.44
388.488	360.44
388.713	346.44
388.938	341.44
389.163	329.44
389.387	337.44
389.612	329.44
389.837	330.44
390.062	326.44
390.287	345.44
390.512	347.44
390.736	334.44
390.961	355.44
391.186	350.44
391.411	374.44
391.636	361.44
391.86	364.44
392.085	373.44
392.31	393.44
392.534	383.44
392.759	357.44
392.984	372.44
393.208	373.44
393.433	386.44
393.658	375.44
393.882	369.44
394.107	350.44
394.331	333.44
394.556	331.44
394.78	377.44
395.005	386.44
395.229	382.44
395.454	370.44
395.678	362.44
395.903	381.44
396.127	382.44
396.352	371.44
396.576	364.44
396.801	356.44
397.025	361.44
397.249	365.44
397.474	374.44
397.698	387.44
397.922	380.44
398.147	381.44
398.371	394.44
398.595	402.44
398.82	397.44
399.044	422.44
399.268	439.44
399.492	488.44
399.717	540.44
399.941	525.44
400.165	513.44
400.389	475.44
400.613	454.44
400.837	421.44
401.062	400.44
401.286	410.44
401.51	419.44
401.734	395.44
401.958	406.44
402.182	426.44
402.406	437.44
402.63	411.44
402.854	426.44
403.078	424.44
403.302	433.44
403.526	427.44
403.75	435.44
403.974	445.44
404.198	443.44
404.422	445.44
404.645	436.44
404.869	449.44
405.093	447.44
405.317	498.44
405.541	482.44
405.765	446.44
405.988	446.44
406.212	441.44
406.436	459.44
406.66	472.44
406.883	457.44
407.107	462.44
407.331	505.44
407.555	533.44
407.778	517.44
408.002	484.44
408.226	486.44
408.449	460.44
408.673	454.44
408.896	475.44
409.12	477.44
409.344	458.44
409.567	439.44
409.791	448.44
410.014	438.44
410.238	443.44
410.461	431.44
410.685	436.44
410.908	423.44
411.132	449.44
411.355	446.44
411.578	426.44
411.802	413.44
412.025	413.44
412.249	434.44
412.472	425.44
412.695	449.44
412.919	429.44
413.142	435.44
413.365	414.44
413.589	425.44
413.812	394.44
414.035	404.44
414.258	399.44
414.482	388.44
414.705	400.44
414.928	399.44
415.151	397.44
415.374	396.44
415.597	382.44
415.821	390.44
416.044	400.44
416.267	399.44
416.49	408.44
416.713	394.44
416.936	400.44
417.159	405.44
417.382	403.44
417.605	382.44
417.828	397.44
418.051	406.44
418.274	413.44
418.497	412.44
418.72	400.44
418.943	389.44
419.166	432.44
419.389	439.44
419.611	426.44
419.834	410.44
420.057	424.44
420.28	393.44
420.503	400.44
420.726	426.44
420.948	428.44
421.171	422.44
421.394	435.44
421.617	414.44
421.839	412.44
422.062	427.44
422.285	413.44
422.507	429.44
422.73	477.44
422.953	462.44
423.175	411.44
423.398	418.44
423.621	435.44
423.843	448.44
424.066	422.44
424.288	430.44
424.511	443.44
424.733	468.44
424.956	489.44
425.178	474.44
425.401	458.44
425.623	464.44
425.846	443.44
426.068	424.44
426.291	423.44
426.513	403.44
426.735	411.44
426.958	422.44
427.18	481.44
427.402	512.44
427.625	539.44
427.847	477.44
428.069	469.44
428.292	425.44
428.514	405.44
428.736	378.44
428.958	395.44
429.181	371.44
429.403	380.44
429.625	360.44
429.847	383.44
430.069	420.44
430.292	406.44
430.514	384.44
430.736	394.44
430.958	410.44
431.18	385.44
431.402	367.44
431.624	371.44
431.846	370.44
432.068	380.44
432.29	363.44
432.512	382.44
432.734	381.44
432.956	379.44
433.178	375.44
433.4	376.44
433.622	374.44
433.844	381.44
434.066	373.44
434.287	395.44
434.509	370.44
434.731	405.44
434.953	402.44
435.175	402.44
435.397	413.44
435.618	397.44
435.84	428.44
436.062	464.44
436.284	483.44
436.505	443.44
436.727	414.44
436.949	377.44
437.17	387.44
437.392	375.44
437.614	386.44
437.835	394.44
438.057	423.44
438.278	474.44
438.5	480.44
438.721	507.44
438.943	478.44
439.165	404.44
439.386	404.44
439.608	444.44
439.829	407.44
440.05	419.44
440.272	402.44
440.493	421.44
440.715	408.44
440.936	394.44
441.158	396.44
441.379	383.44
441.6	413.44
441.822	405.44
442.043	443.44
442.264	490.44
442.486	484.44
442.707	450.44
442.928	413.44
443.149	449.44
443.371	418.44
443.592	455.44
443.813	515.44
444.034	531.44
444.255	464.44
444.476	444.44
444.698	433.44
444.919	433.44
445.14	581.44
445.361	489.44
445.582	441.44
445.803	469.44
446.024	494.44
446.245	492.44
446.466	461.44
446.687	430.44
446.908	399.44
447.129	385.44
447.35	388.44
447.571	387.44
447.792	374.44
448.013	370.44
448.234	378.44
448.455	404.44
448.675	461.44
448.896	499.44
449.117	436.44
449.338	431.44
449.559	487.44
449.779	513.44
450	450.44
450.221	412.44
450.442	371.44
450.662	364.44
450.883	376.44
451.104	355.44
451.324	367.44
451.545	375.44
451.766	347.44
451.986	346.44
452.207	350.44
452.428	343.44
452.648	352.44
452.869	363.44
453.089	350.44
453.31	362.44
453.53	340.44
453.751	344.44
453.971	348.44
454.192	348.44
454.412	346.44
454.633	351.44
454.853	346.44
455.073	347.44
455.294	364.44
455.514	387.44
455.734	365.44
455.955	313.44
456.175	330.44
456.395	321.44
456.616	334.44
456.836	338.44
457.056	333.44
457.276	327.44
457.497	364.44
457.717	323.44
457.937	324.44
458.157	323.44
458.377	335.44
458.598	342.44
458.818	378.44
459.038	411.44
459.258	426.44
459.478	401.44
459.698	369.44
459.918	369.44
460.138	400.44
460.358	387.44
460.578	400.44
460.798	392.44
461.018	399.44
461.238	389.44
461.458	403.44
461.678	397.44
461.898	391.44
462.118	405.44
462.338	433.44
462.558	412.44
462.777	460.44
462.997	445.44
463.217	468.44
463.437	475.44
463.657	456.44
463.876	441.44
464.096	428.44
464.316	441.44
464.536	445.44
464.755	438.44
464.975	413.44
465.195	442.44
465.414	450.44
465.634	399.44
465.854	387.44
466.073	380.44
466.293	394.44
466.512	368.44
466.732	364.44
466.951	366.44
467.171	362.44
467.391	363.44
467.61	370.44
467.829	385.44
468.049	369.44
468.268	371.44
468.488	364.44
468.707	350.44
468.927	346.44
469.146	345.44
469.365	345.44
469.585	385.44
469.804	366.44
470.023	365.44
470.243	380.44
470.462	383.44
470.681	376.44
470.901	403.44
471.12	385.44
471.339	354.44
471.558	376.44
471.777	368.44
471.997	351.44
472.216	379.44
472.435	378.44
472.654	352.44
472.873	358.44
473.092	351.44
473.311	357.44
473.53	352.44
473.749	356.44
473.968	386.44
474.187	429.44
474.406	421.44
474.625	391.44
474.844	369.44
475.063	363.44
475.282	369.44
475.501	385.44
475.72	373.44
475.939	373.44
476.158	371.44
476.377	367.44
476.596	369.44
476.814	373.44
477.033	357.44
477.252	373.44
477.471	367.44
477.69	384.44
477.908	399.44
478.127	408.44
478.346	406.44
478.564	412.44
478.783	417.44
479.002	427.44
479.22	431.44
479.439	421.44
479.658	433.44
479.876	439.44
480.095	429.44
480.313	475.44
480.532	460.44
480.751	424.44
480.969	429.44
481.188	463.44
481.406	487.44
481.624	443.44
481.843	422.44
482.061	434.44
482.28	426.44
482.498	428.44
482.717	415.44
482.935	423.44
483.153	402.44
483.372	404.44
483.59	411.44
483.808	397.44
484.027	416.44
484.245	437.44
484.463	410.44
484.681	437.44
484.9	425.44
485.118	435.44
485.336	418.44
485.554	414.44
485.772	417.44
485.99	399.44
486.209	421.44
486.427	441.44
486.645	427.44
486.863	443.44
487.081	444.44
487.299	407.44
487.517	416.44
487.735	433.44
487.953	449.44
488.171	434.44
488.389	443.44
488.607	429.44
488.825	435.44
489.043	443.44
489.261	438.44
489.479	427.44
489.696	420.44
489.914	450.44
490.132	453.44
490.35	448.44
490.568	460.44
490.786	466.44
491.003	446.44
491.221	446.44
491.439	466.44
491.657	485.44
491.874	491.44
492.092	483.44
492.31	503.44
492.527	501.44
492.745	509.44
492.963	492.44
493.18	497.44
493.398	509.44
493.615	508.44
493.833	515.44
494.05	484.44
494.268	511.44
494.485	504.44
494.703	502.44
494.92	510.44
495.138	495.44
495.355	510.44
495.573	517.44
495.79	492.44
496.008	497.44
496.225	493.44
496.442	492.44
496.66	507.44
496.877	518.44
497.094	525.44
497.312	545.44
497.529	526.44
497.746	533.44
497.963	540.44
498.181	582.44
498.398	585.44
498.615	572.44
498.832	623.44
499.049	641.44
499.267	671.44
499.484	698.44
499.701	744.44
499.918	781.44
500.135	842.44
500.352	933.44
500.569	949.44
500.786	909.44
501.003	863.44
501.22	876.44
501.437	786.44
501.654	718.44
501.871	690.44
502.088	657.44
502.305	627.44
