Data from 1969.PennyLincolnUp.Lamp.En5.5.200Scan.071719.P1._HRD10591_14-56-10-973.txt Node
Date: Thu Jul 18 14:56:10 EDT 2019
User: cochatt
Spectrometer: HR+D1059
Trigger mode: 1
Integration Time (sec): 1.000000E-1
Scans to average: 1
Electric dark correction enabled: true
Nonlinearity correction enabled: false
Boxcar width: 0
XAxis mode: Wavelengths
Number of Pixels in Spectrum: 2048
>>>>>Begin Spectral Data<<<<<
223.165	-23.56
223.4	-23.56
223.635	-23.56
223.869	-25.56
224.104	-21.56
224.338	-16.56
224.573	-9.56
224.808	-10.56
225.042	0.44
225.277	-13.56
225.511	6.44
225.746	5.44
225.98	6.44
226.215	9.44
226.449	2.44
226.683	23.44
226.918	38.44
227.152	28.44
227.387	29.44
227.621	45.44
227.856	40.44
228.09	42.44
228.324	57.44
228.559	56.44
228.793	55.44
229.027	81.44
229.262	109.44
229.496	95.44
229.73	102.44
229.964	109.44
230.199	110.44
230.433	93.44
230.667	97.44
230.901	97.44
231.136	97.44
231.37	98.44
231.604	85.44
231.838	108.44
232.072	103.44
232.306	97.44
232.541	106.44
232.775	109.44
233.009	110.44
233.243	100.44
233.477	120.44
233.711	106.44
233.945	99.44
234.179	108.44
234.413	108.44
234.647	114.44
234.881	107.44
235.115	100.44
235.349	123.44
235.583	104.44
235.817	117.44
236.051	107.44
236.285	105.44
236.519	98.44
236.753	107.44
236.987	124.44
237.221	140.44
237.455	158.44
237.689	140.44
237.922	126.44
238.156	121.44
238.39	124.44
238.624	112.44
238.858	104.44
239.091	119.44
239.325	101.44
239.559	101.44
239.793	108.44
240.027	125.44
240.26	107.44
240.494	130.44
240.728	123.44
240.961	117.44
241.195	128.44
241.429	120.44
241.662	123.44
241.896	119.44
242.13	108.44
242.363	133.44
242.597	124.44
242.83	125.44
243.064	121.44
243.298	117.44
243.531	134.44
243.765	124.44
243.998	126.44
244.232	122.44
244.465	131.44
244.699	120.44
244.932	134.44
245.166	127.44
245.399	105.44
245.633	141.44
245.866	136.44
246.099	132.44
246.333	129.44
246.566	119.44
246.8	136.44
247.033	131.44
247.266	130.44
247.5	122.44
247.733	132.44
247.966	144.44
248.2	148.44
248.433	136.44
248.666	142.44
248.899	158.44
249.133	156.44
249.366	178.44
249.599	153.44
249.832	160.44
250.066	146.44
250.299	170.44
250.532	168.44
250.765	171.44
250.998	181.44
251.231	161.44
251.465	180.44
251.698	162.44
251.931	148.44
252.164	161.44
252.397	177.44
252.63	153.44
252.863	161.44
253.096	180.44
253.329	178.44
253.562	192.44
253.795	169.44
254.028	184.44
254.261	178.44
254.494	199.44
254.727	213.44
254.96	208.44
255.193	214.44
255.426	195.44
255.659	182.44
255.892	185.44
256.124	192.44
256.357	189.44
256.59	170.44
256.823	175.44
257.056	164.44
257.289	169.44
257.521	168.44
257.754	182.44
257.987	160.44
258.22	178.44
258.452	180.44
258.685	168.44
258.918	176.44
259.151	176.44
259.383	174.44
259.616	188.44
259.849	188.44
260.081	199.44
260.314	200.44
260.547	211.44
260.779	203.44
261.012	202.44
261.244	186.44
261.477	200.44
261.71	199.44
261.942	177.44
262.175	184.44
262.407	182.44
262.64	170.44
262.872	187.44
263.105	188.44
263.337	189.44
263.57	181.44
263.802	179.44
264.035	186.44
264.267	186.44
264.499	186.44
264.732	186.44
264.964	192.44
265.197	192.44
265.429	181.44
265.661	190.44
265.894	190.44
266.126	189.44
266.358	180.44
266.591	193.44
266.823	205.44
267.055	205.44
267.287	205.44
267.52	187.44
267.752	209.44
267.984	191.44
268.216	196.44
268.448	210.44
268.681	197.44
268.913	194.44
269.145	224.44
269.377	227.44
269.609	238.44
269.841	218.44
270.073	221.44
270.306	231.44
270.538	240.44
270.77	272.44
271.002	250.44
271.234	240.44
271.466	236.44
271.698	239.44
271.93	244.44
272.162	233.44
272.394	260.44
272.626	235.44
272.858	212.44
273.09	224.44
273.322	219.44
273.553	207.44
273.785	234.44
274.017	225.44
274.249	220.44
274.481	220.44
274.713	224.44
274.945	243.44
275.176	228.44
275.408	229.44
275.64	212.44
275.872	210.44
276.104	232.44
276.335	206.44
276.567	220.44
276.799	226.44
277.031	238.44
277.262	260.44
277.494	282.44
277.726	258.44
277.957	240.44
278.189	225.44
278.421	240.44
278.652	222.44
278.884	232.44
279.115	243.44
279.347	232.44
279.579	216.44
279.81	220.44
280.042	240.44
280.273	228.44
280.505	228.44
280.736	222.44
280.968	240.44
281.199	240.44
281.431	236.44
281.662	235.44
281.894	236.44
282.125	236.44
282.356	235.44
282.588	259.44
282.819	247.44
283.051	243.44
283.282	257.44
283.513	246.44
283.745	241.44
283.976	253.44
284.207	244.44
284.439	250.44
284.67	227.44
284.901	236.44
285.132	261.44
285.364	245.44
285.595	255.44
285.826	228.44
286.057	243.44
286.288	253.44
286.52	241.44
286.751	274.44
286.982	256.44
287.213	241.44
287.444	249.44
287.675	265.44
287.906	274.44
288.138	264.44
288.369	265.44
288.6	273.44
288.831	264.44
289.062	257.44
289.293	257.44
289.524	244.44
289.755	264.44
289.986	256.44
290.217	256.44
290.448	262.44
290.679	278.44
290.91	248.44
291.141	245.44
291.371	249.44
291.602	251.44
291.833	259.44
292.064	256.44
292.295	275.44
292.526	260.44
292.757	270.44
292.987	252.44
293.218	267.44
293.449	258.44
293.68	243.44
293.91	245.44
294.141	268.44
294.372	262.44
294.603	255.44
294.833	287.44
295.064	266.44
295.295	254.44
295.525	261.44
295.756	256.44
295.987	257.44
296.217	289.44
296.448	275.44
296.679	261.44
296.909	249.44
297.14	267.44
297.37	264.44
297.601	261.44
297.831	276.44
298.062	281.44
298.292	266.44
298.523	272.44
298.753	267.44
298.984	287.44
299.214	278.44
299.445	270.44
299.675	276.44
299.905	263.44
300.136	271.44
300.366	267.44
300.597	270.44
300.827	258.44
301.057	290.44
301.288	300.44
301.518	306.44
301.748	290.44
301.979	289.44
302.209	304.44
302.439	274.44
302.669	290.44
302.9	290.44
303.13	305.44
303.36	278.44
303.59	304.44
303.82	311.44
304.051	285.44
304.281	279.44
304.511	301.44
304.741	284.44
304.971	312.44
305.201	286.44
305.431	275.44
305.661	296.44
305.891	278.44
306.121	287.44
306.352	301.44
306.582	275.44
306.812	287.44
307.042	288.44
307.272	296.44
307.502	294.44
307.731	292.44
307.961	292.44
308.191	292.44
308.421	285.44
308.651	280.44
308.881	303.44
309.111	299.44
309.341	301.44
309.571	276.44
309.8	284.44
310.03	290.44
310.26	317.44
310.49	306.44
310.72	328.44
310.949	331.44
311.179	326.44
311.409	302.44
311.639	324.44
311.868	304.44
312.098	326.44
312.328	315.44
312.557	337.44
312.787	326.44
313.017	325.44
313.246	312.44
313.476	317.44
313.706	317.44
313.935	313.44
314.165	328.44
314.394	342.44
314.624	329.44
314.853	319.44
315.083	322.44
315.312	321.44
315.542	316.44
315.771	296.44
316.001	322.44
316.23	297.44
316.46	317.44
316.689	334.44
316.919	328.44
317.148	317.44
317.377	326.44
317.607	325.44
317.836	327.44
318.065	332.44
318.295	315.44
318.524	315.44
318.753	330.44
318.983	310.44
319.212	316.44
319.441	319.44
319.67	323.44
319.9	323.44
320.129	335.44
320.358	330.44
320.587	330.44
320.816	338.44
321.046	328.44
321.275	347.44
321.504	324.44
321.733	315.44
321.962	343.44
322.191	323.44
322.42	329.44
322.649	343.44
322.878	361.44
323.108	361.44
323.337	366.44
323.566	361.44
323.795	384.44
324.024	407.44
324.253	458.44
324.482	627.44
324.71	898.44
324.939	1156.44
325.168	977.44
325.397	566.44
325.626	424.44
325.855	393.44
326.084	364.44
326.313	378.44
326.542	374.44
326.77	406.44
326.999	472.44
327.228	573.44
327.457	790.44
327.686	909.44
327.914	605.44
328.143	481.44
328.372	438.44
328.6	426.44
328.829	416.44
329.058	410.44
329.287	421.44
329.515	404.44
329.744	396.44
329.972	385.44
330.201	399.44
330.43	427.44
330.658	453.44
330.887	437.44
331.115	441.44
331.344	394.44
331.572	384.44
331.801	386.44
332.03	374.44
332.258	385.44
332.486	362.44
332.715	398.44
332.943	364.44
333.172	421.44
333.4	417.44
333.629	428.44
333.857	419.44
334.085	436.44
334.314	453.44
334.542	467.44
334.771	457.44
334.999	454.44
335.227	419.44
335.455	403.44
335.684	403.44
335.912	358.44
336.14	404.44
336.369	397.44
336.597	384.44
336.825	386.44
337.053	372.44
337.281	388.44
337.51	373.44
337.738	378.44
337.966	366.44
338.194	369.44
338.422	366.44
338.65	380.44
338.878	355.44
339.106	375.44
339.334	375.44
339.562	361.44
339.79	361.44
340.018	341.44
340.246	345.44
340.474	361.44
340.702	352.44
340.93	350.44
341.158	364.44
341.386	370.44
341.614	361.44
341.842	348.44
342.07	358.44
342.298	345.44
342.526	342.44
342.754	354.44
342.981	348.44
343.209	350.44
343.437	354.44
343.665	377.44
343.893	370.44
344.12	381.44
344.348	379.44
344.576	372.44
344.804	370.44
345.031	376.44
345.259	382.44
345.487	381.44
345.714	350.44
345.942	354.44
346.17	339.44
346.397	337.44
346.625	340.44
346.853	339.44
347.08	336.44
347.308	344.44
347.535	345.44
347.763	317.44
347.99	348.44
348.218	348.44
348.445	357.44
348.673	350.44
348.9	368.44
349.128	344.44
349.355	338.44
349.583	337.44
349.81	322.44
350.037	337.44
350.265	322.44
350.492	334.44
350.72	337.44
350.947	334.44
351.174	337.44
351.402	338.44
351.629	323.44
351.856	325.44
352.083	348.44
352.311	336.44
352.538	324.44
352.765	339.44
352.992	334.44
353.22	325.44
353.447	343.44
353.674	315.44
353.901	322.44
354.128	334.44
354.355	329.44
354.583	329.44
354.81	337.44
355.037	341.44
355.264	322.44
355.491	328.44
355.718	326.44
355.945	331.44
356.172	325.44
356.399	326.44
356.626	340.44
356.853	321.44
357.08	324.44
357.307	311.44
357.534	316.44
357.761	341.44
357.988	328.44
358.215	325.44
358.441	311.44
358.668	324.44
358.895	315.44
359.122	317.44
359.349	339.44
359.576	334.44
359.802	348.44
360.029	354.44
360.256	366.44
360.483	347.44
360.709	329.44
360.936	342.44
361.163	334.44
361.39	346.44
361.616	352.44
361.843	345.44
362.07	331.44
362.296	328.44
362.523	332.44
362.749	342.44
362.976	312.44
363.203	340.44
363.429	334.44
363.656	312.44
363.882	325.44
364.109	349.44
364.335	309.44
364.562	334.44
364.788	321.44
365.015	316.44
365.241	329.44
365.468	339.44
365.694	314.44
365.92	343.44
366.147	323.44
366.373	337.44
366.599	312.44
366.826	320.44
367.052	338.44
367.278	305.44
367.505	328.44
367.731	329.44
367.957	333.44
368.184	332.44
368.41	337.44
368.636	314.44
368.862	341.44
369.089	329.44
369.315	312.44
369.541	322.44
369.767	345.44
369.993	331.44
370.219	325.44
370.445	348.44
370.672	341.44
370.898	323.44
371.124	332.44
371.35	314.44
371.576	320.44
371.802	336.44
372.028	343.44
372.254	333.44
372.48	328.44
372.706	343.44
372.932	342.44
373.158	340.44
373.384	345.44
373.61	354.44
373.835	335.44
374.061	344.44
374.287	350.44
374.513	341.44
374.739	350.44
374.965	350.44
375.191	347.44
375.416	365.44
375.642	332.44
375.868	341.44
376.094	326.44
376.319	329.44
376.545	311.44
376.771	354.44
376.997	340.44
377.222	331.44
377.448	330.44
377.674	330.44
377.899	320.44
378.125	338.44
378.35	324.44
378.576	325.44
378.802	324.44
379.027	328.44
379.253	338.44
379.478	334.44
379.704	337.44
379.929	323.44
380.155	326.44
380.38	321.44
380.606	347.44
380.831	344.44
381.057	328.44
381.282	339.44
381.507	329.44
381.733	340.44
381.958	348.44
382.184	349.44
382.409	336.44
382.634	347.44
382.86	345.44
383.085	335.44
383.31	328.44
383.535	354.44
383.761	356.44
383.986	377.44
384.211	341.44
384.436	349.44
384.662	344.44
384.887	379.44
385.112	350.44
385.337	380.44
385.562	354.44
385.787	371.44
386.013	372.44
386.238	396.44
386.463	392.44
386.688	375.44
386.913	361.44
387.138	362.44
387.363	362.44
387.588	369.44
387.813	353.44
388.038	373.44
388.263	372.44
388.488	372.44
388.713	362.44
388.938	374.44
389.163	392.44
389.387	364.44
389.612	353.44
389.837	372.44
390.062	380.44
390.287	394.44
390.512	348.44
390.736	368.44
390.961	384.44
391.186	365.44
391.411	380.44
391.636	388.44
391.86	413.44
392.085	388.44
392.31	397.44
392.534	391.44
392.759	363.44
392.984	379.44
393.208	381.44
393.433	390.44
393.658	378.44
393.882	385.44
394.107	380.44
394.331	390.44
394.556	366.44
394.78	373.44
395.005	387.44
395.229	397.44
395.454	391.44
395.678	398.44
395.903	377.44
396.127	402.44
396.352	407.44
396.576	382.44
396.801	396.44
397.025	390.44
397.249	381.44
397.474	386.44
397.698	400.44
397.922	426.44
398.147	414.44
398.371	426.44
398.595	422.44
398.82	443.44
399.044	472.44
399.268	467.44
399.492	506.44
399.717	551.44
399.941	557.44
400.165	571.44
400.389	522.44
400.613	486.44
400.837	474.44
401.062	451.44
401.286	450.44
401.51	433.44
401.734	420.44
401.958	448.44
402.182	446.44
402.406	460.44
402.63	453.44
402.854	468.44
403.078	460.44
403.302	474.44
403.526	474.44
403.75	468.44
403.974	465.44
404.198	476.44
404.422	463.44
404.645	469.44
404.869	475.44
405.093	473.44
405.317	492.44
405.541	520.44
405.765	470.44
405.988	460.44
406.212	478.44
406.436	496.44
406.66	486.44
406.883	474.44
407.107	533.44
407.331	529.44
407.555	594.44
407.778	571.44
408.002	540.44
408.226	493.44
408.449	502.44
408.673	474.44
408.896	490.44
409.12	531.44
409.344	489.44
409.567	466.44
409.791	455.44
410.014	453.44
410.238	449.44
410.461	473.44
410.685	450.44
410.908	474.44
411.132	474.44
411.355	464.44
411.578	482.44
411.802	442.44
412.025	448.44
412.249	459.44
412.472	448.44
412.695	504.44
412.919	489.44
413.142	438.44
413.365	448.44
413.589	445.44
413.812	435.44
414.035	426.44
414.258	416.44
414.482	419.44
414.705	424.44
414.928	424.44
415.151	401.44
415.374	416.44
415.597	413.44
415.821	433.44
416.044	426.44
416.267	426.44
416.49	415.44
416.713	420.44
416.936	424.44
417.159	424.44
417.382	428.44
417.605	409.44
417.828	435.44
418.051	455.44
418.274	445.44
418.497	431.44
418.72	441.44
418.943	421.44
419.166	438.44
419.389	468.44
419.611	468.44
419.834	434.44
420.057	461.44
420.28	456.44
420.503	445.44
420.726	460.44
420.948	434.44
421.171	486.44
421.394	482.44
421.617	429.44
421.839	425.44
422.062	446.44
422.285	438.44
422.507	481.44
422.73	495.44
422.953	480.44
423.175	479.44
423.398	458.44
423.621	461.44
423.843	477.44
424.066	472.44
424.288	468.44
424.511	478.44
424.733	492.44
424.956	533.44
425.178	512.44
425.401	522.44
425.623	526.44
425.846	462.44
426.068	441.44
426.291	421.44
426.513	429.44
426.735	436.44
426.958	463.44
427.18	526.44
427.402	586.44
427.625	610.44
427.847	535.44
428.069	492.44
428.292	447.44
428.514	448.44
428.736	414.44
428.958	414.44
429.181	389.44
429.403	408.44
429.625	409.44
429.847	419.44
430.069	478.44
430.292	455.44
430.514	420.44
430.736	390.44
430.958	412.44
431.18	401.44
431.402	408.44
431.624	410.44
431.846	399.44
432.068	406.44
432.29	386.44
432.512	398.44
432.734	405.44
432.956	412.44
433.178	411.44
433.4	399.44
433.622	420.44
433.844	390.44
434.066	394.44
434.287	404.44
434.509	424.44
434.731	433.44
434.953	418.44
435.175	433.44
435.397	468.44
435.618	458.44
435.84	460.44
436.062	506.44
436.284	501.44
436.505	464.44
436.727	442.44
436.949	415.44
437.17	420.44
437.392	405.44
437.614	410.44
437.835	439.44
438.057	484.44
438.278	544.44
438.5	548.44
438.721	562.44
438.943	540.44
439.165	481.44
439.386	447.44
439.608	454.44
439.829	438.44
440.05	461.44
440.272	461.44
440.493	451.44
440.715	439.44
440.936	423.44
441.158	408.44
441.379	420.44
441.6	440.44
441.822	437.44
442.043	464.44
442.264	521.44
442.486	534.44
442.707	459.44
442.928	454.44
443.149	464.44
443.371	496.44
443.592	499.44
443.813	550.44
444.034	578.44
444.255	501.44
444.476	473.44
444.698	494.44
444.919	495.44
445.14	601.44
445.361	538.44
445.582	490.44
445.803	504.44
446.024	557.44
446.245	548.44
446.466	502.44
446.687	456.44
446.908	432.44
447.129	421.44
447.35	426.44
447.571	400.44
447.792	401.44
448.013	392.44
448.234	405.44
448.455	438.44
448.675	497.44
448.896	562.44
449.117	473.44
449.338	465.44
449.559	539.44
449.779	597.44
450	476.44
450.221	434.44
450.442	395.44
450.662	374.44
450.883	365.44
451.104	400.44
451.324	412.44
451.545	396.44
451.766	372.44
451.986	369.44
452.207	391.44
452.428	357.44
452.648	354.44
452.869	360.44
453.089	371.44
453.31	376.44
453.53	370.44
453.751	347.44
453.971	347.44
454.192	384.44
454.412	393.44
454.633	340.44
454.853	359.44
455.073	348.44
455.294	384.44
455.514	418.44
455.734	413.44
455.955	364.44
456.175	354.44
456.395	362.44
456.616	367.44
456.836	353.44
457.056	359.44
457.276	347.44
457.497	346.44
457.717	353.44
457.937	368.44
458.157	344.44
458.377	358.44
458.598	371.44
458.818	418.44
459.038	467.44
459.258	472.44
459.478	420.44
459.698	391.44
459.918	396.44
460.138	428.44
460.358	430.44
460.578	421.44
460.798	439.44
461.018	445.44
461.238	427.44
461.458	427.44
461.678	422.44
461.898	434.44
462.118	419.44
462.338	445.44
462.558	436.44
462.777	474.44
462.997	502.44
463.217	508.44
463.437	493.44
463.657	488.44
463.876	462.44
464.096	461.44
464.316	466.44
464.536	481.44
464.755	464.44
464.975	462.44
465.195	470.44
465.414	499.44
465.634	454.44
465.854	394.44
466.073	410.44
466.293	403.44
466.512	384.44
466.732	397.44
466.951	403.44
467.171	409.44
467.391	390.44
467.61	394.44
467.829	381.44
468.049	396.44
468.268	406.44
468.488	369.44
468.707	372.44
468.927	378.44
469.146	386.44
469.365	366.44
469.585	376.44
469.804	394.44
470.023	398.44
470.243	381.44
470.462	418.44
470.681	418.44
470.901	417.44
471.12	415.44
471.339	391.44
471.558	373.44
471.777	402.44
471.997	407.44
472.216	376.44
472.435	414.44
472.654	400.44
472.873	382.44
473.092	384.44
473.311	390.44
473.53	372.44
473.749	378.44
473.968	417.44
474.187	452.44
474.406	468.44
474.625	407.44
474.844	402.44
475.063	406.44
475.282	379.44
475.501	383.44
475.72	388.44
475.939	395.44
476.158	388.44
476.377	390.44
476.596	397.44
476.814	403.44
477.033	383.44
477.252	392.44
477.471	414.44
477.69	417.44
477.908	434.44
478.127	430.44
478.346	439.44
478.564	439.44
478.783	439.44
479.002	460.44
479.22	456.44
479.439	442.44
479.658	468.44
479.876	464.44
480.095	477.44
480.313	499.44
480.532	479.44
480.751	482.44
480.969	468.44
481.188	497.44
481.406	500.44
481.624	471.44
481.843	464.44
482.061	435.44
482.28	453.44
482.498	426.44
482.717	425.44
482.935	440.44
483.153	444.44
483.372	434.44
483.59	429.44
483.808	438.44
484.027	434.44
484.245	456.44
484.463	473.44
484.681	452.44
484.9	442.44
485.118	476.44
485.336	436.44
485.554	452.44
485.772	455.44
485.99	454.44
486.209	464.44
486.427	458.44
486.645	458.44
486.863	474.44
487.081	470.44
487.299	462.44
487.517	463.44
487.735	452.44
487.953	478.44
488.171	466.44
488.389	472.44
488.607	461.44
488.825	449.44
489.043	457.44
489.261	476.44
489.479	475.44
489.696	480.44
489.914	466.44
490.132	506.44
490.35	485.44
490.568	487.44
490.786	504.44
491.003	490.44
491.221	508.44
491.439	540.44
491.657	526.44
491.874	550.44
492.092	548.44
492.31	536.44
492.527	564.44
492.745	542.44
492.963	554.44
493.18	569.44
493.398	555.44
493.615	537.44
493.833	549.44
494.05	543.44
494.268	531.44
494.485	546.44
494.703	540.44
494.92	546.44
495.138	550.44
495.355	539.44
495.573	553.44
495.79	557.44
496.008	562.44
496.225	576.44
496.442	567.44
496.66	577.44
496.877	559.44
497.094	568.44
497.312	577.44
497.529	597.44
497.746	590.44
497.963	588.44
498.181	625.44
498.398	626.44
498.615	644.44
498.832	658.44
499.049	693.44
499.267	732.44
499.484	745.44
499.701	804.44
499.918	832.44
500.135	907.44
500.352	948.44
500.569	979.44
500.786	969.44
501.003	945.44
501.22	898.44
501.437	834.44
501.654	799.44
501.871	786.44
502.088	720.44
