Data from 1969.PennyLincolnUp.Lamp.En5.5.200Scan.071719.P1._HRD10591_14-55-57-972.txt Node
Date: Thu Jul 18 14:55:57 EDT 2019
User: cochatt
Spectrometer: HR+D1059
Trigger mode: 1
Integration Time (sec): 1.000000E-1
Scans to average: 1
Electric dark correction enabled: true
Nonlinearity correction enabled: false
Boxcar width: 0
XAxis mode: Wavelengths
Number of Pixels in Spectrum: 2048
>>>>>Begin Spectral Data<<<<<
223.165	-7.06
223.4	-7.06
223.635	-7.06
223.869	-12.06
224.104	-15.06
224.338	-9.06
224.573	-24.06
224.808	-12.06
225.042	-19.06
225.277	-2.06
225.511	-18.06
225.746	-10.06
225.98	0.94
226.215	4.94
226.449	17.94
226.683	23.94
226.918	29.94
227.152	50.94
227.387	31.94
227.621	32.94
227.856	38.94
228.09	46.94
228.324	43.94
228.559	72.94
228.793	55.94
229.027	74.94
229.262	101.94
229.496	93.94
229.73	104.94
229.964	120.94
230.199	103.94
230.433	92.94
230.667	107.94
230.901	92.94
231.136	102.94
231.37	101.94
231.604	88.94
231.838	98.94
232.072	114.94
232.306	106.94
232.541	99.94
232.775	99.94
233.009	109.94
233.243	104.94
233.477	105.94
233.711	123.94
233.945	114.94
234.179	105.94
234.413	110.94
234.647	114.94
234.881	106.94
235.115	100.94
235.349	107.94
235.583	100.94
235.817	102.94
236.051	114.94
236.285	113.94
236.519	104.94
236.753	115.94
236.987	124.94
237.221	134.94
237.455	162.94
237.689	144.94
237.922	133.94
238.156	120.94
238.39	123.94
238.624	101.94
238.858	125.94
239.091	107.94
239.325	110.94
239.559	108.94
239.793	117.94
240.027	118.94
240.26	129.94
240.494	133.94
240.728	138.94
240.961	144.94
241.195	131.94
241.429	120.94
241.662	89.94
241.896	103.94
242.13	105.94
242.363	135.94
242.597	119.94
242.83	139.94
243.064	131.94
243.298	127.94
243.531	128.94
243.765	124.94
243.998	123.94
244.232	127.94
244.465	121.94
244.699	129.94
244.932	135.94
245.166	126.94
245.399	137.94
245.633	120.94
245.866	132.94
246.099	128.94
246.333	116.94
246.566	144.94
246.8	131.94
247.033	137.94
247.266	137.94
247.5	148.94
247.733	151.94
247.966	153.94
248.2	139.94
248.433	152.94
248.666	148.94
248.899	146.94
249.133	174.94
249.366	162.94
249.599	180.94
249.832	142.94
250.066	144.94
250.299	152.94
250.532	163.94
250.765	173.94
250.998	180.94
251.231	181.94
251.465	183.94
251.698	164.94
251.931	165.94
252.164	179.94
252.397	164.94
252.63	151.94
252.863	168.94
253.096	180.94
253.329	182.94
253.562	194.94
253.795	159.94
254.028	178.94
254.261	188.94
254.494	186.94
254.727	218.94
254.96	221.94
255.193	209.94
255.426	198.94
255.659	180.94
255.892	171.94
256.124	185.94
256.357	194.94
256.59	188.94
256.823	185.94
257.056	181.94
257.289	187.94
257.521	186.94
257.754	184.94
257.987	168.94
258.22	187.94
258.452	166.94
258.685	170.94
258.918	179.94
259.151	183.94
259.383	179.94
259.616	179.94
259.849	182.94
260.081	195.94
260.314	192.94
260.547	196.94
260.779	206.94
261.012	182.94
261.244	191.94
261.477	181.94
261.71	179.94
261.942	192.94
262.175	189.94
262.407	190.94
262.64	178.94
262.872	201.94
263.105	193.94
263.337	205.94
263.57	172.94
263.802	185.94
264.035	190.94
264.267	180.94
264.499	182.94
264.732	190.94
264.964	188.94
265.197	186.94
265.429	172.94
265.661	187.94
265.894	188.94
266.126	196.94
266.358	188.94
266.591	194.94
266.823	199.94
267.055	186.94
267.287	189.94
267.52	183.94
267.752	191.94
267.984	197.94
268.216	192.94
268.448	185.94
268.681	215.94
268.913	228.94
269.145	227.94
269.377	241.94
269.609	228.94
269.841	223.94
270.073	233.94
270.306	246.94
270.538	265.94
270.77	266.94
271.002	238.94
271.234	223.94
271.466	247.94
271.698	262.94
271.93	266.94
272.162	256.94
272.394	273.94
272.626	254.94
272.858	238.94
273.09	219.94
273.322	243.94
273.553	218.94
273.785	206.94
274.017	235.94
274.249	214.94
274.481	201.94
274.713	229.94
274.945	217.94
275.176	222.94
275.408	227.94
275.64	236.94
275.872	215.94
276.104	214.94
276.335	229.94
276.567	217.94
276.799	228.94
277.031	259.94
277.262	263.94
277.494	266.94
277.726	256.94
277.957	242.94
278.189	242.94
278.421	226.94
278.652	215.94
278.884	227.94
279.115	222.94
279.347	230.94
279.579	244.94
279.81	218.94
280.042	243.94
280.273	227.94
280.505	230.94
280.736	241.94
280.968	253.94
281.199	225.94
281.431	240.94
281.662	223.94
281.894	226.94
282.125	243.94
282.356	255.94
282.588	264.94
282.819	259.94
283.051	229.94
283.282	241.94
283.513	234.94
283.745	261.94
283.976	249.94
284.207	251.94
284.439	255.94
284.67	267.94
284.901	246.94
285.132	249.94
285.364	261.94
285.595	258.94
285.826	229.94
286.057	237.94
286.288	251.94
286.52	255.94
286.751	262.94
286.982	242.94
287.213	243.94
287.444	235.94
287.675	245.94
287.906	277.94
288.138	259.94
288.369	276.94
288.6	261.94
288.831	273.94
289.062	257.94
289.293	254.94
289.524	248.94
289.755	251.94
289.986	257.94
290.217	254.94
290.448	249.94
290.679	255.94
290.91	263.94
291.141	262.94
291.371	245.94
291.602	257.94
291.833	259.94
292.064	250.94
292.295	251.94
292.526	263.94
292.757	244.94
292.987	260.94
293.218	261.94
293.449	284.94
293.68	254.94
293.91	266.94
294.141	274.94
294.372	243.94
294.603	261.94
294.833	233.94
295.064	257.94
295.295	261.94
295.525	265.94
295.756	280.94
295.987	268.94
296.217	279.94
296.448	289.94
296.679	262.94
296.909	259.94
297.14	275.94
297.37	276.94
297.601	259.94
297.831	279.94
298.062	269.94
298.292	246.94
298.523	281.94
298.753	278.94
298.984	264.94
299.214	279.94
299.445	261.94
299.675	287.94
299.905	290.94
300.136	293.94
300.366	280.94
300.597	261.94
300.827	302.94
301.057	283.94
301.288	296.94
301.518	292.94
301.748	296.94
301.979	308.94
302.209	282.94
302.439	295.94
302.669	292.94
302.9	290.94
303.13	297.94
303.36	311.94
303.59	277.94
303.82	295.94
304.051	293.94
304.281	292.94
304.511	288.94
304.741	303.94
304.971	294.94
305.201	297.94
305.431	291.94
305.661	291.94
305.891	288.94
306.121	282.94
306.352	284.94
306.582	307.94
306.812	283.94
307.042	293.94
307.272	290.94
307.502	296.94
307.731	292.94
307.961	277.94
308.191	278.94
308.421	292.94
308.651	282.94
308.881	297.94
309.111	292.94
309.341	318.94
309.571	302.94
309.8	319.94
310.03	310.94
310.26	297.94
310.49	298.94
310.72	321.94
310.949	318.94
311.179	334.94
311.409	302.94
311.639	301.94
311.868	308.94
312.098	317.94
312.328	310.94
312.557	318.94
312.787	331.94
313.017	330.94
313.246	300.94
313.476	319.94
313.706	327.94
313.935	328.94
314.165	329.94
314.394	338.94
314.624	340.94
314.853	334.94
315.083	321.94
315.312	331.94
315.542	320.94
315.771	326.94
316.001	322.94
316.23	319.94
316.46	332.94
316.689	324.94
316.919	335.94
317.148	321.94
317.377	321.94
317.607	312.94
317.836	326.94
318.065	322.94
318.295	313.94
318.524	312.94
318.753	295.94
318.983	313.94
319.212	326.94
319.441	333.94
319.67	324.94
319.9	316.94
320.129	331.94
320.358	330.94
320.587	320.94
320.816	314.94
321.046	331.94
321.275	330.94
321.504	315.94
321.733	340.94
321.962	345.94
322.191	332.94
322.42	308.94
322.649	360.94
322.878	352.94
323.108	341.94
323.337	358.94
323.566	379.94
323.795	359.94
324.024	412.94
324.253	477.94
324.482	650.94
324.71	893.94
324.939	1168.94
325.168	957.94
325.397	552.94
325.626	423.94
325.855	393.94
326.084	366.94
326.313	395.94
326.542	369.94
326.77	410.94
326.999	444.94
327.228	577.94
327.457	821.94
327.686	904.94
327.914	637.94
328.143	478.94
328.372	457.94
328.6	439.94
328.829	407.94
329.058	404.94
329.287	425.94
329.515	392.94
329.744	398.94
329.972	404.94
330.201	407.94
330.43	433.94
330.658	434.94
330.887	450.94
331.115	428.94
331.344	401.94
331.572	393.94
331.801	393.94
332.03	393.94
332.258	402.94
332.486	382.94
332.715	380.94
332.943	388.94
333.172	404.94
333.4	404.94
333.629	412.94
333.857	420.94
334.085	455.94
334.314	442.94
334.542	463.94
334.771	454.94
334.999	430.94
335.227	394.94
335.455	386.94
335.684	378.94
335.912	388.94
336.14	408.94
336.369	399.94
336.597	401.94
336.825	398.94
337.053	399.94
337.281	372.94
337.51	370.94
337.738	381.94
337.966	370.94
338.194	397.94
338.422	382.94
338.65	385.94
338.878	361.94
339.106	359.94
339.334	377.94
339.562	343.94
339.79	356.94
340.018	366.94
340.246	357.94
340.474	362.94
340.702	345.94
340.93	357.94
341.158	363.94
341.386	341.94
341.614	378.94
341.842	348.94
342.07	363.94
342.298	321.94
342.526	357.94
342.754	348.94
342.981	339.94
343.209	333.94
343.437	361.94
343.665	358.94
343.893	396.94
344.12	390.94
344.348	390.94
344.576	375.94
344.804	361.94
345.031	364.94
345.259	360.94
345.487	348.94
345.714	342.94
345.942	367.94
346.17	348.94
346.397	332.94
346.625	348.94
346.853	341.94
347.08	342.94
347.308	348.94
347.535	337.94
347.763	327.94
347.99	352.94
348.218	352.94
348.445	364.94
348.673	340.94
348.9	351.94
349.128	351.94
349.355	329.94
349.583	358.94
349.81	335.94
350.037	346.94
350.265	335.94
350.492	335.94
350.72	337.94
350.947	332.94
351.174	337.94
351.402	346.94
351.629	348.94
351.856	330.94
352.083	352.94
352.311	326.94
352.538	327.94
352.765	356.94
352.992	335.94
353.22	356.94
353.447	343.94
353.674	327.94
353.901	320.94
354.128	297.94
354.355	317.94
354.583	321.94
354.81	315.94
355.037	327.94
355.264	331.94
355.491	328.94
355.718	317.94
355.945	306.94
356.172	321.94
356.399	309.94
356.626	316.94
356.853	330.94
357.08	337.94
357.307	329.94
357.534	313.94
357.761	325.94
357.988	330.94
358.215	314.94
358.441	316.94
358.668	327.94
358.895	323.94
359.122	328.94
359.349	323.94
359.576	346.94
359.802	359.94
360.029	363.94
360.256	370.94
360.483	334.94
360.709	345.94
360.936	343.94
361.163	331.94
361.39	317.94
361.616	343.94
361.843	352.94
362.07	326.94
362.296	346.94
362.523	329.94
362.749	327.94
362.976	325.94
363.203	319.94
363.429	329.94
363.656	336.94
363.882	342.94
364.109	336.94
364.335	326.94
364.562	331.94
364.788	332.94
365.015	323.94
365.241	328.94
365.468	312.94
365.694	327.94
365.92	332.94
366.147	326.94
366.373	334.94
366.599	330.94
366.826	347.94
367.052	328.94
367.278	320.94
367.505	315.94
367.731	322.94
367.957	330.94
368.184	324.94
368.41	325.94
368.636	349.94
368.862	354.94
369.089	329.94
369.315	343.94
369.541	341.94
369.767	336.94
369.993	328.94
370.219	339.94
370.445	319.94
370.672	325.94
370.898	315.94
371.124	330.94
371.35	334.94
371.576	326.94
371.802	323.94
372.028	341.94
372.254	346.94
372.48	334.94
372.706	340.94
372.932	340.94
373.158	329.94
373.384	334.94
373.61	326.94
373.835	323.94
374.061	318.94
374.287	325.94
374.513	350.94
374.739	344.94
374.965	367.94
375.191	338.94
375.416	349.94
375.642	348.94
375.868	333.94
376.094	319.94
376.319	329.94
376.545	331.94
376.771	310.94
376.997	333.94
377.222	341.94
377.448	327.94
377.674	321.94
377.899	323.94
378.125	330.94
378.35	339.94
378.576	327.94
378.802	342.94
379.027	332.94
379.253	341.94
379.478	331.94
379.704	337.94
379.929	327.94
380.155	345.94
380.38	342.94
380.606	324.94
380.831	328.94
381.057	330.94
381.282	325.94
381.507	332.94
381.733	351.94
381.958	346.94
382.184	346.94
382.409	351.94
382.634	335.94
382.86	319.94
383.085	353.94
383.31	354.94
383.535	333.94
383.761	345.94
383.986	358.94
384.211	351.94
384.436	356.94
384.662	357.94
384.887	377.94
385.112	375.94
385.337	380.94
385.562	363.94
385.787	381.94
386.013	389.94
386.238	374.94
386.463	365.94
386.688	377.94
386.913	354.94
387.138	372.94
387.363	359.94
387.588	371.94
387.813	366.94
388.038	369.94
388.263	353.94
388.488	378.94
388.713	375.94
388.938	363.94
389.163	372.94
389.387	376.94
389.612	355.94
389.837	364.94
390.062	367.94
390.287	371.94
390.512	383.94
390.736	365.94
390.961	383.94
391.186	377.94
391.411	381.94
391.636	384.94
391.86	382.94
392.085	405.94
392.31	391.94
392.534	393.94
392.759	398.94
392.984	385.94
393.208	383.94
393.433	366.94
393.658	381.94
393.882	353.94
394.107	363.94
394.331	381.94
394.556	381.94
394.78	378.94
395.005	385.94
395.229	381.94
395.454	385.94
395.678	407.94
395.903	379.94
396.127	396.94
396.352	407.94
396.576	394.94
396.801	399.94
397.025	398.94
397.249	404.94
397.474	403.94
397.698	416.94
397.922	383.94
398.147	427.94
398.371	429.94
398.595	426.94
398.82	450.94
399.044	449.94
399.268	490.94
399.492	533.94
399.717	569.94
399.941	551.94
400.165	546.94
400.389	520.94
400.613	468.94
400.837	484.94
401.062	454.94
401.286	433.94
401.51	435.94
401.734	415.94
401.958	430.94
402.182	411.94
402.406	449.94
402.63	455.94
402.854	451.94
403.078	430.94
403.302	450.94
403.526	460.94
403.75	478.94
403.974	467.94
404.198	469.94
404.422	470.94
404.645	457.94
404.869	474.94
405.093	481.94
405.317	517.94
405.541	528.94
405.765	494.94
405.988	475.94
406.212	482.94
406.436	474.94
406.66	500.94
406.883	484.94
407.107	536.94
407.331	542.94
407.555	587.94
407.778	582.94
408.002	527.94
408.226	495.94
408.449	512.94
408.673	499.94
408.896	492.94
409.12	538.94
409.344	517.94
409.567	429.94
409.791	456.94
410.014	442.94
410.238	457.94
410.461	469.94
410.685	443.94
410.908	448.94
411.132	472.94
411.355	482.94
411.578	465.94
411.802	471.94
412.025	452.94
412.249	454.94
412.472	466.94
412.695	494.94
412.919	459.94
413.142	462.94
413.365	450.94
413.589	453.94
413.812	416.94
414.035	441.94
414.258	418.94
414.482	439.94
414.705	427.94
414.928	421.94
415.151	428.94
415.374	438.94
415.597	417.94
415.821	431.94
416.044	433.94
416.267	434.94
416.49	420.94
416.713	429.94
416.936	413.94
417.159	409.94
417.382	398.94
417.605	432.94
417.828	441.94
418.051	460.94
418.274	427.94
418.497	420.94
418.72	445.94
418.943	434.94
419.166	453.94
419.389	492.94
419.611	483.94
419.834	471.94
420.057	461.94
420.28	462.94
420.503	448.94
420.726	453.94
420.948	445.94
421.171	459.94
421.394	478.94
421.617	449.94
421.839	437.94
422.062	439.94
422.285	474.94
422.507	493.94
422.73	511.94
422.953	519.94
423.175	460.94
423.398	437.94
423.621	451.94
423.843	471.94
424.066	488.94
424.288	462.94
424.511	463.94
424.733	507.94
424.956	545.94
425.178	505.94
425.401	528.94
425.623	537.94
425.846	492.94
426.068	447.94
426.291	445.94
426.513	447.94
426.735	452.94
426.958	474.94
427.18	535.94
427.402	575.94
427.625	634.94
427.847	554.94
428.069	492.94
428.292	468.94
428.514	427.94
428.736	407.94
428.958	425.94
429.181	417.94
429.403	408.94
429.625	428.94
429.847	436.94
430.069	460.94
430.292	471.94
430.514	411.94
430.736	419.94
430.958	407.94
431.18	398.94
431.402	387.94
431.624	431.94
431.846	407.94
432.068	386.94
432.29	414.94
432.512	411.94
432.734	410.94
432.956	395.94
433.178	427.94
433.4	410.94
433.622	399.94
433.844	405.94
434.066	407.94
434.287	420.94
434.509	411.94
434.731	437.94
434.953	441.94
435.175	445.94
435.397	467.94
435.618	451.94
435.84	459.94
436.062	511.94
436.284	533.94
436.505	465.94
436.727	437.94
436.949	413.94
437.17	406.94
437.392	417.94
437.614	445.94
437.835	419.94
438.057	499.94
438.278	540.94
438.5	557.94
438.721	579.94
438.943	541.94
439.165	472.94
439.386	445.94
439.608	444.94
439.829	448.94
440.05	447.94
440.272	468.94
440.493	455.94
440.715	424.94
440.936	421.94
441.158	429.94
441.379	426.94
441.6	446.94
441.822	472.94
442.043	487.94
442.264	537.94
442.486	541.94
442.707	478.94
442.928	466.94
443.149	463.94
443.371	471.94
443.592	512.94
443.813	549.94
444.034	597.94
444.255	516.94
444.476	478.94
444.698	499.94
444.919	471.94
445.14	586.94
445.361	519.94
445.582	483.94
445.803	521.94
446.024	561.94
446.245	570.94
446.466	518.94
446.687	467.94
446.908	439.94
447.129	414.94
447.35	415.94
447.571	404.94
447.792	401.94
448.013	421.94
448.234	426.94
448.455	454.94
448.675	514.94
448.896	569.94
449.117	474.94
449.338	484.94
449.559	567.94
449.779	598.94
450	487.94
450.221	432.94
450.442	399.94
450.662	398.94
450.883	383.94
451.104	407.94
451.324	402.94
451.545	389.94
451.766	382.94
451.986	371.94
452.207	356.94
452.428	391.94
452.648	387.94
452.869	362.94
453.089	387.94
453.31	369.94
453.53	392.94
453.751	372.94
453.971	374.94
454.192	373.94
454.412	375.94
454.633	367.94
454.853	361.94
455.073	362.94
455.294	387.94
455.514	421.94
455.734	417.94
455.955	378.94
456.175	357.94
456.395	349.94
456.616	341.94
456.836	354.94
457.056	361.94
457.276	347.94
457.497	363.94
457.717	360.94
457.937	350.94
458.157	371.94
458.377	364.94
458.598	391.94
458.818	416.94
459.038	475.94
459.258	467.94
459.478	409.94
459.698	411.94
459.918	429.94
460.138	428.94
460.358	432.94
460.578	424.94
460.798	435.94
461.018	420.94
461.238	457.94
461.458	434.94
461.678	424.94
461.898	435.94
462.118	445.94
462.338	472.94
462.558	479.94
462.777	461.94
462.997	471.94
463.217	498.94
463.437	505.94
463.657	483.94
463.876	463.94
464.096	469.94
464.316	469.94
464.536	468.94
464.755	465.94
464.975	480.94
465.195	457.94
465.414	513.94
465.634	459.94
465.854	419.94
466.073	414.94
466.293	398.94
466.512	373.94
466.732	371.94
466.951	375.94
467.171	383.94
467.391	411.94
467.61	396.94
467.829	401.94
468.049	392.94
468.268	388.94
468.488	381.94
468.707	358.94
468.927	375.94
469.146	371.94
469.365	396.94
469.585	391.94
469.804	399.94
470.023	396.94
470.243	398.94
470.462	408.94
470.681	425.94
470.901	390.94
471.12	399.94
471.339	382.94
471.558	383.94
471.777	389.94
471.997	392.94
472.216	394.94
472.435	426.94
472.654	398.94
472.873	388.94
473.092	383.94
473.311	354.94
473.53	383.94
473.749	377.94
473.968	428.94
474.187	459.94
474.406	473.94
474.625	397.94
474.844	381.94
475.063	371.94
475.282	380.94
475.501	386.94
475.72	389.94
475.939	381.94
476.158	396.94
476.377	391.94
476.596	393.94
476.814	398.94
477.033	408.94
477.252	421.94
477.471	403.94
477.69	421.94
477.908	425.94
478.127	428.94
478.346	428.94
478.564	420.94
478.783	413.94
479.002	487.94
479.22	458.94
479.439	475.94
479.658	457.94
479.876	461.94
480.095	468.94
480.313	489.94
480.532	488.94
480.751	485.94
480.969	475.94
481.188	521.94
481.406	539.94
481.624	464.94
481.843	457.94
482.061	442.94
482.28	459.94
482.498	463.94
482.717	456.94
482.935	429.94
483.153	441.94
483.372	411.94
483.59	416.94
483.808	428.94
484.027	443.94
484.245	445.94
484.463	447.94
484.681	453.94
484.9	460.94
485.118	454.94
485.336	457.94
485.554	447.94
485.772	452.94
485.99	445.94
486.209	477.94
486.427	464.94
486.645	477.94
486.863	472.94
487.081	468.94
487.299	465.94
487.517	478.94
487.735	482.94
487.953	463.94
488.171	474.94
488.389	473.94
488.607	475.94
488.825	466.94
489.043	457.94
489.261	462.94
489.479	455.94
489.696	488.94
489.914	463.94
490.132	510.94
490.35	498.94
490.568	494.94
490.786	525.94
491.003	492.94
491.221	519.94
491.439	554.94
491.657	526.94
491.874	530.94
492.092	566.94
492.31	558.94
492.527	544.94
492.745	552.94
492.963	534.94
493.18	549.94
493.398	529.94
493.615	536.94
493.833	565.94
494.05	593.94
494.268	563.94
494.485	577.94
494.703	554.94
494.92	567.94
495.138	552.94
495.355	554.94
495.573	554.94
495.79	565.94
496.008	574.94
496.225	560.94
496.442	563.94
496.66	579.94
496.877	567.94
497.094	564.94
497.312	536.94
497.529	570.94
497.746	621.94
497.963	619.94
498.181	617.94
498.398	630.94
498.615	662.94
498.832	648.94
499.049	675.94
499.267	702.94
499.484	754.94
499.701	816.94
499.918	860.94
500.135	892.94
500.352	947.94
500.569	996.94
500.786	961.94
501.003	950.94
501.22	928.94
501.437	855.94
501.654	789.94
501.871	765.94
502.088	717.94
