Data from 1969.PennyLincolnUp.Lamp.En5.5.200Scan.071719.P1._HRD10591_14-56-12-973.txt Node
Date: Thu Jul 18 14:56:12 EDT 2019
User: cochatt
Spectrometer: HR+D1059
Trigger mode: 1
Integration Time (sec): 1.000000E-1
Scans to average: 1
Electric dark correction enabled: true
Nonlinearity correction enabled: false
Boxcar width: 0
XAxis mode: Wavelengths
Number of Pixels in Spectrum: 2048
>>>>>Begin Spectral Data<<<<<
223.165	-4.75
223.4	-4.75
223.635	-4.75
223.869	-19.75
224.104	-13.75
224.338	-27.75
224.573	-21.75
224.808	-8.75
225.042	-5.75
225.277	-4.75
225.511	-13.75
225.746	13.25
225.98	12.25
226.215	13.25
226.449	20.25
226.683	12.25
226.918	10.25
227.152	39.25
227.387	52.25
227.621	40.25
227.856	51.25
228.09	39.25
228.324	40.25
228.559	41.25
228.793	62.25
229.027	71.25
229.262	94.25
229.496	101.25
229.73	95.25
229.964	118.25
230.199	115.25
230.433	95.25
230.667	104.25
230.901	117.25
231.136	94.25
231.37	94.25
231.604	101.25
231.838	103.25
232.072	88.25
232.306	102.25
232.541	97.25
232.775	106.25
233.009	96.25
233.243	117.25
233.477	111.25
233.711	121.25
233.945	105.25
234.179	107.25
234.413	109.25
234.647	112.25
234.881	95.25
235.115	121.25
235.349	110.25
235.583	106.25
235.817	107.25
236.051	99.25
236.285	121.25
236.519	111.25
236.753	114.25
236.987	116.25
237.221	138.25
237.455	162.25
237.689	135.25
237.922	118.25
238.156	113.25
238.39	126.25
238.624	116.25
238.858	96.25
239.091	108.25
239.325	118.25
239.559	115.25
239.793	119.25
240.027	124.25
240.26	129.25
240.494	140.25
240.728	123.25
240.961	116.25
241.195	128.25
241.429	126.25
241.662	128.25
241.896	124.25
242.13	107.25
242.363	119.25
242.597	113.25
242.83	128.25
243.064	125.25
243.298	126.25
243.531	133.25
243.765	135.25
243.998	119.25
244.232	131.25
244.465	127.25
244.699	137.25
244.932	142.25
245.166	131.25
245.399	130.25
245.633	123.25
245.866	138.25
246.099	133.25
246.333	137.25
246.566	132.25
246.8	129.25
247.033	130.25
247.266	143.25
247.5	151.25
247.733	138.25
247.966	146.25
248.2	158.25
248.433	152.25
248.666	142.25
248.899	165.25
249.133	161.25
249.366	165.25
249.599	169.25
249.832	142.25
250.066	167.25
250.299	159.25
250.532	163.25
250.765	170.25
250.998	187.25
251.231	179.25
251.465	180.25
251.698	162.25
251.931	176.25
252.164	153.25
252.397	162.25
252.63	166.25
252.863	170.25
253.096	175.25
253.329	202.25
253.562	179.25
253.795	168.25
254.028	167.25
254.261	174.25
254.494	187.25
254.727	208.25
254.96	222.25
255.193	218.25
255.426	208.25
255.659	196.25
255.892	219.25
256.124	198.25
256.357	189.25
256.59	198.25
256.823	182.25
257.056	183.25
257.289	162.25
257.521	178.25
257.754	164.25
257.987	191.25
258.22	185.25
258.452	184.25
258.685	179.25
258.918	168.25
259.151	158.25
259.383	178.25
259.616	194.25
259.849	187.25
260.081	207.25
260.314	201.25
260.547	197.25
260.779	197.25
261.012	195.25
261.244	189.25
261.477	185.25
261.71	167.25
261.942	182.25
262.175	181.25
262.407	193.25
262.64	184.25
262.872	167.25
263.105	172.25
263.337	198.25
263.57	183.25
263.802	189.25
264.035	182.25
264.267	193.25
264.499	195.25
264.732	194.25
264.964	180.25
265.197	186.25
265.429	187.25
265.661	205.25
265.894	203.25
266.126	184.25
266.358	193.25
266.591	185.25
266.823	182.25
267.055	196.25
267.287	203.25
267.52	208.25
267.752	202.25
267.984	201.25
268.216	190.25
268.448	199.25
268.681	216.25
268.913	209.25
269.145	238.25
269.377	225.25
269.609	232.25
269.841	214.25
270.073	236.25
270.306	246.25
270.538	264.25
270.77	243.25
271.002	244.25
271.234	226.25
271.466	254.25
271.698	254.25
271.93	258.25
272.162	262.25
272.394	250.25
272.626	240.25
272.858	234.25
273.09	229.25
273.322	235.25
273.553	230.25
273.785	224.25
274.017	230.25
274.249	214.25
274.481	224.25
274.713	220.25
274.945	225.25
275.176	233.25
275.408	229.25
275.64	222.25
275.872	235.25
276.104	235.25
276.335	219.25
276.567	222.25
276.799	224.25
277.031	281.25
277.262	282.25
277.494	248.25
277.726	262.25
277.957	246.25
278.189	242.25
278.421	238.25
278.652	237.25
278.884	250.25
279.115	243.25
279.347	249.25
279.579	236.25
279.81	217.25
280.042	244.25
280.273	240.25
280.505	246.25
280.736	235.25
280.968	224.25
281.199	228.25
281.431	254.25
281.662	216.25
281.894	237.25
282.125	245.25
282.356	242.25
282.588	238.25
282.819	257.25
283.051	231.25
283.282	255.25
283.513	256.25
283.745	261.25
283.976	245.25
284.207	258.25
284.439	251.25
284.67	254.25
284.901	246.25
285.132	261.25
285.364	245.25
285.595	228.25
285.826	247.25
286.057	234.25
286.288	245.25
286.52	267.25
286.751	232.25
286.982	251.25
287.213	252.25
287.444	263.25
287.675	266.25
287.906	248.25
288.138	258.25
288.369	251.25
288.6	262.25
288.831	257.25
289.062	261.25
289.293	266.25
289.524	258.25
289.755	250.25
289.986	242.25
290.217	247.25
290.448	267.25
290.679	243.25
290.91	262.25
291.141	260.25
291.371	258.25
291.602	251.25
291.833	258.25
292.064	259.25
292.295	258.25
292.526	275.25
292.757	263.25
292.987	265.25
293.218	256.25
293.449	272.25
293.68	270.25
293.91	258.25
294.141	260.25
294.372	263.25
294.603	260.25
294.833	256.25
295.064	267.25
295.295	278.25
295.525	240.25
295.756	258.25
295.987	276.25
296.217	290.25
296.448	299.25
296.679	285.25
296.909	287.25
297.14	280.25
297.37	277.25
297.601	269.25
297.831	282.25
298.062	262.25
298.292	276.25
298.523	275.25
298.753	284.25
298.984	256.25
299.214	270.25
299.445	280.25
299.675	281.25
299.905	282.25
300.136	289.25
300.366	268.25
300.597	277.25
300.827	268.25
301.057	284.25
301.288	299.25
301.518	287.25
301.748	307.25
301.979	294.25
302.209	286.25
302.439	296.25
302.669	296.25
302.9	285.25
303.13	312.25
303.36	289.25
303.59	290.25
303.82	290.25
304.051	318.25
304.281	285.25
304.511	291.25
304.741	289.25
304.971	292.25
305.201	307.25
305.431	304.25
305.661	290.25
305.891	296.25
306.121	290.25
306.352	291.25
306.582	306.25
306.812	313.25
307.042	282.25
307.272	291.25
307.502	310.25
307.731	282.25
307.961	308.25
308.191	284.25
308.421	302.25
308.651	308.25
308.881	297.25
309.111	296.25
309.341	314.25
309.571	313.25
309.8	297.25
310.03	300.25
310.26	320.25
310.49	323.25
310.72	311.25
310.949	338.25
311.179	336.25
311.409	318.25
311.639	311.25
311.868	310.25
312.098	308.25
312.328	334.25
312.557	326.25
312.787	326.25
313.017	342.25
313.246	306.25
313.476	323.25
313.706	318.25
313.935	325.25
314.165	344.25
314.394	333.25
314.624	327.25
314.853	320.25
315.083	327.25
315.312	351.25
315.542	325.25
315.771	299.25
316.001	328.25
316.23	317.25
316.46	344.25
316.689	330.25
316.919	338.25
317.148	329.25
317.377	323.25
317.607	323.25
317.836	327.25
318.065	319.25
318.295	330.25
318.524	309.25
318.753	331.25
318.983	335.25
319.212	331.25
319.441	310.25
319.67	325.25
319.9	317.25
320.129	331.25
320.358	327.25
320.587	338.25
320.816	318.25
321.046	336.25
321.275	329.25
321.504	326.25
321.733	329.25
321.962	340.25
322.191	319.25
322.42	350.25
322.649	356.25
322.878	359.25
323.108	359.25
323.337	375.25
323.566	363.25
323.795	400.25
324.024	419.25
324.253	491.25
324.482	634.25
324.71	897.25
324.939	1243.25
325.168	1032.25
325.397	581.25
325.626	435.25
325.855	396.25
326.084	381.25
326.313	381.25
326.542	397.25
326.77	417.25
326.999	497.25
327.228	606.25
327.457	828.25
327.686	940.25
327.914	666.25
328.143	490.25
328.372	454.25
328.6	433.25
328.829	402.25
329.058	446.25
329.287	443.25
329.515	436.25
329.744	388.25
329.972	404.25
330.201	431.25
330.43	443.25
330.658	450.25
330.887	461.25
331.115	446.25
331.344	426.25
331.572	430.25
331.801	400.25
332.03	388.25
332.258	403.25
332.486	380.25
332.715	380.25
332.943	383.25
333.172	390.25
333.4	406.25
333.629	412.25
333.857	451.25
334.085	436.25
334.314	443.25
334.542	462.25
334.771	463.25
334.999	426.25
335.227	410.25
335.455	404.25
335.684	403.25
335.912	416.25
336.14	393.25
336.369	390.25
336.597	395.25
336.825	396.25
337.053	385.25
337.281	369.25
337.51	369.25
337.738	388.25
337.966	373.25
338.194	386.25
338.422	369.25
338.65	373.25
338.878	369.25
339.106	377.25
339.334	378.25
339.562	372.25
339.79	366.25
340.018	364.25
340.246	362.25
340.474	392.25
340.702	371.25
340.93	366.25
341.158	365.25
341.386	371.25
341.614	353.25
341.842	371.25
342.07	379.25
342.298	352.25
342.526	361.25
342.754	354.25
342.981	346.25
343.209	341.25
343.437	381.25
343.665	394.25
343.893	370.25
344.12	384.25
344.348	410.25
344.576	396.25
344.804	391.25
345.031	370.25
345.259	372.25
345.487	364.25
345.714	352.25
345.942	370.25
346.17	343.25
346.397	334.25
346.625	344.25
346.853	339.25
347.08	332.25
347.308	336.25
347.535	354.25
347.763	340.25
347.99	356.25
348.218	359.25
348.445	371.25
348.673	344.25
348.9	343.25
349.128	352.25
349.355	339.25
349.583	331.25
349.81	338.25
350.037	324.25
350.265	333.25
350.492	346.25
350.72	327.25
350.947	331.25
351.174	340.25
351.402	341.25
351.629	337.25
351.856	350.25
352.083	359.25
352.311	338.25
352.538	341.25
352.765	351.25
352.992	340.25
353.22	348.25
353.447	337.25
353.674	330.25
353.901	345.25
354.128	342.25
354.355	341.25
354.583	325.25
354.81	330.25
355.037	320.25
355.264	321.25
355.491	323.25
355.718	323.25
355.945	318.25
356.172	324.25
356.399	313.25
356.626	334.25
356.853	308.25
357.08	337.25
357.307	319.25
357.534	338.25
357.761	337.25
357.988	316.25
358.215	295.25
358.441	328.25
358.668	332.25
358.895	347.25
359.122	342.25
359.349	348.25
359.576	330.25
359.802	337.25
360.029	363.25
360.256	381.25
360.483	356.25
360.709	349.25
360.936	332.25
361.163	350.25
361.39	336.25
361.616	331.25
361.843	339.25
362.07	328.25
362.296	342.25
362.523	337.25
362.749	340.25
362.976	321.25
363.203	315.25
363.429	316.25
363.656	340.25
363.882	332.25
364.109	348.25
364.335	345.25
364.562	309.25
364.788	328.25
365.015	331.25
365.241	323.25
365.468	330.25
365.694	328.25
365.92	335.25
366.147	336.25
366.373	330.25
366.599	322.25
366.826	323.25
367.052	323.25
367.278	313.25
367.505	331.25
367.731	338.25
367.957	324.25
368.184	336.25
368.41	338.25
368.636	332.25
368.862	330.25
369.089	329.25
369.315	335.25
369.541	329.25
369.767	339.25
369.993	337.25
370.219	333.25
370.445	343.25
370.672	331.25
370.898	321.25
371.124	327.25
371.35	332.25
371.576	335.25
371.802	332.25
372.028	328.25
372.254	338.25
372.48	327.25
372.706	326.25
372.932	328.25
373.158	330.25
373.384	340.25
373.61	341.25
373.835	348.25
374.061	350.25
374.287	336.25
374.513	328.25
374.739	362.25
374.965	347.25
375.191	337.25
375.416	335.25
375.642	345.25
375.868	350.25
376.094	346.25
376.319	349.25
376.545	327.25
376.771	323.25
376.997	309.25
377.222	339.25
377.448	340.25
377.674	342.25
377.899	328.25
378.125	330.25
378.35	332.25
378.576	352.25
378.802	332.25
379.027	330.25
379.253	336.25
379.478	340.25
379.704	344.25
379.929	343.25
380.155	336.25
380.38	338.25
380.606	346.25
380.831	316.25
381.057	346.25
381.282	345.25
381.507	345.25
381.733	335.25
381.958	350.25
382.184	338.25
382.409	329.25
382.634	344.25
382.86	342.25
383.085	355.25
383.31	360.25
383.535	358.25
383.761	342.25
383.986	340.25
384.211	364.25
384.436	380.25
384.662	368.25
384.887	369.25
385.112	374.25
385.337	376.25
385.562	369.25
385.787	362.25
386.013	376.25
386.238	364.25
386.463	368.25
386.688	372.25
386.913	357.25
387.138	361.25
387.363	383.25
387.588	376.25
387.813	372.25
388.038	369.25
388.263	362.25
388.488	376.25
388.713	386.25
388.938	354.25
389.163	355.25
389.387	385.25
389.612	386.25
389.837	377.25
390.062	362.25
390.287	372.25
390.512	371.25
390.736	378.25
390.961	368.25
391.186	378.25
391.411	368.25
391.636	390.25
391.86	398.25
392.085	394.25
392.31	408.25
392.534	389.25
392.759	390.25
392.984	367.25
393.208	360.25
393.433	390.25
393.658	370.25
393.882	374.25
394.107	373.25
394.331	392.25
394.556	382.25
394.78	396.25
395.005	371.25
395.229	386.25
395.454	394.25
395.678	387.25
395.903	397.25
396.127	425.25
396.352	394.25
396.576	381.25
396.801	399.25
397.025	402.25
397.249	391.25
397.474	397.25
397.698	392.25
397.922	406.25
398.147	414.25
398.371	431.25
398.595	424.25
398.82	435.25
399.044	440.25
399.268	461.25
399.492	516.25
399.717	559.25
399.941	564.25
400.165	550.25
400.389	520.25
400.613	490.25
400.837	464.25
401.062	468.25
401.286	434.25
401.51	426.25
401.734	414.25
401.958	439.25
402.182	459.25
402.406	449.25
402.63	435.25
402.854	465.25
403.078	443.25
403.302	464.25
403.526	475.25
403.75	474.25
403.974	479.25
404.198	467.25
404.422	483.25
404.645	450.25
404.869	465.25
405.093	499.25
405.317	538.25
405.541	516.25
405.765	504.25
405.988	483.25
406.212	483.25
406.436	502.25
406.66	516.25
406.883	489.25
407.107	489.25
407.331	553.25
407.555	581.25
407.778	590.25
408.002	546.25
408.226	510.25
408.449	500.25
408.673	489.25
408.896	512.25
409.12	516.25
409.344	536.25
409.567	471.25
409.791	462.25
410.014	461.25
410.238	458.25
410.461	454.25
410.685	475.25
410.908	466.25
411.132	486.25
411.355	497.25
411.578	478.25
411.802	445.25
412.025	450.25
412.249	435.25
412.472	472.25
412.695	491.25
412.919	460.25
413.142	458.25
413.365	437.25
413.589	412.25
413.812	459.25
414.035	447.25
414.258	446.25
414.482	414.25
414.705	433.25
414.928	436.25
415.151	434.25
415.374	431.25
415.597	424.25
415.821	425.25
416.044	418.25
416.267	436.25
416.49	434.25
416.713	425.25
416.936	420.25
417.159	432.25
417.382	431.25
417.605	436.25
417.828	425.25
418.051	423.25
418.274	451.25
418.497	419.25
418.72	445.25
418.943	455.25
419.166	464.25
419.389	466.25
419.611	456.25
419.834	471.25
420.057	458.25
420.28	449.25
420.503	432.25
420.726	457.25
420.948	474.25
421.171	480.25
421.394	499.25
421.617	456.25
421.839	440.25
422.062	433.25
422.285	457.25
422.507	487.25
422.73	531.25
422.953	516.25
423.175	458.25
423.398	467.25
423.621	472.25
423.843	479.25
424.066	493.25
424.288	482.25
424.511	488.25
424.733	512.25
424.956	529.25
425.178	548.25
425.401	531.25
425.623	527.25
425.846	506.25
426.068	470.25
426.291	466.25
426.513	442.25
426.735	448.25
426.958	463.25
427.18	525.25
427.402	602.25
427.625	636.25
427.847	576.25
428.069	516.25
428.292	467.25
428.514	437.25
428.736	416.25
428.958	414.25
429.181	399.25
429.403	394.25
429.625	415.25
429.847	452.25
430.069	486.25
430.292	472.25
430.514	428.25
430.736	420.25
430.958	413.25
431.18	394.25
431.402	406.25
431.624	391.25
431.846	388.25
432.068	410.25
432.29	406.25
432.512	428.25
432.734	391.25
432.956	413.25
433.178	422.25
433.4	391.25
433.622	416.25
433.844	414.25
434.066	401.25
434.287	393.25
434.509	426.25
434.731	454.25
434.953	433.25
435.175	450.25
435.397	466.25
435.618	453.25
435.84	475.25
436.062	532.25
436.284	567.25
436.505	486.25
436.727	430.25
436.949	419.25
437.17	408.25
437.392	410.25
437.614	420.25
437.835	420.25
438.057	504.25
438.278	544.25
438.5	543.25
438.721	581.25
438.943	569.25
439.165	474.25
439.386	450.25
439.608	447.25
439.829	461.25
440.05	473.25
440.272	469.25
440.493	476.25
440.715	427.25
440.936	431.25
441.158	428.25
441.379	448.25
441.6	454.25
441.822	472.25
442.043	498.25
442.264	525.25
442.486	548.25
442.707	477.25
442.928	459.25
443.149	468.25
443.371	512.25
443.592	501.25
443.813	581.25
444.034	578.25
444.255	531.25
444.476	507.25
444.698	512.25
444.919	473.25
445.14	603.25
445.361	526.25
445.582	486.25
445.803	516.25
446.024	578.25
446.245	553.25
446.466	527.25
446.687	457.25
446.908	439.25
447.129	409.25
447.35	411.25
447.571	404.25
447.792	408.25
448.013	392.25
448.234	412.25
448.455	440.25
448.675	520.25
448.896	575.25
449.117	514.25
449.338	503.25
449.559	527.25
449.779	609.25
450	494.25
450.221	439.25
450.442	420.25
450.662	402.25
450.883	403.25
451.104	422.25
451.324	406.25
451.545	392.25
451.766	386.25
451.986	397.25
452.207	376.25
452.428	368.25
452.648	389.25
452.869	385.25
453.089	374.25
453.31	384.25
453.53	380.25
453.751	377.25
453.971	380.25
454.192	384.25
454.412	394.25
454.633	373.25
454.853	359.25
455.073	359.25
455.294	398.25
455.514	412.25
455.734	403.25
455.955	351.25
456.175	354.25
456.395	332.25
456.616	332.25
456.836	346.25
457.056	344.25
457.276	350.25
457.497	345.25
457.717	348.25
457.937	371.25
458.157	376.25
458.377	364.25
458.598	386.25
458.818	408.25
459.038	472.25
459.258	472.25
459.478	430.25
459.698	396.25
459.918	386.25
460.138	424.25
460.358	441.25
460.578	430.25
460.798	441.25
461.018	440.25
461.238	423.25
461.458	432.25
461.678	406.25
461.898	424.25
462.118	432.25
462.338	459.25
462.558	459.25
462.777	476.25
462.997	512.25
463.217	504.25
463.437	515.25
463.657	484.25
463.876	486.25
464.096	474.25
464.316	483.25
464.536	458.25
464.755	466.25
464.975	471.25
465.195	483.25
465.414	510.25
465.634	465.25
465.854	414.25
466.073	429.25
466.293	395.25
466.512	398.25
466.732	395.25
466.951	388.25
467.171	400.25
467.391	379.25
467.61	407.25
467.829	402.25
468.049	399.25
468.268	391.25
468.488	383.25
468.707	392.25
468.927	393.25
469.146	386.25
469.365	385.25
469.585	382.25
469.804	405.25
470.023	407.25
470.243	402.25
470.462	404.25
470.681	421.25
470.901	422.25
471.12	397.25
471.339	390.25
471.558	410.25
471.777	383.25
471.997	380.25
472.216	391.25
472.435	430.25
472.654	394.25
472.873	384.25
473.092	395.25
473.311	385.25
473.53	379.25
473.749	402.25
473.968	434.25
474.187	477.25
474.406	483.25
474.625	414.25
474.844	379.25
475.063	392.25
475.282	375.25
475.501	404.25
475.72	403.25
475.939	392.25
476.158	409.25
476.377	411.25
476.596	412.25
476.814	413.25
477.033	417.25
477.252	403.25
477.471	428.25
477.69	423.25
477.908	411.25
478.127	436.25
478.346	456.25
478.564	471.25
478.783	431.25
479.002	442.25
479.22	426.25
479.439	456.25
479.658	472.25
479.876	459.25
480.095	468.25
480.313	517.25
480.532	498.25
480.751	485.25
480.969	512.25
481.188	518.25
481.406	535.25
481.624	469.25
481.843	453.25
482.061	466.25
482.28	464.25
482.498	457.25
482.717	450.25
482.935	439.25
483.153	441.25
483.372	442.25
483.59	443.25
483.808	450.25
484.027	442.25
484.245	459.25
484.463	431.25
484.681	450.25
484.9	453.25
485.118	468.25
485.336	463.25
485.554	463.25
485.772	468.25
485.99	465.25
486.209	455.25
486.427	470.25
486.645	482.25
486.863	498.25
487.081	472.25
487.299	481.25
487.517	457.25
487.735	465.25
487.953	488.25
488.171	468.25
488.389	467.25
488.607	482.25
488.825	468.25
489.043	453.25
489.261	488.25
489.479	464.25
489.696	480.25
489.914	487.25
490.132	496.25
490.35	496.25
490.568	522.25
490.786	506.25
491.003	525.25
491.221	536.25
491.439	547.25
491.657	547.25
491.874	530.25
492.092	554.25
492.31	537.25
492.527	537.25
492.745	562.25
492.963	545.25
493.18	539.25
493.398	554.25
493.615	593.25
493.833	555.25
494.05	572.25
494.268	570.25
494.485	560.25
494.703	560.25
494.92	550.25
495.138	545.25
495.355	572.25
495.573	567.25
495.79	547.25
496.008	591.25
496.225	574.25
496.442	562.25
496.66	572.25
496.877	549.25
497.094	579.25
497.312	562.25
497.529	562.25
497.746	594.25
497.963	599.25
498.181	617.25
498.398	632.25
498.615	634.25
498.832	667.25
499.049	682.25
499.267	721.25
499.484	752.25
499.701	797.25
499.918	843.25
500.135	918.25
500.352	989.25
500.569	1026.25
500.786	1021.25
501.003	972.25
501.22	910.25
501.437	844.25
501.654	817.25
501.871	798.25
502.088	758.25
