Data from 1969.PennyLincolnUp.Lamp.En5.5.200Scan.071719.P1._HRD10591_14-54-15-972.txt Node
Date: Thu Jul 18 14:54:15 EDT 2019
User: cochatt
Spectrometer: HR+D1059
Trigger mode: 1
Integration Time (sec): 1.000000E-1
Scans to average: 1
Electric dark correction enabled: true
Nonlinearity correction enabled: false
Boxcar width: 0
XAxis mode: Wavelengths
Number of Pixels in Spectrum: 2048
>>>>>Begin Spectral Data<<<<<
223.165	-11.94
223.4	-11.94
223.635	-11.94
223.869	-18.94
224.104	-7.94
224.338	-13.94
224.573	-5.94
224.808	-18.94
225.042	-20.94
225.277	12.06
225.511	-8.94
225.746	9.06
225.98	0.06
226.215	13.06
226.449	16.06
226.683	13.06
226.918	11.06
227.152	33.06
227.387	35.06
227.621	46.06
227.856	58.06
228.09	41.06
228.324	52.06
228.559	62.06
228.793	76.06
229.027	95.06
229.262	89.06
229.496	96.06
229.73	81.06
229.964	127.06
230.199	121.06
230.433	102.06
230.667	98.06
230.901	88.06
231.136	100.06
231.37	97.06
231.604	100.06
231.838	102.06
232.072	111.06
232.306	118.06
232.541	117.06
232.775	107.06
233.009	108.06
233.243	110.06
233.477	95.06
233.711	104.06
233.945	119.06
234.179	116.06
234.413	98.06
234.647	116.06
234.881	118.06
235.115	107.06
235.349	105.06
235.583	101.06
235.817	103.06
236.051	123.06
236.285	117.06
236.519	117.06
236.753	133.06
236.987	129.06
237.221	142.06
237.455	156.06
237.689	137.06
237.922	127.06
238.156	119.06
238.39	100.06
238.624	103.06
238.858	113.06
239.091	108.06
239.325	119.06
239.559	117.06
239.793	99.06
240.027	117.06
240.26	118.06
240.494	119.06
240.728	129.06
240.961	136.06
241.195	121.06
241.429	122.06
241.662	113.06
241.896	124.06
242.13	139.06
242.363	110.06
242.597	111.06
242.83	115.06
243.064	120.06
243.298	130.06
243.531	129.06
243.765	117.06
243.998	137.06
244.232	122.06
244.465	141.06
244.699	121.06
244.932	127.06
245.166	126.06
245.399	134.06
245.633	133.06
245.866	129.06
246.099	124.06
246.333	131.06
246.566	124.06
246.8	131.06
247.033	136.06
247.266	139.06
247.5	131.06
247.733	135.06
247.966	140.06
248.2	137.06
248.433	155.06
248.666	162.06
248.899	149.06
249.133	153.06
249.366	151.06
249.599	151.06
249.832	149.06
250.066	140.06
250.299	155.06
250.532	153.06
250.765	179.06
250.998	167.06
251.231	181.06
251.465	167.06
251.698	141.06
251.931	168.06
252.164	150.06
252.397	173.06
252.63	167.06
252.863	194.06
253.096	175.06
253.329	195.06
253.562	181.06
253.795	167.06
254.028	175.06
254.261	183.06
254.494	183.06
254.727	186.06
254.96	215.06
255.193	211.06
255.426	183.06
255.659	180.06
255.892	176.06
256.124	199.06
256.357	189.06
256.59	168.06
256.823	175.06
257.056	187.06
257.289	163.06
257.521	163.06
257.754	198.06
257.987	166.06
258.22	179.06
258.452	174.06
258.685	187.06
258.918	175.06
259.151	180.06
259.383	170.06
259.616	169.06
259.849	183.06
260.081	192.06
260.314	187.06
260.547	198.06
260.779	192.06
261.012	188.06
261.244	173.06
261.477	169.06
261.71	167.06
261.942	176.06
262.175	180.06
262.407	179.06
262.64	189.06
262.872	181.06
263.105	168.06
263.337	199.06
263.57	158.06
263.802	157.06
264.035	187.06
264.267	183.06
264.499	178.06
264.732	187.06
264.964	198.06
265.197	187.06
265.429	173.06
265.661	178.06
265.894	179.06
266.126	192.06
266.358	187.06
266.591	172.06
266.823	196.06
267.055	195.06
267.287	191.06
267.52	187.06
267.752	196.06
267.984	200.06
268.216	198.06
268.448	208.06
268.681	207.06
268.913	195.06
269.145	219.06
269.377	234.06
269.609	206.06
269.841	203.06
270.073	212.06
270.306	214.06
270.538	233.06
270.77	231.06
271.002	205.06
271.234	216.06
271.466	219.06
271.698	251.06
271.93	227.06
272.162	232.06
272.394	231.06
272.626	225.06
272.858	243.06
273.09	206.06
273.322	216.06
273.553	217.06
273.785	241.06
274.017	228.06
274.249	215.06
274.481	227.06
274.713	215.06
274.945	221.06
275.176	221.06
275.408	235.06
275.64	211.06
275.872	219.06
276.104	222.06
276.335	224.06
276.567	217.06
276.799	219.06
277.031	247.06
277.262	246.06
277.494	256.06
277.726	252.06
277.957	227.06
278.189	226.06
278.421	218.06
278.652	217.06
278.884	227.06
279.115	231.06
279.347	235.06
279.579	229.06
279.81	215.06
280.042	219.06
280.273	220.06
280.505	227.06
280.736	232.06
280.968	222.06
281.199	213.06
281.431	232.06
281.662	227.06
281.894	245.06
282.125	226.06
282.356	239.06
282.588	271.06
282.819	248.06
283.051	234.06
283.282	232.06
283.513	243.06
283.745	247.06
283.976	259.06
284.207	263.06
284.439	234.06
284.67	245.06
284.901	233.06
285.132	240.06
285.364	234.06
285.595	241.06
285.826	259.06
286.057	251.06
286.288	227.06
286.52	245.06
286.751	250.06
286.982	243.06
287.213	243.06
287.444	256.06
287.675	246.06
287.906	235.06
288.138	251.06
288.369	276.06
288.6	267.06
288.831	247.06
289.062	243.06
289.293	241.06
289.524	263.06
289.755	254.06
289.986	258.06
290.217	244.06
290.448	248.06
290.679	263.06
290.91	259.06
291.141	248.06
291.371	245.06
291.602	242.06
291.833	251.06
292.064	259.06
292.295	271.06
292.526	252.06
292.757	261.06
292.987	271.06
293.218	245.06
293.449	259.06
293.68	244.06
293.91	261.06
294.141	228.06
294.372	249.06
294.603	261.06
294.833	266.06
295.064	256.06
295.295	271.06
295.525	269.06
295.756	268.06
295.987	262.06
296.217	274.06
296.448	276.06
296.679	277.06
296.909	249.06
297.14	263.06
297.37	270.06
297.601	264.06
297.831	276.06
298.062	263.06
298.292	279.06
298.523	278.06
298.753	279.06
298.984	264.06
299.214	273.06
299.445	263.06
299.675	269.06
299.905	262.06
300.136	276.06
300.366	273.06
300.597	282.06
300.827	276.06
301.057	273.06
301.288	287.06
301.518	270.06
301.748	277.06
301.979	277.06
302.209	291.06
302.439	278.06
302.669	277.06
302.9	283.06
303.13	297.06
303.36	287.06
303.59	293.06
303.82	278.06
304.051	276.06
304.281	274.06
304.511	288.06
304.741	278.06
304.971	304.06
305.201	282.06
305.431	269.06
305.661	284.06
305.891	280.06
306.121	277.06
306.352	280.06
306.582	286.06
306.812	284.06
307.042	271.06
307.272	279.06
307.502	284.06
307.731	284.06
307.961	286.06
308.191	272.06
308.421	282.06
308.651	289.06
308.881	285.06
309.111	284.06
309.341	292.06
309.571	278.06
309.8	309.06
310.03	303.06
310.26	294.06
310.49	286.06
310.72	303.06
310.949	311.06
311.179	307.06
311.409	297.06
311.639	305.06
311.868	295.06
312.098	303.06
312.328	308.06
312.557	329.06
312.787	312.06
313.017	309.06
313.246	341.06
313.476	320.06
313.706	315.06
313.935	312.06
314.165	291.06
314.394	323.06
314.624	320.06
314.853	309.06
315.083	311.06
315.312	305.06
315.542	301.06
315.771	311.06
316.001	307.06
316.23	298.06
316.46	297.06
316.689	300.06
316.919	306.06
317.148	309.06
317.377	325.06
317.607	303.06
317.836	313.06
318.065	322.06
318.295	304.06
318.524	300.06
318.753	302.06
318.983	329.06
319.212	317.06
319.441	307.06
319.67	315.06
319.9	305.06
320.129	289.06
320.358	319.06
320.587	285.06
320.816	294.06
321.046	323.06
321.275	331.06
321.504	331.06
321.733	332.06
321.962	331.06
322.191	322.06
322.42	325.06
322.649	330.06
322.878	341.06
323.108	345.06
323.337	355.06
323.566	355.06
323.795	381.06
324.024	371.06
324.253	424.06
324.482	539.06
324.71	767.06
324.939	998.06
325.168	859.06
325.397	493.06
325.626	395.06
325.855	378.06
326.084	334.06
326.313	373.06
326.542	375.06
326.77	377.06
326.999	418.06
327.228	522.06
327.457	691.06
327.686	775.06
327.914	567.06
328.143	443.06
328.372	408.06
328.6	359.06
328.829	376.06
329.058	385.06
329.287	383.06
329.515	384.06
329.744	357.06
329.972	393.06
330.201	387.06
330.43	406.06
330.658	399.06
330.887	388.06
331.115	408.06
331.344	373.06
331.572	364.06
331.801	373.06
332.03	381.06
332.258	365.06
332.486	362.06
332.715	371.06
332.943	376.06
333.172	392.06
333.4	398.06
333.629	404.06
333.857	412.06
334.085	407.06
334.314	416.06
334.542	433.06
334.771	432.06
334.999	402.06
335.227	384.06
335.455	378.06
335.684	388.06
335.912	372.06
336.14	367.06
336.369	380.06
336.597	374.06
336.825	373.06
337.053	359.06
337.281	362.06
337.51	360.06
337.738	353.06
337.966	367.06
338.194	377.06
338.422	379.06
338.65	355.06
338.878	367.06
339.106	332.06
339.334	367.06
339.562	347.06
339.79	346.06
340.018	342.06
340.246	342.06
340.474	346.06
340.702	363.06
340.93	341.06
341.158	373.06
341.386	356.06
341.614	355.06
341.842	330.06
342.07	347.06
342.298	334.06
342.526	345.06
342.754	349.06
342.981	334.06
343.209	340.06
343.437	351.06
343.665	368.06
343.893	379.06
344.12	385.06
344.348	368.06
344.576	366.06
344.804	344.06
345.031	363.06
345.259	357.06
345.487	362.06
345.714	323.06
345.942	352.06
346.17	341.06
346.397	311.06
346.625	341.06
346.853	323.06
347.08	323.06
347.308	304.06
347.535	320.06
347.763	340.06
347.99	341.06
348.218	327.06
348.445	332.06
348.673	323.06
348.9	324.06
349.128	328.06
349.355	336.06
349.583	321.06
349.81	316.06
350.037	315.06
350.265	334.06
350.492	340.06
350.72	323.06
350.947	320.06
351.174	331.06
351.402	339.06
351.629	338.06
351.856	321.06
352.083	333.06
352.311	332.06
352.538	343.06
352.765	337.06
352.992	350.06
353.22	328.06
353.447	318.06
353.674	317.06
353.901	309.06
354.128	313.06
354.355	310.06
354.583	322.06
354.81	285.06
355.037	323.06
355.264	305.06
355.491	313.06
355.718	302.06
355.945	324.06
356.172	309.06
356.399	317.06
356.626	314.06
356.853	333.06
357.08	319.06
357.307	302.06
357.534	319.06
357.761	316.06
357.988	316.06
358.215	332.06
358.441	320.06
358.668	295.06
358.895	314.06
359.122	308.06
359.349	320.06
359.576	334.06
359.802	331.06
360.029	345.06
360.256	337.06
360.483	346.06
360.709	333.06
360.936	321.06
361.163	320.06
361.39	330.06
361.616	327.06
361.843	321.06
362.07	326.06
362.296	322.06
362.523	329.06
362.749	327.06
362.976	302.06
363.203	347.06
363.429	308.06
363.656	319.06
363.882	321.06
364.109	319.06
364.335	303.06
364.562	286.06
364.788	335.06
365.015	335.06
365.241	321.06
365.468	331.06
365.694	335.06
365.92	314.06
366.147	309.06
366.373	334.06
366.599	322.06
366.826	329.06
367.052	313.06
367.278	316.06
367.505	318.06
367.731	315.06
367.957	315.06
368.184	318.06
368.41	328.06
368.636	307.06
368.862	311.06
369.089	321.06
369.315	338.06
369.541	318.06
369.767	336.06
369.993	318.06
370.219	315.06
370.445	316.06
370.672	320.06
370.898	312.06
371.124	285.06
371.35	327.06
371.576	325.06
371.802	326.06
372.028	328.06
372.254	321.06
372.48	310.06
372.706	324.06
372.932	329.06
373.158	336.06
373.384	322.06
373.61	329.06
373.835	324.06
374.061	334.06
374.287	332.06
374.513	334.06
374.739	336.06
374.965	336.06
375.191	358.06
375.416	338.06
375.642	343.06
375.868	335.06
376.094	335.06
376.319	327.06
376.545	336.06
376.771	316.06
376.997	315.06
377.222	327.06
377.448	337.06
377.674	321.06
377.899	325.06
378.125	316.06
378.35	309.06
378.576	322.06
378.802	315.06
379.027	324.06
379.253	331.06
379.478	323.06
379.704	320.06
379.929	342.06
380.155	322.06
380.38	320.06
380.606	331.06
380.831	328.06
381.057	315.06
381.282	329.06
381.507	336.06
381.733	332.06
381.958	345.06
382.184	328.06
382.409	316.06
382.634	329.06
382.86	320.06
383.085	348.06
383.31	345.06
383.535	326.06
383.761	324.06
383.986	351.06
384.211	365.06
384.436	342.06
384.662	360.06
384.887	363.06
385.112	350.06
385.337	347.06
385.562	375.06
385.787	349.06
386.013	364.06
386.238	368.06
386.463	362.06
386.688	378.06
386.913	383.06
387.138	372.06
387.363	374.06
387.588	354.06
387.813	340.06
388.038	350.06
388.263	351.06
388.488	344.06
388.713	366.06
388.938	368.06
389.163	359.06
389.387	374.06
389.612	348.06
389.837	367.06
390.062	373.06
390.287	368.06
390.512	358.06
390.736	344.06
390.961	349.06
391.186	358.06
391.411	381.06
391.636	378.06
391.86	380.06
392.085	392.06
392.31	414.06
392.534	380.06
392.759	377.06
392.984	367.06
393.208	373.06
393.433	379.06
393.658	351.06
393.882	352.06
394.107	378.06
394.331	345.06
394.556	381.06
394.78	379.06
395.005	365.06
395.229	362.06
395.454	388.06
395.678	386.06
395.903	393.06
396.127	397.06
396.352	404.06
396.576	397.06
396.801	372.06
397.025	386.06
397.249	371.06
397.474	384.06
397.698	399.06
397.922	401.06
398.147	389.06
398.371	388.06
398.595	412.06
398.82	433.06
399.044	449.06
399.268	446.06
399.492	483.06
399.717	560.06
399.941	539.06
400.165	549.06
400.389	502.06
400.613	462.06
400.837	443.06
401.062	436.06
401.286	405.06
401.51	439.06
401.734	417.06
401.958	408.06
402.182	428.06
402.406	440.06
402.63	436.06
402.854	431.06
403.078	445.06
403.302	441.06
403.526	469.06
403.75	466.06
403.974	453.06
404.198	468.06
404.422	460.06
404.645	450.06
404.869	465.06
405.093	469.06
405.317	487.06
405.541	533.06
405.765	493.06
405.988	482.06
406.212	468.06
406.436	473.06
406.66	468.06
406.883	458.06
407.107	475.06
407.331	515.06
407.555	581.06
407.778	559.06
408.002	510.06
408.226	501.06
408.449	480.06
408.673	477.06
408.896	482.06
409.12	498.06
409.344	473.06
409.567	456.06
409.791	443.06
410.014	453.06
410.238	431.06
410.461	435.06
410.685	447.06
410.908	435.06
411.132	446.06
411.355	471.06
411.578	456.06
411.802	431.06
412.025	437.06
412.249	477.06
412.472	446.06
412.695	459.06
412.919	446.06
413.142	428.06
413.365	431.06
413.589	436.06
413.812	407.06
414.035	412.06
414.258	429.06
414.482	422.06
414.705	420.06
414.928	424.06
415.151	423.06
415.374	401.06
415.597	420.06
415.821	407.06
416.044	411.06
416.267	406.06
416.49	430.06
416.713	413.06
416.936	410.06
417.159	419.06
417.382	401.06
417.605	424.06
417.828	434.06
418.051	427.06
418.274	409.06
418.497	412.06
418.72	409.06
418.943	433.06
419.166	432.06
419.389	443.06
419.611	437.06
419.834	428.06
420.057	476.06
420.28	458.06
420.503	438.06
420.726	422.06
420.948	425.06
421.171	449.06
421.394	466.06
421.617	430.06
421.839	420.06
422.062	438.06
422.285	422.06
422.507	479.06
422.73	499.06
422.953	493.06
423.175	459.06
423.398	475.06
423.621	465.06
423.843	471.06
424.066	461.06
424.288	448.06
424.511	479.06
424.733	485.06
424.956	520.06
425.178	503.06
425.401	489.06
425.623	493.06
425.846	453.06
426.068	438.06
426.291	425.06
426.513	441.06
426.735	442.06
426.958	463.06
427.18	485.06
427.402	560.06
427.625	575.06
427.847	511.06
428.069	480.06
428.292	427.06
428.514	432.06
428.736	410.06
428.958	393.06
429.181	399.06
429.403	427.06
429.625	401.06
429.847	412.06
430.069	438.06
430.292	423.06
430.514	399.06
430.736	402.06
430.958	402.06
431.18	391.06
431.402	387.06
431.624	395.06
431.846	389.06
432.068	401.06
432.29	397.06
432.512	383.06
432.734	393.06
432.956	396.06
433.178	413.06
433.4	409.06
433.622	402.06
433.844	408.06
434.066	394.06
434.287	383.06
434.509	396.06
434.731	429.06
434.953	436.06
435.175	439.06
435.397	447.06
435.618	409.06
435.84	441.06
436.062	478.06
436.284	508.06
436.505	448.06
436.727	407.06
436.949	405.06
437.17	393.06
437.392	397.06
437.614	410.06
437.835	402.06
438.057	450.06
438.278	500.06
438.5	503.06
438.721	542.06
438.943	531.06
439.165	438.06
439.386	407.06
439.608	428.06
439.829	397.06
440.05	424.06
440.272	466.06
440.493	446.06
440.715	415.06
440.936	413.06
441.158	419.06
441.379	415.06
441.6	435.06
441.822	453.06
442.043	456.06
442.264	494.06
442.486	521.06
442.707	481.06
442.928	453.06
443.149	444.06
443.371	449.06
443.592	487.06
443.813	542.06
444.034	557.06
444.255	488.06
444.476	476.06
444.698	469.06
444.919	473.06
445.14	593.06
445.361	500.06
445.582	459.06
445.803	500.06
446.024	522.06
446.245	535.06
446.466	501.06
446.687	456.06
446.908	423.06
447.129	400.06
447.35	402.06
447.571	397.06
447.792	381.06
448.013	397.06
448.234	391.06
448.455	428.06
448.675	488.06
448.896	546.06
449.117	473.06
449.338	448.06
449.559	496.06
449.779	551.06
450	477.06
450.221	397.06
450.442	388.06
450.662	374.06
450.883	389.06
451.104	391.06
451.324	390.06
451.545	394.06
451.766	379.06
451.986	359.06
452.207	369.06
452.428	346.06
452.648	360.06
452.869	360.06
453.089	353.06
453.31	391.06
453.53	361.06
453.751	354.06
453.971	356.06
454.192	360.06
454.412	365.06
454.633	371.06
454.853	345.06
455.073	364.06
455.294	376.06
455.514	406.06
455.734	389.06
455.955	369.06
456.175	326.06
456.395	348.06
456.616	333.06
456.836	345.06
457.056	341.06
457.276	344.06
457.497	340.06
457.717	352.06
457.937	340.06
458.157	348.06
458.377	374.06
458.598	383.06
458.818	392.06
459.038	429.06
459.258	429.06
459.478	428.06
459.698	388.06
459.918	395.06
460.138	411.06
460.358	413.06
460.578	445.06
460.798	417.06
461.018	422.06
461.238	417.06
461.458	416.06
461.678	401.06
461.898	425.06
462.118	427.06
462.338	432.06
462.558	442.06
462.777	463.06
462.997	457.06
463.217	479.06
463.437	485.06
463.657	472.06
463.876	479.06
464.096	457.06
464.316	448.06
464.536	483.06
464.755	462.06
464.975	439.06
465.195	445.06
465.414	460.06
465.634	435.06
465.854	414.06
466.073	385.06
466.293	381.06
466.512	385.06
466.732	390.06
466.951	393.06
467.171	382.06
467.391	387.06
467.61	386.06
467.829	374.06
468.049	375.06
468.268	384.06
468.488	356.06
468.707	364.06
468.927	377.06
469.146	351.06
469.365	378.06
469.585	375.06
469.804	377.06
470.023	384.06
470.243	389.06
470.462	387.06
470.681	385.06
470.901	398.06
471.12	399.06
471.339	381.06
471.558	391.06
471.777	378.06
471.997	376.06
472.216	375.06
472.435	380.06
472.654	383.06
472.873	381.06
473.092	373.06
473.311	381.06
473.53	378.06
473.749	364.06
473.968	393.06
474.187	449.06
474.406	455.06
474.625	396.06
474.844	373.06
475.063	381.06
475.282	387.06
475.501	375.06
475.72	378.06
475.939	367.06
476.158	385.06
476.377	393.06
476.596	392.06
476.814	395.06
477.033	384.06
477.252	396.06
477.471	392.06
477.69	418.06
477.908	439.06
478.127	444.06
478.346	419.06
478.564	432.06
478.783	437.06
479.002	435.06
479.22	451.06
479.439	458.06
479.658	452.06
479.876	443.06
480.095	446.06
480.313	469.06
480.532	452.06
480.751	485.06
480.969	483.06
481.188	486.06
481.406	480.06
481.624	463.06
481.843	439.06
482.061	421.06
482.28	440.06
482.498	437.06
482.717	419.06
482.935	421.06
483.153	430.06
483.372	438.06
483.59	428.06
483.808	424.06
484.027	440.06
484.245	441.06
484.463	446.06
484.681	441.06
484.9	431.06
485.118	446.06
485.336	443.06
485.554	429.06
485.772	441.06
485.99	458.06
486.209	446.06
486.427	419.06
486.645	445.06
486.863	461.06
487.081	459.06
487.299	453.06
487.517	454.06
487.735	446.06
487.953	448.06
488.171	439.06
488.389	453.06
488.607	461.06
488.825	445.06
489.043	456.06
489.261	435.06
489.479	461.06
489.696	451.06
489.914	461.06
490.132	487.06
490.35	462.06
490.568	471.06
490.786	471.06
491.003	492.06
491.221	490.06
491.439	505.06
491.657	527.06
491.874	519.06
492.092	527.06
492.31	529.06
492.527	537.06
492.745	534.06
492.963	534.06
493.18	528.06
493.398	550.06
493.615	528.06
493.833	526.06
494.05	528.06
494.268	526.06
494.485	530.06
494.703	526.06
494.92	540.06
495.138	526.06
495.355	512.06
495.573	551.06
495.79	514.06
496.008	528.06
496.225	528.06
496.442	511.06
496.66	548.06
496.877	551.06
497.094	524.06
497.312	553.06
497.529	548.06
497.746	552.06
497.963	566.06
498.181	572.06
498.398	600.06
498.615	622.06
498.832	640.06
499.049	647.06
499.267	704.06
499.484	745.06
499.701	761.06
499.918	819.06
500.135	884.06
500.352	952.06
500.569	976.06
500.786	957.06
501.003	907.06
501.22	859.06
501.437	802.06
501.654	762.06
501.871	721.06
502.088	694.06
