Data from 1969.PennyLincolnUp.Lamp.En5.5.200Scan.071719.P1._HRD10591_14-53-54-971.txt Node
Date: Thu Jul 18 14:53:54 EDT 2019
User: cochatt
Spectrometer: HR+D1059
Trigger mode: 1
Integration Time (sec): 1.000000E-1
Scans to average: 1
Electric dark correction enabled: true
Nonlinearity correction enabled: false
Boxcar width: 0
XAxis mode: Wavelengths
Number of Pixels in Spectrum: 2048
>>>>>Begin Spectral Data<<<<<
223.165	-18.75
223.4	-18.75
223.635	-18.75
223.869	-15.75
224.104	-21.75
224.338	-21.75
224.573	-6.75
224.808	-16.75
225.042	-19.75
225.277	-10.75
225.511	3.25
225.746	-2.75
225.98	10.25
226.215	2.25
226.449	28.25
226.683	26.25
226.918	36.25
227.152	28.25
227.387	33.25
227.621	39.25
227.856	54.25
228.09	51.25
228.324	61.25
228.559	59.25
228.793	41.25
229.027	81.25
229.262	80.25
229.496	91.25
229.73	101.25
229.964	100.25
230.199	100.25
230.433	95.25
230.667	91.25
230.901	78.25
231.136	89.25
231.37	100.25
231.604	90.25
231.838	88.25
232.072	95.25
232.306	109.25
232.541	116.25
232.775	98.25
233.009	97.25
233.243	92.25
233.477	109.25
233.711	91.25
233.945	115.25
234.179	90.25
234.413	97.25
234.647	104.25
234.881	105.25
235.115	104.25
235.349	103.25
235.583	97.25
235.817	102.25
236.051	102.25
236.285	116.25
236.519	105.25
236.753	116.25
236.987	115.25
237.221	125.25
237.455	161.25
237.689	121.25
237.922	101.25
238.156	99.25
238.39	107.25
238.624	85.25
238.858	104.25
239.091	100.25
239.325	94.25
239.559	109.25
239.793	108.25
240.027	112.25
240.26	125.25
240.494	125.25
240.728	112.25
240.961	132.25
241.195	122.25
241.429	107.25
241.662	96.25
241.896	98.25
242.13	114.25
242.363	108.25
242.597	112.25
242.83	105.25
243.064	103.25
243.298	124.25
243.531	118.25
243.765	106.25
243.998	114.25
244.232	118.25
244.465	124.25
244.699	119.25
244.932	119.25
245.166	104.25
245.399	131.25
245.633	117.25
245.866	127.25
246.099	122.25
246.333	119.25
246.566	118.25
246.8	128.25
247.033	131.25
247.266	118.25
247.5	130.25
247.733	122.25
247.966	127.25
248.2	156.25
248.433	133.25
248.666	126.25
248.899	129.25
249.133	166.25
249.366	145.25
249.599	141.25
249.832	137.25
250.066	138.25
250.299	144.25
250.532	139.25
250.765	145.25
250.998	168.25
251.231	171.25
251.465	164.25
251.698	139.25
251.931	156.25
252.164	145.25
252.397	157.25
252.63	156.25
252.863	152.25
253.096	151.25
253.329	176.25
253.562	175.25
253.795	173.25
254.028	168.25
254.261	160.25
254.494	169.25
254.727	179.25
254.96	188.25
255.193	195.25
255.426	164.25
255.659	175.25
255.892	179.25
256.124	176.25
256.357	183.25
256.59	166.25
256.823	162.25
257.056	163.25
257.289	145.25
257.521	171.25
257.754	139.25
257.987	165.25
258.22	170.25
258.452	166.25
258.685	159.25
258.918	154.25
259.151	161.25
259.383	170.25
259.616	183.25
259.849	159.25
260.081	192.25
260.314	182.25
260.547	204.25
260.779	185.25
261.012	157.25
261.244	176.25
261.477	169.25
261.71	177.25
261.942	189.25
262.175	169.25
262.407	165.25
262.64	168.25
262.872	167.25
263.105	188.25
263.337	164.25
263.57	146.25
263.802	164.25
264.035	154.25
264.267	164.25
264.499	159.25
264.732	175.25
264.964	177.25
265.197	172.25
265.429	182.25
265.661	184.25
265.894	167.25
266.126	168.25
266.358	178.25
266.591	162.25
266.823	186.25
267.055	201.25
267.287	184.25
267.52	179.25
267.752	180.25
267.984	183.25
268.216	181.25
268.448	179.25
268.681	169.25
268.913	189.25
269.145	197.25
269.377	207.25
269.609	209.25
269.841	201.25
270.073	204.25
270.306	224.25
270.538	215.25
270.77	218.25
271.002	228.25
271.234	227.25
271.466	219.25
271.698	220.25
271.93	226.25
272.162	211.25
272.394	205.25
272.626	207.25
272.858	183.25
273.09	205.25
273.322	198.25
273.553	201.25
273.785	205.25
274.017	192.25
274.249	212.25
274.481	187.25
274.713	200.25
274.945	195.25
275.176	205.25
275.408	199.25
275.64	199.25
275.872	207.25
276.104	207.25
276.335	184.25
276.567	220.25
276.799	207.25
277.031	217.25
277.262	224.25
277.494	231.25
277.726	223.25
277.957	216.25
278.189	200.25
278.421	212.25
278.652	211.25
278.884	195.25
279.115	223.25
279.347	209.25
279.579	213.25
279.81	208.25
280.042	194.25
280.273	205.25
280.505	224.25
280.736	221.25
280.968	229.25
281.199	214.25
281.431	212.25
281.662	225.25
281.894	225.25
282.125	214.25
282.356	223.25
282.588	228.25
282.819	231.25
283.051	226.25
283.282	225.25
283.513	217.25
283.745	221.25
283.976	234.25
284.207	220.25
284.439	227.25
284.67	209.25
284.901	214.25
285.132	235.25
285.364	224.25
285.595	238.25
285.826	233.25
286.057	225.25
286.288	229.25
286.52	232.25
286.751	218.25
286.982	228.25
287.213	231.25
287.444	207.25
287.675	238.25
287.906	255.25
288.138	230.25
288.369	241.25
288.6	253.25
288.831	236.25
289.062	240.25
289.293	234.25
289.524	243.25
289.755	227.25
289.986	213.25
290.217	231.25
290.448	245.25
290.679	241.25
290.91	240.25
291.141	249.25
291.371	244.25
291.602	241.25
291.833	231.25
292.064	224.25
292.295	250.25
292.526	242.25
292.757	242.25
292.987	243.25
293.218	224.25
293.449	243.25
293.68	244.25
293.91	241.25
294.141	236.25
294.372	248.25
294.603	236.25
294.833	230.25
295.064	259.25
295.295	253.25
295.525	244.25
295.756	235.25
295.987	242.25
296.217	254.25
296.448	243.25
296.679	232.25
296.909	246.25
297.14	248.25
297.37	252.25
297.601	249.25
297.831	236.25
298.062	246.25
298.292	250.25
298.523	255.25
298.753	245.25
298.984	251.25
299.214	258.25
299.445	248.25
299.675	258.25
299.905	260.25
300.136	260.25
300.366	258.25
300.597	266.25
300.827	262.25
301.057	269.25
301.288	279.25
301.518	257.25
301.748	256.25
301.979	274.25
302.209	264.25
302.439	278.25
302.669	261.25
302.9	256.25
303.13	258.25
303.36	290.25
303.59	280.25
303.82	274.25
304.051	270.25
304.281	269.25
304.511	259.25
304.741	259.25
304.971	258.25
305.201	283.25
305.431	266.25
305.661	246.25
305.891	269.25
306.121	269.25
306.352	261.25
306.582	278.25
306.812	253.25
307.042	264.25
307.272	269.25
307.502	277.25
307.731	263.25
307.961	264.25
308.191	277.25
308.421	272.25
308.651	268.25
308.881	275.25
309.111	277.25
309.341	282.25
309.571	278.25
309.8	288.25
310.03	300.25
310.26	289.25
310.49	267.25
310.72	275.25
310.949	291.25
311.179	296.25
311.409	287.25
311.639	275.25
311.868	270.25
312.098	282.25
312.328	300.25
312.557	313.25
312.787	291.25
313.017	301.25
313.246	309.25
313.476	286.25
313.706	290.25
313.935	291.25
314.165	294.25
314.394	303.25
314.624	299.25
314.853	302.25
315.083	299.25
315.312	290.25
315.542	297.25
315.771	289.25
316.001	285.25
316.23	282.25
316.46	288.25
316.689	293.25
316.919	308.25
317.148	311.25
317.377	294.25
317.607	288.25
317.836	300.25
318.065	290.25
318.295	287.25
318.524	293.25
318.753	316.25
318.983	305.25
319.212	294.25
319.441	306.25
319.67	296.25
319.9	291.25
320.129	289.25
320.358	290.25
320.587	281.25
320.816	287.25
321.046	287.25
321.275	283.25
321.504	305.25
321.733	296.25
321.962	290.25
322.191	304.25
322.42	313.25
322.649	314.25
322.878	329.25
323.108	320.25
323.337	321.25
323.566	331.25
323.795	356.25
324.024	327.25
324.253	385.25
324.482	502.25
324.71	700.25
324.939	896.25
325.168	749.25
325.397	450.25
325.626	349.25
325.855	343.25
326.084	349.25
326.313	327.25
326.542	322.25
326.77	351.25
326.999	375.25
327.228	464.25
327.457	607.25
327.686	692.25
327.914	511.25
328.143	388.25
328.372	369.25
328.6	363.25
328.829	341.25
329.058	370.25
329.287	355.25
329.515	346.25
329.744	335.25
329.972	352.25
330.201	359.25
330.43	348.25
330.658	390.25
330.887	391.25
331.115	374.25
331.344	385.25
331.572	347.25
331.801	346.25
332.03	363.25
332.258	334.25
332.486	371.25
332.715	362.25
332.943	377.25
333.172	357.25
333.4	362.25
333.629	380.25
333.857	355.25
334.085	387.25
334.314	397.25
334.542	406.25
334.771	392.25
334.999	382.25
335.227	366.25
335.455	360.25
335.684	376.25
335.912	337.25
336.14	340.25
336.369	347.25
336.597	355.25
336.825	350.25
337.053	348.25
337.281	346.25
337.51	352.25
337.738	347.25
337.966	345.25
338.194	333.25
338.422	354.25
338.65	351.25
338.878	327.25
339.106	339.25
339.334	339.25
339.562	331.25
339.79	323.25
340.018	323.25
340.246	325.25
340.474	330.25
340.702	321.25
340.93	335.25
341.158	321.25
341.386	314.25
341.614	320.25
341.842	327.25
342.07	334.25
342.298	329.25
342.526	324.25
342.754	311.25
342.981	331.25
343.209	322.25
343.437	323.25
343.665	349.25
343.893	350.25
344.12	374.25
344.348	351.25
344.576	336.25
344.804	349.25
345.031	319.25
345.259	343.25
345.487	327.25
345.714	332.25
345.942	308.25
346.17	337.25
346.397	329.25
346.625	319.25
346.853	313.25
347.08	320.25
347.308	294.25
347.535	309.25
347.763	320.25
347.99	293.25
348.218	319.25
348.445	312.25
348.673	324.25
348.9	304.25
349.128	313.25
349.355	328.25
349.583	322.25
349.81	322.25
350.037	315.25
350.265	312.25
350.492	310.25
350.72	293.25
350.947	307.25
351.174	329.25
351.402	332.25
351.629	317.25
351.856	296.25
352.083	315.25
352.311	309.25
352.538	313.25
352.765	307.25
352.992	294.25
353.22	309.25
353.447	309.25
353.674	318.25
353.901	308.25
354.128	306.25
354.355	307.25
354.583	288.25
354.81	289.25
355.037	304.25
355.264	302.25
355.491	304.25
355.718	307.25
355.945	308.25
356.172	293.25
356.399	281.25
356.626	287.25
356.853	311.25
357.08	307.25
357.307	303.25
357.534	298.25
357.761	279.25
357.988	295.25
358.215	302.25
358.441	290.25
358.668	287.25
358.895	312.25
359.122	315.25
359.349	305.25
359.576	282.25
359.802	311.25
360.029	328.25
360.256	333.25
360.483	321.25
360.709	305.25
360.936	294.25
361.163	308.25
361.39	309.25
361.616	324.25
361.843	305.25
362.07	320.25
362.296	307.25
362.523	308.25
362.749	299.25
362.976	327.25
363.203	299.25
363.429	300.25
363.656	313.25
363.882	303.25
364.109	292.25
364.335	283.25
364.562	297.25
364.788	299.25
365.015	305.25
365.241	277.25
365.468	293.25
365.694	309.25
365.92	284.25
366.147	303.25
366.373	296.25
366.599	287.25
366.826	293.25
367.052	299.25
367.278	321.25
367.505	299.25
367.731	296.25
367.957	294.25
368.184	299.25
368.41	310.25
368.636	326.25
368.862	311.25
369.089	309.25
369.315	305.25
369.541	296.25
369.767	299.25
369.993	316.25
370.219	297.25
370.445	307.25
370.672	303.25
370.898	303.25
371.124	276.25
371.35	315.25
371.576	313.25
371.802	322.25
372.028	310.25
372.254	321.25
372.48	298.25
372.706	284.25
372.932	309.25
373.158	305.25
373.384	327.25
373.61	327.25
373.835	319.25
374.061	316.25
374.287	317.25
374.513	313.25
374.739	316.25
374.965	308.25
375.191	315.25
375.416	331.25
375.642	316.25
375.868	331.25
376.094	316.25
376.319	309.25
376.545	305.25
376.771	299.25
376.997	313.25
377.222	302.25
377.448	317.25
377.674	297.25
377.899	292.25
378.125	294.25
378.35	297.25
378.576	313.25
378.802	311.25
379.027	313.25
379.253	317.25
379.478	286.25
379.704	309.25
379.929	307.25
380.155	292.25
380.38	309.25
380.606	331.25
380.831	326.25
381.057	338.25
381.282	315.25
381.507	308.25
381.733	310.25
381.958	290.25
382.184	293.25
382.409	315.25
382.634	319.25
382.86	324.25
383.085	314.25
383.31	338.25
383.535	329.25
383.761	312.25
383.986	309.25
384.211	329.25
384.436	344.25
384.662	343.25
384.887	327.25
385.112	338.25
385.337	359.25
385.562	332.25
385.787	340.25
386.013	353.25
386.238	346.25
386.463	369.25
386.688	346.25
386.913	348.25
387.138	352.25
387.363	329.25
387.588	345.25
387.813	349.25
388.038	354.25
388.263	355.25
388.488	327.25
388.713	341.25
388.938	346.25
389.163	352.25
389.387	352.25
389.612	345.25
389.837	350.25
390.062	339.25
390.287	352.25
390.512	337.25
390.736	329.25
390.961	339.25
391.186	350.25
391.411	343.25
391.636	357.25
391.86	368.25
392.085	357.25
392.31	367.25
392.534	375.25
392.759	353.25
392.984	348.25
393.208	363.25
393.433	361.25
393.658	351.25
393.882	332.25
394.107	344.25
394.331	347.25
394.556	371.25
394.78	341.25
395.005	337.25
395.229	333.25
395.454	352.25
395.678	373.25
395.903	379.25
396.127	391.25
396.352	372.25
396.576	368.25
396.801	358.25
397.025	357.25
397.249	348.25
397.474	364.25
397.698	379.25
397.922	387.25
398.147	401.25
398.371	383.25
398.595	383.25
398.82	395.25
399.044	426.25
399.268	439.25
399.492	480.25
399.717	503.25
399.941	529.25
400.165	522.25
400.389	484.25
400.613	457.25
400.837	426.25
401.062	398.25
401.286	403.25
401.51	393.25
401.734	398.25
401.958	395.25
402.182	411.25
402.406	429.25
402.63	417.25
402.854	418.25
403.078	432.25
403.302	437.25
403.526	433.25
403.75	424.25
403.974	432.25
404.198	444.25
404.422	431.25
404.645	457.25
404.869	429.25
405.093	447.25
405.317	459.25
405.541	464.25
405.765	446.25
405.988	438.25
406.212	426.25
406.436	423.25
406.66	452.25
406.883	437.25
407.107	464.25
407.331	492.25
407.555	521.25
407.778	500.25
408.002	471.25
408.226	456.25
408.449	463.25
408.673	455.25
408.896	442.25
409.12	483.25
409.344	470.25
409.567	421.25
409.791	425.25
410.014	419.25
410.238	416.25
410.461	418.25
410.685	434.25
410.908	426.25
411.132	442.25
411.355	443.25
411.578	442.25
411.802	412.25
412.025	409.25
412.249	405.25
412.472	449.25
412.695	437.25
412.919	440.25
413.142	419.25
413.365	397.25
413.589	415.25
413.812	413.25
414.035	394.25
414.258	393.25
414.482	386.25
414.705	405.25
414.928	411.25
415.151	380.25
415.374	383.25
415.597	389.25
415.821	401.25
416.044	387.25
416.267	399.25
416.49	386.25
416.713	411.25
416.936	393.25
417.159	389.25
417.382	394.25
417.605	387.25
417.828	406.25
418.051	405.25
418.274	395.25
418.497	381.25
418.72	409.25
418.943	399.25
419.166	441.25
419.389	435.25
419.611	427.25
419.834	449.25
420.057	423.25
420.28	407.25
420.503	406.25
420.726	419.25
420.948	418.25
421.171	420.25
421.394	448.25
421.617	403.25
421.839	399.25
422.062	415.25
422.285	405.25
422.507	441.25
422.73	472.25
422.953	464.25
423.175	426.25
423.398	438.25
423.621	436.25
423.843	417.25
424.066	448.25
424.288	431.25
424.511	428.25
424.733	441.25
424.956	493.25
425.178	469.25
425.401	445.25
425.623	477.25
425.846	408.25
426.068	401.25
426.291	395.25
426.513	411.25
426.735	427.25
426.958	437.25
427.18	455.25
427.402	529.25
427.625	543.25
427.847	470.25
428.069	398.25
428.292	393.25
428.514	385.25
428.736	367.25
428.958	383.25
429.181	367.25
429.403	381.25
429.625	382.25
429.847	387.25
430.069	427.25
430.292	409.25
430.514	380.25
430.736	405.25
430.958	381.25
431.18	385.25
431.402	365.25
431.624	367.25
431.846	376.25
432.068	363.25
432.29	379.25
432.512	367.25
432.734	374.25
432.956	368.25
433.178	384.25
433.4	394.25
433.622	376.25
433.844	377.25
434.066	369.25
434.287	376.25
434.509	383.25
434.731	389.25
434.953	384.25
435.175	390.25
435.397	412.25
435.618	394.25
435.84	416.25
436.062	449.25
436.284	471.25
436.505	434.25
436.727	384.25
436.949	379.25
437.17	375.25
437.392	373.25
437.614	383.25
437.835	394.25
438.057	443.25
438.278	492.25
438.5	477.25
438.721	503.25
438.943	492.25
439.165	409.25
439.386	419.25
439.608	406.25
439.829	420.25
440.05	426.25
440.272	401.25
440.493	420.25
440.715	408.25
440.936	371.25
441.158	393.25
441.379	405.25
441.6	404.25
441.822	406.25
442.043	409.25
442.264	475.25
442.486	485.25
442.707	445.25
442.928	423.25
443.149	433.25
443.371	424.25
443.592	462.25
443.813	500.25
444.034	517.25
444.255	474.25
444.476	450.25
444.698	445.25
444.919	464.25
445.14	582.25
445.361	474.25
445.582	434.25
445.803	450.25
446.024	484.25
446.245	489.25
446.466	445.25
446.687	388.25
446.908	405.25
447.129	375.25
447.35	377.25
447.571	376.25
447.792	378.25
448.013	364.25
448.234	368.25
448.455	397.25
448.675	460.25
448.896	485.25
449.117	432.25
449.338	409.25
449.559	486.25
449.779	497.25
450	447.25
450.221	363.25
450.442	377.25
450.662	367.25
450.883	351.25
451.104	358.25
451.324	365.25
451.545	374.25
451.766	335.25
451.986	336.25
452.207	330.25
452.428	339.25
452.648	346.25
452.869	345.25
453.089	344.25
453.31	349.25
453.53	351.25
453.751	331.25
453.971	332.25
454.192	353.25
454.412	348.25
454.633	339.25
454.853	335.25
455.073	314.25
455.294	331.25
455.514	367.25
455.734	366.25
455.955	323.25
456.175	327.25
456.395	317.25
456.616	313.25
456.836	316.25
457.056	311.25
457.276	327.25
457.497	340.25
457.717	335.25
457.937	345.25
458.157	342.25
458.377	351.25
458.598	334.25
458.818	365.25
459.038	414.25
459.258	416.25
459.478	379.25
459.698	377.25
459.918	378.25
460.138	383.25
460.358	388.25
460.578	409.25
460.798	411.25
461.018	405.25
461.238	399.25
461.458	400.25
461.678	401.25
461.898	411.25
462.118	419.25
462.338	413.25
462.558	415.25
462.777	441.25
462.997	432.25
463.217	481.25
463.437	466.25
463.657	456.25
463.876	458.25
464.096	440.25
464.316	421.25
464.536	429.25
464.755	423.25
464.975	440.25
465.195	425.25
465.414	433.25
465.634	387.25
465.854	378.25
466.073	363.25
466.293	353.25
466.512	358.25
466.732	357.25
466.951	341.25
467.171	363.25
467.391	375.25
467.61	383.25
467.829	367.25
468.049	368.25
468.268	373.25
468.488	352.25
468.707	354.25
468.927	359.25
469.146	358.25
469.365	369.25
469.585	346.25
469.804	369.25
470.023	379.25
470.243	374.25
470.462	384.25
470.681	388.25
470.901	374.25
471.12	374.25
471.339	367.25
471.558	370.25
471.777	344.25
471.997	362.25
472.216	352.25
472.435	368.25
472.654	368.25
472.873	368.25
473.092	348.25
473.311	353.25
473.53	355.25
473.749	351.25
473.968	383.25
474.187	421.25
474.406	420.25
474.625	373.25
474.844	355.25
475.063	360.25
475.282	353.25
475.501	349.25
475.72	356.25
475.939	370.25
476.158	357.25
476.377	391.25
476.596	361.25
476.814	379.25
477.033	371.25
477.252	381.25
477.471	387.25
477.69	385.25
477.908	394.25
478.127	403.25
478.346	413.25
478.564	419.25
478.783	401.25
479.002	423.25
479.22	416.25
479.439	426.25
479.658	416.25
479.876	409.25
480.095	419.25
480.313	462.25
480.532	451.25
480.751	442.25
480.969	434.25
481.188	456.25
481.406	481.25
481.624	436.25
481.843	403.25
482.061	413.25
482.28	395.25
482.498	412.25
482.717	387.25
482.935	383.25
483.153	409.25
483.372	435.25
483.59	396.25
483.808	412.25
484.027	417.25
484.245	411.25
484.463	417.25
484.681	453.25
484.9	405.25
485.118	409.25
485.336	425.25
485.554	425.25
485.772	428.25
485.99	419.25
486.209	427.25
486.427	403.25
486.645	412.25
486.863	431.25
487.081	434.25
487.299	443.25
487.517	413.25
487.735	418.25
487.953	446.25
488.171	449.25
488.389	426.25
488.607	442.25
488.825	420.25
489.043	426.25
489.261	433.25
489.479	441.25
489.696	448.25
489.914	440.25
490.132	442.25
490.35	461.25
490.568	433.25
490.786	461.25
491.003	458.25
491.221	423.25
491.439	475.25
491.657	473.25
491.874	488.25
492.092	472.25
492.31	499.25
492.527	491.25
492.745	486.25
492.963	476.25
493.18	503.25
493.398	515.25
493.615	524.25
493.833	508.25
494.05	513.25
494.268	480.25
494.485	496.25
494.703	492.25
494.92	501.25
495.138	501.25
495.355	505.25
495.573	501.25
495.79	491.25
496.008	531.25
496.225	515.25
496.442	520.25
496.66	488.25
496.877	499.25
497.094	522.25
497.312	523.25
497.529	542.25
497.746	545.25
497.963	525.25
498.181	552.25
498.398	584.25
498.615	584.25
498.832	605.25
499.049	642.25
499.267	687.25
499.484	684.25
499.701	737.25
499.918	775.25
500.135	852.25
500.352	917.25
500.569	945.25
500.786	948.25
501.003	890.25
501.22	855.25
501.437	809.25
501.654	729.25
501.871	705.25
502.088	661.25
502.305	618.25
