Data from 1969.PennyLincolnUp.Lamp.En5.5.200Scan.071719.P1._HRD10591_14-54-41-971.txt Node
Date: Thu Jul 18 14:54:41 EDT 2019
User: cochatt
Spectrometer: HR+D1059
Trigger mode: 1
Integration Time (sec): 1.000000E-1
Scans to average: 1
Electric dark correction enabled: true
Nonlinearity correction enabled: false
Boxcar width: 0
XAxis mode: Wavelengths
Number of Pixels in Spectrum: 2048
>>>>>Begin Spectral Data<<<<<
223.165	-18.44
223.4	-18.44
223.635	-18.44
223.869	-22.44
224.104	-20.44
224.338	-19.44
224.573	-15.44
224.808	-21.44
225.042	-2.44
225.277	0.56
225.511	8.56
225.746	-13.44
225.98	4.56
226.215	18.56
226.449	19.56
226.683	28.56
226.918	14.56
227.152	38.56
227.387	31.56
227.621	28.56
227.856	45.56
228.09	38.56
228.324	50.56
228.559	53.56
228.793	63.56
229.027	86.56
229.262	97.56
229.496	93.56
229.73	114.56
229.964	121.56
230.199	101.56
230.433	92.56
230.667	112.56
230.901	103.56
231.136	97.56
231.37	108.56
231.604	94.56
231.838	113.56
232.072	117.56
232.306	107.56
232.541	106.56
232.775	91.56
233.009	108.56
233.243	91.56
233.477	109.56
233.711	110.56
233.945	95.56
234.179	85.56
234.413	95.56
234.647	111.56
234.881	108.56
235.115	111.56
235.349	107.56
235.583	99.56
235.817	123.56
236.051	102.56
236.285	110.56
236.519	95.56
236.753	107.56
236.987	128.56
237.221	129.56
237.455	163.56
237.689	134.56
237.922	125.56
238.156	107.56
238.39	131.56
238.624	115.56
238.858	105.56
239.091	116.56
239.325	109.56
239.559	119.56
239.793	109.56
240.027	115.56
240.26	120.56
240.494	127.56
240.728	118.56
240.961	121.56
241.195	132.56
241.429	111.56
241.662	109.56
241.896	100.56
242.13	125.56
242.363	117.56
242.597	124.56
242.83	130.56
243.064	118.56
243.298	129.56
243.531	125.56
243.765	133.56
243.998	116.56
244.232	118.56
244.465	138.56
244.699	125.56
244.932	119.56
245.166	131.56
245.399	133.56
245.633	128.56
245.866	119.56
246.099	138.56
246.333	116.56
246.566	118.56
246.8	127.56
247.033	136.56
247.266	133.56
247.5	133.56
247.733	134.56
247.966	146.56
248.2	140.56
248.433	142.56
248.666	133.56
248.899	142.56
249.133	157.56
249.366	150.56
249.599	139.56
249.832	169.56
250.066	144.56
250.299	153.56
250.532	151.56
250.765	157.56
250.998	169.56
251.231	174.56
251.465	180.56
251.698	157.56
251.931	165.56
252.164	149.56
252.397	161.56
252.63	167.56
252.863	157.56
253.096	166.56
253.329	168.56
253.562	171.56
253.795	161.56
254.028	158.56
254.261	170.56
254.494	175.56
254.727	191.56
254.96	190.56
255.193	191.56
255.426	173.56
255.659	169.56
255.892	183.56
256.124	187.56
256.357	182.56
256.59	180.56
256.823	182.56
257.056	158.56
257.289	171.56
257.521	165.56
257.754	168.56
257.987	183.56
258.22	169.56
258.452	157.56
258.685	166.56
258.918	172.56
259.151	180.56
259.383	175.56
259.616	169.56
259.849	198.56
260.081	184.56
260.314	200.56
260.547	196.56
260.779	194.56
261.012	172.56
261.244	201.56
261.477	182.56
261.71	175.56
261.942	175.56
262.175	196.56
262.407	187.56
262.64	179.56
262.872	179.56
263.105	171.56
263.337	180.56
263.57	167.56
263.802	172.56
264.035	175.56
264.267	172.56
264.499	194.56
264.732	191.56
264.964	186.56
265.197	183.56
265.429	174.56
265.661	180.56
265.894	180.56
266.126	180.56
266.358	180.56
266.591	173.56
266.823	184.56
267.055	188.56
267.287	183.56
267.52	190.56
267.752	193.56
267.984	183.56
268.216	184.56
268.448	179.56
268.681	199.56
268.913	198.56
269.145	221.56
269.377	220.56
269.609	209.56
269.841	227.56
270.073	225.56
270.306	227.56
270.538	250.56
270.77	229.56
271.002	228.56
271.234	223.56
271.466	229.56
271.698	253.56
271.93	245.56
272.162	245.56
272.394	247.56
272.626	228.56
272.858	237.56
273.09	212.56
273.322	230.56
273.553	209.56
273.785	219.56
274.017	213.56
274.249	221.56
274.481	213.56
274.713	205.56
274.945	226.56
275.176	227.56
275.408	217.56
275.64	207.56
275.872	204.56
276.104	213.56
276.335	225.56
276.567	234.56
276.799	216.56
277.031	248.56
277.262	255.56
277.494	245.56
277.726	248.56
277.957	228.56
278.189	232.56
278.421	214.56
278.652	226.56
278.884	217.56
279.115	220.56
279.347	229.56
279.579	225.56
279.81	238.56
280.042	214.56
280.273	237.56
280.505	237.56
280.736	221.56
280.968	237.56
281.199	217.56
281.431	226.56
281.662	245.56
281.894	238.56
282.125	221.56
282.356	234.56
282.588	236.56
282.819	247.56
283.051	234.56
283.282	217.56
283.513	233.56
283.745	243.56
283.976	235.56
284.207	235.56
284.439	225.56
284.67	232.56
284.901	227.56
285.132	230.56
285.364	229.56
285.595	226.56
285.826	242.56
286.057	253.56
286.288	234.56
286.52	237.56
286.751	247.56
286.982	234.56
287.213	235.56
287.444	235.56
287.675	224.56
287.906	249.56
288.138	266.56
288.369	248.56
288.6	251.56
288.831	253.56
289.062	267.56
289.293	254.56
289.524	236.56
289.755	238.56
289.986	252.56
290.217	253.56
290.448	276.56
290.679	245.56
290.91	239.56
291.141	245.56
291.371	233.56
291.602	239.56
291.833	249.56
292.064	250.56
292.295	255.56
292.526	255.56
292.757	243.56
292.987	262.56
293.218	263.56
293.449	236.56
293.68	255.56
293.91	242.56
294.141	243.56
294.372	254.56
294.603	249.56
294.833	252.56
295.064	245.56
295.295	257.56
295.525	261.56
295.756	250.56
295.987	250.56
296.217	271.56
296.448	265.56
296.679	261.56
296.909	242.56
297.14	257.56
297.37	264.56
297.601	263.56
297.831	256.56
298.062	247.56
298.292	267.56
298.523	256.56
298.753	249.56
298.984	258.56
299.214	266.56
299.445	263.56
299.675	269.56
299.905	284.56
300.136	271.56
300.366	273.56
300.597	255.56
300.827	278.56
301.057	285.56
301.288	289.56
301.518	278.56
301.748	279.56
301.979	282.56
302.209	263.56
302.439	279.56
302.669	281.56
302.9	290.56
303.13	269.56
303.36	281.56
303.59	272.56
303.82	294.56
304.051	285.56
304.281	289.56
304.511	273.56
304.741	284.56
304.971	293.56
305.201	289.56
305.431	279.56
305.661	281.56
305.891	275.56
306.121	287.56
306.352	283.56
306.582	276.56
306.812	289.56
307.042	291.56
307.272	263.56
307.502	306.56
307.731	270.56
307.961	280.56
308.191	286.56
308.421	295.56
308.651	278.56
308.881	286.56
309.111	283.56
309.341	289.56
309.571	284.56
309.8	297.56
310.03	305.56
310.26	299.56
310.49	281.56
310.72	313.56
310.949	296.56
311.179	323.56
311.409	293.56
311.639	289.56
311.868	298.56
312.098	281.56
312.328	300.56
312.557	309.56
312.787	293.56
313.017	296.56
313.246	315.56
313.476	296.56
313.706	319.56
313.935	312.56
314.165	319.56
314.394	321.56
314.624	319.56
314.853	327.56
315.083	297.56
315.312	300.56
315.542	291.56
315.771	303.56
316.001	292.56
316.23	314.56
316.46	314.56
316.689	301.56
316.919	305.56
317.148	290.56
317.377	308.56
317.607	310.56
317.836	309.56
318.065	297.56
318.295	296.56
318.524	299.56
318.753	301.56
318.983	312.56
319.212	301.56
319.441	324.56
319.67	302.56
319.9	311.56
320.129	320.56
320.358	306.56
320.587	307.56
320.816	321.56
321.046	305.56
321.275	337.56
321.504	309.56
321.733	311.56
321.962	314.56
322.191	313.56
322.42	333.56
322.649	342.56
322.878	319.56
323.108	332.56
323.337	339.56
323.566	343.56
323.795	372.56
324.024	371.56
324.253	439.56
324.482	570.56
324.71	812.56
324.939	1039.56
325.168	902.56
325.397	526.56
325.626	394.56
325.855	370.56
326.084	349.56
326.313	341.56
326.542	364.56
326.77	389.56
326.999	434.56
327.228	525.56
327.457	728.56
327.686	817.56
327.914	573.56
328.143	440.56
328.372	415.56
328.6	395.56
328.829	385.56
329.058	405.56
329.287	396.56
329.515	372.56
329.744	376.56
329.972	372.56
330.201	382.56
330.43	397.56
330.658	430.56
330.887	415.56
331.115	397.56
331.344	383.56
331.572	360.56
331.801	365.56
332.03	383.56
332.258	383.56
332.486	379.56
332.715	378.56
332.943	380.56
333.172	390.56
333.4	386.56
333.629	398.56
333.857	399.56
334.085	405.56
334.314	451.56
334.542	445.56
334.771	439.56
334.999	391.56
335.227	391.56
335.455	386.56
335.684	380.56
335.912	378.56
336.14	381.56
336.369	371.56
336.597	349.56
336.825	372.56
337.053	371.56
337.281	350.56
337.51	351.56
337.738	357.56
337.966	344.56
338.194	343.56
338.422	356.56
338.65	347.56
338.878	355.56
339.106	376.56
339.334	379.56
339.562	350.56
339.79	339.56
340.018	330.56
340.246	348.56
340.474	361.56
340.702	344.56
340.93	340.56
341.158	336.56
341.386	344.56
341.614	354.56
341.842	331.56
342.07	350.56
342.298	353.56
342.526	336.56
342.754	345.56
342.981	363.56
343.209	345.56
343.437	360.56
343.665	354.56
343.893	359.56
344.12	394.56
344.348	382.56
344.576	349.56
344.804	347.56
345.031	357.56
345.259	357.56
345.487	355.56
345.714	359.56
345.942	362.56
346.17	331.56
346.397	336.56
346.625	342.56
346.853	321.56
347.08	323.56
347.308	323.56
347.535	342.56
347.763	311.56
347.99	321.56
348.218	340.56
348.445	338.56
348.673	317.56
348.9	326.56
349.128	325.56
349.355	299.56
349.583	313.56
349.81	312.56
350.037	324.56
350.265	323.56
350.492	325.56
350.72	324.56
350.947	333.56
351.174	328.56
351.402	315.56
351.629	341.56
351.856	329.56
352.083	317.56
352.311	312.56
352.538	329.56
352.765	330.56
352.992	309.56
353.22	316.56
353.447	323.56
353.674	325.56
353.901	335.56
354.128	325.56
354.355	304.56
354.583	283.56
354.81	305.56
355.037	311.56
355.264	302.56
355.491	307.56
355.718	327.56
355.945	324.56
356.172	294.56
356.399	318.56
356.626	308.56
356.853	312.56
357.08	317.56
357.307	313.56
357.534	315.56
357.761	317.56
357.988	311.56
358.215	303.56
358.441	298.56
358.668	297.56
358.895	325.56
359.122	311.56
359.349	319.56
359.576	302.56
359.802	332.56
360.029	343.56
360.256	331.56
360.483	343.56
360.709	334.56
360.936	316.56
361.163	302.56
361.39	321.56
361.616	332.56
361.843	325.56
362.07	317.56
362.296	340.56
362.523	314.56
362.749	337.56
362.976	318.56
363.203	330.56
363.429	313.56
363.656	313.56
363.882	314.56
364.109	317.56
364.335	323.56
364.562	315.56
364.788	294.56
365.015	313.56
365.241	327.56
365.468	320.56
365.694	318.56
365.92	325.56
366.147	323.56
366.373	317.56
366.599	331.56
366.826	308.56
367.052	315.56
367.278	319.56
367.505	313.56
367.731	307.56
367.957	331.56
368.184	313.56
368.41	328.56
368.636	325.56
368.862	324.56
369.089	334.56
369.315	293.56
369.541	326.56
369.767	313.56
369.993	324.56
370.219	318.56
370.445	317.56
370.672	327.56
370.898	329.56
371.124	323.56
371.35	322.56
371.576	329.56
371.802	321.56
372.028	311.56
372.254	334.56
372.48	329.56
372.706	312.56
372.932	326.56
373.158	307.56
373.384	329.56
373.61	322.56
373.835	323.56
374.061	313.56
374.287	334.56
374.513	342.56
374.739	330.56
374.965	334.56
375.191	340.56
375.416	338.56
375.642	329.56
375.868	345.56
376.094	314.56
376.319	326.56
376.545	326.56
376.771	318.56
376.997	340.56
377.222	312.56
377.448	319.56
377.674	323.56
377.899	327.56
378.125	315.56
378.35	305.56
378.576	309.56
378.802	329.56
379.027	311.56
379.253	303.56
379.478	295.56
379.704	318.56
379.929	329.56
380.155	325.56
380.38	324.56
380.606	323.56
380.831	329.56
381.057	343.56
381.282	338.56
381.507	318.56
381.733	326.56
381.958	345.56
382.184	340.56
382.409	327.56
382.634	328.56
382.86	330.56
383.085	329.56
383.31	331.56
383.535	333.56
383.761	330.56
383.986	349.56
384.211	347.56
384.436	356.56
384.662	372.56
384.887	356.56
385.112	374.56
385.337	357.56
385.562	340.56
385.787	369.56
386.013	364.56
386.238	343.56
386.463	362.56
386.688	369.56
386.913	345.56
387.138	340.56
387.363	340.56
387.588	378.56
387.813	358.56
388.038	356.56
388.263	345.56
388.488	376.56
388.713	350.56
388.938	359.56
389.163	363.56
389.387	359.56
389.612	349.56
389.837	352.56
390.062	369.56
390.287	357.56
390.512	347.56
390.736	350.56
390.961	359.56
391.186	353.56
391.411	373.56
391.636	376.56
391.86	387.56
392.085	383.56
392.31	400.56
392.534	387.56
392.759	380.56
392.984	368.56
393.208	357.56
393.433	359.56
393.658	360.56
393.882	374.56
394.107	366.56
394.331	374.56
394.556	373.56
394.78	348.56
395.005	370.56
395.229	373.56
395.454	362.56
395.678	373.56
395.903	391.56
396.127	389.56
396.352	398.56
396.576	371.56
396.801	348.56
397.025	385.56
397.249	382.56
397.474	402.56
397.698	397.56
397.922	393.56
398.147	405.56
398.371	406.56
398.595	391.56
398.82	412.56
399.044	428.56
399.268	455.56
399.492	526.56
399.717	535.56
399.941	546.56
400.165	502.56
400.389	491.56
400.613	457.56
400.837	434.56
401.062	425.56
401.286	425.56
401.51	417.56
401.734	413.56
401.958	421.56
402.182	415.56
402.406	443.56
402.63	445.56
402.854	439.56
403.078	444.56
403.302	428.56
403.526	440.56
403.75	481.56
403.974	461.56
404.198	438.56
404.422	463.56
404.645	462.56
404.869	462.56
405.093	489.56
405.317	477.56
405.541	493.56
405.765	488.56
405.988	448.56
406.212	429.56
406.436	481.56
406.66	502.56
406.883	482.56
407.107	490.56
407.331	524.56
407.555	564.56
407.778	555.56
408.002	514.56
408.226	499.56
408.449	483.56
408.673	467.56
408.896	470.56
409.12	485.56
409.344	454.56
409.567	446.56
409.791	451.56
410.014	431.56
410.238	439.56
410.461	428.56
410.685	436.56
410.908	433.56
411.132	463.56
411.355	441.56
411.578	438.56
411.802	422.56
412.025	436.56
412.249	431.56
412.472	461.56
412.695	474.56
412.919	445.56
413.142	439.56
413.365	418.56
413.589	405.56
413.812	420.56
414.035	410.56
414.258	422.56
414.482	423.56
414.705	425.56
414.928	410.56
415.151	410.56
415.374	426.56
415.597	428.56
415.821	395.56
416.044	400.56
416.267	391.56
416.49	405.56
416.713	400.56
416.936	414.56
417.159	395.56
417.382	411.56
417.605	415.56
417.828	405.56
418.051	441.56
418.274	430.56
418.497	430.56
418.72	441.56
418.943	442.56
419.166	451.56
419.389	483.56
419.611	448.56
419.834	439.56
420.057	455.56
420.28	442.56
420.503	415.56
420.726	436.56
420.948	426.56
421.171	449.56
421.394	463.56
421.617	422.56
421.839	446.56
422.062	426.56
422.285	439.56
422.507	457.56
422.73	484.56
422.953	474.56
423.175	457.56
423.398	420.56
423.621	449.56
423.843	447.56
424.066	483.56
424.288	466.56
424.511	444.56
424.733	492.56
424.956	521.56
425.178	498.56
425.401	486.56
425.623	495.56
425.846	455.56
426.068	442.56
426.291	449.56
426.513	445.56
426.735	418.56
426.958	445.56
427.18	516.56
427.402	539.56
427.625	586.56
427.847	490.56
428.069	469.56
428.292	431.56
428.514	417.56
428.736	411.56
428.958	410.56
429.181	409.56
429.403	383.56
429.625	395.56
429.847	427.56
430.069	458.56
430.292	444.56
430.514	411.56
430.736	381.56
430.958	392.56
431.18	389.56
431.402	385.56
431.624	395.56
431.846	383.56
432.068	377.56
432.29	401.56
432.512	376.56
432.734	376.56
432.956	393.56
433.178	415.56
433.4	395.56
433.622	383.56
433.844	391.56
434.066	379.56
434.287	397.56
434.509	388.56
434.731	412.56
434.953	413.56
435.175	402.56
435.397	433.56
435.618	436.56
435.84	453.56
436.062	483.56
436.284	520.56
436.505	457.56
436.727	412.56
436.949	389.56
437.17	413.56
437.392	389.56
437.614	379.56
437.835	403.56
438.057	457.56
438.278	503.56
438.5	509.56
438.721	561.56
438.943	540.56
439.165	449.56
439.386	425.56
439.608	427.56
439.829	396.56
440.05	430.56
440.272	460.56
440.493	440.56
440.715	394.56
440.936	409.56
441.158	396.56
441.379	396.56
441.6	430.56
441.822	417.56
442.043	456.56
442.264	493.56
442.486	494.56
442.707	452.56
442.928	447.56
443.149	441.56
443.371	441.56
443.592	470.56
443.813	539.56
444.034	562.56
444.255	504.56
444.476	475.56
444.698	455.56
444.919	464.56
445.14	548.56
445.361	515.56
445.582	498.56
445.803	466.56
446.024	535.56
446.245	500.56
446.466	491.56
446.687	419.56
446.908	420.56
447.129	390.56
447.35	392.56
447.571	389.56
447.792	391.56
448.013	394.56
448.234	407.56
448.455	418.56
448.675	466.56
448.896	528.56
449.117	465.56
449.338	460.56
449.559	511.56
449.779	535.56
450	462.56
450.221	417.56
450.442	382.56
450.662	356.56
450.883	373.56
451.104	389.56
451.324	405.56
451.545	371.56
451.766	356.56
451.986	373.56
452.207	351.56
452.428	369.56
452.648	350.56
452.869	385.56
453.089	365.56
453.31	364.56
453.53	369.56
453.751	340.56
453.971	360.56
454.192	361.56
454.412	358.56
454.633	352.56
454.853	353.56
455.073	355.56
455.294	358.56
455.514	407.56
455.734	381.56
455.955	382.56
456.175	337.56
456.395	343.56
456.616	351.56
456.836	353.56
457.056	334.56
457.276	339.56
457.497	340.56
457.717	362.56
457.937	344.56
458.157	344.56
458.377	330.56
458.598	358.56
458.818	399.56
459.038	411.56
459.258	422.56
459.478	389.56
459.698	392.56
459.918	382.56
460.138	414.56
460.358	412.56
460.578	416.56
460.798	430.56
461.018	424.56
461.238	425.56
461.458	399.56
461.678	426.56
461.898	415.56
462.118	410.56
462.338	446.56
462.558	444.56
462.777	462.56
462.997	463.56
463.217	491.56
463.437	473.56
463.657	456.56
463.876	449.56
464.096	450.56
464.316	464.56
464.536	469.56
464.755	457.56
464.975	435.56
465.195	451.56
465.414	472.56
465.634	449.56
465.854	398.56
466.073	396.56
466.293	386.56
466.512	373.56
466.732	375.56
466.951	363.56
467.171	385.56
467.391	383.56
467.61	393.56
467.829	383.56
468.049	379.56
468.268	372.56
468.488	380.56
468.707	375.56
468.927	353.56
469.146	347.56
469.365	387.56
469.585	366.56
469.804	360.56
470.023	377.56
470.243	409.56
470.462	381.56
470.681	379.56
470.901	392.56
471.12	359.56
471.339	369.56
471.558	361.56
471.777	390.56
471.997	348.56
472.216	378.56
472.435	403.56
472.654	398.56
472.873	366.56
473.092	355.56
473.311	364.56
473.53	373.56
473.749	377.56
473.968	399.56
474.187	442.56
474.406	463.56
474.625	386.56
474.844	391.56
475.063	359.56
475.282	391.56
475.501	373.56
475.72	385.56
475.939	371.56
476.158	373.56
476.377	388.56
476.596	395.56
476.814	396.56
477.033	387.56
477.252	383.56
477.471	400.56
477.69	403.56
477.908	391.56
478.127	441.56
478.346	416.56
478.564	417.56
478.783	430.56
479.002	450.56
479.22	417.56
479.439	436.56
479.658	438.56
479.876	425.56
480.095	443.56
480.313	470.56
480.532	456.56
480.751	483.56
480.969	458.56
481.188	493.56
481.406	527.56
481.624	462.56
481.843	457.56
482.061	452.56
482.28	433.56
482.498	409.56
482.717	405.56
482.935	425.56
483.153	414.56
483.372	436.56
483.59	438.56
483.808	455.56
484.027	415.56
484.245	407.56
484.463	441.56
484.681	430.56
484.9	436.56
485.118	433.56
485.336	412.56
485.554	449.56
485.772	441.56
485.99	438.56
486.209	445.56
486.427	457.56
486.645	455.56
486.863	467.56
487.081	452.56
487.299	441.56
487.517	457.56
487.735	446.56
487.953	461.56
488.171	460.56
488.389	463.56
488.607	459.56
488.825	438.56
489.043	452.56
489.261	443.56
489.479	473.56
489.696	465.56
489.914	469.56
490.132	469.56
490.35	466.56
490.568	479.56
490.786	467.56
491.003	471.56
491.221	516.56
491.439	505.56
491.657	512.56
491.874	520.56
492.092	499.56
492.31	525.56
492.527	527.56
492.745	524.56
492.963	510.56
493.18	520.56
493.398	524.56
493.615	521.56
493.833	528.56
494.05	533.56
494.268	524.56
494.485	547.56
494.703	551.56
494.92	529.56
495.138	521.56
495.355	538.56
495.573	531.56
495.79	534.56
496.008	539.56
496.225	523.56
496.442	541.56
496.66	537.56
496.877	542.56
497.094	547.56
497.312	537.56
497.529	576.56
497.746	562.56
497.963	582.56
498.181	586.56
498.398	603.56
498.615	627.56
498.832	609.56
499.049	639.56
499.267	697.56
499.484	738.56
499.701	779.56
499.918	823.56
500.135	863.56
500.352	955.56
500.569	939.56
500.786	955.56
501.003	900.56
501.22	860.56
501.437	826.56
501.654	783.56
501.871	713.56
502.088	710.56
