Data from 1969.PennyLincolnUp.Lamp.En5.5.200Scan.071719.P1._HRD10591_14-56-20-973.txt Node
Date: Thu Jul 18 14:56:20 EDT 2019
User: cochatt
Spectrometer: HR+D1059
Trigger mode: 1
Integration Time (sec): 1.000000E-1
Scans to average: 1
Electric dark correction enabled: true
Nonlinearity correction enabled: false
Boxcar width: 0
XAxis mode: Wavelengths
Number of Pixels in Spectrum: 2048
>>>>>Begin Spectral Data<<<<<
223.165	-15.75
223.4	-15.75
223.635	-15.75
223.869	-12.75
224.104	-15.75
224.338	-22.75
224.573	-14.75
224.808	-7.75
225.042	-3.75
225.277	4.25
225.511	-7.75
225.746	8.25
225.98	10.25
226.215	7.25
226.449	22.25
226.683	15.25
226.918	4.25
227.152	29.25
227.387	21.25
227.621	34.25
227.856	30.25
228.09	46.25
228.324	51.25
228.559	55.25
228.793	66.25
229.027	86.25
229.262	82.25
229.496	88.25
229.73	107.25
229.964	123.25
230.199	114.25
230.433	103.25
230.667	94.25
230.901	90.25
231.136	102.25
231.37	89.25
231.604	112.25
231.838	95.25
232.072	100.25
232.306	122.25
232.541	112.25
232.775	105.25
233.009	86.25
233.243	106.25
233.477	117.25
233.711	110.25
233.945	116.25
234.179	101.25
234.413	85.25
234.647	121.25
234.881	101.25
235.115	112.25
235.349	99.25
235.583	124.25
235.817	92.25
236.051	105.25
236.285	114.25
236.519	127.25
236.753	108.25
236.987	121.25
237.221	137.25
237.455	164.25
237.689	141.25
237.922	126.25
238.156	112.25
238.39	116.25
238.624	93.25
238.858	112.25
239.091	121.25
239.325	118.25
239.559	125.25
239.793	120.25
240.027	122.25
240.26	115.25
240.494	134.25
240.728	150.25
240.961	121.25
241.195	112.25
241.429	113.25
241.662	130.25
241.896	126.25
242.13	112.25
242.363	110.25
242.597	130.25
242.83	111.25
243.064	113.25
243.298	125.25
243.531	128.25
243.765	118.25
243.998	119.25
244.232	136.25
244.465	123.25
244.699	122.25
244.932	125.25
245.166	129.25
245.399	129.25
245.633	116.25
245.866	135.25
246.099	130.25
246.333	139.25
246.566	131.25
246.8	133.25
247.033	137.25
247.266	130.25
247.5	148.25
247.733	145.25
247.966	146.25
248.2	146.25
248.433	131.25
248.666	140.25
248.899	169.25
249.133	161.25
249.366	168.25
249.599	149.25
249.832	150.25
250.066	157.25
250.299	156.25
250.532	169.25
250.765	188.25
250.998	190.25
251.231	199.25
251.465	184.25
251.698	167.25
251.931	172.25
252.164	158.25
252.397	179.25
252.63	186.25
252.863	160.25
253.096	160.25
253.329	185.25
253.562	202.25
253.795	173.25
254.028	191.25
254.261	180.25
254.494	200.25
254.727	203.25
254.96	223.25
255.193	209.25
255.426	188.25
255.659	190.25
255.892	200.25
256.124	205.25
256.357	190.25
256.59	186.25
256.823	184.25
257.056	180.25
257.289	185.25
257.521	178.25
257.754	165.25
257.987	178.25
258.22	176.25
258.452	180.25
258.685	177.25
258.918	163.25
259.151	190.25
259.383	186.25
259.616	173.25
259.849	198.25
260.081	204.25
260.314	203.25
260.547	212.25
260.779	204.25
261.012	204.25
261.244	194.25
261.477	194.25
261.71	172.25
261.942	186.25
262.175	193.25
262.407	173.25
262.64	185.25
262.872	188.25
263.105	192.25
263.337	180.25
263.57	188.25
263.802	182.25
264.035	187.25
264.267	178.25
264.499	172.25
264.732	201.25
264.964	185.25
265.197	183.25
265.429	187.25
265.661	177.25
265.894	193.25
266.126	203.25
266.358	190.25
266.591	197.25
266.823	187.25
267.055	196.25
267.287	200.25
267.52	205.25
267.752	202.25
267.984	203.25
268.216	198.25
268.448	198.25
268.681	214.25
268.913	221.25
269.145	208.25
269.377	238.25
269.609	221.25
269.841	229.25
270.073	225.25
270.306	221.25
270.538	247.25
270.77	240.25
271.002	234.25
271.234	232.25
271.466	247.25
271.698	252.25
271.93	269.25
272.162	269.25
272.394	262.25
272.626	245.25
272.858	248.25
273.09	234.25
273.322	224.25
273.553	233.25
273.785	218.25
274.017	234.25
274.249	225.25
274.481	225.25
274.713	242.25
274.945	242.25
275.176	228.25
275.408	212.25
275.64	218.25
275.872	236.25
276.104	222.25
276.335	218.25
276.567	247.25
276.799	253.25
277.031	252.25
277.262	274.25
277.494	274.25
277.726	265.25
277.957	244.25
278.189	233.25
278.421	235.25
278.652	239.25
278.884	234.25
279.115	236.25
279.347	244.25
279.579	243.25
279.81	236.25
280.042	212.25
280.273	227.25
280.505	246.25
280.736	226.25
280.968	224.25
281.199	226.25
281.431	229.25
281.662	238.25
281.894	231.25
282.125	259.25
282.356	253.25
282.588	274.25
282.819	252.25
283.051	243.25
283.282	240.25
283.513	236.25
283.745	238.25
283.976	280.25
284.207	262.25
284.439	261.25
284.67	231.25
284.901	249.25
285.132	245.25
285.364	242.25
285.595	256.25
285.826	235.25
286.057	249.25
286.288	234.25
286.52	253.25
286.751	258.25
286.982	234.25
287.213	265.25
287.444	258.25
287.675	271.25
287.906	273.25
288.138	242.25
288.369	276.25
288.6	264.25
288.831	262.25
289.062	252.25
289.293	272.25
289.524	258.25
289.755	258.25
289.986	254.25
290.217	266.25
290.448	263.25
290.679	260.25
290.91	259.25
291.141	263.25
291.371	260.25
291.602	265.25
291.833	270.25
292.064	262.25
292.295	260.25
292.526	248.25
292.757	258.25
292.987	272.25
293.218	264.25
293.449	266.25
293.68	276.25
293.91	256.25
294.141	262.25
294.372	267.25
294.603	261.25
294.833	265.25
295.064	278.25
295.295	257.25
295.525	267.25
295.756	277.25
295.987	262.25
296.217	291.25
296.448	276.25
296.679	257.25
296.909	259.25
297.14	280.25
297.37	278.25
297.601	273.25
297.831	272.25
298.062	270.25
298.292	262.25
298.523	292.25
298.753	281.25
298.984	274.25
299.214	282.25
299.445	282.25
299.675	282.25
299.905	284.25
300.136	280.25
300.366	286.25
300.597	288.25
300.827	276.25
301.057	281.25
301.288	300.25
301.518	301.25
301.748	288.25
301.979	286.25
302.209	289.25
302.439	298.25
302.669	304.25
302.9	304.25
303.13	309.25
303.36	286.25
303.59	294.25
303.82	306.25
304.051	309.25
304.281	294.25
304.511	308.25
304.741	273.25
304.971	293.25
305.201	286.25
305.431	300.25
305.661	301.25
305.891	297.25
306.121	277.25
306.352	286.25
306.582	279.25
306.812	292.25
307.042	290.25
307.272	297.25
307.502	290.25
307.731	292.25
307.961	284.25
308.191	293.25
308.421	304.25
308.651	285.25
308.881	296.25
309.111	294.25
309.341	309.25
309.571	309.25
309.8	301.25
310.03	301.25
310.26	308.25
310.49	293.25
310.72	315.25
310.949	311.25
311.179	309.25
311.409	318.25
311.639	316.25
311.868	321.25
312.098	328.25
312.328	312.25
312.557	337.25
312.787	331.25
313.017	353.25
313.246	315.25
313.476	305.25
313.706	325.25
313.935	313.25
314.165	328.25
314.394	335.25
314.624	368.25
314.853	334.25
315.083	331.25
315.312	327.25
315.542	335.25
315.771	323.25
316.001	317.25
316.23	326.25
316.46	312.25
316.689	325.25
316.919	336.25
317.148	325.25
317.377	320.25
317.607	337.25
317.836	325.25
318.065	334.25
318.295	318.25
318.524	338.25
318.753	312.25
318.983	314.25
319.212	328.25
319.441	319.25
319.67	328.25
319.9	318.25
320.129	331.25
320.358	326.25
320.587	339.25
320.816	341.25
321.046	338.25
321.275	341.25
321.504	337.25
321.733	327.25
321.962	343.25
322.191	345.25
322.42	338.25
322.649	338.25
322.878	358.25
323.108	353.25
323.337	384.25
323.566	394.25
323.795	390.25
324.024	415.25
324.253	475.25
324.482	626.25
324.71	909.25
324.939	1172.25
325.168	993.25
325.397	549.25
325.626	444.25
325.855	392.25
326.084	376.25
326.313	384.25
326.542	372.25
326.77	416.25
326.999	453.25
327.228	594.25
327.457	803.25
327.686	894.25
327.914	628.25
328.143	477.25
328.372	462.25
328.6	434.25
328.829	422.25
329.058	440.25
329.287	424.25
329.515	404.25
329.744	402.25
329.972	402.25
330.201	403.25
330.43	422.25
330.658	445.25
330.887	449.25
331.115	434.25
331.344	404.25
331.572	394.25
331.801	379.25
332.03	412.25
332.258	392.25
332.486	368.25
332.715	384.25
332.943	413.25
333.172	416.25
333.4	412.25
333.629	409.25
333.857	432.25
334.085	418.25
334.314	441.25
334.542	447.25
334.771	450.25
334.999	449.25
335.227	415.25
335.455	405.25
335.684	399.25
335.912	407.25
336.14	417.25
336.369	381.25
336.597	388.25
336.825	391.25
337.053	363.25
337.281	382.25
337.51	346.25
337.738	380.25
337.966	365.25
338.194	382.25
338.422	348.25
338.65	365.25
338.878	369.25
339.106	369.25
339.334	384.25
339.562	368.25
339.79	353.25
340.018	374.25
340.246	364.25
340.474	359.25
340.702	366.25
340.93	361.25
341.158	359.25
341.386	365.25
341.614	369.25
341.842	361.25
342.07	368.25
342.298	358.25
342.526	368.25
342.754	342.25
342.981	355.25
343.209	349.25
343.437	390.25
343.665	365.25
343.893	380.25
344.12	394.25
344.348	395.25
344.576	369.25
344.804	368.25
345.031	377.25
345.259	363.25
345.487	360.25
345.714	358.25
345.942	349.25
346.17	369.25
346.397	344.25
346.625	341.25
346.853	369.25
347.08	334.25
347.308	342.25
347.535	345.25
347.763	352.25
347.99	354.25
348.218	329.25
348.445	338.25
348.673	359.25
348.9	349.25
349.128	337.25
349.355	342.25
349.583	327.25
349.81	328.25
350.037	341.25
350.265	352.25
350.492	337.25
350.72	329.25
350.947	331.25
351.174	349.25
351.402	346.25
351.629	353.25
351.856	340.25
352.083	358.25
352.311	335.25
352.538	357.25
352.765	327.25
352.992	341.25
353.22	342.25
353.447	339.25
353.674	335.25
353.901	337.25
354.128	355.25
354.355	326.25
354.583	321.25
354.81	319.25
355.037	344.25
355.264	335.25
355.491	320.25
355.718	314.25
355.945	338.25
356.172	302.25
356.399	326.25
356.626	342.25
356.853	327.25
357.08	332.25
357.307	312.25
357.534	316.25
357.761	343.25
357.988	324.25
358.215	330.25
358.441	324.25
358.668	326.25
358.895	329.25
359.122	325.25
359.349	345.25
359.576	331.25
359.802	363.25
360.029	370.25
360.256	372.25
360.483	369.25
360.709	349.25
360.936	346.25
361.163	350.25
361.39	326.25
361.616	332.25
361.843	332.25
362.07	336.25
362.296	338.25
362.523	342.25
362.749	336.25
362.976	342.25
363.203	350.25
363.429	331.25
363.656	342.25
363.882	340.25
364.109	311.25
364.335	322.25
364.562	335.25
364.788	328.25
365.015	340.25
365.241	323.25
365.468	330.25
365.694	337.25
365.92	346.25
366.147	330.25
366.373	338.25
366.599	326.25
366.826	311.25
367.052	330.25
367.278	331.25
367.505	317.25
367.731	308.25
367.957	339.25
368.184	338.25
368.41	334.25
368.636	337.25
368.862	352.25
369.089	344.25
369.315	311.25
369.541	340.25
369.767	311.25
369.993	323.25
370.219	319.25
370.445	317.25
370.672	326.25
370.898	328.25
371.124	332.25
371.35	325.25
371.576	340.25
371.802	346.25
372.028	340.25
372.254	342.25
372.48	332.25
372.706	346.25
372.932	322.25
373.158	346.25
373.384	361.25
373.61	328.25
373.835	333.25
374.061	336.25
374.287	332.25
374.513	354.25
374.739	356.25
374.965	370.25
375.191	375.25
375.416	357.25
375.642	334.25
375.868	332.25
376.094	330.25
376.319	340.25
376.545	328.25
376.771	344.25
376.997	332.25
377.222	338.25
377.448	331.25
377.674	349.25
377.899	336.25
378.125	342.25
378.35	353.25
378.576	329.25
378.802	325.25
379.027	347.25
379.253	337.25
379.478	322.25
379.704	340.25
379.929	324.25
380.155	340.25
380.38	344.25
380.606	336.25
380.831	336.25
381.057	331.25
381.282	320.25
381.507	327.25
381.733	334.25
381.958	332.25
382.184	329.25
382.409	332.25
382.634	333.25
382.86	330.25
383.085	332.25
383.31	338.25
383.535	340.25
383.761	363.25
383.986	359.25
384.211	369.25
384.436	354.25
384.662	360.25
384.887	376.25
385.112	361.25
385.337	360.25
385.562	374.25
385.787	355.25
386.013	383.25
386.238	378.25
386.463	373.25
386.688	378.25
386.913	358.25
387.138	354.25
387.363	377.25
387.588	367.25
387.813	378.25
388.038	369.25
388.263	369.25
388.488	364.25
388.713	371.25
388.938	353.25
389.163	373.25
389.387	363.25
389.612	363.25
389.837	379.25
390.062	368.25
390.287	369.25
390.512	376.25
390.736	360.25
390.961	360.25
391.186	374.25
391.411	380.25
391.636	404.25
391.86	411.25
392.085	409.25
392.31	390.25
392.534	418.25
392.759	405.25
392.984	372.25
393.208	377.25
393.433	372.25
393.658	377.25
393.882	371.25
394.107	358.25
394.331	365.25
394.556	382.25
394.78	381.25
395.005	387.25
395.229	384.25
395.454	382.25
395.678	424.25
395.903	388.25
396.127	419.25
396.352	398.25
396.576	363.25
396.801	378.25
397.025	377.25
397.249	389.25
397.474	389.25
397.698	419.25
397.922	419.25
398.147	414.25
398.371	425.25
398.595	424.25
398.82	443.25
399.044	448.25
399.268	480.25
399.492	518.25
399.717	562.25
399.941	566.25
400.165	538.25
400.389	528.25
400.613	481.25
400.837	468.25
401.062	437.25
401.286	439.25
401.51	435.25
401.734	433.25
401.958	449.25
402.182	436.25
402.406	434.25
402.63	448.25
402.854	452.25
403.078	435.25
403.302	459.25
403.526	469.25
403.75	443.25
403.974	487.25
404.198	483.25
404.422	483.25
404.645	487.25
404.869	473.25
405.093	502.25
405.317	497.25
405.541	535.25
405.765	457.25
405.988	472.25
406.212	493.25
406.436	473.25
406.66	463.25
406.883	494.25
407.107	507.25
407.331	530.25
407.555	592.25
407.778	568.25
408.002	519.25
408.226	506.25
408.449	490.25
408.673	518.25
408.896	495.25
409.12	507.25
409.344	490.25
409.567	460.25
409.791	478.25
410.014	458.25
410.238	449.25
410.461	448.25
410.685	473.25
410.908	460.25
411.132	488.25
411.355	477.25
411.578	474.25
411.802	454.25
412.025	440.25
412.249	476.25
412.472	468.25
412.695	484.25
412.919	465.25
413.142	445.25
413.365	440.25
413.589	459.25
413.812	439.25
414.035	442.25
414.258	450.25
414.482	415.25
414.705	421.25
414.928	426.25
415.151	426.25
415.374	438.25
415.597	434.25
415.821	425.25
416.044	426.25
416.267	421.25
416.49	406.25
416.713	415.25
416.936	404.25
417.159	414.25
417.382	441.25
417.605	416.25
417.828	408.25
418.051	450.25
418.274	422.25
418.497	428.25
418.72	443.25
418.943	443.25
419.166	461.25
419.389	487.25
419.611	460.25
419.834	449.25
420.057	462.25
420.28	449.25
420.503	443.25
420.726	437.25
420.948	427.25
421.171	463.25
421.394	475.25
421.617	446.25
421.839	446.25
422.062	456.25
422.285	436.25
422.507	469.25
422.73	530.25
422.953	521.25
423.175	453.25
423.398	464.25
423.621	471.25
423.843	483.25
424.066	483.25
424.288	458.25
424.511	473.25
424.733	501.25
424.956	539.25
425.178	531.25
425.401	531.25
425.623	534.25
425.846	474.25
426.068	461.25
426.291	456.25
426.513	465.25
426.735	458.25
426.958	448.25
427.18	538.25
427.402	569.25
427.625	628.25
427.847	554.25
428.069	512.25
428.292	458.25
428.514	441.25
428.736	417.25
428.958	412.25
429.181	396.25
429.403	402.25
429.625	428.25
429.847	417.25
430.069	485.25
430.292	474.25
430.514	425.25
430.736	408.25
430.958	406.25
431.18	410.25
431.402	408.25
431.624	421.25
431.846	392.25
432.068	387.25
432.29	399.25
432.512	379.25
432.734	391.25
432.956	413.25
433.178	404.25
433.4	410.25
433.622	397.25
433.844	396.25
434.066	406.25
434.287	428.25
434.509	405.25
434.731	414.25
434.953	428.25
435.175	441.25
435.397	472.25
435.618	455.25
435.84	475.25
436.062	492.25
436.284	526.25
436.505	482.25
436.727	450.25
436.949	439.25
437.17	411.25
437.392	413.25
437.614	390.25
437.835	442.25
438.057	484.25
438.278	544.25
438.5	530.25
438.721	579.25
438.943	560.25
439.165	477.25
439.386	463.25
439.608	443.25
439.829	424.25
440.05	462.25
440.272	471.25
440.493	463.25
440.715	422.25
440.936	429.25
441.158	436.25
441.379	417.25
441.6	466.25
441.822	462.25
442.043	478.25
442.264	524.25
442.486	513.25
442.707	476.25
442.928	462.25
443.149	484.25
443.371	506.25
443.592	489.25
443.813	529.25
444.034	592.25
444.255	527.25
444.476	479.25
444.698	492.25
444.919	484.25
445.14	577.25
445.361	510.25
445.582	490.25
445.803	510.25
446.024	572.25
446.245	570.25
446.466	515.25
446.687	450.25
446.908	426.25
447.129	421.25
447.35	410.25
447.571	406.25
447.792	403.25
448.013	418.25
448.234	415.25
448.455	459.25
448.675	496.25
448.896	573.25
449.117	486.25
449.338	469.25
449.559	545.25
449.779	583.25
450	505.25
450.221	416.25
450.442	413.25
450.662	415.25
450.883	417.25
451.104	404.25
451.324	396.25
451.545	383.25
451.766	390.25
451.986	371.25
452.207	388.25
452.428	373.25
452.648	365.25
452.869	366.25
453.089	376.25
453.31	380.25
453.53	380.25
453.751	365.25
453.971	378.25
454.192	380.25
454.412	390.25
454.633	365.25
454.853	364.25
455.073	362.25
455.294	383.25
455.514	406.25
455.734	414.25
455.955	373.25
456.175	357.25
456.395	362.25
456.616	340.25
456.836	344.25
457.056	362.25
457.276	353.25
457.497	358.25
457.717	348.25
457.937	344.25
458.157	363.25
458.377	372.25
458.598	395.25
458.818	405.25
459.038	453.25
459.258	464.25
459.478	405.25
459.698	395.25
459.918	400.25
460.138	412.25
460.358	437.25
460.578	437.25
460.798	423.25
461.018	448.25
461.238	406.25
461.458	419.25
461.678	427.25
461.898	439.25
462.118	418.25
462.338	461.25
462.558	466.25
462.777	444.25
462.997	491.25
463.217	510.25
463.437	511.25
463.657	509.25
463.876	466.25
464.096	460.25
464.316	460.25
464.536	457.25
464.755	478.25
464.975	462.25
465.195	466.25
465.414	496.25
465.634	451.25
465.854	425.25
466.073	412.25
466.293	409.25
466.512	398.25
466.732	371.25
466.951	407.25
467.171	404.25
467.391	408.25
467.61	401.25
467.829	408.25
468.049	388.25
468.268	398.25
468.488	384.25
468.707	386.25
468.927	373.25
469.146	368.25
469.365	377.25
469.585	388.25
469.804	402.25
470.023	396.25
470.243	401.25
470.462	417.25
470.681	412.25
470.901	413.25
471.12	404.25
471.339	407.25
471.558	396.25
471.777	396.25
471.997	387.25
472.216	382.25
472.435	424.25
472.654	404.25
472.873	363.25
473.092	374.25
473.311	374.25
473.53	376.25
473.749	390.25
473.968	398.25
474.187	457.25
474.406	483.25
474.625	416.25
474.844	390.25
475.063	368.25
475.282	377.25
475.501	397.25
475.72	396.25
475.939	391.25
476.158	404.25
476.377	412.25
476.596	396.25
476.814	408.25
477.033	421.25
477.252	419.25
477.471	407.25
477.69	438.25
477.908	432.25
478.127	411.25
478.346	442.25
478.564	445.25
478.783	449.25
479.002	438.25
479.22	468.25
479.439	461.25
479.658	471.25
479.876	461.25
480.095	484.25
480.313	487.25
480.532	495.25
480.751	478.25
480.969	481.25
481.188	520.25
481.406	543.25
481.624	462.25
481.843	474.25
482.061	454.25
482.28	458.25
482.498	434.25
482.717	424.25
482.935	443.25
483.153	434.25
483.372	442.25
483.59	442.25
483.808	449.25
484.027	452.25
484.245	450.25
484.463	438.25
484.681	458.25
484.9	467.25
485.118	468.25
485.336	435.25
485.554	444.25
485.772	468.25
485.99	479.25
486.209	466.25
486.427	471.25
486.645	465.25
486.863	484.25
487.081	475.25
487.299	475.25
487.517	476.25
487.735	476.25
487.953	470.25
488.171	467.25
488.389	473.25
488.607	480.25
488.825	493.25
489.043	454.25
489.261	473.25
489.479	464.25
489.696	465.25
489.914	471.25
490.132	501.25
490.35	490.25
490.568	498.25
490.786	506.25
491.003	512.25
491.221	540.25
491.439	532.25
491.657	548.25
491.874	564.25
492.092	538.25
492.31	566.25
492.527	560.25
492.745	557.25
492.963	547.25
493.18	546.25
493.398	543.25
493.615	572.25
493.833	558.25
494.05	547.25
494.268	562.25
494.485	540.25
494.703	544.25
494.92	524.25
495.138	551.25
495.355	560.25
495.573	562.25
495.79	557.25
496.008	569.25
496.225	547.25
496.442	546.25
496.66	550.25
496.877	577.25
497.094	567.25
497.312	576.25
497.529	583.25
497.746	582.25
497.963	602.25
498.181	609.25
498.398	629.25
498.615	652.25
498.832	661.25
499.049	676.25
499.267	717.25
499.484	780.25
499.701	804.25
499.918	843.25
500.135	888.25
500.352	947.25
500.569	986.25
500.786	993.25
501.003	964.25
501.22	891.25
501.437	845.25
501.654	806.25
501.871	748.25
502.088	717.25
