Data from 1969.PennyLincolnUp.Lamp.En5.5.200Scan.071719.P1._HRD10591_14-56-22-973.txt Node
Date: Thu Jul 18 14:56:22 EDT 2019
User: cochatt
Spectrometer: HR+D1059
Trigger mode: 1
Integration Time (sec): 1.000000E-1
Scans to average: 1
Electric dark correction enabled: true
Nonlinearity correction enabled: false
Boxcar width: 0
XAxis mode: Wavelengths
Number of Pixels in Spectrum: 2048
>>>>>Begin Spectral Data<<<<<
223.165	-8.62
223.4	-8.62
223.635	-8.62
223.869	-1.62
224.104	-25.62
224.338	-10.62
224.573	-17.62
224.808	-9.62
225.042	-7.62
225.277	-12.62
225.511	0.38
225.746	-0.62
225.98	9.38
226.215	4.38
226.449	6.38
226.683	19.38
226.918	20.38
227.152	34.38
227.387	44.38
227.621	23.38
227.856	36.38
228.09	32.38
228.324	54.38
228.559	67.38
228.793	66.38
229.027	80.38
229.262	94.38
229.496	90.38
229.73	121.38
229.964	135.38
230.199	111.38
230.433	104.38
230.667	95.38
230.901	95.38
231.136	103.38
231.37	100.38
231.604	106.38
231.838	111.38
232.072	101.38
232.306	86.38
232.541	94.38
232.775	94.38
233.009	106.38
233.243	92.38
233.477	100.38
233.711	111.38
233.945	102.38
234.179	102.38
234.413	108.38
234.647	117.38
234.881	120.38
235.115	103.38
235.349	98.38
235.583	102.38
235.817	111.38
236.051	122.38
236.285	105.38
236.519	115.38
236.753	126.38
236.987	118.38
237.221	146.38
237.455	164.38
237.689	139.38
237.922	121.38
238.156	123.38
238.39	118.38
238.624	100.38
238.858	106.38
239.091	114.38
239.325	121.38
239.559	119.38
239.793	128.38
240.027	126.38
240.26	122.38
240.494	144.38
240.728	128.38
240.961	136.38
241.195	124.38
241.429	123.38
241.662	119.38
241.896	119.38
242.13	126.38
242.363	118.38
242.597	125.38
242.83	122.38
243.064	136.38
243.298	128.38
243.531	130.38
243.765	120.38
243.998	123.38
244.232	124.38
244.465	129.38
244.699	132.38
244.932	128.38
245.166	115.38
245.399	134.38
245.633	128.38
245.866	141.38
246.099	129.38
246.333	139.38
246.566	140.38
246.8	122.38
247.033	131.38
247.266	132.38
247.5	141.38
247.733	152.38
247.966	156.38
248.2	152.38
248.433	145.38
248.666	146.38
248.899	153.38
249.133	149.38
249.366	174.38
249.599	159.38
249.832	164.38
250.066	162.38
250.299	151.38
250.532	171.38
250.765	174.38
250.998	191.38
251.231	175.38
251.465	179.38
251.698	167.38
251.931	175.38
252.164	175.38
252.397	182.38
252.63	178.38
252.863	179.38
253.096	190.38
253.329	194.38
253.562	186.38
253.795	189.38
254.028	187.38
254.261	198.38
254.494	190.38
254.727	209.38
254.96	240.38
255.193	226.38
255.426	190.38
255.659	198.38
255.892	191.38
256.124	202.38
256.357	190.38
256.59	178.38
256.823	179.38
257.056	189.38
257.289	170.38
257.521	181.38
257.754	166.38
257.987	185.38
258.22	168.38
258.452	165.38
258.685	159.38
258.918	173.38
259.151	178.38
259.383	187.38
259.616	171.38
259.849	184.38
260.081	193.38
260.314	207.38
260.547	212.38
260.779	200.38
261.012	193.38
261.244	195.38
261.477	193.38
261.71	179.38
261.942	187.38
262.175	196.38
262.407	192.38
262.64	195.38
262.872	191.38
263.105	183.38
263.337	184.38
263.57	185.38
263.802	186.38
264.035	194.38
264.267	177.38
264.499	188.38
264.732	195.38
264.964	177.38
265.197	166.38
265.429	184.38
265.661	185.38
265.894	198.38
266.126	198.38
266.358	169.38
266.591	206.38
266.823	198.38
267.055	212.38
267.287	223.38
267.52	214.38
267.752	199.38
267.984	198.38
268.216	200.38
268.448	215.38
268.681	207.38
268.913	221.38
269.145	220.38
269.377	252.38
269.609	233.38
269.841	229.38
270.073	238.38
270.306	240.38
270.538	263.38
270.77	263.38
271.002	231.38
271.234	253.38
271.466	270.38
271.698	263.38
271.93	270.38
272.162	272.38
272.394	271.38
272.626	255.38
272.858	239.38
273.09	223.38
273.322	231.38
273.553	220.38
273.785	252.38
274.017	238.38
274.249	222.38
274.481	227.38
274.713	231.38
274.945	231.38
275.176	232.38
275.408	231.38
275.64	239.38
275.872	240.38
276.104	240.38
276.335	244.38
276.567	228.38
276.799	244.38
277.031	249.38
277.262	261.38
277.494	263.38
277.726	270.38
277.957	271.38
278.189	243.38
278.421	233.38
278.652	242.38
278.884	232.38
279.115	242.38
279.347	230.38
279.579	235.38
279.81	222.38
280.042	242.38
280.273	254.38
280.505	224.38
280.736	238.38
280.968	227.38
281.199	229.38
281.431	232.38
281.662	251.38
281.894	247.38
282.125	226.38
282.356	245.38
282.588	264.38
282.819	265.38
283.051	239.38
283.282	246.38
283.513	249.38
283.745	239.38
283.976	250.38
284.207	259.38
284.439	250.38
284.67	245.38
284.901	231.38
285.132	252.38
285.364	245.38
285.595	238.38
285.826	227.38
286.057	258.38
286.288	250.38
286.52	243.38
286.751	260.38
286.982	248.38
287.213	256.38
287.444	262.38
287.675	260.38
287.906	268.38
288.138	270.38
288.369	262.38
288.6	260.38
288.831	250.38
289.062	275.38
289.293	276.38
289.524	265.38
289.755	274.38
289.986	262.38
290.217	260.38
290.448	246.38
290.679	249.38
290.91	276.38
291.141	259.38
291.371	257.38
291.602	266.38
291.833	264.38
292.064	262.38
292.295	263.38
292.526	268.38
292.757	264.38
292.987	251.38
293.218	242.38
293.449	245.38
293.68	271.38
293.91	283.38
294.141	268.38
294.372	259.38
294.603	247.38
294.833	268.38
295.064	270.38
295.295	244.38
295.525	260.38
295.756	282.38
295.987	290.38
296.217	298.38
296.448	281.38
296.679	271.38
296.909	268.38
297.14	267.38
297.37	267.38
297.601	279.38
297.831	276.38
298.062	267.38
298.292	282.38
298.523	295.38
298.753	283.38
298.984	288.38
299.214	297.38
299.445	291.38
299.675	276.38
299.905	283.38
300.136	264.38
300.366	286.38
300.597	284.38
300.827	294.38
301.057	298.38
301.288	300.38
301.518	301.38
301.748	284.38
301.979	294.38
302.209	297.38
302.439	316.38
302.669	294.38
302.9	306.38
303.13	294.38
303.36	299.38
303.59	276.38
303.82	302.38
304.051	303.38
304.281	289.38
304.511	303.38
304.741	306.38
304.971	318.38
305.201	308.38
305.431	308.38
305.661	296.38
305.891	294.38
306.121	293.38
306.352	306.38
306.582	301.38
306.812	297.38
307.042	294.38
307.272	279.38
307.502	322.38
307.731	308.38
307.961	317.38
308.191	320.38
308.421	294.38
308.651	304.38
308.881	295.38
309.111	294.38
309.341	307.38
309.571	308.38
309.8	314.38
310.03	326.38
310.26	305.38
310.49	317.38
310.72	325.38
310.949	326.38
311.179	343.38
311.409	322.38
311.639	326.38
311.868	307.38
312.098	322.38
312.328	339.38
312.557	339.38
312.787	350.38
313.017	339.38
313.246	337.38
313.476	321.38
313.706	318.38
313.935	334.38
314.165	326.38
314.394	346.38
314.624	332.38
314.853	325.38
315.083	329.38
315.312	328.38
315.542	326.38
315.771	326.38
316.001	321.38
316.23	314.38
316.46	329.38
316.689	337.38
316.919	324.38
317.148	330.38
317.377	343.38
317.607	321.38
317.836	332.38
318.065	314.38
318.295	331.38
318.524	327.38
318.753	316.38
318.983	321.38
319.212	319.38
319.441	331.38
319.67	335.38
319.9	332.38
320.129	328.38
320.358	340.38
320.587	324.38
320.816	340.38
321.046	336.38
321.275	346.38
321.504	340.38
321.733	369.38
321.962	338.38
322.191	356.38
322.42	342.38
322.649	371.38
322.878	357.38
323.108	390.38
323.337	385.38
323.566	374.38
323.795	382.38
324.024	418.38
324.253	501.38
324.482	652.38
324.71	918.38
324.939	1236.38
325.168	1039.38
325.397	588.38
325.626	446.38
325.855	383.38
326.084	376.38
326.313	363.38
326.542	380.38
326.77	388.38
326.999	471.38
327.228	603.38
327.457	844.38
327.686	937.38
327.914	670.38
328.143	496.38
328.372	478.38
328.6	448.38
328.829	446.38
329.058	456.38
329.287	450.38
329.515	399.38
329.744	396.38
329.972	421.38
330.201	427.38
330.43	435.38
330.658	444.38
330.887	454.38
331.115	445.38
331.344	421.38
331.572	390.38
331.801	416.38
332.03	399.38
332.258	403.38
332.486	388.38
332.715	385.38
332.943	411.38
333.172	410.38
333.4	409.38
333.629	413.38
333.857	438.38
334.085	440.38
334.314	424.38
334.542	476.38
334.771	463.38
334.999	442.38
335.227	411.38
335.455	414.38
335.684	401.38
335.912	393.38
336.14	391.38
336.369	423.38
336.597	404.38
336.825	386.38
337.053	382.38
337.281	370.38
337.51	381.38
337.738	390.38
337.966	382.38
338.194	385.38
338.422	374.38
338.65	374.38
338.878	377.38
339.106	386.38
339.334	367.38
339.562	360.38
339.79	363.38
340.018	374.38
340.246	368.38
340.474	395.38
340.702	368.38
340.93	369.38
341.158	371.38
341.386	345.38
341.614	362.38
341.842	367.38
342.07	372.38
342.298	366.38
342.526	355.38
342.754	361.38
342.981	343.38
343.209	367.38
343.437	368.38
343.665	380.38
343.893	391.38
344.12	409.38
344.348	388.38
344.576	378.38
344.804	368.38
345.031	367.38
345.259	375.38
345.487	365.38
345.714	372.38
345.942	355.38
346.17	361.38
346.397	328.38
346.625	367.38
346.853	343.38
347.08	351.38
347.308	369.38
347.535	345.38
347.763	347.38
347.99	352.38
348.218	354.38
348.445	341.38
348.673	365.38
348.9	345.38
349.128	361.38
349.355	348.38
349.583	317.38
349.81	342.38
350.037	347.38
350.265	340.38
350.492	338.38
350.72	331.38
350.947	352.38
351.174	336.38
351.402	353.38
351.629	366.38
351.856	361.38
352.083	363.38
352.311	354.38
352.538	354.38
352.765	352.38
352.992	346.38
353.22	349.38
353.447	330.38
353.674	329.38
353.901	331.38
354.128	313.38
354.355	331.38
354.583	316.38
354.81	335.38
355.037	342.38
355.264	353.38
355.491	335.38
355.718	318.38
355.945	322.38
356.172	326.38
356.399	324.38
356.626	324.38
356.853	328.38
357.08	331.38
357.307	318.38
357.534	321.38
357.761	329.38
357.988	348.38
358.215	354.38
358.441	332.38
358.668	326.38
358.895	343.38
359.122	337.38
359.349	320.38
359.576	376.38
359.802	375.38
360.029	383.38
360.256	363.38
360.483	366.38
360.709	355.38
360.936	330.38
361.163	345.38
361.39	346.38
361.616	346.38
361.843	338.38
362.07	352.38
362.296	353.38
362.523	336.38
362.749	346.38
362.976	338.38
363.203	336.38
363.429	323.38
363.656	339.38
363.882	345.38
364.109	333.38
364.335	335.38
364.562	341.38
364.788	326.38
365.015	308.38
365.241	339.38
365.468	335.38
365.694	325.38
365.92	358.38
366.147	341.38
366.373	339.38
366.599	342.38
366.826	322.38
367.052	309.38
367.278	333.38
367.505	337.38
367.731	313.38
367.957	337.38
368.184	329.38
368.41	334.38
368.636	340.38
368.862	344.38
369.089	332.38
369.315	331.38
369.541	326.38
369.767	341.38
369.993	346.38
370.219	336.38
370.445	341.38
370.672	329.38
370.898	347.38
371.124	356.38
371.35	343.38
371.576	342.38
371.802	340.38
372.028	358.38
372.254	360.38
372.48	330.38
372.706	343.38
372.932	354.38
373.158	359.38
373.384	356.38
373.61	337.38
373.835	355.38
374.061	340.38
374.287	350.38
374.513	358.38
374.739	357.38
374.965	362.38
375.191	361.38
375.416	344.38
375.642	349.38
375.868	361.38
376.094	361.38
376.319	355.38
376.545	339.38
376.771	326.38
376.997	340.38
377.222	340.38
377.448	343.38
377.674	341.38
377.899	343.38
378.125	323.38
378.35	343.38
378.576	349.38
378.802	332.38
379.027	323.38
379.253	347.38
379.478	337.38
379.704	340.38
379.929	338.38
380.155	334.38
380.38	338.38
380.606	344.38
380.831	331.38
381.057	352.38
381.282	324.38
381.507	328.38
381.733	334.38
381.958	324.38
382.184	336.38
382.409	357.38
382.634	338.38
382.86	350.38
383.085	361.38
383.31	343.38
383.535	344.38
383.761	361.38
383.986	358.38
384.211	370.38
384.436	376.38
384.662	370.38
384.887	342.38
385.112	360.38
385.337	385.38
385.562	377.38
385.787	390.38
386.013	383.38
386.238	391.38
386.463	366.38
386.688	378.38
386.913	383.38
387.138	368.38
387.363	371.38
387.588	352.38
387.813	350.38
388.038	345.38
388.263	372.38
388.488	373.38
388.713	399.38
388.938	364.38
389.163	363.38
389.387	388.38
389.612	364.38
389.837	373.38
390.062	374.38
390.287	384.38
390.512	367.38
390.736	378.38
390.961	372.38
391.186	391.38
391.411	375.38
391.636	391.38
391.86	409.38
392.085	396.38
392.31	373.38
392.534	385.38
392.759	402.38
392.984	390.38
393.208	383.38
393.433	363.38
393.658	382.38
393.882	388.38
394.107	387.38
394.331	352.38
394.556	364.38
394.78	379.38
395.005	400.38
395.229	385.38
395.454	408.38
395.678	408.38
395.903	406.38
396.127	407.38
396.352	443.38
396.576	400.38
396.801	382.38
397.025	408.38
397.249	387.38
397.474	390.38
397.698	422.38
397.922	410.38
398.147	419.38
398.371	430.38
398.595	442.38
398.82	423.38
399.044	436.38
399.268	470.38
399.492	510.38
399.717	558.38
399.941	582.38
400.165	556.38
400.389	538.38
400.613	489.38
400.837	459.38
401.062	449.38
401.286	434.38
401.51	437.38
401.734	436.38
401.958	440.38
402.182	447.38
402.406	452.38
402.63	466.38
402.854	439.38
403.078	488.38
403.302	465.38
403.526	461.38
403.75	453.38
403.974	476.38
404.198	474.38
404.422	465.38
404.645	481.38
404.869	501.38
405.093	514.38
405.317	518.38
405.541	539.38
405.765	495.38
405.988	491.38
406.212	491.38
406.436	496.38
406.66	526.38
406.883	504.38
407.107	545.38
407.331	542.38
407.555	576.38
407.778	593.38
408.002	561.38
408.226	516.38
408.449	517.38
408.673	498.38
408.896	486.38
409.12	544.38
409.344	541.38
409.567	469.38
409.791	486.38
410.014	455.38
410.238	457.38
410.461	446.38
410.685	442.38
410.908	474.38
411.132	487.38
411.355	511.38
411.578	478.38
411.802	454.38
412.025	450.38
412.249	475.38
412.472	504.38
412.695	497.38
412.919	478.38
413.142	465.38
413.365	435.38
413.589	440.38
413.812	463.38
414.035	437.38
414.258	437.38
414.482	433.38
414.705	432.38
414.928	440.38
415.151	435.38
415.374	435.38
415.597	412.38
415.821	443.38
416.044	434.38
416.267	439.38
416.49	432.38
416.713	400.38
416.936	420.38
417.159	422.38
417.382	455.38
417.605	440.38
417.828	466.38
418.051	455.38
418.274	442.38
418.497	432.38
418.72	432.38
418.943	430.38
419.166	465.38
419.389	449.38
419.611	478.38
419.834	486.38
420.057	478.38
420.28	465.38
420.503	458.38
420.726	448.38
420.948	459.38
421.171	475.38
421.394	489.38
421.617	449.38
421.839	454.38
422.062	443.38
422.285	441.38
422.507	496.38
422.73	520.38
422.953	518.38
423.175	468.38
423.398	457.38
423.621	467.38
423.843	484.38
424.066	491.38
424.288	449.38
424.511	491.38
424.733	544.38
424.956	571.38
425.178	543.38
425.401	546.38
425.623	538.38
425.846	471.38
426.068	464.38
426.291	445.38
426.513	449.38
426.735	465.38
426.958	484.38
427.18	530.38
427.402	593.38
427.625	647.38
427.847	571.38
428.069	499.38
428.292	467.38
428.514	426.38
428.736	434.38
428.958	412.38
429.181	422.38
429.403	404.38
429.625	420.38
429.847	457.38
430.069	459.38
430.292	473.38
430.514	416.38
430.736	420.38
430.958	426.38
431.18	413.38
431.402	400.38
431.624	407.38
431.846	409.38
432.068	413.38
432.29	419.38
432.512	398.38
432.734	402.38
432.956	426.38
433.178	402.38
433.4	410.38
433.622	414.38
433.844	401.38
434.066	385.38
434.287	416.38
434.509	419.38
434.731	438.38
434.953	438.38
435.175	431.38
435.397	473.38
435.618	475.38
435.84	482.38
436.062	530.38
436.284	546.38
436.505	480.38
436.727	446.38
436.949	439.38
437.17	440.38
437.392	430.38
437.614	441.38
437.835	438.38
438.057	485.38
438.278	535.38
438.5	550.38
438.721	591.38
438.943	577.38
439.165	463.38
439.386	440.38
439.608	479.38
439.829	457.38
440.05	466.38
440.272	471.38
440.493	454.38
440.715	434.38
440.936	424.38
441.158	439.38
441.379	418.38
441.6	466.38
441.822	467.38
442.043	486.38
442.264	537.38
442.486	555.38
442.707	488.38
442.928	483.38
443.149	479.38
443.371	500.38
443.592	523.38
443.813	576.38
444.034	611.38
444.255	538.38
444.476	492.38
444.698	488.38
444.919	517.38
445.14	569.38
445.361	533.38
445.582	510.38
445.803	534.38
446.024	560.38
446.245	583.38
446.466	535.38
446.687	460.38
446.908	459.38
447.129	429.38
447.35	414.38
447.571	418.38
447.792	426.38
448.013	416.38
448.234	423.38
448.455	456.38
448.675	528.38
448.896	572.38
449.117	496.38
449.338	480.38
449.559	549.38
449.779	574.38
450	510.38
450.221	424.38
450.442	426.38
450.662	403.38
450.883	419.38
451.104	418.38
451.324	393.38
451.545	420.38
451.766	376.38
451.986	373.38
452.207	391.38
452.428	387.38
452.648	375.38
452.869	386.38
453.089	382.38
453.31	392.38
453.53	409.38
453.751	390.38
453.971	374.38
454.192	350.38
454.412	361.38
454.633	382.38
454.853	375.38
455.073	376.38
455.294	382.38
455.514	408.38
455.734	404.38
455.955	370.38
456.175	359.38
456.395	357.38
456.616	342.38
456.836	350.38
457.056	337.38
457.276	361.38
457.497	330.38
457.717	341.38
457.937	350.38
458.157	351.38
458.377	373.38
458.598	388.38
458.818	413.38
459.038	466.38
459.258	486.38
459.478	449.38
459.698	408.38
459.918	417.38
460.138	422.38
460.358	410.38
460.578	435.38
460.798	428.38
461.018	432.38
461.238	420.38
461.458	449.38
461.678	432.38
461.898	449.38
462.118	440.38
462.338	458.38
462.558	446.38
462.777	460.38
462.997	500.38
463.217	529.38
463.437	508.38
463.657	478.38
463.876	494.38
464.096	466.38
464.316	472.38
464.536	501.38
464.755	486.38
464.975	479.38
465.195	489.38
465.414	513.38
465.634	451.38
465.854	454.38
466.073	442.38
466.293	409.38
466.512	394.38
466.732	402.38
466.951	393.38
467.171	382.38
467.391	389.38
467.61	388.38
467.829	417.38
468.049	408.38
468.268	430.38
468.488	401.38
468.707	385.38
468.927	390.38
469.146	391.38
469.365	378.38
469.585	381.38
469.804	414.38
470.023	404.38
470.243	412.38
470.462	403.38
470.681	415.38
470.901	427.38
471.12	410.38
471.339	396.38
471.558	407.38
471.777	396.38
471.997	394.38
472.216	400.38
472.435	405.38
472.654	408.38
472.873	374.38
473.092	374.38
473.311	383.38
473.53	366.38
473.749	392.38
473.968	408.38
474.187	488.38
474.406	475.38
474.625	430.38
474.844	386.38
475.063	384.38
475.282	383.38
475.501	376.38
475.72	401.38
475.939	406.38
476.158	402.38
476.377	407.38
476.596	392.38
476.814	414.38
477.033	407.38
477.252	410.38
477.471	409.38
477.69	423.38
477.908	441.38
478.127	446.38
478.346	426.38
478.564	456.38
478.783	454.38
479.002	470.38
479.22	463.38
479.439	460.38
479.658	473.38
479.876	482.38
480.095	468.38
480.313	505.38
480.532	523.38
480.751	489.38
480.969	490.38
481.188	537.38
481.406	542.38
481.624	494.38
481.843	466.38
482.061	446.38
482.28	449.38
482.498	451.38
482.717	439.38
482.935	452.38
483.153	441.38
483.372	450.38
483.59	456.38
483.808	449.38
484.027	445.38
484.245	457.38
484.463	466.38
484.681	457.38
484.9	459.38
485.118	459.38
485.336	451.38
485.554	460.38
485.772	468.38
485.99	477.38
486.209	463.38
486.427	456.38
486.645	494.38
486.863	492.38
487.081	485.38
487.299	483.38
487.517	486.38
487.735	483.38
487.953	492.38
488.171	478.38
488.389	500.38
488.607	485.38
488.825	500.38
489.043	480.38
489.261	481.38
489.479	485.38
489.696	498.38
489.914	489.38
490.132	505.38
490.35	523.38
490.568	511.38
490.786	520.38
491.003	525.38
491.221	520.38
491.439	539.38
491.657	544.38
491.874	554.38
492.092	568.38
492.31	567.38
492.527	588.38
492.745	563.38
492.963	548.38
493.18	571.38
493.398	564.38
493.615	566.38
493.833	574.38
494.05	578.38
494.268	563.38
494.485	602.38
494.703	576.38
494.92	591.38
495.138	575.38
495.355	575.38
495.573	577.38
495.79	575.38
496.008	579.38
496.225	570.38
496.442	570.38
496.66	583.38
496.877	558.38
497.094	586.38
497.312	584.38
497.529	577.38
497.746	596.38
497.963	620.38
498.181	647.38
498.398	666.38
498.615	656.38
498.832	675.38
499.049	681.38
499.267	729.38
499.484	762.38
499.701	824.38
499.918	849.38
500.135	940.38
500.352	984.38
500.569	1008.38
500.786	1020.38
501.003	1014.38
501.22	949.38
501.437	876.38
501.654	828.38
501.871	774.38
502.088	772.38
