Data from 1969.PennyLincolnUp.Lamp.En5.5.200Scan.071719.P1._HRD10591_14-54-42-972.txt Node
Date: Thu Jul 18 14:54:42 EDT 2019
User: cochatt
Spectrometer: HR+D1059
Trigger mode: 1
Integration Time (sec): 1.000000E-1
Scans to average: 1
Electric dark correction enabled: true
Nonlinearity correction enabled: false
Boxcar width: 0
XAxis mode: Wavelengths
Number of Pixels in Spectrum: 2048
>>>>>Begin Spectral Data<<<<<
223.165	-14.5
223.4	-14.5
223.635	-14.5
223.869	-22.5
224.104	-3.5
224.338	-13.5
224.573	-17.5
224.808	-15.5
225.042	-1.5
225.277	4.5
225.511	-10.5
225.746	2.5
225.98	1.5
226.215	1.5
226.449	9.5
226.683	17.5
226.918	24.5
227.152	37.5
227.387	24.5
227.621	24.5
227.856	53.5
228.09	44.5
228.324	43.5
228.559	37.5
228.793	67.5
229.027	68.5
229.262	71.5
229.496	97.5
229.73	105.5
229.964	109.5
230.199	96.5
230.433	106.5
230.667	97.5
230.901	109.5
231.136	112.5
231.37	96.5
231.604	105.5
231.838	87.5
232.072	100.5
232.306	100.5
232.541	99.5
232.775	111.5
233.009	97.5
233.243	112.5
233.477	105.5
233.711	98.5
233.945	110.5
234.179	112.5
234.413	107.5
234.647	118.5
234.881	107.5
235.115	106.5
235.349	99.5
235.583	112.5
235.817	112.5
236.051	96.5
236.285	117.5
236.519	110.5
236.753	116.5
236.987	128.5
237.221	143.5
237.455	166.5
237.689	147.5
237.922	128.5
238.156	124.5
238.39	105.5
238.624	122.5
238.858	118.5
239.091	114.5
239.325	105.5
239.559	104.5
239.793	108.5
240.027	110.5
240.26	126.5
240.494	130.5
240.728	123.5
240.961	128.5
241.195	118.5
241.429	124.5
241.662	141.5
241.896	118.5
242.13	116.5
242.363	118.5
242.597	125.5
242.83	118.5
243.064	109.5
243.298	124.5
243.531	122.5
243.765	130.5
243.998	127.5
244.232	128.5
244.465	124.5
244.699	123.5
244.932	127.5
245.166	113.5
245.399	135.5
245.633	127.5
245.866	121.5
246.099	120.5
246.333	133.5
246.566	134.5
246.8	139.5
247.033	117.5
247.266	126.5
247.5	126.5
247.733	148.5
247.966	143.5
248.2	145.5
248.433	149.5
248.666	151.5
248.899	160.5
249.133	164.5
249.366	164.5
249.599	142.5
249.832	148.5
250.066	141.5
250.299	150.5
250.532	164.5
250.765	170.5
250.998	196.5
251.231	186.5
251.465	170.5
251.698	166.5
251.931	163.5
252.164	165.5
252.397	155.5
252.63	159.5
252.863	149.5
253.096	177.5
253.329	189.5
253.562	184.5
253.795	183.5
254.028	178.5
254.261	174.5
254.494	185.5
254.727	209.5
254.96	217.5
255.193	193.5
255.426	192.5
255.659	189.5
255.892	185.5
256.124	182.5
256.357	177.5
256.59	197.5
256.823	169.5
257.056	178.5
257.289	172.5
257.521	179.5
257.754	170.5
257.987	191.5
258.22	177.5
258.452	176.5
258.685	173.5
258.918	181.5
259.151	178.5
259.383	172.5
259.616	179.5
259.849	199.5
260.081	181.5
260.314	201.5
260.547	205.5
260.779	202.5
261.012	193.5
261.244	184.5
261.477	200.5
261.71	196.5
261.942	180.5
262.175	182.5
262.407	196.5
262.64	184.5
262.872	173.5
263.105	174.5
263.337	166.5
263.57	174.5
263.802	172.5
264.035	179.5
264.267	171.5
264.499	178.5
264.732	173.5
264.964	172.5
265.197	182.5
265.429	190.5
265.661	176.5
265.894	208.5
266.126	187.5
266.358	183.5
266.591	189.5
266.823	192.5
267.055	205.5
267.287	206.5
267.52	185.5
267.752	210.5
267.984	187.5
268.216	192.5
268.448	202.5
268.681	195.5
268.913	206.5
269.145	222.5
269.377	215.5
269.609	221.5
269.841	204.5
270.073	211.5
270.306	232.5
270.538	242.5
270.77	235.5
271.002	237.5
271.234	236.5
271.466	247.5
271.698	237.5
271.93	244.5
272.162	254.5
272.394	247.5
272.626	238.5
272.858	213.5
273.09	217.5
273.322	227.5
273.553	210.5
273.785	217.5
274.017	217.5
274.249	224.5
274.481	200.5
274.713	199.5
274.945	206.5
275.176	216.5
275.408	228.5
275.64	226.5
275.872	212.5
276.104	228.5
276.335	224.5
276.567	234.5
276.799	220.5
277.031	260.5
277.262	239.5
277.494	259.5
277.726	225.5
277.957	233.5
278.189	229.5
278.421	229.5
278.652	214.5
278.884	238.5
279.115	223.5
279.347	210.5
279.579	197.5
279.81	232.5
280.042	237.5
280.273	234.5
280.505	220.5
280.736	226.5
280.968	240.5
281.199	233.5
281.431	239.5
281.662	241.5
281.894	232.5
282.125	226.5
282.356	234.5
282.588	266.5
282.819	260.5
283.051	235.5
283.282	260.5
283.513	249.5
283.745	244.5
283.976	240.5
284.207	244.5
284.439	228.5
284.67	251.5
284.901	246.5
285.132	235.5
285.364	240.5
285.595	256.5
285.826	253.5
286.057	241.5
286.288	231.5
286.52	249.5
286.751	232.5
286.982	256.5
287.213	260.5
287.444	260.5
287.675	252.5
287.906	236.5
288.138	238.5
288.369	265.5
288.6	266.5
288.831	267.5
289.062	254.5
289.293	250.5
289.524	270.5
289.755	250.5
289.986	250.5
290.217	244.5
290.448	246.5
290.679	260.5
290.91	238.5
291.141	252.5
291.371	262.5
291.602	256.5
291.833	242.5
292.064	255.5
292.295	248.5
292.526	251.5
292.757	261.5
292.987	258.5
293.218	254.5
293.449	260.5
293.68	247.5
293.91	256.5
294.141	258.5
294.372	256.5
294.603	269.5
294.833	259.5
295.064	264.5
295.295	245.5
295.525	262.5
295.756	263.5
295.987	254.5
296.217	277.5
296.448	275.5
296.679	278.5
296.909	262.5
297.14	269.5
297.37	274.5
297.601	283.5
297.831	281.5
298.062	269.5
298.292	262.5
298.523	273.5
298.753	286.5
298.984	272.5
299.214	284.5
299.445	282.5
299.675	265.5
299.905	262.5
300.136	283.5
300.366	277.5
300.597	284.5
300.827	304.5
301.057	274.5
301.288	295.5
301.518	280.5
301.748	282.5
301.979	280.5
302.209	273.5
302.439	272.5
302.669	292.5
302.9	283.5
303.13	289.5
303.36	280.5
303.59	287.5
303.82	288.5
304.051	283.5
304.281	302.5
304.511	281.5
304.741	311.5
304.971	282.5
305.201	296.5
305.431	297.5
305.661	298.5
305.891	283.5
306.121	280.5
306.352	287.5
306.582	284.5
306.812	277.5
307.042	281.5
307.272	292.5
307.502	293.5
307.731	282.5
307.961	296.5
308.191	281.5
308.421	274.5
308.651	274.5
308.881	305.5
309.111	283.5
309.341	290.5
309.571	299.5
309.8	304.5
310.03	287.5
310.26	307.5
310.49	301.5
310.72	322.5
310.949	317.5
311.179	305.5
311.409	316.5
311.639	314.5
311.868	313.5
312.098	301.5
312.328	305.5
312.557	319.5
312.787	332.5
313.017	306.5
313.246	322.5
313.476	323.5
313.706	319.5
313.935	315.5
314.165	328.5
314.394	337.5
314.624	325.5
314.853	326.5
315.083	300.5
315.312	322.5
315.542	318.5
315.771	313.5
316.001	312.5
316.23	320.5
316.46	328.5
316.689	326.5
316.919	337.5
317.148	318.5
317.377	338.5
317.607	321.5
317.836	305.5
318.065	327.5
318.295	315.5
318.524	319.5
318.753	312.5
318.983	324.5
319.212	317.5
319.441	322.5
319.67	314.5
319.9	313.5
320.129	300.5
320.358	306.5
320.587	304.5
320.816	320.5
321.046	317.5
321.275	310.5
321.504	317.5
321.733	325.5
321.962	327.5
322.191	332.5
322.42	352.5
322.649	346.5
322.878	343.5
323.108	332.5
323.337	362.5
323.566	362.5
323.795	376.5
324.024	397.5
324.253	463.5
324.482	564.5
324.71	832.5
324.939	1081.5
325.168	912.5
325.397	532.5
325.626	416.5
325.855	380.5
326.084	366.5
326.313	380.5
326.542	363.5
326.77	400.5
326.999	425.5
327.228	545.5
327.457	732.5
327.686	829.5
327.914	602.5
328.143	481.5
328.372	397.5
328.6	412.5
328.829	394.5
329.058	416.5
329.287	405.5
329.515	360.5
329.744	368.5
329.972	386.5
330.201	383.5
330.43	415.5
330.658	423.5
330.887	443.5
331.115	438.5
331.344	395.5
331.572	393.5
331.801	387.5
332.03	388.5
332.258	389.5
332.486	394.5
332.715	375.5
332.943	402.5
333.172	409.5
333.4	409.5
333.629	411.5
333.857	403.5
334.085	407.5
334.314	420.5
334.542	450.5
334.771	441.5
334.999	431.5
335.227	375.5
335.455	391.5
335.684	374.5
335.912	389.5
336.14	398.5
336.369	377.5
336.597	376.5
336.825	377.5
337.053	380.5
337.281	397.5
337.51	363.5
337.738	369.5
337.966	354.5
338.194	362.5
338.422	377.5
338.65	349.5
338.878	351.5
339.106	356.5
339.334	362.5
339.562	340.5
339.79	349.5
340.018	365.5
340.246	331.5
340.474	355.5
340.702	379.5
340.93	357.5
341.158	352.5
341.386	328.5
341.614	352.5
341.842	345.5
342.07	353.5
342.298	342.5
342.526	332.5
342.754	343.5
342.981	347.5
343.209	344.5
343.437	378.5
343.665	392.5
343.893	370.5
344.12	382.5
344.348	363.5
344.576	357.5
344.804	362.5
345.031	379.5
345.259	378.5
345.487	339.5
345.714	348.5
345.942	333.5
346.17	351.5
346.397	329.5
346.625	329.5
346.853	356.5
347.08	330.5
347.308	338.5
347.535	330.5
347.763	318.5
347.99	329.5
348.218	346.5
348.445	349.5
348.673	337.5
348.9	323.5
349.128	333.5
349.355	330.5
349.583	310.5
349.81	324.5
350.037	325.5
350.265	326.5
350.492	334.5
350.72	334.5
350.947	321.5
351.174	328.5
351.402	345.5
351.629	316.5
351.856	327.5
352.083	327.5
352.311	322.5
352.538	333.5
352.765	333.5
352.992	342.5
353.22	326.5
353.447	331.5
353.674	334.5
353.901	317.5
354.128	326.5
354.355	321.5
354.583	324.5
354.81	316.5
355.037	326.5
355.264	324.5
355.491	315.5
355.718	302.5
355.945	326.5
356.172	328.5
356.399	319.5
356.626	300.5
356.853	320.5
357.08	320.5
357.307	321.5
357.534	320.5
357.761	328.5
357.988	340.5
358.215	319.5
358.441	319.5
358.668	315.5
358.895	326.5
359.122	325.5
359.349	338.5
359.576	337.5
359.802	337.5
360.029	347.5
360.256	338.5
360.483	350.5
360.709	328.5
360.936	328.5
361.163	313.5
361.39	331.5
361.616	330.5
361.843	330.5
362.07	321.5
362.296	343.5
362.523	314.5
362.749	314.5
362.976	313.5
363.203	331.5
363.429	343.5
363.656	321.5
363.882	315.5
364.109	320.5
364.335	330.5
364.562	307.5
364.788	315.5
365.015	339.5
365.241	321.5
365.468	332.5
365.694	324.5
365.92	322.5
366.147	318.5
366.373	333.5
366.599	317.5
366.826	304.5
367.052	318.5
367.278	313.5
367.505	321.5
367.731	311.5
367.957	317.5
368.184	335.5
368.41	324.5
368.636	301.5
368.862	328.5
369.089	336.5
369.315	339.5
369.541	312.5
369.767	309.5
369.993	314.5
370.219	324.5
370.445	328.5
370.672	330.5
370.898	339.5
371.124	343.5
371.35	333.5
371.576	330.5
371.802	338.5
372.028	312.5
372.254	324.5
372.48	317.5
372.706	357.5
372.932	332.5
373.158	328.5
373.384	322.5
373.61	317.5
373.835	328.5
374.061	329.5
374.287	346.5
374.513	341.5
374.739	354.5
374.965	340.5
375.191	348.5
375.416	359.5
375.642	347.5
375.868	320.5
376.094	355.5
376.319	317.5
376.545	320.5
376.771	346.5
376.997	331.5
377.222	339.5
377.448	332.5
377.674	320.5
377.899	330.5
378.125	328.5
378.35	333.5
378.576	321.5
378.802	310.5
379.027	309.5
379.253	337.5
379.478	320.5
379.704	333.5
379.929	320.5
380.155	332.5
380.38	321.5
380.606	363.5
380.831	334.5
381.057	339.5
381.282	322.5
381.507	309.5
381.733	301.5
381.958	336.5
382.184	344.5
382.409	328.5
382.634	343.5
382.86	340.5
383.085	332.5
383.31	341.5
383.535	350.5
383.761	341.5
383.986	349.5
384.211	341.5
384.436	344.5
384.662	368.5
384.887	373.5
385.112	391.5
385.337	368.5
385.562	360.5
385.787	361.5
386.013	357.5
386.238	381.5
386.463	377.5
386.688	366.5
386.913	366.5
387.138	370.5
387.363	363.5
387.588	365.5
387.813	358.5
388.038	357.5
388.263	360.5
388.488	372.5
388.713	360.5
388.938	372.5
389.163	367.5
389.387	355.5
389.612	361.5
389.837	379.5
390.062	361.5
390.287	348.5
390.512	372.5
390.736	376.5
390.961	361.5
391.186	359.5
391.411	362.5
391.636	383.5
391.86	376.5
392.085	396.5
392.31	389.5
392.534	399.5
392.759	363.5
392.984	375.5
393.208	374.5
393.433	374.5
393.658	377.5
393.882	373.5
394.107	370.5
394.331	374.5
394.556	390.5
394.78	362.5
395.005	357.5
395.229	378.5
395.454	378.5
395.678	399.5
395.903	416.5
396.127	415.5
396.352	406.5
396.576	374.5
396.801	377.5
397.025	400.5
397.249	370.5
397.474	375.5
397.698	403.5
397.922	394.5
398.147	410.5
398.371	441.5
398.595	413.5
398.82	415.5
399.044	448.5
399.268	463.5
399.492	506.5
399.717	557.5
399.941	562.5
400.165	544.5
400.389	516.5
400.613	465.5
400.837	436.5
401.062	440.5
401.286	429.5
401.51	429.5
401.734	428.5
401.958	435.5
402.182	435.5
402.406	426.5
402.63	421.5
402.854	430.5
403.078	435.5
403.302	448.5
403.526	447.5
403.75	468.5
403.974	466.5
404.198	469.5
404.422	465.5
404.645	452.5
404.869	471.5
405.093	502.5
405.317	470.5
405.541	512.5
405.765	475.5
405.988	492.5
406.212	476.5
406.436	466.5
406.66	488.5
406.883	501.5
407.107	520.5
407.331	537.5
407.555	557.5
407.778	559.5
408.002	534.5
408.226	498.5
408.449	462.5
408.673	485.5
408.896	491.5
409.12	492.5
409.344	476.5
409.567	459.5
409.791	446.5
410.014	449.5
410.238	460.5
410.461	434.5
410.685	433.5
410.908	449.5
411.132	477.5
411.355	474.5
411.578	465.5
411.802	428.5
412.025	428.5
412.249	441.5
412.472	452.5
412.695	466.5
412.919	469.5
413.142	437.5
413.365	430.5
413.589	425.5
413.812	427.5
414.035	410.5
414.258	428.5
414.482	412.5
414.705	415.5
414.928	425.5
415.151	420.5
415.374	426.5
415.597	421.5
415.821	405.5
416.044	410.5
416.267	424.5
416.49	401.5
416.713	418.5
416.936	408.5
417.159	412.5
417.382	434.5
417.605	432.5
417.828	422.5
418.051	432.5
418.274	420.5
418.497	426.5
418.72	412.5
418.943	411.5
419.166	456.5
419.389	469.5
419.611	464.5
419.834	426.5
420.057	454.5
420.28	426.5
420.503	442.5
420.726	411.5
420.948	441.5
421.171	459.5
421.394	476.5
421.617	424.5
421.839	423.5
422.062	446.5
422.285	432.5
422.507	486.5
422.73	496.5
422.953	466.5
423.175	473.5
423.398	443.5
423.621	461.5
423.843	445.5
424.066	481.5
424.288	451.5
424.511	461.5
424.733	484.5
424.956	525.5
425.178	517.5
425.401	499.5
425.623	516.5
425.846	477.5
426.068	432.5
426.291	428.5
426.513	436.5
426.735	434.5
426.958	455.5
427.18	512.5
427.402	566.5
427.625	601.5
427.847	518.5
428.069	462.5
428.292	413.5
428.514	413.5
428.736	397.5
428.958	406.5
429.181	389.5
429.403	408.5
429.625	405.5
429.847	418.5
430.069	459.5
430.292	441.5
430.514	402.5
430.736	400.5
430.958	388.5
431.18	388.5
431.402	406.5
431.624	375.5
431.846	387.5
432.068	393.5
432.29	382.5
432.512	384.5
432.734	427.5
432.956	386.5
433.178	403.5
433.4	405.5
433.622	391.5
433.844	401.5
434.066	386.5
434.287	389.5
434.509	419.5
434.731	414.5
434.953	432.5
435.175	432.5
435.397	429.5
435.618	450.5
435.84	458.5
436.062	505.5
436.284	514.5
436.505	455.5
436.727	416.5
436.949	409.5
437.17	390.5
437.392	399.5
437.614	413.5
437.835	418.5
438.057	474.5
438.278	524.5
438.5	526.5
438.721	585.5
438.943	534.5
439.165	454.5
439.386	428.5
439.608	425.5
439.829	422.5
440.05	444.5
440.272	470.5
440.493	441.5
440.715	411.5
440.936	380.5
441.158	399.5
441.379	406.5
441.6	422.5
441.822	444.5
442.043	456.5
442.264	504.5
442.486	531.5
442.707	460.5
442.928	435.5
443.149	441.5
443.371	470.5
443.592	491.5
443.813	525.5
444.034	566.5
444.255	470.5
444.476	465.5
444.698	476.5
444.919	474.5
445.14	563.5
445.361	508.5
445.582	456.5
445.803	498.5
446.024	564.5
446.245	520.5
446.466	498.5
446.687	445.5
446.908	432.5
447.129	407.5
447.35	397.5
447.571	390.5
447.792	370.5
448.013	432.5
448.234	412.5
448.455	411.5
448.675	493.5
448.896	555.5
449.117	459.5
449.338	440.5
449.559	535.5
449.779	556.5
450	470.5
450.221	403.5
450.442	380.5
450.662	393.5
450.883	396.5
451.104	392.5
451.324	385.5
451.545	381.5
451.766	376.5
451.986	370.5
452.207	360.5
452.428	344.5
452.648	374.5
452.869	344.5
453.089	369.5
453.31	372.5
453.53	366.5
453.751	359.5
453.971	345.5
454.192	359.5
454.412	353.5
454.633	342.5
454.853	365.5
455.073	368.5
455.294	366.5
455.514	394.5
455.734	390.5
455.955	347.5
456.175	353.5
456.395	338.5
456.616	342.5
456.836	349.5
457.056	325.5
457.276	329.5
457.497	366.5
457.717	334.5
457.937	354.5
458.157	349.5
458.377	340.5
458.598	374.5
458.818	398.5
459.038	442.5
459.258	434.5
459.478	403.5
459.698	409.5
459.918	425.5
460.138	409.5
460.358	405.5
460.578	426.5
460.798	420.5
461.018	441.5
461.238	419.5
461.458	420.5
461.678	449.5
461.898	416.5
462.118	429.5
462.338	432.5
462.558	442.5
462.777	475.5
462.997	462.5
463.217	515.5
463.437	487.5
463.657	498.5
463.876	442.5
464.096	480.5
464.316	463.5
464.536	453.5
464.755	476.5
464.975	462.5
465.195	468.5
465.414	485.5
465.634	436.5
465.854	404.5
466.073	407.5
466.293	389.5
466.512	388.5
466.732	374.5
466.951	387.5
467.171	371.5
467.391	380.5
467.61	380.5
467.829	380.5
468.049	393.5
468.268	389.5
468.488	386.5
468.707	370.5
468.927	361.5
469.146	366.5
469.365	380.5
469.585	390.5
469.804	392.5
470.023	405.5
470.243	396.5
470.462	409.5
470.681	413.5
470.901	396.5
471.12	394.5
471.339	391.5
471.558	386.5
471.777	408.5
471.997	384.5
472.216	389.5
472.435	401.5
472.654	378.5
472.873	386.5
473.092	385.5
473.311	363.5
473.53	398.5
473.749	385.5
473.968	427.5
474.187	465.5
474.406	459.5
474.625	396.5
474.844	388.5
475.063	391.5
475.282	376.5
475.501	392.5
475.72	398.5
475.939	368.5
476.158	403.5
476.377	403.5
476.596	397.5
476.814	398.5
477.033	379.5
477.252	403.5
477.471	391.5
477.69	427.5
477.908	408.5
478.127	426.5
478.346	426.5
478.564	448.5
478.783	444.5
479.002	433.5
479.22	454.5
479.439	460.5
479.658	450.5
479.876	460.5
480.095	480.5
480.313	486.5
480.532	478.5
480.751	473.5
480.969	483.5
481.188	483.5
481.406	530.5
481.624	454.5
481.843	447.5
482.061	440.5
482.28	418.5
482.498	439.5
482.717	408.5
482.935	425.5
483.153	411.5
483.372	429.5
483.59	427.5
483.808	416.5
484.027	409.5
484.245	427.5
484.463	421.5
484.681	451.5
484.9	424.5
485.118	432.5
485.336	450.5
485.554	440.5
485.772	448.5
485.99	452.5
486.209	445.5
486.427	441.5
486.645	464.5
486.863	472.5
487.081	458.5
487.299	457.5
487.517	456.5
487.735	437.5
487.953	466.5
488.171	473.5
488.389	469.5
488.607	451.5
488.825	468.5
489.043	452.5
489.261	467.5
489.479	472.5
489.696	475.5
489.914	483.5
490.132	480.5
490.35	467.5
490.568	472.5
490.786	483.5
491.003	498.5
491.221	521.5
491.439	525.5
491.657	497.5
491.874	541.5
492.092	520.5
492.31	533.5
492.527	540.5
492.745	531.5
492.963	530.5
493.18	540.5
493.398	541.5
493.615	546.5
493.833	534.5
494.05	534.5
494.268	530.5
494.485	527.5
494.703	535.5
494.92	535.5
495.138	535.5
495.355	532.5
495.573	537.5
495.79	542.5
496.008	556.5
496.225	534.5
496.442	521.5
496.66	566.5
496.877	546.5
497.094	545.5
497.312	553.5
497.529	566.5
497.746	574.5
497.963	575.5
498.181	588.5
498.398	601.5
498.615	644.5
498.832	662.5
499.049	677.5
499.267	723.5
499.484	742.5
499.701	790.5
499.918	824.5
500.135	903.5
500.352	973.5
500.569	999.5
500.786	960.5
501.003	908.5
501.22	885.5
501.437	849.5
501.654	768.5
501.871	733.5
502.088	735.5
502.305	682.5
502.522	655.5
502.739	632.5
502.956	593.5
503.172	604.5
503.389	585.5
503.606	560.5
503.823	560.5
504.04	552.5
504.256	568.5
504.473	549.5
504.69	565.5
504.907	550.5
505.123	536.5
505.34	549.5
505.557	532.5
505.773	516.5
505.99	501.5
506.207	503.5
506.423	478.5
506.64	509.5
506.856	488.5
507.073	485.5
507.289	498.5
507.506	461.5
507.722	479.5
507.939	498.5
508.155	500.5
508.372	475.5
508.588	456.5
508.805	441.5
509.021	460.5
509.238	468.5
509.454	477.5
509.67	480.5
509.887	472.5
510.103	458.5
510.319	465.5
510.536	496.5
510.752	732.5
510.968	612.5
511.184	477.5
511.401	466.5
511.617	459.5
511.833	463.5
512.049	449.5
512.265	427.5
512.481	472.5
512.698	460.5
512.914	445.5
513.13	433.5
513.346	451.5
513.562	429.5
513.778	425.5
513.994	429.5
514.21	455.5
514.426	473.5
514.642	474.5
514.858	492.5
515.074	502.5
515.29	567.5
515.506	750.5
515.721	665.5
515.937	516.5
516.153	461.5
516.369	477.5
516.585	461.5
516.801	482.5
517.016	470.5
517.232	505.5
517.448	504.5
517.664	512.5
517.879	532.5
518.095	502.5
518.311	490.5
518.527	484.5
518.742	494.5
518.958	471.5
519.173	481.5
519.389	468.5
519.605	465.5
519.82	451.5
520.036	481.5
