Data from 1969.PennyLincolnUp.Lamp.En5.5.200Scan.071719.P1._HRD10591_14-54-18-975.txt Node
Date: Thu Jul 18 14:54:18 EDT 2019
User: cochatt
Spectrometer: HR+D1059
Trigger mode: 1
Integration Time (sec): 1.000000E-1
Scans to average: 1
Electric dark correction enabled: true
Nonlinearity correction enabled: false
Boxcar width: 0
XAxis mode: Wavelengths
Number of Pixels in Spectrum: 2048
>>>>>Begin Spectral Data<<<<<
223.165	-10.88
223.4	-10.88
223.635	-10.88
223.869	-14.88
224.104	-18.88
224.338	-14.88
224.573	-10.88
224.808	-15.88
225.042	-14.88
225.277	-3.88
225.511	-0.88
225.746	-5.88
225.98	14.12
226.215	0.12
226.449	17.12
226.683	42.12
226.918	22.12
227.152	16.12
227.387	38.12
227.621	37.12
227.856	39.12
228.09	45.12
228.324	38.12
228.559	55.12
228.793	60.12
229.027	77.12
229.262	95.12
229.496	76.12
229.73	102.12
229.964	119.12
230.199	123.12
230.433	102.12
230.667	93.12
230.901	96.12
231.136	93.12
231.37	86.12
231.604	96.12
231.838	112.12
232.072	93.12
232.306	92.12
232.541	100.12
232.775	118.12
233.009	107.12
233.243	92.12
233.477	109.12
233.711	122.12
233.945	101.12
234.179	92.12
234.413	106.12
234.647	88.12
234.881	113.12
235.115	96.12
235.349	121.12
235.583	116.12
235.817	97.12
236.051	107.12
236.285	101.12
236.519	92.12
236.753	115.12
236.987	124.12
237.221	132.12
237.455	164.12
237.689	133.12
237.922	105.12
238.156	114.12
238.39	122.12
238.624	122.12
238.858	109.12
239.091	96.12
239.325	97.12
239.559	97.12
239.793	106.12
240.027	114.12
240.26	117.12
240.494	123.12
240.728	128.12
240.961	117.12
241.195	120.12
241.429	108.12
241.662	121.12
241.896	128.12
242.13	128.12
242.363	120.12
242.597	115.12
242.83	122.12
243.064	120.12
243.298	113.12
243.531	116.12
243.765	113.12
243.998	124.12
244.232	124.12
244.465	125.12
244.699	136.12
244.932	144.12
245.166	117.12
245.399	132.12
245.633	136.12
245.866	122.12
246.099	141.12
246.333	124.12
246.566	127.12
246.8	117.12
247.033	143.12
247.266	157.12
247.5	142.12
247.733	132.12
247.966	154.12
248.2	144.12
248.433	131.12
248.666	149.12
248.899	155.12
249.133	145.12
249.366	158.12
249.599	156.12
249.832	150.12
250.066	165.12
250.299	138.12
250.532	150.12
250.765	147.12
250.998	165.12
251.231	172.12
251.465	176.12
251.698	170.12
251.931	161.12
252.164	157.12
252.397	176.12
252.63	161.12
252.863	155.12
253.096	170.12
253.329	166.12
253.562	163.12
253.795	162.12
254.028	168.12
254.261	173.12
254.494	189.12
254.727	200.12
254.96	206.12
255.193	197.12
255.426	165.12
255.659	182.12
255.892	183.12
256.124	173.12
256.357	188.12
256.59	193.12
256.823	165.12
257.056	160.12
257.289	172.12
257.521	155.12
257.754	161.12
257.987	164.12
258.22	164.12
258.452	184.12
258.685	173.12
258.918	157.12
259.151	194.12
259.383	185.12
259.616	161.12
259.849	178.12
260.081	174.12
260.314	205.12
260.547	194.12
260.779	180.12
261.012	194.12
261.244	200.12
261.477	182.12
261.71	188.12
261.942	183.12
262.175	193.12
262.407	186.12
262.64	179.12
262.872	169.12
263.105	174.12
263.337	186.12
263.57	189.12
263.802	180.12
264.035	167.12
264.267	174.12
264.499	181.12
264.732	186.12
264.964	181.12
265.197	195.12
265.429	198.12
265.661	179.12
265.894	187.12
266.126	187.12
266.358	194.12
266.591	181.12
266.823	160.12
267.055	194.12
267.287	192.12
267.52	190.12
267.752	203.12
267.984	207.12
268.216	212.12
268.448	196.12
268.681	194.12
268.913	212.12
269.145	221.12
269.377	199.12
269.609	211.12
269.841	214.12
270.073	213.12
270.306	231.12
270.538	236.12
270.77	240.12
271.002	218.12
271.234	235.12
271.466	240.12
271.698	238.12
271.93	256.12
272.162	252.12
272.394	269.12
272.626	233.12
272.858	230.12
273.09	239.12
273.322	221.12
273.553	215.12
273.785	218.12
274.017	201.12
274.249	210.12
274.481	218.12
274.713	220.12
274.945	218.12
275.176	218.12
275.408	211.12
275.64	226.12
275.872	214.12
276.104	210.12
276.335	209.12
276.567	226.12
276.799	241.12
277.031	223.12
277.262	249.12
277.494	241.12
277.726	250.12
277.957	234.12
278.189	219.12
278.421	230.12
278.652	248.12
278.884	217.12
279.115	213.12
279.347	233.12
279.579	223.12
279.81	218.12
280.042	212.12
280.273	230.12
280.505	233.12
280.736	235.12
280.968	222.12
281.199	227.12
281.431	234.12
281.662	221.12
281.894	236.12
282.125	232.12
282.356	259.12
282.588	255.12
282.819	232.12
283.051	230.12
283.282	221.12
283.513	227.12
283.745	257.12
283.976	247.12
284.207	251.12
284.439	243.12
284.67	229.12
284.901	228.12
285.132	248.12
285.364	256.12
285.595	237.12
285.826	227.12
286.057	241.12
286.288	265.12
286.52	246.12
286.751	229.12
286.982	233.12
287.213	241.12
287.444	242.12
287.675	255.12
287.906	253.12
288.138	250.12
288.369	266.12
288.6	258.12
288.831	264.12
289.062	252.12
289.293	244.12
289.524	267.12
289.755	264.12
289.986	250.12
290.217	253.12
290.448	251.12
290.679	255.12
290.91	259.12
291.141	257.12
291.371	241.12
291.602	243.12
291.833	249.12
292.064	247.12
292.295	249.12
292.526	270.12
292.757	260.12
292.987	249.12
293.218	248.12
293.449	261.12
293.68	261.12
293.91	275.12
294.141	252.12
294.372	242.12
294.603	265.12
294.833	252.12
295.064	248.12
295.295	244.12
295.525	267.12
295.756	262.12
295.987	265.12
296.217	253.12
296.448	267.12
296.679	259.12
296.909	259.12
297.14	258.12
297.37	275.12
297.601	271.12
297.831	244.12
298.062	266.12
298.292	276.12
298.523	269.12
298.753	270.12
298.984	267.12
299.214	271.12
299.445	272.12
299.675	273.12
299.905	274.12
300.136	264.12
300.366	273.12
300.597	286.12
300.827	262.12
301.057	301.12
301.288	266.12
301.518	287.12
301.748	301.12
301.979	312.12
302.209	276.12
302.439	283.12
302.669	294.12
302.9	273.12
303.13	289.12
303.36	286.12
303.59	277.12
303.82	294.12
304.051	281.12
304.281	281.12
304.511	277.12
304.741	283.12
304.971	278.12
305.201	271.12
305.431	282.12
305.661	267.12
305.891	282.12
306.121	289.12
306.352	283.12
306.582	274.12
306.812	281.12
307.042	306.12
307.272	278.12
307.502	302.12
307.731	295.12
307.961	274.12
308.191	288.12
308.421	288.12
308.651	300.12
308.881	287.12
309.111	273.12
309.341	290.12
309.571	288.12
309.8	289.12
310.03	294.12
310.26	307.12
310.49	282.12
310.72	296.12
310.949	304.12
311.179	296.12
311.409	304.12
311.639	303.12
311.868	281.12
312.098	312.12
312.328	332.12
312.557	307.12
312.787	331.12
313.017	329.12
313.246	318.12
313.476	322.12
313.706	310.12
313.935	317.12
314.165	335.12
314.394	333.12
314.624	333.12
314.853	309.12
315.083	324.12
315.312	309.12
315.542	297.12
315.771	308.12
316.001	292.12
316.23	286.12
316.46	307.12
316.689	324.12
316.919	309.12
317.148	318.12
317.377	313.12
317.607	316.12
317.836	315.12
318.065	315.12
318.295	308.12
318.524	312.12
318.753	310.12
318.983	320.12
319.212	323.12
319.441	331.12
319.67	304.12
319.9	314.12
320.129	321.12
320.358	325.12
320.587	311.12
320.816	320.12
321.046	333.12
321.275	326.12
321.504	318.12
321.733	333.12
321.962	326.12
322.191	309.12
322.42	348.12
322.649	344.12
322.878	336.12
323.108	345.12
323.337	349.12
323.566	334.12
323.795	368.12
324.024	385.12
324.253	437.12
324.482	566.12
324.71	781.12
324.939	993.12
325.168	862.12
325.397	516.12
325.626	398.12
325.855	370.12
326.084	360.12
326.313	345.12
326.542	359.12
326.77	407.12
326.999	448.12
327.228	532.12
327.457	725.12
327.686	780.12
327.914	566.12
328.143	436.12
328.372	396.12
328.6	415.12
328.829	377.12
329.058	388.12
329.287	398.12
329.515	389.12
329.744	376.12
329.972	358.12
330.201	383.12
330.43	417.12
330.658	410.12
330.887	417.12
331.115	421.12
331.344	377.12
331.572	352.12
331.801	362.12
332.03	381.12
332.258	379.12
332.486	386.12
332.715	386.12
332.943	391.12
333.172	385.12
333.4	406.12
333.629	411.12
333.857	421.12
334.085	409.12
334.314	427.12
334.542	438.12
334.771	422.12
334.999	411.12
335.227	405.12
335.455	374.12
335.684	376.12
335.912	378.12
336.14	378.12
336.369	379.12
336.597	371.12
336.825	394.12
337.053	364.12
337.281	357.12
337.51	370.12
337.738	350.12
337.966	349.12
338.194	357.12
338.422	363.12
338.65	363.12
338.878	350.12
339.106	346.12
339.334	369.12
339.562	358.12
339.79	340.12
340.018	351.12
340.246	337.12
340.474	360.12
340.702	362.12
340.93	344.12
341.158	366.12
341.386	341.12
341.614	356.12
341.842	334.12
342.07	339.12
342.298	344.12
342.526	368.12
342.754	345.12
342.981	335.12
343.209	357.12
343.437	345.12
343.665	368.12
343.893	376.12
344.12	385.12
344.348	376.12
344.576	364.12
344.804	353.12
345.031	351.12
345.259	361.12
345.487	355.12
345.714	357.12
345.942	338.12
346.17	332.12
346.397	326.12
346.625	332.12
346.853	342.12
347.08	327.12
347.308	347.12
347.535	350.12
347.763	346.12
347.99	346.12
348.218	329.12
348.445	338.12
348.673	337.12
348.9	347.12
349.128	348.12
349.355	328.12
349.583	319.12
349.81	331.12
350.037	332.12
350.265	328.12
350.492	324.12
350.72	322.12
350.947	358.12
351.174	343.12
351.402	325.12
351.629	325.12
351.856	338.12
352.083	331.12
352.311	323.12
352.538	314.12
352.765	338.12
352.992	323.12
353.22	335.12
353.447	313.12
353.674	330.12
353.901	329.12
354.128	304.12
354.355	323.12
354.583	308.12
354.81	317.12
355.037	341.12
355.264	327.12
355.491	312.12
355.718	318.12
355.945	312.12
356.172	325.12
356.399	308.12
356.626	310.12
356.853	318.12
357.08	310.12
357.307	328.12
357.534	320.12
357.761	305.12
357.988	324.12
358.215	311.12
358.441	315.12
358.668	333.12
358.895	324.12
359.122	334.12
359.349	319.12
359.576	294.12
359.802	309.12
360.029	350.12
360.256	345.12
360.483	355.12
360.709	326.12
360.936	324.12
361.163	326.12
361.39	333.12
361.616	324.12
361.843	319.12
362.07	330.12
362.296	339.12
362.523	324.12
362.749	335.12
362.976	329.12
363.203	322.12
363.429	314.12
363.656	316.12
363.882	337.12
364.109	329.12
364.335	330.12
364.562	313.12
364.788	311.12
365.015	317.12
365.241	327.12
365.468	329.12
365.694	311.12
365.92	321.12
366.147	313.12
366.373	311.12
366.599	322.12
366.826	312.12
367.052	316.12
367.278	330.12
367.505	325.12
367.731	324.12
367.957	341.12
368.184	327.12
368.41	319.12
368.636	310.12
368.862	339.12
369.089	328.12
369.315	327.12
369.541	332.12
369.767	316.12
369.993	324.12
370.219	327.12
370.445	331.12
370.672	315.12
370.898	331.12
371.124	327.12
371.35	323.12
371.576	317.12
371.802	326.12
372.028	341.12
372.254	331.12
372.48	338.12
372.706	328.12
372.932	362.12
373.158	337.12
373.384	354.12
373.61	327.12
373.835	332.12
374.061	332.12
374.287	320.12
374.513	321.12
374.739	359.12
374.965	340.12
375.191	347.12
375.416	342.12
375.642	340.12
375.868	330.12
376.094	336.12
376.319	334.12
376.545	338.12
376.771	331.12
376.997	317.12
377.222	331.12
377.448	340.12
377.674	324.12
377.899	333.12
378.125	330.12
378.35	328.12
378.576	346.12
378.802	324.12
379.027	325.12
379.253	323.12
379.478	328.12
379.704	322.12
379.929	327.12
380.155	324.12
380.38	323.12
380.606	326.12
380.831	331.12
381.057	329.12
381.282	310.12
381.507	315.12
381.733	339.12
381.958	349.12
382.184	340.12
382.409	332.12
382.634	321.12
382.86	331.12
383.085	329.12
383.31	324.12
383.535	344.12
383.761	356.12
383.986	353.12
384.211	361.12
384.436	354.12
384.662	341.12
384.887	373.12
385.112	356.12
385.337	378.12
385.562	375.12
385.787	361.12
386.013	356.12
386.238	376.12
386.463	377.12
386.688	374.12
386.913	379.12
387.138	371.12
387.363	353.12
387.588	365.12
387.813	374.12
388.038	355.12
388.263	347.12
388.488	357.12
388.713	370.12
388.938	364.12
389.163	372.12
389.387	349.12
389.612	357.12
389.837	353.12
390.062	356.12
390.287	377.12
390.512	342.12
390.736	365.12
390.961	354.12
391.186	364.12
391.411	381.12
391.636	377.12
391.86	404.12
392.085	384.12
392.31	380.12
392.534	378.12
392.759	378.12
392.984	382.12
393.208	358.12
393.433	380.12
393.658	382.12
393.882	375.12
394.107	374.12
394.331	375.12
394.556	370.12
394.78	365.12
395.005	384.12
395.229	379.12
395.454	394.12
395.678	408.12
395.903	390.12
396.127	387.12
396.352	402.12
396.576	399.12
396.801	368.12
397.025	376.12
397.249	379.12
397.474	402.12
397.698	395.12
397.922	402.12
398.147	408.12
398.371	384.12
398.595	422.12
398.82	418.12
399.044	439.12
399.268	451.12
399.492	517.12
399.717	548.12
399.941	566.12
400.165	545.12
400.389	500.12
400.613	467.12
400.837	423.12
401.062	442.12
401.286	445.12
401.51	441.12
401.734	423.12
401.958	412.12
402.182	429.12
402.406	432.12
402.63	445.12
402.854	450.12
403.078	445.12
403.302	448.12
403.526	490.12
403.75	474.12
403.974	461.12
404.198	459.12
404.422	473.12
404.645	477.12
404.869	479.12
405.093	480.12
405.317	512.12
405.541	511.12
405.765	470.12
405.988	470.12
406.212	462.12
406.436	480.12
406.66	486.12
406.883	472.12
407.107	505.12
407.331	533.12
407.555	562.12
407.778	539.12
408.002	532.12
408.226	497.12
408.449	470.12
408.673	466.12
408.896	493.12
409.12	478.12
409.344	472.12
409.567	441.12
409.791	452.12
410.014	447.12
410.238	456.12
410.461	454.12
410.685	445.12
410.908	435.12
411.132	470.12
411.355	462.12
411.578	454.12
411.802	452.12
412.025	437.12
412.249	451.12
412.472	453.12
412.695	477.12
412.919	464.12
413.142	440.12
413.365	449.12
413.589	410.12
413.812	422.12
414.035	409.12
414.258	433.12
414.482	410.12
414.705	435.12
414.928	416.12
415.151	433.12
415.374	420.12
415.597	432.12
415.821	402.12
416.044	422.12
416.267	425.12
416.49	397.12
416.713	417.12
416.936	433.12
417.159	418.12
417.382	407.12
417.605	420.12
417.828	431.12
418.051	439.12
418.274	439.12
418.497	409.12
418.72	421.12
418.943	411.12
419.166	458.12
419.389	457.12
419.611	448.12
419.834	442.12
420.057	427.12
420.28	436.12
420.503	451.12
420.726	452.12
420.948	428.12
421.171	463.12
421.394	455.12
421.617	450.12
421.839	434.12
422.062	429.12
422.285	418.12
422.507	472.12
422.73	493.12
422.953	489.12
423.175	450.12
423.398	446.12
423.621	427.12
423.843	454.12
424.066	472.12
424.288	460.12
424.511	438.12
424.733	476.12
424.956	521.12
425.178	514.12
425.401	507.12
425.623	510.12
425.846	459.12
426.068	415.12
426.291	442.12
426.513	432.12
426.735	440.12
426.958	456.12
427.18	501.12
427.402	562.12
427.625	603.12
427.847	510.12
428.069	480.12
428.292	436.12
428.514	409.12
428.736	405.12
428.958	424.12
429.181	396.12
429.403	411.12
429.625	397.12
429.847	429.12
430.069	449.12
430.292	444.12
430.514	408.12
430.736	396.12
430.958	418.12
431.18	396.12
431.402	410.12
431.624	394.12
431.846	382.12
432.068	401.12
432.29	377.12
432.512	404.12
432.734	401.12
432.956	392.12
433.178	395.12
433.4	413.12
433.622	384.12
433.844	396.12
434.066	378.12
434.287	408.12
434.509	404.12
434.731	425.12
434.953	417.12
435.175	415.12
435.397	426.12
435.618	427.12
435.84	444.12
436.062	487.12
436.284	530.12
436.505	453.12
436.727	440.12
436.949	422.12
437.17	411.12
437.392	411.12
437.614	397.12
437.835	441.12
438.057	468.12
438.278	499.12
438.5	513.12
438.721	544.12
438.943	523.12
439.165	425.12
439.386	430.12
439.608	433.12
439.829	417.12
440.05	451.12
440.272	446.12
440.493	430.12
440.715	415.12
440.936	408.12
441.158	414.12
441.379	443.12
441.6	436.12
441.822	457.12
442.043	469.12
442.264	502.12
442.486	488.12
442.707	452.12
442.928	434.12
443.149	475.12
443.371	442.12
443.592	488.12
443.813	506.12
444.034	563.12
444.255	474.12
444.476	457.12
444.698	489.12
444.919	473.12
445.14	603.12
445.361	533.12
445.582	476.12
445.803	497.12
446.024	537.12
446.245	523.12
446.466	469.12
446.687	424.12
446.908	428.12
447.129	414.12
447.35	409.12
447.571	390.12
447.792	400.12
448.013	390.12
448.234	390.12
448.455	434.12
448.675	508.12
448.896	546.12
449.117	485.12
449.338	442.12
449.559	502.12
449.779	573.12
450	472.12
450.221	400.12
450.442	409.12
450.662	368.12
450.883	389.12
451.104	381.12
451.324	374.12
451.545	391.12
451.766	378.12
451.986	344.12
452.207	371.12
452.428	368.12
452.648	370.12
452.869	354.12
453.089	361.12
453.31	356.12
453.53	376.12
453.751	369.12
453.971	362.12
454.192	365.12
454.412	358.12
454.633	376.12
454.853	360.12
455.073	354.12
455.294	380.12
455.514	404.12
455.734	392.12
455.955	347.12
456.175	351.12
456.395	332.12
456.616	331.12
456.836	345.12
457.056	350.12
457.276	338.12
457.497	348.12
457.717	336.12
457.937	347.12
458.157	347.12
458.377	349.12
458.598	374.12
458.818	394.12
459.038	447.12
459.258	415.12
459.478	405.12
459.698	391.12
459.918	387.12
460.138	404.12
460.358	415.12
460.578	424.12
460.798	418.12
461.018	426.12
461.238	425.12
461.458	403.12
461.678	422.12
461.898	433.12
462.118	418.12
462.338	449.12
462.558	452.12
462.777	455.12
462.997	459.12
463.217	496.12
463.437	504.12
463.657	484.12
463.876	488.12
464.096	467.12
464.316	457.12
464.536	461.12
464.755	459.12
464.975	446.12
465.195	439.12
465.414	477.12
465.634	428.12
465.854	422.12
466.073	389.12
466.293	393.12
466.512	397.12
466.732	380.12
466.951	371.12
467.171	361.12
467.391	378.12
467.61	370.12
467.829	368.12
468.049	381.12
468.268	379.12
468.488	376.12
468.707	386.12
468.927	384.12
469.146	372.12
469.365	379.12
469.585	362.12
469.804	393.12
470.023	412.12
470.243	372.12
470.462	389.12
470.681	389.12
470.901	408.12
471.12	389.12
471.339	404.12
471.558	378.12
471.777	373.12
471.997	378.12
472.216	385.12
472.435	399.12
472.654	371.12
472.873	372.12
473.092	385.12
473.311	362.12
473.53	390.12
473.749	382.12
473.968	397.12
474.187	447.12
474.406	449.12
474.625	398.12
474.844	374.12
475.063	375.12
475.282	376.12
475.501	354.12
475.72	381.12
475.939	400.12
476.158	378.12
476.377	387.12
476.596	386.12
476.814	384.12
477.033	386.12
477.252	386.12
477.471	397.12
477.69	401.12
477.908	411.12
478.127	427.12
478.346	424.12
478.564	433.12
478.783	419.12
479.002	430.12
479.22	462.12
479.439	458.12
479.658	432.12
479.876	447.12
480.095	453.12
480.313	469.12
480.532	490.12
480.751	448.12
480.969	477.12
481.188	494.12
481.406	503.12
481.624	447.12
481.843	435.12
482.061	438.12
482.28	422.12
482.498	430.12
482.717	416.12
482.935	437.12
483.153	429.12
483.372	416.12
483.59	428.12
483.808	429.12
484.027	428.12
484.245	444.12
484.463	429.12
484.681	448.12
484.9	451.12
485.118	445.12
485.336	432.12
485.554	439.12
485.772	446.12
485.99	433.12
486.209	460.12
486.427	467.12
486.645	441.12
486.863	460.12
487.081	454.12
487.299	450.12
487.517	446.12
487.735	449.12
487.953	466.12
488.171	451.12
488.389	458.12
488.607	462.12
488.825	440.12
489.043	440.12
489.261	442.12
489.479	472.12
489.696	472.12
489.914	472.12
490.132	477.12
490.35	474.12
490.568	437.12
490.786	466.12
491.003	482.12
491.221	510.12
491.439	512.12
491.657	538.12
491.874	502.12
492.092	533.12
492.31	516.12
492.527	539.12
492.745	512.12
492.963	503.12
493.18	537.12
493.398	546.12
493.615	542.12
493.833	566.12
494.05	521.12
494.268	522.12
494.485	535.12
494.703	528.12
494.92	533.12
495.138	523.12
495.355	524.12
495.573	529.12
495.79	537.12
496.008	563.12
496.225	549.12
496.442	537.12
496.66	534.12
496.877	526.12
497.094	568.12
497.312	543.12
497.529	555.12
497.746	572.12
497.963	579.12
498.181	571.12
498.398	597.12
498.615	619.12
498.832	636.12
499.049	662.12
499.267	708.12
499.484	740.12
499.701	777.12
499.918	843.12
500.135	869.12
500.352	948.12
500.569	982.12
500.786	955.12
501.003	944.12
501.22	845.12
501.437	816.12
501.654	770.12
501.871	738.12
502.088	737.12
502.305	672.12
