Data from 1969.PennyLincolnUp.Lamp.En5.5.200Scan.071719.P1._HRD10591_14-56-57-972.txt Node
Date: Thu Jul 18 14:56:57 EDT 2019
User: cochatt
Spectrometer: HR+D1059
Trigger mode: 1
Integration Time (sec): 1.000000E-1
Scans to average: 1
Electric dark correction enabled: true
Nonlinearity correction enabled: false
Boxcar width: 0
XAxis mode: Wavelengths
Number of Pixels in Spectrum: 2048
>>>>>Begin Spectral Data<<<<<
223.165	-16.19
223.4	-16.19
223.635	-16.19
223.869	-18.19
224.104	-23.19
224.338	-12.19
224.573	-11.19
224.808	-26.19
225.042	-17.19
225.277	5.81
225.511	2.81
225.746	5.81
225.98	-1.19
226.215	23.81
226.449	16.81
226.683	22.81
226.918	21.81
227.152	25.81
227.387	39.81
227.621	31.81
227.856	24.81
228.09	40.81
228.324	61.81
228.559	50.81
228.793	62.81
229.027	85.81
229.262	97.81
229.496	92.81
229.73	115.81
229.964	117.81
230.199	113.81
230.433	95.81
230.667	95.81
230.901	84.81
231.136	102.81
231.37	102.81
231.604	89.81
231.838	116.81
232.072	106.81
232.306	103.81
232.541	96.81
232.775	95.81
233.009	106.81
233.243	103.81
233.477	108.81
233.711	109.81
233.945	103.81
234.179	122.81
234.413	107.81
234.647	119.81
234.881	110.81
235.115	109.81
235.349	107.81
235.583	110.81
235.817	107.81
236.051	115.81
236.285	107.81
236.519	120.81
236.753	118.81
236.987	119.81
237.221	148.81
237.455	165.81
237.689	156.81
237.922	123.81
238.156	116.81
238.39	108.81
238.624	118.81
238.858	101.81
239.091	109.81
239.325	107.81
239.559	122.81
239.793	106.81
240.027	126.81
240.26	126.81
240.494	145.81
240.728	141.81
240.961	143.81
241.195	144.81
241.429	126.81
241.662	115.81
241.896	125.81
242.13	125.81
242.363	116.81
242.597	118.81
242.83	127.81
243.064	119.81
243.298	129.81
243.531	127.81
243.765	126.81
243.998	127.81
244.232	128.81
244.465	149.81
244.699	143.81
244.932	147.81
245.166	155.81
245.399	134.81
245.633	134.81
245.866	137.81
246.099	139.81
246.333	126.81
246.566	120.81
246.8	135.81
247.033	143.81
247.266	142.81
247.5	150.81
247.733	154.81
247.966	151.81
248.2	161.81
248.433	139.81
248.666	146.81
248.899	165.81
249.133	149.81
249.366	173.81
249.599	163.81
249.832	164.81
250.066	147.81
250.299	151.81
250.532	168.81
250.765	182.81
250.998	203.81
251.231	185.81
251.465	186.81
251.698	186.81
251.931	180.81
252.164	160.81
252.397	185.81
252.63	170.81
252.863	174.81
253.096	164.81
253.329	201.81
253.562	171.81
253.795	184.81
254.028	186.81
254.261	188.81
254.494	194.81
254.727	212.81
254.96	211.81
255.193	219.81
255.426	190.81
255.659	204.81
255.892	201.81
256.124	199.81
256.357	209.81
256.59	189.81
256.823	185.81
257.056	185.81
257.289	174.81
257.521	172.81
257.754	187.81
257.987	175.81
258.22	170.81
258.452	187.81
258.685	170.81
258.918	187.81
259.151	190.81
259.383	191.81
259.616	173.81
259.849	188.81
260.081	197.81
260.314	209.81
260.547	233.81
260.779	211.81
261.012	207.81
261.244	190.81
261.477	201.81
261.71	175.81
261.942	188.81
262.175	178.81
262.407	186.81
262.64	179.81
262.872	197.81
263.105	193.81
263.337	196.81
263.57	196.81
263.802	190.81
264.035	182.81
264.267	180.81
264.499	203.81
264.732	200.81
264.964	192.81
265.197	189.81
265.429	172.81
265.661	195.81
265.894	201.81
266.126	202.81
266.358	193.81
266.591	193.81
266.823	202.81
267.055	190.81
267.287	199.81
267.52	195.81
267.752	213.81
267.984	195.81
268.216	209.81
268.448	204.81
268.681	215.81
268.913	204.81
269.145	211.81
269.377	227.81
269.609	238.81
269.841	245.81
270.073	231.81
270.306	254.81
270.538	278.81
270.77	265.81
271.002	248.81
271.234	230.81
271.466	250.81
271.698	263.81
271.93	267.81
272.162	271.81
272.394	251.81
272.626	246.81
272.858	234.81
273.09	222.81
273.322	234.81
273.553	230.81
273.785	226.81
274.017	244.81
274.249	233.81
274.481	241.81
274.713	229.81
274.945	246.81
275.176	238.81
275.408	244.81
275.64	216.81
275.872	227.81
276.104	213.81
276.335	253.81
276.567	213.81
276.799	243.81
277.031	249.81
277.262	267.81
277.494	276.81
277.726	248.81
277.957	248.81
278.189	250.81
278.421	229.81
278.652	245.81
278.884	225.81
279.115	231.81
279.347	250.81
279.579	230.81
279.81	236.81
280.042	230.81
280.273	244.81
280.505	227.81
280.736	217.81
280.968	241.81
281.199	235.81
281.431	253.81
281.662	228.81
281.894	249.81
282.125	249.81
282.356	267.81
282.588	294.81
282.819	257.81
283.051	234.81
283.282	236.81
283.513	253.81
283.745	243.81
283.976	246.81
284.207	255.81
284.439	248.81
284.67	257.81
284.901	250.81
285.132	271.81
285.364	259.81
285.595	276.81
285.826	248.81
286.057	268.81
286.288	251.81
286.52	258.81
286.751	245.81
286.982	262.81
287.213	229.81
287.444	274.81
287.675	248.81
287.906	278.81
288.138	261.81
288.369	265.81
288.6	265.81
288.831	272.81
289.062	270.81
289.293	261.81
289.524	257.81
289.755	237.81
289.986	257.81
290.217	260.81
290.448	261.81
290.679	263.81
290.91	273.81
291.141	268.81
291.371	267.81
291.602	258.81
291.833	251.81
292.064	255.81
292.295	263.81
292.526	264.81
292.757	291.81
292.987	266.81
293.218	270.81
293.449	280.81
293.68	270.81
293.91	268.81
294.141	277.81
294.372	261.81
294.603	274.81
294.833	253.81
295.064	272.81
295.295	264.81
295.525	285.81
295.756	275.81
295.987	277.81
296.217	278.81
296.448	279.81
296.679	262.81
296.909	250.81
297.14	281.81
297.37	274.81
297.601	278.81
297.831	275.81
298.062	278.81
298.292	255.81
298.523	291.81
298.753	277.81
298.984	269.81
299.214	317.81
299.445	270.81
299.675	277.81
299.905	307.81
300.136	281.81
300.366	297.81
300.597	301.81
300.827	275.81
301.057	299.81
301.288	305.81
301.518	277.81
301.748	293.81
301.979	299.81
302.209	310.81
302.439	293.81
302.669	306.81
302.9	283.81
303.13	298.81
303.36	307.81
303.59	297.81
303.82	288.81
304.051	289.81
304.281	309.81
304.511	300.81
304.741	313.81
304.971	292.81
305.201	294.81
305.431	326.81
305.661	322.81
305.891	296.81
306.121	305.81
306.352	291.81
306.582	305.81
306.812	300.81
307.042	320.81
307.272	302.81
307.502	309.81
307.731	304.81
307.961	287.81
308.191	295.81
308.421	303.81
308.651	300.81
308.881	286.81
309.111	318.81
309.341	293.81
309.571	317.81
309.8	294.81
310.03	321.81
310.26	329.81
310.49	326.81
310.72	328.81
310.949	340.81
311.179	331.81
311.409	334.81
311.639	314.81
311.868	317.81
312.098	345.81
312.328	332.81
312.557	354.81
312.787	337.81
313.017	340.81
313.246	342.81
313.476	334.81
313.706	319.81
313.935	331.81
314.165	362.81
314.394	335.81
314.624	343.81
314.853	320.81
315.083	329.81
315.312	331.81
315.542	336.81
315.771	327.81
316.001	314.81
316.23	329.81
316.46	325.81
316.689	333.81
316.919	340.81
317.148	319.81
317.377	334.81
317.607	322.81
317.836	314.81
318.065	332.81
318.295	307.81
318.524	324.81
318.753	322.81
318.983	338.81
319.212	327.81
319.441	335.81
319.67	337.81
319.9	335.81
320.129	329.81
320.358	340.81
320.587	326.81
320.816	334.81
321.046	330.81
321.275	347.81
321.504	342.81
321.733	350.81
321.962	349.81
322.191	357.81
322.42	341.81
322.649	353.81
322.878	360.81
323.108	364.81
323.337	394.81
323.566	383.81
323.795	421.81
324.024	435.81
324.253	508.81
324.482	669.81
324.71	953.81
324.939	1309.81
325.168	1070.81
325.397	568.81
325.626	467.81
325.855	416.81
326.084	379.81
326.313	399.81
326.542	401.81
326.77	424.81
326.999	497.81
327.228	622.81
327.457	859.81
327.686	962.81
327.914	665.81
328.143	487.81
328.372	455.81
328.6	461.81
328.829	436.81
329.058	451.81
329.287	460.81
329.515	419.81
329.744	395.81
329.972	414.81
330.201	412.81
330.43	446.81
330.658	475.81
330.887	467.81
331.115	476.81
331.344	433.81
331.572	405.81
331.801	419.81
332.03	413.81
332.258	405.81
332.486	391.81
332.715	389.81
332.943	411.81
333.172	430.81
333.4	426.81
333.629	439.81
333.857	449.81
334.085	453.81
334.314	462.81
334.542	471.81
334.771	475.81
334.999	449.81
335.227	425.81
335.455	407.81
335.684	412.81
335.912	395.81
336.14	388.81
336.369	385.81
336.597	421.81
336.825	418.81
337.053	408.81
337.281	391.81
337.51	394.81
337.738	393.81
337.966	379.81
338.194	375.81
338.422	397.81
338.65	393.81
338.878	385.81
339.106	364.81
339.334	378.81
339.562	379.81
339.79	356.81
340.018	354.81
340.246	366.81
340.474	378.81
340.702	377.81
340.93	381.81
341.158	379.81
341.386	363.81
341.614	357.81
341.842	360.81
342.07	350.81
342.298	378.81
342.526	358.81
342.754	357.81
342.981	350.81
343.209	365.81
343.437	373.81
343.665	363.81
343.893	396.81
344.12	411.81
344.348	393.81
344.576	397.81
344.804	379.81
345.031	362.81
345.259	381.81
345.487	366.81
345.714	361.81
345.942	355.81
346.17	359.81
346.397	340.81
346.625	349.81
346.853	366.81
347.08	342.81
347.308	359.81
347.535	365.81
347.763	346.81
347.99	347.81
348.218	350.81
348.445	369.81
348.673	323.81
348.9	357.81
349.128	350.81
349.355	347.81
349.583	340.81
349.81	346.81
350.037	345.81
350.265	353.81
350.492	343.81
350.72	351.81
350.947	360.81
351.174	349.81
351.402	370.81
351.629	347.81
351.856	356.81
352.083	341.81
352.311	374.81
352.538	350.81
352.765	361.81
352.992	336.81
353.22	350.81
353.447	314.81
353.674	332.81
353.901	356.81
354.128	350.81
354.355	335.81
354.583	334.81
354.81	343.81
355.037	319.81
355.264	323.81
355.491	342.81
355.718	338.81
355.945	340.81
356.172	316.81
356.399	326.81
356.626	331.81
356.853	350.81
357.08	325.81
357.307	318.81
357.534	341.81
357.761	333.81
357.988	322.81
358.215	339.81
358.441	343.81
358.668	311.81
358.895	340.81
359.122	348.81
359.349	339.81
359.576	360.81
359.802	346.81
360.029	361.81
360.256	385.81
360.483	365.81
360.709	340.81
360.936	357.81
361.163	355.81
361.39	333.81
361.616	361.81
361.843	344.81
362.07	335.81
362.296	366.81
362.523	367.81
362.749	340.81
362.976	346.81
363.203	348.81
363.429	349.81
363.656	331.81
363.882	316.81
364.109	339.81
364.335	347.81
364.562	353.81
364.788	341.81
365.015	327.81
365.241	344.81
365.468	349.81
365.694	350.81
365.92	355.81
366.147	341.81
366.373	333.81
366.599	350.81
366.826	355.81
367.052	306.81
367.278	342.81
367.505	348.81
367.731	342.81
367.957	340.81
368.184	342.81
368.41	350.81
368.636	357.81
368.862	335.81
369.089	340.81
369.315	347.81
369.541	328.81
369.767	341.81
369.993	350.81
370.219	325.81
370.445	348.81
370.672	337.81
370.898	334.81
371.124	340.81
371.35	343.81
371.576	341.81
371.802	334.81
372.028	347.81
372.254	345.81
372.48	342.81
372.706	345.81
372.932	351.81
373.158	350.81
373.384	340.81
373.61	353.81
373.835	343.81
374.061	354.81
374.287	353.81
374.513	351.81
374.739	363.81
374.965	361.81
375.191	375.81
375.416	363.81
375.642	351.81
375.868	348.81
376.094	356.81
376.319	349.81
376.545	350.81
376.771	306.81
376.997	328.81
377.222	337.81
377.448	342.81
377.674	332.81
377.899	346.81
378.125	340.81
378.35	352.81
378.576	332.81
378.802	330.81
379.027	326.81
379.253	342.81
379.478	347.81
379.704	352.81
379.929	336.81
380.155	345.81
380.38	338.81
380.606	328.81
380.831	349.81
381.057	347.81
381.282	362.81
381.507	342.81
381.733	353.81
381.958	357.81
382.184	331.81
382.409	363.81
382.634	342.81
382.86	354.81
383.085	357.81
383.31	356.81
383.535	364.81
383.761	365.81
383.986	376.81
384.211	358.81
384.436	379.81
384.662	361.81
384.887	369.81
385.112	383.81
385.337	370.81
385.562	379.81
385.787	384.81
386.013	388.81
386.238	371.81
386.463	389.81
386.688	409.81
386.913	383.81
387.138	377.81
387.363	390.81
387.588	389.81
387.813	388.81
388.038	382.81
388.263	383.81
388.488	374.81
388.713	376.81
388.938	395.81
389.163	379.81
389.387	378.81
389.612	376.81
389.837	391.81
390.062	367.81
390.287	360.81
390.512	373.81
390.736	387.81
390.961	383.81
391.186	375.81
391.411	381.81
391.636	389.81
391.86	394.81
392.085	401.81
392.31	390.81
392.534	386.81
392.759	411.81
392.984	387.81
393.208	410.81
393.433	399.81
393.658	387.81
393.882	376.81
394.107	381.81
394.331	390.81
394.556	395.81
394.78	377.81
395.005	375.81
395.229	399.81
395.454	423.81
395.678	425.81
395.903	403.81
396.127	400.81
396.352	410.81
396.576	410.81
396.801	408.81
397.025	387.81
397.249	409.81
397.474	409.81
397.698	426.81
397.922	437.81
398.147	426.81
398.371	424.81
398.595	435.81
398.82	449.81
399.044	469.81
399.268	501.81
399.492	544.81
399.717	574.81
399.941	551.81
400.165	551.81
400.389	554.81
400.613	499.81
400.837	466.81
401.062	435.81
401.286	462.81
401.51	421.81
401.734	456.81
401.958	449.81
402.182	443.81
402.406	447.81
402.63	466.81
402.854	460.81
403.078	462.81
403.302	473.81
403.526	483.81
403.75	490.81
403.974	468.81
404.198	469.81
404.422	489.81
404.645	488.81
404.869	493.81
405.093	475.81
405.317	531.81
405.541	529.81
405.765	488.81
405.988	505.81
406.212	513.81
406.436	490.81
406.66	533.81
406.883	481.81
407.107	509.81
407.331	552.81
407.555	601.81
407.778	593.81
408.002	564.81
408.226	534.81
408.449	506.81
408.673	516.81
408.896	517.81
409.12	507.81
409.344	522.81
409.567	486.81
409.791	476.81
410.014	456.81
410.238	443.81
410.461	480.81
410.685	456.81
410.908	477.81
411.132	489.81
411.355	488.81
411.578	489.81
411.802	457.81
412.025	455.81
412.249	456.81
412.472	499.81
412.695	504.81
412.919	479.81
413.142	463.81
413.365	458.81
413.589	446.81
413.812	429.81
414.035	451.81
414.258	447.81
414.482	447.81
414.705	450.81
414.928	449.81
415.151	454.81
415.374	428.81
415.597	442.81
415.821	429.81
416.044	422.81
416.267	444.81
416.49	436.81
416.713	436.81
416.936	444.81
417.159	441.81
417.382	434.81
417.605	453.81
417.828	465.81
418.051	467.81
418.274	461.81
418.497	451.81
418.72	442.81
418.943	443.81
419.166	466.81
419.389	481.81
419.611	471.81
419.834	463.81
420.057	460.81
420.28	460.81
420.503	439.81
420.726	438.81
420.948	450.81
421.171	480.81
421.394	501.81
421.617	454.81
421.839	439.81
422.062	444.81
422.285	431.81
422.507	484.81
422.73	532.81
422.953	527.81
423.175	487.81
423.398	474.81
423.621	469.81
423.843	498.81
424.066	509.81
424.288	477.81
424.511	499.81
424.733	526.81
424.956	553.81
425.178	544.81
425.401	573.81
425.623	554.81
425.846	486.81
426.068	464.81
426.291	444.81
426.513	472.81
426.735	478.81
426.958	464.81
427.18	530.81
427.402	604.81
427.625	652.81
427.847	570.81
428.069	518.81
428.292	469.81
428.514	453.81
428.736	439.81
428.958	434.81
429.181	418.81
429.403	408.81
429.625	441.81
429.847	442.81
430.069	493.81
430.292	455.81
430.514	434.81
430.736	413.81
430.958	414.81
431.18	401.81
431.402	403.81
431.624	402.81
431.846	410.81
432.068	395.81
432.29	407.81
432.512	411.81
432.734	433.81
432.956	430.81
433.178	421.81
433.4	447.81
433.622	403.81
433.844	429.81
434.066	413.81
434.287	426.81
434.509	412.81
434.731	432.81
434.953	439.81
435.175	435.81
435.397	461.81
435.618	462.81
435.84	465.81
436.062	521.81
436.284	552.81
436.505	469.81
436.727	441.81
436.949	439.81
437.17	413.81
437.392	421.81
437.614	433.81
437.835	460.81
438.057	497.81
438.278	554.81
438.5	541.81
438.721	592.81
438.943	578.81
439.165	499.81
439.386	465.81
439.608	466.81
439.829	458.81
440.05	450.81
440.272	483.81
440.493	469.81
440.715	431.81
440.936	441.81
441.158	447.81
441.379	466.81
441.6	462.81
441.822	487.81
442.043	502.81
442.264	525.81
442.486	548.81
442.707	491.81
442.928	472.81
443.149	493.81
443.371	519.81
443.592	510.81
443.813	569.81
444.034	619.81
444.255	521.81
444.476	486.81
444.698	514.81
444.919	511.81
445.14	571.81
445.361	547.81
445.582	501.81
445.803	530.81
446.024	570.81
446.245	571.81
446.466	533.81
446.687	483.81
446.908	466.81
447.129	442.81
447.35	438.81
447.571	422.81
447.792	418.81
448.013	414.81
448.234	430.81
448.455	472.81
448.675	537.81
448.896	574.81
449.117	506.81
449.338	497.81
449.559	525.81
449.779	612.81
450	502.81
450.221	440.81
450.442	421.81
450.662	411.81
450.883	411.81
451.104	426.81
451.324	422.81
451.545	399.81
451.766	396.81
451.986	391.81
452.207	393.81
452.428	397.81
452.648	387.81
452.869	386.81
453.089	398.81
453.31	408.81
453.53	384.81
453.751	376.81
453.971	385.81
454.192	385.81
454.412	373.81
454.633	364.81
454.853	391.81
455.073	376.81
455.294	398.81
455.514	448.81
455.734	429.81
455.955	385.81
456.175	371.81
456.395	363.81
456.616	344.81
456.836	359.81
457.056	356.81
457.276	362.81
457.497	358.81
457.717	359.81
457.937	377.81
458.157	355.81
458.377	358.81
458.598	392.81
458.818	425.81
459.038	493.81
459.258	482.81
459.478	424.81
459.698	414.81
459.918	419.81
460.138	445.81
460.358	443.81
460.578	445.81
460.798	461.81
461.018	444.81
461.238	429.81
461.458	434.81
461.678	463.81
461.898	424.81
462.118	448.81
462.338	453.81
462.558	468.81
462.777	463.81
462.997	503.81
463.217	525.81
463.437	523.81
463.657	493.81
463.876	495.81
464.096	474.81
464.316	474.81
464.536	470.81
464.755	473.81
464.975	462.81
465.195	477.81
465.414	514.81
465.634	453.81
465.854	421.81
466.073	412.81
466.293	397.81
466.512	404.81
466.732	387.81
466.951	392.81
467.171	391.81
467.391	400.81
467.61	407.81
467.829	397.81
468.049	388.81
468.268	399.81
468.488	406.81
468.707	377.81
468.927	403.81
469.146	394.81
469.365	394.81
469.585	419.81
469.804	408.81
470.023	385.81
470.243	389.81
470.462	420.81
470.681	427.81
470.901	419.81
471.12	410.81
471.339	416.81
471.558	416.81
471.777	400.81
471.997	394.81
472.216	421.81
472.435	433.81
472.654	418.81
472.873	397.81
473.092	385.81
473.311	379.81
473.53	389.81
473.749	402.81
473.968	426.81
474.187	486.81
474.406	481.81
474.625	435.81
474.844	409.81
475.063	401.81
475.282	408.81
475.501	407.81
475.72	406.81
475.939	418.81
476.158	420.81
476.377	417.81
476.596	401.81
476.814	401.81
477.033	430.81
477.252	421.81
477.471	421.81
477.69	433.81
477.908	448.81
478.127	454.81
478.346	442.81
478.564	456.81
478.783	466.81
479.002	461.81
479.22	461.81
479.439	470.81
479.658	472.81
479.876	481.81
480.095	481.81
480.313	511.81
480.532	503.81
480.751	506.81
480.969	506.81
481.188	546.81
481.406	546.81
481.624	490.81
481.843	463.81
482.061	455.81
482.28	457.81
482.498	469.81
482.717	469.81
482.935	461.81
483.153	459.81
483.372	446.81
483.59	467.81
483.808	457.81
484.027	449.81
484.245	436.81
484.463	449.81
484.681	481.81
484.9	472.81
485.118	457.81
485.336	473.81
485.554	459.81
485.772	471.81
485.99	479.81
486.209	485.81
486.427	465.81
486.645	475.81
486.863	491.81
487.081	502.81
487.299	480.81
487.517	489.81
487.735	499.81
487.953	501.81
488.171	493.81
488.389	481.81
488.607	483.81
488.825	508.81
489.043	484.81
489.261	491.81
489.479	472.81
489.696	485.81
489.914	504.81
490.132	486.81
490.35	512.81
490.568	528.81
490.786	538.81
491.003	494.81
491.221	532.81
491.439	553.81
491.657	542.81
491.874	566.81
492.092	564.81
492.31	558.81
492.527	553.81
492.745	558.81
492.963	559.81
493.18	571.81
493.398	557.81
493.615	566.81
493.833	589.81
494.05	589.81
494.268	566.81
494.485	581.81
494.703	573.81
494.92	583.81
495.138	584.81
495.355	582.81
495.573	574.81
495.79	591.81
496.008	565.81
496.225	573.81
496.442	555.81
496.66	589.81
496.877	575.81
497.094	571.81
497.312	573.81
497.529	598.81
497.746	601.81
497.963	621.81
498.181	647.81
498.398	663.81
498.615	639.81
498.832	687.81
499.049	693.81
499.267	746.81
499.484	784.81
499.701	826.81
499.918	856.81
500.135	912.81
500.352	1002.81
500.569	1022.81
500.786	1002.81
501.003	990.81
501.22	946.81
501.437	852.81
501.654	809.81
501.871	779.81
502.088	749.81
